scanname Analyse005
timestamp 2017-02-10 19:53:11
ccdbias 907.934082
ccdgain 3.473401
sigmaread 8.960639
laserwavenum -0.566858
wavenumcorrection -0.043894
scancount 1
totalexposurems 10000
singleexposurems 10000
measurementstate Unknown
scanmode Manual
snr 84.418816 0.906455 0.506947
replacelist 0
peaks 5
807.065674 0.193315 0.000000 0.114798 0.000044
840.335754 0.189674 0.000000 0.074197 0.000011
1318.753174 0.170568 0.000000 7.277793 0.001988
1457.488037 0.142402 0.000000 0.147001 0.000036
1555.734131 0.131208 0.000000 0.091360 0.000028
finalresult GLS_Multiple 90
A13180	Polypropylene (lot B)	2.390473e-001
A0115	Polypropylene	2.382594e-001
A7387	4-Hydroxypiperidine	2.285431e-001
A3222	Potassium nitrite	2.283075e-001
A3573	Ammonium tartrate dibasic	2.247266e-001
A4025	2,4-Dimethylpentane	2.228814e-001
A2017	Isopropylamine	2.217290e-001
A9321	Methyl 2-hydroxyisobutyrate	2.207406e-001
A14069	(R)-(-)-1,2-Propanediol	2.198893e-001
A6700	4'-Methoxypropiophenone	2.195911e-001
A0518	Propylene glycol	2.193668e-001
A0098	Roundup (weed and grass killer)	2.188118e-001
A1519	Butyl vinyl ether	2.186599e-001
A13507	Poly(methyl methacrylate-co-ethyl acrylate)	2.176290e-001
A1531	Ethyl formate	2.173844e-001
A11885	Poly(methyl methacrylate-co-butyl methacrylate)	2.169695e-001
A9092	p-Tolyl ether	2.163458e-001
A1149	Methyl 2-aminobenzoate	2.163274e-001
A2721	Formaldehyde diethyl acetal	2.163156e-001
A9546	4-Methoxy-alpha-methylbenzyl alcohol	2.162968e-001
A1754	N,N-Dimethylhydrazine	2.161890e-001
A11366	4-Isopropylanisole	2.160680e-001
A10296	Tri(ethylene glycol) divinyl ether	2.158452e-001
A10674	Dibutyl succinate	2.157616e-001
A2703	Acetaldehyde dimethyl acetal	2.156699e-001
A6290	Bis(2,2,2-trifluoroethyl) phosphite	2.152298e-001
A0524	Propionic acid	2.149838e-001
A1270	Methyl DL-lactate	2.147994e-001
A8360	5-Chloro-2-nitroaniline	2.146216e-001
A11872	Poly(methyl methacrylate)	2.145574e-001
A4722	1,3-Dicyclohexylurea	2.141745e-001
A7633	2-Nitro-p-cymene	2.141611e-001
A10529	1-Formylpiperazine	2.140887e-001
A3285	4,N,N-Trimethylaniline	2.138008e-001
A11767	Di(ethylene glycol) vinyl ether	2.137132e-001
A13820	(-)-Methyl L-lactate	2.134543e-001
A2413	Sodium selenate	2.134367e-001
A0199	Isobutyric acid	2.132944e-001
A0761	N,N,N',N'-Tetrakis(2-Hydroxypropyl)ethylenediamine	2.132944e-001
A2839	5-Azacytidine	2.132852e-001
A8610	5-Methyl-2-pyrrolidinone	2.129654e-001
A0138	Dibutyl ether	2.128526e-001
A1676	Trifluoroacetic acid	2.125351e-001
A3362	2-Nitro-para-xylene	2.124985e-001
A4543	1,4-Butanediol divinyl ether	2.124487e-001
A1871	Methyl salicylate	2.124251e-001
A7225	Dibutyl adipate	2.123338e-001
A11696	1-(4-Methylphenyl)piperazine	2.116874e-001
A7942	4-Chlorophenoxyacetyl chloride	2.114388e-001
A6278	6-Methylnicotinamide	2.113828e-001
A2313	Barium peroxide	2.113692e-001
A4645	1-Bromo-4-(trifluoromethoxy)benzene	2.112948e-001
A9660	3-(4-Methoxybenzoyl)propionic acid	2.112948e-001
A5310	4-Methyl-3-nitroanisole	2.108096e-001
A2197	Isopropyl chloroacetate	2.106389e-001
A2098	Diethylene glycol dibutyl ether	2.106222e-001
A0793	Tris(2-methoxyethoxy)(vinyl)silane	2.105862e-001
A3653	(R)-(+)-3-Methylcyclopentanone	2.104272e-001
A2210	Calcium peroxide hydrate	2.104272e-001
A0587	Triethylene glycol monobutyl ether	2.102548e-001
A1224	Poly(ethylene glycol) butyl ether	2.101871e-001
A0154	Methacrylic acid	2.100966e-001
A0369	2,4,6-Tribromophenol	2.100815e-001
A9244	Bis(4-methoxyphenyl)phosphinic acid	2.100393e-001
A0400	Potassium permanganate	2.100025e-001
A2225	Diethylene glycol butyl ether	2.099247e-001
A10066	2,5-Lutidine	2.099153e-001
A0365	Tris(2-butoxyethyl) phosphate	2.099003e-001
A5377	4-Methyl-2-nitroanisole	2.098402e-001
A7284	4-Chloro-3,5-dinitrobenzoic acid	2.097701e-001
A2727	Acrolein diethyl acetal	2.097549e-001
A5890	5-Nitroisoquinoline	2.096395e-001
A6574	4-tert-Butylbenzoic acid	2.095287e-001
A5382	3-Methoxypropionic acid	2.095252e-001
A8663	4-Methyl-3,5-dinitrobenzoic acid	2.094826e-001
A10210	tert-Butyl isothiocyanate	2.094295e-001
A8580	Sodium permanganate solution	2.094070e-001
A3574	Sodium hexanitrocobaltate(III)	2.092510e-001
A1547	Isovaleric acid	2.092422e-001
A0544	1,4-Dioxane	2.091852e-001
A7001	Creatine	2.090869e-001
A9071	Sodium trimethylacetate hydrate	2.089424e-001
A8178	N,N'-Diisopropylethylenediamine	2.089253e-001
A14340	Titanium(IV) fluoride	2.085296e-001
A7641	2-Piperidinemethanol	2.085296e-001
A5525	2-Methylene-1,3-propanediol	2.085094e-001
A3625	1-Dimethylamino-2-propanol	2.084724e-001
A11145	1,3-Cyclopentanediol	2.084137e-001
A9484	S-(+)-2-Amino-1-propanol	2.074379e-001
A2630	DL-Alaninol	2.073454e-001
spectrum 2048
-97.034599 45267.000000
-94.407730 45267.000000
-91.782738 45959.000000
-89.159637 46031.000000
-86.538406 46933.000000
-83.919075 46743.000000
-81.301605 47059.000000
-78.686012 46794.000000
-76.072296 47125.000000
-73.460457 47425.000000
-70.850479 47346.000000
-68.242386 47530.000000
-65.636139 47607.000000
-63.031765 47594.000000
-60.429256 47455.000000
-57.828602 48008.000000
-55.229809 47384.000000
-52.632874 46758.000000
-50.037792 47124.000000
-47.444565 47054.000000
-44.853188 47340.000000
-42.263657 46888.000000
-39.675968 47652.000000
-37.090130 47483.000000
-34.506134 47008.000000
-31.923977 47848.000000
-29.343664 47208.000000
-26.765179 47717.000000
-24.188536 47273.000000
-21.613718 47117.000000
-19.040741 46892.000000
-16.469584 46860.000000
-13.900260 46563.000000
-11.332762 45483.000000
-8.767082 46959.000000
-6.203228 46749.000000
-3.641188 47131.000000
-1.080972 47122.000000
1.477436 46463.000000
4.034023 45770.000000
6.588805 45846.000000
9.141770 46195.000000
11.692935 44820.000000
14.242287 44430.000000
16.789843 43583.000000
19.335587 43892.000000
21.879538 43410.000000
24.421684 41037.000000
26.962034 39007.000000
29.500599 36042.000000
32.037369 32119.000000
34.572334 19959.000000
37.105522 11071.000000
39.636929 8330.000000
42.166542 7680.000000
44.694359 7421.000000
47.220417 6666.000000
49.744686 5753.000000
52.267185 5152.000000
54.787888 4759.000000
57.306835 4978.000000
59.824009 5721.000000
62.339405 7007.000000
64.853020 7931.000000
67.364883 7797.000000
69.875000 5915.000000
72.383324 3978.000000
74.889893 3153.000000
77.394714 2673.000000
79.897781 2303.000000
82.399071 2177.000000
84.898621 1889.000000
87.396416 1882.000000
89.892479 2246.000000
92.386765 2871.000000
94.879311 3137.000000
97.370140 2813.000000
99.859200 2188.000000
102.346512 1819.000000
104.832100 1547.000000
107.315948 1513.000000
109.798050 1367.000000
112.278427 1260.000000
114.757080 1123.000000
117.234009 1042.000000
119.709183 1090.000000
122.182648 1022.000000
124.654381 1023.000000
127.124405 1065.000000
129.592682 1095.000000
132.059280 1124.000000
134.524124 1029.000000
136.987274 1166.000000
139.448685 1237.000000
141.908401 1450.000000
144.366394 1743.000000
146.822693 1962.000000
149.277283 2304.000000
151.730148 2537.000000
154.181335 3019.000000
156.630829 3505.000000
159.078598 4128.000000
161.524658 4799.000000
163.969040 5330.000000
166.411743 6019.000000
168.852753 6566.000000
171.292053 6897.000000
173.729645 7053.000000
176.165604 7401.000000
178.599823 7373.000000
181.032364 7471.000000
183.463257 7527.000000
185.892426 7526.000000
188.319946 7594.000000
190.745789 7662.000000
193.169952 7710.000000
195.592453 7715.000000
198.013260 7884.000000
200.432404 8095.000000
202.849884 8273.000000
205.265671 8633.000000
207.679810 8919.000000
210.092316 9353.000000
212.503143 9782.000000
214.912292 10382.000000
217.319809 11046.000000
219.725616 11714.000000
222.129837 12423.000000
224.532349 12924.000000
226.933243 13331.000000
229.332489 13797.000000
231.730072 14051.000000
234.125992 14146.000000
236.520294 14268.000000
238.912933 14394.000000
241.303955 14497.000000
243.693314 14451.000000
246.081055 14564.000000
248.467148 14535.000000
250.851608 14599.000000
253.234421 14538.000000
255.615662 14634.000000
257.995178 14609.000000
260.373138 14497.000000
262.749420 14513.000000
265.124146 14452.000000
267.497223 14352.000000
269.868652 14558.000000
272.238434 14450.000000
274.606659 14494.000000
276.973236 14524.000000
279.338226 14468.000000
281.701599 14485.000000
284.063324 14488.000000
286.423462 14419.000000
288.781982 14444.000000
291.138916 14453.000000
293.494232 14637.000000
295.847961 14604.000000
298.200043 14407.000000
300.550568 14484.000000
302.899506 14443.000000
305.246796 14327.000000
307.592560 14483.000000
309.936646 14306.000000
312.279205 14145.000000
314.620148 14163.000000
316.959473 14185.000000
319.297241 14234.000000
321.633453 14044.000000
323.968018 14113.000000
326.301025 14062.000000
328.632477 14082.000000
330.962341 13957.000000
333.290619 14000.000000
335.617279 13962.000000
337.942444 13961.000000
340.265991 14041.000000
342.587982 13994.000000
344.908417 13792.000000
347.227234 13709.000000
349.544495 13825.000000
351.860229 13775.000000
354.174377 13749.000000
356.486938 13876.000000
358.797943 13811.000000
361.107422 13778.000000
363.415375 13905.000000
365.721710 13842.000000
368.026459 13792.000000
370.329742 13714.000000
372.631409 13899.000000
374.931580 13715.000000
377.230194 13848.000000
379.527252 13901.000000
381.822754 13928.000000
384.116730 13878.000000
386.409119 14111.000000
388.700012 13923.000000
390.989380 14010.000000
393.277161 14169.000000
395.563416 14192.000000
397.848175 14235.000000
400.131317 14237.000000
402.413025 14296.000000
404.693207 14314.000000
406.971802 14160.000000
409.248871 14095.000000
411.524414 14047.000000
413.798431 13984.000000
416.071014 13964.000000
418.341980 13973.000000
420.611450 13943.000000
422.879425 13946.000000
425.145844 13879.000000
427.410767 13855.000000
429.674225 13775.000000
431.936096 13638.000000
434.196503 13583.000000
436.455353 13662.000000
438.712738 13662.000000
440.968628 13665.000000
443.223022 13533.000000
445.475891 13473.000000
447.727203 13407.000000
449.977112 13284.000000
452.225433 13275.000000
454.472321 13242.000000
456.717743 13201.000000
458.961609 13151.000000
461.203979 13308.000000
463.444855 13121.000000
465.684326 13116.000000
467.922211 13265.000000
470.158661 13211.000000
472.393585 13056.000000
474.627045 13106.000000
476.859070 13008.000000
479.089569 12890.000000
481.318573 12967.000000
483.546112 12919.000000
485.772156 12755.000000
487.996765 12907.000000
490.219910 12812.000000
492.441589 12837.000000
494.661713 13041.000000
496.880432 12889.000000
499.097656 13046.000000
501.313507 12976.000000
503.527740 13050.000000
505.740662 13118.000000
507.951996 13107.000000
510.161896 12984.000000
512.370361 13061.000000
514.577454 13168.000000
516.782959 13000.000000
518.987061 13142.000000
521.189636 12996.000000
523.390808 13089.000000
525.590637 13019.000000
527.788940 13068.000000
529.985718 12897.000000
532.181152 12931.000000
534.375061 12954.000000
536.567627 12802.000000
538.758667 12844.000000
540.948303 12795.000000
543.136536 12645.000000
545.323242 12664.000000
547.508484 12332.000000
549.692444 12500.000000
551.874817 12269.000000
554.055847 12354.000000
556.235352 12272.000000
558.413574 12239.000000
560.590271 12216.000000
562.765564 12031.000000
564.939453 12105.000000
567.111877 12047.000000
569.282898 12079.000000
571.452454 12193.000000
573.620728 12063.000000
575.787476 12023.000000
577.952759 12126.000000
580.116638 12018.000000
582.279236 12143.000000
584.440308 12085.000000
586.599976 12139.000000
588.758301 12055.000000
590.915100 12143.000000
593.070557 12151.000000
595.224609 12286.000000
597.377319 12162.000000
599.528503 12067.000000
601.678345 12250.000000
603.826843 12078.000000
605.973755 12176.000000
608.119446 12320.000000
610.263733 12158.000000
612.406555 12129.000000
614.547913 12272.000000
616.688049 12109.000000
618.826660 11984.000000
620.963989 12257.000000
623.099854 12046.000000
625.234314 12073.000000
627.367310 11858.000000
629.499146 11849.000000
631.629517 11801.000000
633.758484 11968.000000
635.885986 11874.000000
638.012207 11620.000000
640.136902 11637.000000
642.260376 11617.000000
644.382507 11559.000000
646.503174 11456.000000
648.622498 11437.000000
650.740417 11521.000000
652.856995 11545.000000
654.972168 11435.000000
657.085999 11171.000000
659.198364 11379.000000
661.309509 11187.000000
663.419250 11189.000000
665.527527 11338.000000
667.634644 11297.000000
669.740295 11226.000000
671.844482 11146.000000
673.947449 11098.000000
676.049011 11208.000000
678.149231 11359.000000
680.248047 11280.000000
682.345520 11331.000000
684.441711 11264.000000
686.536438 11416.000000
688.629944 11253.000000
690.722107 11264.000000
692.812744 11413.000000
694.902161 11512.000000
696.990295 11561.000000
699.076965 11559.000000
701.162415 11493.000000
703.246338 11378.000000
705.329041 11452.000000
707.410461 11290.000000
709.490417 11059.000000
711.569153 10797.000000
713.646423 10733.000000
715.722412 10860.000000
717.797119 10751.000000
719.870544 10638.000000
721.942444 11046.000000
724.013184 10945.000000
726.082581 10856.000000
728.150574 10830.000000
730.217224 10720.000000
732.282654 10596.000000
734.346741 10655.000000
736.409485 10612.000000
738.470886 10568.000000
740.531006 10552.000000
742.589722 10472.000000
744.647217 10443.000000
746.703430 10476.000000
748.758240 10311.000000
750.811768 10356.000000
752.863892 10403.000000
754.914795 10335.000000
756.964478 10156.000000
759.012695 10297.000000
761.059692 10360.000000
763.105408 10099.000000
765.149719 10194.000000
767.192749 10336.000000
769.234558 9754.000000
771.275024 10284.000000
773.314087 10250.000000
775.351990 10145.000000
777.388550 10280.000000
779.423889 10372.000000
781.457886 10383.000000
783.490479 10344.000000
785.521912 10343.000000
787.551941 10087.000000
789.580688 10268.000000
791.608276 10405.000000
793.634521 10361.000000
795.659363 10291.000000
797.683105 10499.000000
799.705444 10564.000000
801.726563 10415.000000
803.746338 10662.000000
805.764832 10705.000000
807.782104 10629.000000
809.797974 10633.000000
811.812683 10689.000000
813.826050 10472.000000
815.838196 10265.000000
817.849121 10239.000000
819.858704 10106.000000
821.867065 10021.000000
823.874023 9999.000000
825.879761 10047.000000
827.884277 9989.000000
829.887512 9763.000000
831.889465 9754.000000
833.890137 9787.000000
835.889587 9738.000000
837.887695 9735.000000
839.884705 9855.000000
841.880310 9813.000000
843.874756 9770.000000
845.867859 9796.000000
847.859741 9562.000000
849.850281 9494.000000
851.839539 9559.000000
853.827759 9456.000000
855.814575 9417.000000
857.800171 9352.000000
859.784485 9359.000000
861.767700 9150.000000
863.749512 9404.000000
865.730103 9418.000000
867.709412 9171.000000
869.687561 9154.000000
871.664368 9347.000000
873.639893 9308.000000
875.614380 9509.000000
877.587402 9562.000000
879.559387 9567.000000
881.530029 9641.000000
883.499512 9629.000000
885.467651 9743.000000
887.434631 9628.000000
889.400269 9574.000000
891.364746 9430.000000
893.328003 9446.000000
895.290039 9458.000000
897.250793 9356.000000
899.210327 9488.000000
901.168579 9301.000000
903.125732 9200.000000
905.081726 9341.000000
907.036316 9299.000000
908.989685 9261.000000
910.941895 9273.000000
912.892883 9215.000000
914.842590 8979.000000
916.791138 9098.000000
918.738464 9069.000000
920.684509 8902.000000
922.629272 8782.000000
924.572998 8614.000000
926.515564 8468.000000
928.456848 8493.000000
930.396790 8429.000000
932.335632 8327.000000
934.273193 8372.000000
936.209534 8143.000000
938.144714 8261.000000
940.078613 8342.000000
942.011414 8307.000000
943.942993 8239.000000
945.873413 8274.000000
947.802612 8411.000000
949.730469 8252.000000
951.657288 8386.000000
953.582825 8310.000000
955.507080 8405.000000
957.430237 8383.000000
959.352234 8411.000000
961.272949 8440.000000
963.192505 8424.000000
965.110901 8521.000000
967.028259 8499.000000
968.944153 8630.000000
970.858948 8499.000000
972.772522 8583.000000
974.684937 8582.000000
976.596130 8534.000000
978.506165 8560.000000
980.414917 8557.000000
982.322632 8354.000000
984.229126 8485.000000
986.134399 8552.000000
988.038574 8424.000000
989.941528 8334.000000
991.843262 8359.000000
993.743835 8510.000000
995.643250 8493.000000
997.541443 8285.000000
999.438477 8220.000000
1001.334290 8099.000000
1003.228943 7968.000000
1005.122498 8025.000000
1007.014771 7842.000000
1008.906128 7884.000000
1010.796143 7777.000000
1012.684937 7633.000000
1014.572571 7629.000000
1016.459045 7709.000000
1018.344360 7632.000000
1020.228516 7546.000000
1022.111450 7603.000000
1023.993347 7654.000000
1025.874023 7582.000000
1027.753540 7592.000000
1029.632080 7644.000000
1031.509277 7557.000000
1033.385132 7604.000000
1035.260010 7652.000000
1037.133911 7503.000000
1039.006348 7677.000000
1040.877808 7626.000000
1042.747925 7656.000000
1044.617065 7548.000000
1046.484985 7598.000000
1048.351807 7285.000000
1050.217529 7612.000000
1052.082031 7743.000000
1053.945435 7697.000000
1055.807495 7788.000000
1057.668579 7642.000000
1059.528564 7644.000000
1061.387207 7723.000000
1063.244751 7503.000000
1065.101196 7572.000000
1066.956543 7789.000000
1068.810669 7668.000000
1070.663940 7590.000000
1072.515747 7629.000000
1074.366577 7628.000000
1076.216187 7702.000000
1078.064575 7604.000000
1079.912109 7612.000000
1081.758301 7630.000000
1083.603271 7599.000000
1085.447388 7637.000000
1087.290161 7428.000000
1089.131714 7477.000000
1090.972534 7485.000000
1092.811768 7274.000000
1094.650269 7470.000000
1096.487427 7317.000000
1098.323364 7355.000000
1100.158325 7029.000000
1101.992065 7039.000000
1103.824829 7069.000000
1105.656250 7045.000000
1107.486816 7218.000000
1109.316040 7014.000000
1111.144287 6803.000000
1112.971313 6729.000000
1114.797363 6930.000000
1116.622192 6869.000000
1118.445923 6736.000000
1120.268433 6810.000000
1122.089844 6707.000000
1123.910400 6776.000000
1125.729492 6738.000000
1127.547729 6821.000000
1129.364624 6963.000000
1131.180664 6793.000000
1132.995483 6747.000000
1134.809204 6788.000000
1136.621826 6890.000000
1138.433228 6879.000000
1140.243652 6978.000000
1142.052979 7033.000000
1143.860962 7092.000000
1145.668213 7083.000000
1147.473999 7070.000000
1149.278931 7061.000000
1151.082764 7106.000000
1152.885376 7200.000000
1154.687134 7051.000000
1156.487427 7105.000000
1158.286743 7107.000000
1160.085083 7109.000000
1161.882080 7032.000000
1163.678345 6911.000000
1165.473267 6897.000000
1167.267090 6783.000000
1169.060059 6831.000000
1170.851685 6725.000000
1172.642334 6662.000000
1174.432007 6650.000000
1176.220215 6634.000000
1178.007568 6589.000000
1179.793823 6578.000000
1181.578979 6576.000000
1183.363037 6480.000000
1185.145996 6520.000000
1186.927979 6481.000000
1188.708740 6616.000000
1190.488525 6475.000000
1192.267212 6359.000000
1194.044922 6471.000000
1195.821411 6341.000000
1197.596802 6321.000000
1199.371094 6234.000000
1201.144287 6170.000000
1202.916626 6150.000000
1204.687622 6005.000000
1206.457764 6182.000000
1208.226685 6165.000000
1209.994507 6108.000000
1211.761475 6095.000000
1213.527100 6018.000000
1215.291748 6097.000000
1217.055298 6037.000000
1218.817749 6100.000000
1220.579346 6033.000000
1222.339722 5964.000000
1224.098999 5966.000000
1225.857422 5857.000000
1227.614624 5940.000000
1229.370728 6090.000000
1231.125732 6012.000000
1232.879883 6080.000000
1234.632690 6075.000000
1236.384521 6071.000000
1238.135498 6143.000000
1239.885132 6096.000000
1241.633911 6104.000000
1243.381348 6075.000000
1245.128052 6254.000000
1246.873535 6098.000000
1248.618164 6224.000000
1250.361450 6232.000000
1252.103760 6105.000000
1253.844971 6000.000000
1255.585327 6057.000000
1257.324585 5935.000000
1259.062622 5847.000000
1260.799805 5742.000000
1262.535767 5653.000000
1264.270752 5902.000000
1266.004761 5850.000000
1267.737793 5997.000000
1269.469604 5999.000000
1271.200439 6082.000000
1272.930054 6101.000000
1274.658813 6115.000000
1276.386475 6074.000000
1278.113037 6070.000000
1279.838745 6188.000000
1281.563110 6041.000000
1283.286621 6110.000000
1285.009155 6068.000000
1286.730713 6060.000000
1288.451050 5992.000000
1290.170410 6114.000000
1291.888672 5880.000000
1293.605957 5960.000000
1295.322266 6007.000000
1297.037354 6024.000000
1298.751465 5985.000000
1300.464600 5988.000000
1302.176880 5833.000000
1303.887939 5801.000000
1305.598022 5845.000000
1307.307007 5743.000000
1309.014771 5749.000000
1310.721924 5662.000000
1312.427612 5614.000000
1314.132568 5635.000000
1315.836548 5641.000000
1317.539307 5763.000000
1319.241089 5789.000000
1320.942017 5787.000000
1322.641602 9207.000000
1324.340332 1870.000000
1326.038330 5527.000000
1327.734985 5565.000000
1329.430542 5458.000000
1331.125244 5533.000000
1332.818726 5547.000000
1334.511353 5546.000000
1336.203125 5489.000000
1337.893555 5412.000000
1339.583252 5390.000000
1341.271851 5274.000000
1342.959351 5404.000000
1344.645874 5237.000000
1346.331299 5293.000000
1348.015747 5169.000000
1349.699341 5332.000000
1351.381714 5288.000000
1353.063110 5381.000000
1354.743652 5434.000000
1356.422974 5571.000000
1358.101685 5544.000000
1359.779053 5509.000000
1361.455322 5738.000000
1363.130615 5739.000000
1364.805176 5658.000000
1366.478516 5668.000000
1368.150879 5530.000000
1369.822266 5635.000000
1371.492676 5610.000000
1373.161987 5497.000000
1374.830322 5556.000000
1376.497803 5596.000000
1378.164185 5438.000000
1379.829590 5428.000000
1381.494019 5486.000000
1383.157227 5428.000000
1384.819824 5340.000000
1386.481079 5331.000000
1388.141479 5369.000000
1389.800781 5297.000000
1391.459106 5237.000000
1393.116699 5157.000000
1394.773071 5234.000000
1396.428589 5203.000000
1398.082886 5238.000000
1399.736328 5190.000000
1401.388672 5158.000000
1403.040283 5288.000000
1404.690674 5123.000000
1406.339966 4992.000000
1407.988525 5016.000000
1409.635986 4847.000000
1411.282471 4847.000000
1412.928101 4926.000000
1414.572754 4792.000000
1416.216187 4895.000000
1417.858765 4702.000000
1419.500244 4686.000000
1421.140869 4627.000000
1422.780518 4688.000000
1424.419067 4810.000000
1426.056763 4667.000000
1427.693359 4645.000000
1429.328979 4639.000000
1430.963867 4732.000000
1432.597656 4692.000000
1434.230347 4710.000000
1435.862061 4618.000000
1437.492920 4627.000000
1439.122681 4720.000000
1440.751343 4576.000000
1442.379395 4613.000000
1444.006348 4576.000000
1445.632080 4557.000000
1447.257202 4657.000000
1448.881226 4612.000000
1450.504272 4718.000000
1452.126343 4792.000000
1453.747314 4850.000000
1455.367310 4910.000000
1456.986572 4781.000000
1458.604492 4876.000000
1460.221802 4664.000000
1461.838135 4824.000000
1463.453247 4644.000000
1465.067505 4722.000000
1466.680908 4761.000000
1468.293213 4815.000000
1469.904663 4687.000000
1471.515259 4679.000000
1473.124634 4671.000000
1474.733032 4705.000000
1476.340576 4701.000000
1477.947144 4762.000000
1479.552979 4665.000000
1481.157593 4731.000000
1482.761353 4525.000000
1484.363892 4345.000000
1485.965820 4404.000000
1487.566528 4354.000000
1489.166504 4287.000000
1490.765381 4250.000000
1492.363403 4154.000000
1493.960327 4179.000000
1495.556396 4468.000000
1497.151489 4587.000000
1498.745605 4479.000000
1500.338989 4372.000000
1501.931274 4549.000000
1503.522339 4421.000000
1505.112915 4370.000000
1506.702148 4414.000000
1508.290771 4352.000000
1509.878296 4353.000000
1511.464722 4279.000000
1513.050415 4277.000000
1514.635010 4204.000000
1516.218750 4344.000000
1517.801392 4205.000000
1519.383301 4381.000000
1520.964111 4373.000000
1522.544189 4188.000000
1524.123047 4112.000000
1525.701050 4095.000000
1527.278320 4006.000000
1528.854370 4107.000000
1530.429688 4063.000000
1532.003906 4028.000000
1533.577393 4090.000000
1535.149658 4151.000000
1536.721191 4213.000000
1538.291748 4003.000000
1539.861450 4077.000000
1541.429932 4016.000000
1542.997681 3950.000000
1544.564575 3923.000000
1546.130249 3894.000000
1547.695190 3954.000000
1549.259033 3960.000000
1550.822266 3967.000000
1552.384155 3965.000000
1553.945435 4016.000000
1555.505615 3957.000000
1557.065063 4052.000000
1558.623413 4071.000000
1560.181030 3858.000000
1561.737549 3920.000000
1563.292847 3831.000000
1564.847534 3859.000000
1566.401489 3818.000000
1567.954468 3908.000000
1569.506104 3820.000000
1571.057007 3866.000000
1572.607178 3746.000000
1574.156372 3827.000000
1575.704224 3771.000000
1577.251587 3799.000000
1578.797974 3856.000000
1580.343506 3879.000000
1581.888062 3805.000000
1583.431396 3809.000000
1584.974121 3819.000000
1586.515991 3701.000000
1588.056763 3667.000000
1589.596558 3850.000000
1591.135620 3822.000000
1592.673584 3801.000000
1594.211060 3753.000000
1595.747192 3874.000000
1597.282227 3728.000000
1598.816772 3661.000000
1600.350342 3702.000000
1601.883057 3721.000000
1603.414185 3752.000000
1604.945068 3776.000000
1606.475098 3705.000000
1608.003906 3620.000000
1609.531616 3654.000000
1611.058716 3749.000000
1612.585083 3709.000000
1614.110474 3717.000000
1615.635010 3748.000000
1617.158203 3651.000000
1618.680664 3610.000000
1620.202393 3619.000000
1621.723267 3714.000000
1623.242676 4041.000000
1624.761597 3686.000000
1626.279785 3633.000000
1627.797119 3653.000000
1629.313354 3500.000000
1630.828247 3582.000000
1632.342651 3588.000000
1633.856323 3522.000000
1635.368896 3422.000000
1636.880249 3557.000000
1638.391235 3540.000000
1639.901123 3551.000000
1641.410156 3543.000000
1642.917847 3404.000000
1644.425171 3454.000000
1645.931641 3397.000000
1647.437134 3466.000000
1648.941772 3435.000000
1650.444946 3440.000000
1651.947510 3417.000000
1653.449707 3485.000000
1654.950562 3479.000000
1656.450317 3283.000000
1657.949219 3388.000000
1659.447754 3261.000000
1660.945068 3314.000000
1662.441650 3306.000000
1663.936646 3270.000000
1665.431396 3327.000000
1666.925293 3230.000000
1668.418213 3144.000000
1669.909790 2607.000000
1671.400879 3132.000000
1672.891357 3042.000000
1674.380737 3108.000000
1675.868652 3160.000000
1677.356323 3093.000000
1678.843018 3297.000000
1680.328857 3192.000000
1681.813843 3147.000000
1683.297363 3124.000000
1684.780640 3094.000000
1686.263062 3070.000000
1687.744385 3084.000000
1689.224243 3073.000000
1690.703857 3061.000000
1692.182739 3075.000000
1693.660645 2980.000000
1695.137573 3051.000000
1696.613281 3022.000000
1698.088623 2930.000000
1699.562744 3007.000000
1701.036255 2952.000000
1702.508301 3035.000000
1703.980103 3013.000000
1705.450928 3032.000000
1706.920898 3078.000000
1708.389526 3057.000000
1709.857666 2970.000000
1711.325073 3062.000000
1712.791382 3079.000000
1714.257080 2957.000000
1715.721069 3039.000000
1717.184937 3015.000000
1718.647949 2996.000000
1720.109985 3035.000000
1721.570801 3071.000000
1723.031006 2950.000000
1724.490479 3063.000000
1725.949097 3084.000000
1727.406738 2831.000000
1728.863037 3006.000000
1730.319092 2916.000000
1731.774170 2934.000000
1733.228271 2892.000000
1734.681152 2914.000000
1736.133789 2995.000000
1737.585327 2952.000000
1739.036133 2887.000000
1740.485962 2960.000000
1741.934448 2856.000000
1743.382568 2827.000000
1744.829834 2891.000000
1746.276367 2830.000000
1747.721313 2857.000000
1749.166016 2840.000000
1750.609863 3007.000000
1752.052856 2842.000000
1753.494385 2747.000000
1754.935669 2797.000000
1756.376099 2533.000000
1757.815552 2762.000000
1759.254028 2763.000000
1760.691528 2694.000000
1762.128540 2846.000000
1763.564575 2794.000000
1764.999756 2672.000000
1766.433472 2758.000000
1767.867065 2788.000000
1769.299683 2684.000000
1770.731445 2724.000000
1772.162354 2755.000000
1773.592041 2780.000000
1775.020996 2621.000000
1776.449463 2657.000000
1777.876953 2568.000000
1779.303101 2482.000000
1780.729004 2536.000000
1782.153809 2558.000000
1783.578003 2643.000000
1785.000732 2476.000000
1786.422974 2559.000000
1787.844482 2533.000000
1789.265259 2633.000000
1790.685059 2506.000000
1792.103516 2480.000000
1793.521484 2493.000000
1794.938843 2413.000000
1796.355347 2542.000000
1797.770386 2527.000000
1799.185059 2485.000000
1800.599121 2574.000000
1802.011963 2429.000000
1803.424194 2373.000000
1804.835083 2466.000000
1806.245483 2431.000000
1807.655151 2396.000000
1809.063843 2414.000000
1810.471436 2426.000000
1811.878540 2383.000000
1813.284790 2406.000000
1814.690063 2532.000000
1816.094238 2437.000000
1817.498047 2488.000000
1818.900879 2375.000000
1820.302856 2375.000000
1821.704224 2329.000000
1823.104126 2458.000000
1824.503418 2424.000000
1825.902222 2515.000000
1827.300171 2446.000000
1828.696777 2395.000000
1830.092773 2344.000000
1831.488037 2456.000000
1832.882690 2406.000000
1834.276367 2455.000000
1835.668701 2438.000000
1837.060547 2405.000000
1838.451782 2388.000000
1839.842041 2336.000000
1841.231079 2342.000000
1842.619751 2356.000000
1844.007446 2302.000000
1845.394409 2268.000000
1846.780029 2323.000000
1848.165405 2328.000000
1849.549927 2368.000000
1850.933716 2356.000000
1852.316406 2308.000000
1853.697876 2275.000000
1855.078857 2361.000000
1856.459351 2337.000000
1857.838867 2197.000000
1859.216919 2243.000000
1860.594849 2286.000000
1861.971802 2299.000000
1863.348022 2110.000000
1864.723389 2154.000000
1866.097290 2131.000000
1867.471069 2204.000000
1868.843994 2203.000000
1870.215820 2215.000000
1871.586670 2113.000000
1872.957153 2109.000000
1874.326538 2107.000000
1875.695435 2167.000000
1877.062744 2189.000000
1878.429932 2139.000000
1879.796143 2103.000000
1881.161621 2170.000000
1882.526367 2081.000000
1883.889526 1999.000000
1885.252563 2066.000000
1886.614746 2125.000000
1887.976074 2020.000000
1889.336060 2025.000000
1890.695679 2110.000000
1892.054688 2033.000000
1893.412720 1998.000000
1894.769897 2016.000000
1896.125854 1978.000000
1897.481567 2084.000000
1898.836304 2002.000000
1900.190186 1993.000000
1901.542969 2044.000000
1902.895264 1937.000000
1904.246826 1956.000000
1905.597534 2035.000000
1906.947021 2050.000000
1908.296021 1989.000000
1909.644165 1958.000000
1910.991699 2013.000000
1912.338501 1954.000000
1913.683716 1871.000000
1915.028687 1887.000000
1916.372925 1963.000000
1917.716309 1974.000000
1919.058350 1975.000000
1920.400146 1970.000000
1921.741089 1854.000000
1923.081299 2018.000000
1924.420532 1900.000000
1925.758789 1917.000000
1927.096436 2000.000000
1928.433350 2008.000000
1929.769409 1875.000000
1931.104248 2088.000000
1932.438721 1854.000000
1933.772461 1952.000000
1935.105347 1912.000000
1936.436768 2007.000000
1937.768311 1916.000000
1939.098511 1959.000000
1940.428223 1855.000000
1941.757080 2029.000000
1943.084717 1891.000000
1944.411865 1860.000000
1945.738281 1931.000000
1947.063965 1870.000000
1948.388306 1817.000000
1949.712402 1862.000000
1951.035645 1832.000000
1952.358154 1858.000000
1953.679565 1808.000000
1955.000000 1890.000000
1956.319824 1828.000000
1957.639282 1828.000000
1958.957764 1849.000000
1960.274902 1776.000000
1961.591675 1852.000000
1962.907715 1792.000000
1964.223022 1780.000000
1965.536865 1750.000000
1966.850464 1704.000000
1968.163330 1700.000000
1969.475342 1693.000000
1970.786743 1824.000000
1972.096802 1793.000000
1973.406372 1624.000000
1974.715210 1785.000000
1976.023438 1682.000000
1977.330322 1656.000000
1978.636597 1674.000000
1979.942505 1712.000000
1981.247192 1717.000000
1982.551392 1772.000000
1983.854370 1748.000000
1985.156982 1759.000000
1986.458618 1648.000000
1987.759644 1558.000000
1989.059082 1695.000000
1990.358643 1664.000000
1991.657104 1575.000000
1992.955078 1603.000000
1994.251465 1632.000000
1995.547852 1645.000000
1996.843262 1585.000000
1998.137939 1586.000000
1999.431763 1625.000000
2000.724365 1599.000000
2002.016479 1535.000000
2003.308105 1517.000000
2004.598999 1472.000000
2005.888306 1529.000000
2007.177368 1514.000000
2008.465698 1574.000000
2009.753296 1649.000000
2011.040039 1528.000000
2012.325684 1510.000000
2013.610962 1672.000000
2014.895264 1520.000000
2016.178955 1514.000000
2017.461304 1431.000000
2018.743286 1524.000000
2020.024780 1468.000000
2021.305298 1496.000000
2022.585083 1484.000000
2023.863770 1521.000000
2025.141724 1411.000000
2026.419189 1504.000000
2027.696045 1532.000000
2028.971191 1412.000000
2030.246460 1458.000000
2031.520752 1525.000000
2032.794067 1509.000000
2034.066528 1473.000000
2035.338623 1520.000000
2036.609619 1451.000000
2037.880371 1586.000000
2039.149780 1546.000000
2040.418091 1491.000000
2041.686401 1493.000000
2042.953735 1422.000000
2044.220337 1369.000000
2045.485718 1445.000000
2046.750488 1414.000000
2048.014893 1373.000000
2049.278320 1448.000000
2050.541260 1466.000000
2051.802246 1479.000000
2053.063721 1512.000000
2054.323975 1326.000000
2055.583496 1448.000000
2056.842285 1325.000000
2058.100098 1562.000000
2059.357422 1368.000000
2060.614014 1395.000000
2061.869141 1464.000000
2063.124268 1391.000000
2064.378418 1428.000000
2065.631836 1405.000000
2066.884521 1451.000000
2068.135986 1393.000000
2069.387207 1389.000000
2070.637695 1483.000000
2071.887451 1438.000000
2073.135742 1018.000000
2074.384033 1421.000000
2075.631348 1375.000000
2076.877930 1353.000000
2078.123779 1351.000000
2079.368408 1388.000000
2080.612549 1335.000000
2081.856201 1321.000000
2083.098877 1293.000000
2084.340332 1293.000000
2085.581543 1291.000000
2086.822266 1243.000000
2088.062012 1330.000000
2089.300537 1281.000000
2090.538574 1305.000000
2091.775879 1207.000000
2093.012939 1281.000000
2094.248535 1268.000000
2095.483398 1293.000000
2096.718018 1274.000000
2097.951660 1253.000000
2099.184326 1162.000000
2100.416260 1309.000000
2101.647705 1278.000000
2102.878174 1284.000000
2104.107910 1109.000000
2105.337402 1175.000000
2106.564941 1241.000000
2107.792725 1140.000000
2109.019775 1260.000000
2110.245850 1231.000000
2111.470459 1263.000000
2112.695313 1141.000000
2113.918945 1176.000000
2115.142090 1204.000000
2116.364014 1118.000000
2117.585693 1209.000000
2118.806396 1150.000000
2120.026367 1151.000000
2121.245850 1188.000000
2122.463867 1149.000000
2123.681885 1206.000000
2124.898926 1100.000000
2126.115479 1126.000000
2127.330322 1172.000000
2128.545410 1199.000000
2129.759521 1160.000000
2130.972900 1151.000000
2132.185547 1125.000000
2133.396729 1196.000000
2134.608154 1214.000000
2135.818359 1360.000000
2137.028076 1203.000000
2138.236328 1174.000000
2139.444580 1168.000000
2140.652100 1084.000000
2141.858398 1077.000000
2143.063965 1035.000000
2144.269287 1176.000000
2145.473633 1099.000000
2146.677246 1153.000000
2147.880371 1243.000000
2149.082031 1093.000000
2150.283447 1140.000000
2151.484131 1035.000000
2152.684082 1110.000000
2153.882813 1042.000000
2155.081299 1113.000000
2156.279297 1132.000000
2157.476318 1070.000000
2158.672607 1084.000000
2159.867676 1056.000000
2161.062500 1045.000000
2162.256592 1139.000000
2163.449707 1028.000000
2164.641846 1103.000000
2165.833740 1041.000000
2167.024902 973.000000
2168.215088 961.000000
2169.404541 987.000000
2170.593506 1001.000000
2171.781494 1002.000000
2172.969238 1006.000000
2174.155518 967.000000
2175.341064 1011.000000
2176.526367 985.000000
2177.711182 900.000000
2178.894775 900.000000
2180.077637 1007.000000
2181.259521 891.000000
2182.441162 934.000000
2183.622314 983.000000
2184.802246 928.000000
2185.981201 958.000000
2187.159668 1021.000000
2188.337891 992.000000
2189.514893 962.000000
2190.690918 952.000000
2191.866699 983.000000
2193.041992 938.000000
2194.215820 995.000000
2195.389160 972.000000
2196.562256 889.000000
2197.734131 982.000000
2198.905518 1013.000000
2200.076416 894.000000
2201.245605 1004.000000
2202.414795 1033.000000
2203.583496 899.000000
2204.751221 993.000000
2205.917969 920.000000
2207.083984 899.000000
2208.249512 1071.000000
2209.414795 899.000000
2210.578613 882.000000
2211.741943 977.000000
2212.904053 838.000000
2214.066406 970.000000
2215.227539 911.000000
2216.387695 813.000000
2217.547363 850.000000
2218.706787 797.000000
2219.864990 993.000000
2221.022217 841.000000
2222.179199 853.000000
2223.335449 852.000000
2224.490967 991.000000
2225.645752 850.000000
2226.799561 882.000000
2227.952393 930.000000
2229.105713 892.000000
2230.257080 870.000000
2231.408203 835.000000
2232.558594 831.000000
2233.708496 723.000000
2234.857422 895.000000
2236.005859 968.000000
2237.152832 878.000000
2238.300049 818.000000
2239.446045 782.000000
2240.591797 745.000000
2241.735840 732.000000
2242.880127 816.000000
2244.023438 832.000000
2245.166016 841.000000
2246.307617 762.000000
2247.448975 751.000000
2248.589355 660.000000
2249.729004 733.000000
2250.868164 714.000000
2252.006104 752.000000
2253.144043 738.000000
2254.281006 768.000000
2255.417236 734.000000
2256.552490 696.000000
2257.687012 812.000000
2258.821289 768.000000
2259.955078 743.000000
2261.087402 805.000000
2262.219238 779.000000
2263.350586 764.000000
2264.480957 721.000000
2265.611084 683.000000
2266.739990 798.000000
2267.868408 613.000000
2268.996338 772.000000
2270.123291 658.000000
2271.249512 795.000000
2272.374756 784.000000
2273.500000 753.000000
2274.624512 643.000000
2275.747803 699.000000
2276.870361 737.000000
2277.992432 732.000000
2279.114014 641.000000
2280.234863 679.000000
2281.354492 738.000000
2282.473633 659.000000
2283.592529 649.000000
2284.710693 734.000000
2285.827881 669.000000
2286.944092 677.000000
2288.060059 687.000000
2289.175293 642.000000
2290.289795 656.000000
2291.403076 695.000000
2292.516357 657.000000
2293.628906 741.000000
2294.740723 707.000000
2295.851807 648.000000
2296.961670 703.000000
2298.071045 711.000000
2299.180176 587.000000
2300.288330 827.000000
2301.395508 668.000000
2302.502441 690.000000
2303.608643 634.000000
2304.714355 743.000000
2305.818604 742.000000
2306.922607 649.000000
2308.026123 644.000000
2309.129150 592.000000
2310.230957 686.000000
2311.332031 661.000000
2312.432617 766.000000
2313.532715 651.000000
2314.632080 692.000000
2315.729980 685.000000
2316.828369 659.000000
2317.925293 640.000000
2319.021973 694.000000
2320.118164 664.000000
2321.212646 691.000000
2322.307129 721.000000
2323.400879 624.000000
2324.494385 612.000000
2325.586182 668.000000
2326.677979 809.000000
2327.769043 711.000000
2328.859375 780.000000
2329.948730 793.000000
2331.038086 707.000000
2332.126221 763.000000
2333.213867 739.000000
2334.301270 628.000000
2335.386963 651.000000
2336.472412 625.000000
2337.557617 626.000000
2338.641846 594.000000
2339.725098 579.000000
2340.808105 583.000000
2341.890137 646.000000
2342.971924 704.000000
2344.052979 608.000000
2345.132813 550.000000
2346.212158 594.000000
2347.291016 572.000000
2348.369385 519.000000
2349.446289 661.000000
2350.522949 568.000000
2351.599365 559.000000
2352.674805 599.000000
2353.749268 537.000000
2354.823486 550.000000
2355.896973 367.000000
2356.969971 606.000000
2358.041748 695.000000
2359.113281 494.000000
2360.183838 659.000000
2361.254150 509.000000
2362.323486 467.000000
2363.391846 570.000000
2364.459961 493.000000
2365.527344 501.000000
2366.594238 517.000000
2367.660400 470.000000
2368.725342 511.000000
2369.790283 559.000000
2370.854492 510.000000
2371.917969 623.000000
2372.980225 515.000000
2374.042480 466.000000
2375.103760 478.000000
2376.164795 624.000000
2377.224609 546.000000
2378.283691 491.000000
2379.342773 481.000000
2380.400879 465.000000
2381.458252 491.000000
2382.514648 480.000000
2383.570801 385.000000
2384.626465 478.000000
2385.681396 362.000000
2386.734863 506.000000
2387.788574 441.000000
2388.841309 501.000000
2389.893555 492.000000
2390.945068 488.000000
2391.995605 488.000000
2393.045898 433.000000
2394.095215 458.000000
2395.144531 471.000000
2396.192383 472.000000
2397.239746 508.000000
2398.286865 494.000000
2399.333008 453.000000
2400.378418 502.000000
2401.423096 544.000000
2402.467773 539.000000
2403.510986 476.000000
2404.554199 471.000000
2405.595947 520.000000
2406.637939 445.000000
2407.679199 526.000000
2408.719482 456.000000
2409.759033 486.000000
2410.797607 476.000000
2411.836426 494.000000
2412.874023 464.000000
2413.911377 461.000000
2414.947510 403.000000
2415.983398 444.000000
2417.018555 473.000000
2418.053223 343.000000
2419.086426 503.000000
2420.119873 543.000000
2421.152344 480.000000
2422.184570 485.000000
2423.215332 451.000000
2424.246094 458.000000
2425.276367 518.000000
2426.305420 503.000000
2427.334473 438.000000
2428.361816 399.000000
2429.389648 371.000000
2430.416260 491.000000
2431.442627 465.000000
2432.467529 540.000000
2433.492676 407.000000
2434.516846 489.000000
2435.540771 486.000000
2436.563477 483.000000
2437.585449 519.000000
2438.607178 430.000000
2439.628174 506.000000
2440.648682 424.000000
2441.667969 382.000000
2442.687256 435.000000
2443.705566 375.000000
2444.723633 373.000000
2445.740234 468.000000
2446.756836 347.000000
2447.772705 430.000000
2448.788574 367.000000
2449.802979 475.000000
2450.816650 400.000000
2451.829834 350.000000
2452.842773 431.000000
2453.854980 495.000000
2454.866211 439.000000
2455.877197 500.000000
2456.887451 328.000000
2457.897217 389.000000
2458.906006 443.000000
2459.914063 423.000000
2460.922119 403.000000
2461.928955 312.000000
2462.935547 494.000000
2463.940918 363.000000
2464.946045 358.000000
2465.950928 470.000000
2466.954590 413.000000
2467.958008 433.000000
2468.960449 295.000000
2469.962646 420.000000
2470.964355 429.000000
2471.965088 342.000000
2472.964844 466.000000
2473.964600 390.000000
2474.963379 383.000000
2475.961670 394.000000
2476.958984 340.000000
2477.956055 336.000000
2478.953125 359.000000
2479.948730 401.000000
2480.944336 436.000000
2481.938232 345.000000
2482.932129 364.000000
2483.925537 351.000000
2484.918457 334.000000
2485.910400 387.000000
2486.901611 383.000000
2487.892578 336.000000
2488.883057 386.000000
2489.872559 321.000000
2490.861328 390.000000
2491.850098 337.000000
2492.837891 332.000000
2493.824463 409.000000
2494.811035 289.000000
2495.797119 373.000000
2496.782471 381.000000
2497.766846 457.000000
2498.750977 255.000000
2499.735107 350.000000
2500.717773 353.000000
2501.699951 465.000000
2502.681641 358.000000
2503.662598 310.000000
2504.643066 340.000000
2505.623291 250.000000
2506.602051 435.000000
2507.580566 312.000000
2508.558594 393.000000
2509.536133 285.000000
2510.512695 395.000000
2511.489014 298.000000
2512.464600 387.000000
2513.439697 307.000000
2514.414307 371.000000
2515.387695 293.000000
2516.360840 340.000000
2517.333740 251.000000
2518.305664 346.000000
2519.276855 295.000000
2520.247559 362.000000
2521.218018 305.000000
2522.187744 230.000000
2523.156494 309.000000
2524.124512 391.000000
2525.092529 351.000000
2526.059570 278.000000
2527.026367 349.000000
2527.991943 405.000000
2528.957520 290.000000
2529.922363 375.000000
2530.886719 400.000000
2531.849854 322.000000
2532.813232 258.000000
2533.775635 343.000000
2534.737793 315.000000
2535.698730 368.000000
2536.658936 340.000000
2537.619385 280.000000
2538.578857 343.000000
2539.537598 373.000000
2540.495361 164.000000
2541.453369 336.000000
2542.410645 289.000000
2543.366943 309.000000
2544.322998 230.000000
2545.277832 340.000000
2546.232910 219.000000
2547.187256 363.000000
2548.140869 -153.000000
2549.093506 216.000000
2550.045898 339.000000
2550.997803 298.000000
2551.948975 353.000000
2552.899414 231.000000
2553.849365 237.000000
2554.799072 347.000000
2555.748047 331.000000
2556.696533 295.000000
2557.643799 202.000000
2558.591064 302.000000
2559.537598 207.000000
2560.483643 246.000000
2561.428711 282.000000
2562.373535 256.000000
2563.317871 357.000000
2564.261719 302.000000
2565.205078 256.000000
2566.146973 296.000000
2567.089111 267.000000
2568.030518 350.000000
2568.971191 192.000000
2569.911133 316.000000
2570.851074 193.000000
2571.790039 235.000000
2572.728760 188.000000
2573.666504 268.000000
2574.604004 237.000000
2575.540771 277.000000
2576.476807 349.000000
2577.412354 280.000000
2578.347168 252.000000
2579.281982 330.000000
2580.215820 327.000000
2581.149170 62.000000
2582.081787 184.000000
2583.014160 292.000000
2583.945801 176.000000
2584.876953 278.000000
2585.807617 308.000000
2586.737061 247.000000
2587.666504 300.000000
2588.595459 212.000000
2589.524170 323.000000
2590.451172 303.000000
2591.378418 246.000000
2592.305176 259.000000
2593.231201 223.000000
2594.156982 299.000000
2595.081543 198.000000
2596.005859 271.000000
2596.929688 297.000000
2597.853027 237.000000
2598.775391 246.000000
2599.697510 280.000000
2600.619141 269.000000
2601.540039 274.000000
2602.460205 198.000000
2603.380127 220.000000
2604.299561 172.000000
2605.218750 210.000000
2606.136963 212.000000
2607.053955 284.000000
2607.971191 256.000000
2608.888184 280.000000
2609.804199 319.000000
2610.718994 232.000000
2611.634277 224.000000
2612.548828 264.000000
2613.462402 213.000000
2614.375977 222.000000
2615.288330 243.000000
2616.200684 256.000000
2617.112061 239.000000
2618.023193 227.000000
2618.933594 241.000000
2619.843750 150.000000
2620.753174 264.000000
2621.662109 203.000000
2622.570068 178.000000
2623.478271 163.000000
2624.385498 247.000000
2625.292236 264.000000
2626.198242 293.000000
2627.104004 253.000000
2628.009033 382.000000
2628.913818 95.000000
2629.817871 217.000000
2630.720947 194.000000
2631.624023 209.000000
2632.526123 140.000000
2633.428223 278.000000
2634.330078 227.000000
2635.230225 224.000000
2636.130615 273.000000
2637.030273 187.000000
2637.929688 265.000000
2638.827637 199.000000
2639.726074 156.000000
2640.624023 158.000000
2641.521240 310.000000
2642.417236 154.000000
2643.313232 290.000000
2644.208984 201.000000
2645.104004 308.000000
2645.998779 207.000000
2646.892090 184.000000
2647.785400 96.000000
2648.678467 178.000000
2649.571289 191.000000
2650.462402 206.000000
2651.353760 181.000000
2652.244629 252.000000
2653.134766 164.000000
2654.024658 178.000000
2654.913330 272.000000
2655.802246 186.000000
2656.690674 211.000000
2657.578125 192.000000
2658.464600 283.000000
2659.351563 168.000000
2660.237793 191.000000
2661.123535 122.000000
2662.008057 252.000000
2662.892578 53.000000
2663.776855 136.000000
2664.660400 230.000000
2665.543457 261.000000
2666.425781 199.000000
2667.307617 162.000000
2668.188721 144.000000
2669.070068 221.000000
2669.949951 206.000000
2670.830078 162.000000
2671.709473 192.000000
2672.588867 420.000000
2673.467529 213.000000
2674.344482 148.000000
2675.222168 156.000000
2676.099121 113.000000
2676.975342 244.000000
2677.851074 234.000000
2678.726074 112.000000
2679.601318 204.000000
2680.475586 205.000000
2681.349365 216.000000
2682.222412 141.000000
2683.095215 213.000000
2683.967773 148.000000
2684.839600 174.000000
2685.710693 147.000000
2686.581543 198.000000
2687.451904 233.000000
2688.322021 120.000000
2689.190430 236.000000
2690.059570 235.000000
2690.927979 153.000000
2691.796143 166.000000
2692.663574 139.000000
2693.529785 183.000000
2694.396484 202.000000
2695.262207 218.000000
2696.127930 143.000000
2696.992188 238.000000
2697.857178 151.000000
2698.720703 135.000000
2699.584473 132.000000
2700.446777 213.000000
2701.309570 145.000000
2702.171387 149.000000
2703.032715 195.000000
2703.894043 256.000000
2704.754150 198.000000
2705.614258 189.000000
2706.473877 130.000000
2707.333252 147.000000
2708.190918 145.000000
2709.048828 165.000000
2709.907227 59.000000
2710.764404 143.000000
2711.620850 138.000000
2712.476807 110.000000
2713.332764 155.000000
2714.187988 221.000000
2715.042480 197.000000
2715.896484 213.000000
2716.750488 95.000000
2717.603516 150.000000
2718.456787 171.000000
2719.308350 206.000000
2720.160400 213.000000
2721.012207 195.000000
2721.862793 133.000000
2722.713379 150.000000
2723.563477 100.000000
2724.412842 126.000000
2725.262207 218.000000
2726.110352 170.000000
2726.958008 143.000000
2727.806152 116.000000
2728.653076 113.000000
2729.500488 160.000000
2730.346436 109.000000
2731.191650 186.000000
2732.037354 201.000000
2732.882080 159.000000
2733.726807 168.000000
2734.570313 302.000000
2735.414063 180.000000
2736.257080 145.000000
2737.099609 71.000000
2737.941162 105.000000
2738.783203 151.000000
2739.624268 152.000000
2740.465088 205.000000
2741.305664 178.000000
2742.145020 179.000000
2742.984375 114.000000
2743.823730 128.000000
2744.661865 225.000000
2745.499512 64.000000
2746.337158 158.000000
2747.174316 119.000000
2748.011230 85.000000
2748.847656 122.000000
2749.682861 160.000000
2750.518311 83.000000
2751.353271 219.000000
2752.187500 78.000000
2753.021484 124.000000
2753.854980 88.000000
2754.688477 102.000000
2755.520996 158.000000
2756.353027 108.000000
2757.184570 161.000000
2758.016113 103.000000
2758.846680 139.000000
2759.677490 100.000000
2760.507080 195.000000
2761.336670 78.000000
2762.166016 110.000000
2762.994629 158.000000
2763.822754 100.000000
2764.650391 86.000000
2765.478027 153.000000
2766.305176 112.000000
2767.131592 112.000000
2767.957520 120.000000
2768.782959 221.000000
2769.608154 94.000000
2770.433350 204.000000
2771.257324 56.000000
2772.081299 137.000000
2772.905273 62.000000
2773.728027 124.000000
2774.551025 137.000000
2775.372803 216.000000
2776.194580 118.000000
2777.016357 115.000000
2777.837158 81.000000
2778.657227 167.000000
2779.477539 116.000000
2780.297363 107.000000
2781.117188 122.000000
2781.935059 138.000000
2782.754150 99.000000
2783.572021 96.000000
2784.389648 166.000000
2785.206787 193.000000
2786.023438 121.000000
2786.839844 210.000000
2787.655762 189.000000
2788.471436 147.000000
2789.286133 81.000000
2790.101318 243.000000
2790.915771 227.000000
2791.729736 103.000000
2792.543457 106.000000
2793.355957 15.000000
2794.168701 83.000000
2794.980957 75.000000
2795.792725 119.000000
2796.603760 35.000000
2797.415527 86.000000
2798.226074 138.000000
2799.036621 154.000000
2799.845703 50.000000
2800.655518 113.000000
2801.464600 160.000000
2802.273438 84.000000
2803.081787 116.000000
2803.889160 212.000000
2804.697021 114.000000
2805.504150 95.000000
2806.311035 109.000000
2807.116699 136.000000
2807.922852 108.000000
2808.728271 112.000000
2809.533691 119.000000
2810.338379 121.000000
2811.142090 89.000000
2811.946289 168.000000
2812.750000 207.000000
2813.553467 106.000000
2814.355469 83.000000
2815.158203 78.000000
2815.960205 93.000000
2816.761963 94.000000
2817.563232 96.000000
2818.364014 75.000000
2819.164307 84.000000
2819.964844 154.000000
2820.764404 152.000000
2821.563477 104.000000
2822.362549 134.000000
2823.161377 108.000000
2823.959717 68.000000
2824.757080 76.000000
2825.554688 31.000000
2826.351563 141.000000
2827.148682 96.000000
2827.945068 69.000000
2828.740723 87.000000
2829.536377 145.000000
2830.331787 50.000000
2831.126709 0.000000
2831.920898 125.000000
2832.715088 91.000000
2833.509033 98.000000
2834.302490 64.000000
2835.095215 143.000000
2835.887695 101.000000
2836.680176 110.000000
2837.472412 95.000000
2838.264160 160.000000
2839.054932 38.000000
2839.845703 131.000000
2840.636719 168.000000
2841.426758 178.000000
2842.216309 53.000000
2843.006104 176.000000
2843.794922 42.000000
2844.583740 141.000000
2845.372559 59.000000
2846.160400 115.000000
2846.947754 -21.000000
2847.735352 8.000000
2848.522461 98.000000
2849.308838 38.000000
2850.095215 18.000000
2850.881348 186.000000
2851.666992 95.000000
2852.451660 -27.000000
2853.236816 108.000000
2854.021729 169.000000
2854.805908 28.000000
2855.590088 135.000000
2856.373047 127.000000
2857.156250 -47.000000
2857.939209 69.000000
2858.721680 -7.000000
2859.503906 90.000000
2860.285645 125.000000
2861.067139 155.000000
2861.848877 111.000000
2862.629883 49.000000
2863.410156 41.000000
2864.190186 134.000000
2864.970215 66.000000
2865.750000 126.000000
2866.528809 41.000000
2867.307861 110.000000
2868.086426 112.000000
2868.864746 83.000000
2869.642578 128.000000
2870.420166 150.000000
2871.197510 76.000000
2871.974609 207.000000
2872.751221 70.000000
2873.527344 13.000000
2874.303467 125.000000
2875.079102 101.000000
2875.854492 126.000000
2876.629395 28.000000
2877.404053 146.000000
2878.178711 -1.000000
2878.953125 146.000000
2879.726807 61.000000
2880.499756 112.000000
2881.273438 53.000000
2882.046143 102.000000
2882.818848 129.000000
2883.590820 115.000000
2884.362549 184.000000
2885.134766 139.000000
2885.905762 176.000000
2886.676270 146.000000
2887.447266 129.000000
2888.218262 89.000000
2888.988525 78.000000
2889.757813 157.000000
2890.527344 121.000000
2891.296875 -9.000000
2892.065918 143.000000
2892.834473 144.000000
2893.603027 30.000000
2894.370605 86.000000
2895.138672 98.000000
2895.906250 66.000000
2896.673828 180.000000
2897.440186 93.000000
2898.207520 60.000000
2898.973633 75.000000
2899.739990 65.000000
2900.504883 101.000000
2901.270264 87.000000
2902.036133 160.000000
2902.800537 -6.000000
2903.564941 121.000000
2904.329590 171.000000
2905.093262 90.000000
2905.857666 143.000000
2906.621338 16.000000
2907.384277 165.000000
2908.146973 107.000000
2908.910156 15.000000
2909.672852 46.000000
2910.434326 88.000000
2911.196289 88.000000
spectrumdark 2048
-97.034599 6183.000000
-94.407730 6183.000000
-91.782738 6063.000000
-89.159637 6438.000000
-86.538406 5858.000000
-83.919075 6275.000000
-81.301605 6106.000000
-78.686012 6467.000000
-76.072296 6221.000000
-73.460457 6009.000000
-70.850479 6183.000000
-68.242386 6020.000000
-65.636139 5975.000000
-63.031765 5995.000000
-60.429256 6114.000000
-57.828602 5631.000000
-55.229809 6265.000000
-52.632874 6898.000000
-50.037792 6514.000000
-47.444565 6548.000000
-44.853188 6279.000000
-42.263657 6706.000000
-39.675968 5912.000000
-37.090130 6053.000000
-34.506134 6508.000000
-31.923977 5714.000000
-29.343664 6317.000000
-26.765179 5740.000000
-24.188536 6179.000000
-21.613718 6272.000000
-19.040741 6504.000000
-16.469584 6530.000000
-13.900260 6840.000000
-11.332762 7842.000000
-8.767082 6276.000000
-6.203228 6464.000000
-3.641188 5993.000000
-1.080972 5852.000000
1.477436 6404.000000
4.034023 6960.000000
6.588805 6652.000000
9.141770 5918.000000
11.692935 6741.000000
14.242287 6509.000000
16.789843 6737.000000
19.335587 6009.000000
21.879538 5764.000000
24.421684 6710.000000
26.962034 6723.000000
29.500599 6915.000000
32.037369 6215.000000
34.572334 5829.000000
37.105522 7284.000000
39.636929 6351.000000
42.166542 7174.000000
44.694359 6535.000000
47.220417 7846.000000
49.744686 5721.000000
52.267185 6238.000000
54.787888 6805.000000
57.306835 6382.000000
59.824009 6452.000000
62.339405 6650.000000
64.853020 5637.000000
67.364883 5687.000000
69.875000 6545.000000
72.383324 6544.000000
74.889893 5921.000000
77.394714 6347.000000
79.897781 6398.000000
82.399071 6243.000000
84.898621 6196.000000
87.396416 6331.000000
89.892479 5783.000000
92.386765 7240.000000
94.879311 5811.000000
97.370140 6921.000000
99.859200 7247.000000
102.346512 6379.000000
104.832100 6136.000000
107.315948 6371.000000
109.798050 5826.000000
112.278427 6730.000000
114.757080 6278.000000
117.234009 6572.000000
119.709183 7167.000000
122.182648 6865.000000
124.654381 5901.000000
127.124405 6745.000000
129.592682 6297.000000
132.059280 6275.000000
134.524124 5790.000000
136.987274 6235.000000
139.448685 7375.000000
141.908401 6951.000000
144.366394 6343.000000
146.822693 6000.000000
149.277283 5807.000000
151.730148 6871.000000
154.181335 6371.000000
156.630829 6667.000000
159.078598 6057.000000
161.524658 6603.000000
163.969040 8755.000000
166.411743 6458.000000
168.852753 6779.000000
171.292053 6226.000000
173.729645 7331.000000
176.165604 6618.000000
178.599823 7021.000000
181.032364 7211.000000
183.463257 6752.000000
185.892426 7179.000000
188.319946 6785.000000
190.745789 6362.000000
193.169952 6731.000000
195.592453 7184.000000
198.013260 7422.000000
200.432404 6551.000000
202.849884 6052.000000
205.265671 7630.000000
207.679810 7044.000000
210.092316 6328.000000
212.503143 6154.000000
214.912292 6272.000000
217.319809 7464.000000
219.725616 6228.000000
222.129837 6560.000000
224.532349 6748.000000
226.933243 7041.000000
229.332489 6448.000000
231.730072 6865.000000
234.125992 7341.000000
236.520294 6553.000000
238.912933 6123.000000
241.303955 6833.000000
243.693314 6598.000000
246.081055 6395.000000
248.467148 7031.000000
250.851608 6131.000000
253.234421 7903.000000
255.615662 6656.000000
257.995178 6714.000000
260.373138 6607.000000
262.749420 7603.000000
265.124146 7695.000000
267.497223 7888.000000
269.868652 6192.000000
272.238434 6454.000000
274.606659 5983.000000
276.973236 6347.000000
279.338226 6569.000000
281.701599 6068.000000
284.063324 6252.000000
286.423462 7107.000000
288.781982 6095.000000
291.138916 6562.000000
293.494232 6389.000000
295.847961 5949.000000
298.200043 6038.000000
300.550568 6347.000000
302.899506 6424.000000
305.246796 6914.000000
307.592560 6411.000000
309.936646 6540.000000
312.279205 7470.000000
314.620148 7644.000000
316.959473 7201.000000
319.297241 6974.000000
321.633453 8184.000000
323.968018 6337.000000
326.301025 6573.000000
328.632477 5967.000000
330.962341 6640.000000
333.290619 6489.000000
335.617279 7351.000000
337.942444 6454.000000
340.265991 6294.000000
342.587982 6052.000000
344.908417 7542.000000
347.227234 7806.000000
349.544495 6057.000000
351.860229 5852.000000
354.174377 7036.000000
356.486938 6332.000000
358.797943 6364.000000
361.107422 7075.000000
363.415375 6361.000000
365.721710 5712.000000
368.026459 6512.000000
370.329742 6476.000000
372.631409 6259.000000
374.931580 6474.000000
377.230194 6265.000000
379.527252 5768.000000
381.822754 6100.000000
384.116730 5895.000000
386.409119 5236.000000
388.700012 5543.000000
390.989380 6197.000000
393.277161 6240.000000
395.563416 6558.000000
397.848175 7088.000000
400.131317 6167.000000
402.413025 6487.000000
404.693207 6185.000000
406.971802 7349.000000
409.248871 6556.000000
411.524414 6886.000000
413.798431 6714.000000
416.071014 6679.000000
418.341980 6674.000000
420.611450 6468.000000
422.879425 7152.000000
425.145844 7325.000000
427.410767 6291.000000
429.674225 6336.000000
431.936096 6540.000000
434.196503 6021.000000
436.455353 6615.000000
438.712738 6223.000000
440.968628 5717.000000
443.223022 5840.000000
445.475891 5543.000000
447.727203 6907.000000
449.977112 6151.000000
452.225433 6270.000000
454.472321 5700.000000
456.717743 6587.000000
458.961609 6498.000000
461.203979 6454.000000
463.444855 5665.000000
465.684326 6769.000000
467.922211 5443.000000
470.158661 5968.000000
472.393585 6153.000000
474.627045 7366.000000
476.859070 6679.000000
479.089569 5770.000000
481.318573 6488.000000
483.546112 6267.000000
485.772156 6025.000000
487.996765 6595.000000
490.219910 5897.000000
492.441589 6429.000000
494.661713 6687.000000
496.880432 5727.000000
499.097656 6346.000000
501.313507 5575.000000
503.527740 6131.000000
505.740662 6426.000000
507.951996 6478.000000
510.161896 6892.000000
512.370361 6562.000000
514.577454 6579.000000
516.782959 6493.000000
518.987061 6604.000000
521.189636 6201.000000
523.390808 6717.000000
525.590637 6747.000000
527.788940 6963.000000
529.985718 5436.000000
532.181152 5875.000000
534.375061 5558.000000
536.567627 7579.000000
538.758667 6691.000000
540.948303 6172.000000
543.136536 6975.000000
545.323242 7161.000000
547.508484 6886.000000
549.692444 6275.000000
551.874817 6489.000000
554.055847 6203.000000
556.235352 6059.000000
558.413574 5933.000000
560.590271 6018.000000
562.765564 6490.000000
564.939453 6474.000000
567.111877 5987.000000
569.282898 6078.000000
571.452454 6340.000000
573.620728 5312.000000
575.787476 6472.000000
577.952759 6386.000000
580.116638 6152.000000
582.279236 5776.000000
584.440308 6065.000000
586.599976 5668.000000
588.758301 5841.000000
590.915100 6169.000000
593.070557 6636.000000
595.224609 5778.000000
597.377319 6181.000000
599.528503 7346.000000
601.678345 6827.000000
603.826843 6753.000000
605.973755 6100.000000
608.119446 6467.000000
610.263733 6501.000000
612.406555 7090.000000
614.547913 6182.000000
616.688049 6500.000000
618.826660 7743.000000
620.963989 5738.000000
623.099854 6697.000000
625.234314 6896.000000
627.367310 7209.000000
629.499146 6746.000000
631.629517 6589.000000
633.758484 6790.000000
635.885986 6477.000000
638.012207 6327.000000
640.136902 7573.000000
642.260376 6443.000000
644.382507 6853.000000
646.503174 6842.000000
648.622498 6558.000000
650.740417 5719.000000
652.856995 5675.000000
654.972168 6458.000000
657.085999 6541.000000
659.198364 5860.000000
661.309509 6154.000000
663.419250 5483.000000
665.527527 6033.000000
667.634644 6307.000000
669.740295 6860.000000
671.844482 5881.000000
673.947449 5762.000000
676.049011 7030.000000
678.149231 5362.000000
680.248047 6724.000000
682.345520 6323.000000
684.441711 7116.000000
686.536438 6249.000000
688.629944 7109.000000
690.722107 6672.000000
692.812744 7999.000000
694.902161 6645.000000
696.990295 6490.000000
699.076965 5978.000000
701.162415 6732.000000
703.246338 5246.000000
705.329041 5938.000000
707.410461 5993.000000
709.490417 7648.000000
711.569153 6257.000000
713.646423 5588.000000
715.722412 6620.000000
717.797119 6127.000000
719.870544 7064.000000
721.942444 6343.000000
724.013184 7417.000000
726.082581 5849.000000
728.150574 6490.000000
730.217224 6364.000000
732.282654 7118.000000
734.346741 5762.000000
736.409485 6159.000000
738.470886 6536.000000
740.531006 6632.000000
742.589722 6088.000000
744.647217 6624.000000
746.703430 6538.000000
748.758240 6721.000000
750.811768 6413.000000
752.863892 7537.000000
754.914795 5772.000000
756.964478 6780.000000
759.012695 6323.000000
761.059692 6159.000000
763.105408 7078.000000
765.149719 5392.000000
767.192749 5744.000000
769.234558 15150.000000
771.275024 7167.000000
773.314087 6324.000000
775.351990 6156.000000
777.388550 5997.000000
779.423889 5385.000000
781.457886 5823.000000
783.490479 6940.000000
785.521912 5520.000000
787.551941 11687.000000
789.580688 6079.000000
791.608276 6359.000000
793.634521 6416.000000
795.659363 5928.000000
797.683105 5538.000000
799.705444 6370.000000
801.726563 5958.000000
803.746338 6712.000000
805.764832 4925.000000
807.782104 6805.000000
809.797974 6860.000000
811.812683 5709.000000
813.826050 6396.000000
815.838196 6327.000000
817.849121 6098.000000
819.858704 6601.000000
821.867065 5375.000000
823.874023 5773.000000
825.879761 6074.000000
827.884277 5777.000000
829.887512 5719.000000
831.889465 6530.000000
833.890137 6146.000000
835.889587 5956.000000
837.887695 6330.000000
839.884705 6982.000000
841.880310 6196.000000
843.874756 6057.000000
845.867859 6221.000000
847.859741 6881.000000
849.850281 5636.000000
851.839539 6828.000000
853.827759 6042.000000
855.814575 5782.000000
857.800171 6398.000000
859.784485 7281.000000
861.767700 6288.000000
863.749512 6381.000000
865.730103 5857.000000
867.709412 7801.000000
869.687561 7167.000000
871.664368 6225.000000
873.639893 6195.000000
875.614380 6162.000000
877.587402 6079.000000
879.559387 5475.000000
881.530029 6423.000000
883.499512 6158.000000
885.467651 5552.000000
887.434631 5206.000000
889.400269 6195.000000
891.364746 5879.000000
893.328003 6056.000000
895.290039 6545.000000
897.250793 5853.000000
899.210327 6427.000000
901.168579 6750.000000
903.125732 6388.000000
905.081726 6054.000000
907.036316 6927.000000
908.989685 6570.000000
910.941895 6433.000000
912.892883 6401.000000
914.842590 7156.000000
916.791138 6331.000000
918.738464 6181.000000
920.684509 6142.000000
922.629272 6087.000000
924.572998 6344.000000
926.515564 6074.000000
928.456848 5663.000000
930.396790 6492.000000
932.335632 5751.000000
934.273193 5524.000000
936.209534 6037.000000
938.144714 5903.000000
940.078613 6096.000000
942.011414 5910.000000
943.942993 6817.000000
945.873413 5238.000000
947.802612 6354.000000
949.730469 7008.000000
951.657288 6701.000000
953.582825 5963.000000
955.507080 5372.000000
957.430237 6080.000000
959.352234 6757.000000
961.272949 7290.000000
963.192505 6531.000000
965.110901 5365.000000
967.028259 6428.000000
968.944153 6434.000000
970.858948 6181.000000
972.772522 5959.000000
974.684937 6419.000000
976.596130 6517.000000
978.506165 5516.000000
980.414917 6247.000000
982.322632 6234.000000
984.229126 6398.000000
986.134399 5743.000000
988.038574 6849.000000
989.941528 6239.000000
991.843262 6821.000000
993.743835 6572.000000
995.643250 6618.000000
997.541443 5302.000000
999.438477 6662.000000
1001.334290 6530.000000
1003.228943 7737.000000
1005.122498 5569.000000
1007.014771 7200.000000
1008.906128 6068.000000
1010.796143 5357.000000
1012.684937 6642.000000
1014.572571 6331.000000
1016.459045 6932.000000
1018.344360 6780.000000
1020.228516 6047.000000
1022.111450 5896.000000
1023.993347 6246.000000
1025.874023 5256.000000
1027.753540 5920.000000
1029.632080 6095.000000
1031.509277 5493.000000
1033.385132 6232.000000
1035.260010 6005.000000
1037.133911 6705.000000
1039.006348 7126.000000
1040.877808 6730.000000
1042.747925 5492.000000
1044.617065 5587.000000
1046.484985 5779.000000
1048.351807 7193.000000
1050.217529 6749.000000
1052.082031 6461.000000
1053.945435 6510.000000
1055.807495 6534.000000
1057.668579 5963.000000
1059.528564 6531.000000
1061.387207 6686.000000
1063.244751 5884.000000
1065.101196 6824.000000
1066.956543 5914.000000
1068.810669 5871.000000
1070.663940 6377.000000
1072.515747 6397.000000
1074.366577 6108.000000
1076.216187 6169.000000
1078.064575 5779.000000
1079.912109 7971.000000
1081.758301 5631.000000
1083.603271 6225.000000
1085.447388 5410.000000
1087.290161 5542.000000
1089.131714 6550.000000
1090.972534 5478.000000
1092.811768 5838.000000
1094.650269 6108.000000
1096.487427 6088.000000
1098.323364 6800.000000
1100.158325 6645.000000
1101.992065 5441.000000
1103.824829 5712.000000
1105.656250 6181.000000
1107.486816 7324.000000
1109.316040 6539.000000
1111.144287 6430.000000
1112.971313 7141.000000
1114.797363 5403.000000
1116.622192 6360.000000
1118.445923 7143.000000
1120.268433 6112.000000
1122.089844 5926.000000
1123.910400 5983.000000
1125.729492 6596.000000
1127.547729 7034.000000
1129.364624 6873.000000
1131.180664 6741.000000
1132.995483 6491.000000
1134.809204 5676.000000
1136.621826 5824.000000
1138.433228 5574.000000
1140.243652 6171.000000
1142.052979 6743.000000
1143.860962 6985.000000
1145.668213 5973.000000
1147.473999 5985.000000
1149.278931 5426.000000
1151.082764 5451.000000
1152.885376 6114.000000
1154.687134 6182.000000
1156.487427 6074.000000
1158.286743 6168.000000
1160.085083 5894.000000
1161.882080 5505.000000
1163.678345 5964.000000
1165.473267 6137.000000
1167.267090 6364.000000
1169.060059 7776.000000
1170.851685 5774.000000
1172.642334 6513.000000
1174.432007 6018.000000
1176.220215 5852.000000
1178.007568 7501.000000
1179.793823 6709.000000
1181.578979 5795.000000
1183.363037 5984.000000
1185.145996 7709.000000
1186.927979 5899.000000
1188.708740 5938.000000
1190.488525 6311.000000
1192.267212 6985.000000
1194.044922 6679.000000
1195.821411 7235.000000
1197.596802 6596.000000
1199.371094 6554.000000
1201.144287 6666.000000
1202.916626 6635.000000
1204.687622 6835.000000
1206.457764 5748.000000
1208.226685 6160.000000
1209.994507 6293.000000
1211.761475 5855.000000
1213.527100 5967.000000
1215.291748 6980.000000
1217.055298 6637.000000
1218.817749 6006.000000
1220.579346 6731.000000
1222.339722 5967.000000
1224.098999 6404.000000
1225.857422 6099.000000
1227.614624 7292.000000
1229.370728 6502.000000
1231.125732 5579.000000
1232.879883 6065.000000
1234.632690 5786.000000
1236.384521 6093.000000
1238.135498 6021.000000
1239.885132 4922.000000
1241.633911 7062.000000
1243.381348 6564.000000
1245.128052 6635.000000
1246.873535 6534.000000
1248.618164 6460.000000
1250.361450 6788.000000
1252.103760 6757.000000
1253.844971 5458.000000
1255.585327 5140.000000
1257.324585 5837.000000
1259.062622 6577.000000
1260.799805 7098.000000
1262.535767 6204.000000
1264.270752 6425.000000
1266.004761 7338.000000
1267.737793 6043.000000
1269.469604 6249.000000
1271.200439 6417.000000
1272.930054 7346.000000
1274.658813 5953.000000
1276.386475 5771.000000
1278.113037 5591.000000
1279.838745 5583.000000
1281.563110 6517.000000
1283.286621 5182.000000
1285.009155 6958.000000
1286.730713 6690.000000
1288.451050 6406.000000
1290.170410 6679.000000
1291.888672 7321.000000
1293.605957 6465.000000
1295.322266 5753.000000
1297.037354 6420.000000
1298.751465 6210.000000
1300.464600 5799.000000
1302.176880 6494.000000
1303.887939 8391.000000
1305.598022 5272.000000
1307.307007 6568.000000
1309.014771 6658.000000
1310.721924 7068.000000
1312.427612 5850.000000
1314.132568 6900.000000
1315.836548 6209.000000
1317.539307 6084.000000
1319.241089 6612.000000
1320.942017 6117.000000
1322.641602 9236.000000
1324.340332 30922.000000
1326.038330 5640.000000
1327.734985 6529.000000
1329.430542 7191.000000
1331.125244 6913.000000
1332.818726 5693.000000
1334.511353 5381.000000
1336.203125 7271.000000
1337.893555 6315.000000
1339.583252 6602.000000
1341.271851 6146.000000
1342.959351 7627.000000
1344.645874 5743.000000
1346.331299 6782.000000
1348.015747 6048.000000
1349.699341 7324.000000
1351.381714 6463.000000
1353.063110 6011.000000
1354.743652 6589.000000
1356.422974 6736.000000
1358.101685 5921.000000
1359.779053 6682.000000
1361.455322 5763.000000
1363.130615 5547.000000
1364.805176 6601.000000
1366.478516 6446.000000
1368.150879 6852.000000
1369.822266 5187.000000
1371.492676 6842.000000
1373.161987 6202.000000
1374.830322 5737.000000
1376.497803 5888.000000
1378.164185 6370.000000
1379.829590 6181.000000
1381.494019 5889.000000
1383.157227 6019.000000
1384.819824 5785.000000
1386.481079 6429.000000
1388.141479 6606.000000
1389.800781 6418.000000
1391.459106 6522.000000
1393.116699 6850.000000
1394.773071 6490.000000
1396.428589 7020.000000
1398.082886 6337.000000
1399.736328 5980.000000
1401.388672 6221.000000
1403.040283 6469.000000
1404.690674 7220.000000
1406.339966 6343.000000
1407.988525 7588.000000
1409.635986 7959.000000
1411.282471 6247.000000
1412.928101 6265.000000
1414.572754 6042.000000
1416.216187 6953.000000
1417.858765 7234.000000
1419.500244 6927.000000
1421.140869 6579.000000
1422.780518 6544.000000
1424.419067 6039.000000
1426.056763 6677.000000
1427.693359 6390.000000
1429.328979 6026.000000
1430.963867 6640.000000
1432.597656 5947.000000
1434.230347 6111.000000
1435.862061 5705.000000
1437.492920 6160.000000
1439.122681 6037.000000
1440.751343 7910.000000
1442.379395 6018.000000
1444.006348 6591.000000
1445.632080 6233.000000
1447.257202 6198.000000
1448.881226 6552.000000
1450.504272 6065.000000
1452.126343 6026.000000
1453.747314 7398.000000
1455.367310 6324.000000
1456.986572 6944.000000
1458.604492 5707.000000
1460.221802 19172.000000
1461.838135 5528.000000
1463.453247 7300.000000
1465.067505 6384.000000
1466.680908 5234.000000
1468.293213 5653.000000
1469.904663 6305.000000
1471.515259 6409.000000
1473.124634 6073.000000
1474.733032 6005.000000
1476.340576 6227.000000
1477.947144 6738.000000
1479.552979 5403.000000
1481.157593 6382.000000
1482.761353 5563.000000
1484.363892 6727.000000
1485.965820 5544.000000
1487.566528 5534.000000
1489.166504 5644.000000
1490.765381 6318.000000
1492.363403 6595.000000
1493.960327 6749.000000
1495.556396 6381.000000
1497.151489 6004.000000
1498.745605 5545.000000
1500.338989 6618.000000
1501.931274 5515.000000
1503.522339 6226.000000
1505.112915 6809.000000
1506.702148 6462.000000
1508.290771 6204.000000
1509.878296 6563.000000
1511.464722 6948.000000
1513.050415 6230.000000
1514.635010 6733.000000
1516.218750 6396.000000
1517.801392 6243.000000
1519.383301 6725.000000
1520.964111 6685.000000
1522.544189 6095.000000
1524.123047 6305.000000
1525.701050 6442.000000
1527.278320 6382.000000
1528.854370 5710.000000
1530.429688 5991.000000
1532.003906 6354.000000
1533.577393 5504.000000
1535.149658 5961.000000
1536.721191 6389.000000
1538.291748 6506.000000
1539.861450 6352.000000
1541.429932 5541.000000
1542.997681 6631.000000
1544.564575 5682.000000
1546.130249 6856.000000
1547.695190 5980.000000
1549.259033 5114.000000
1550.822266 7503.000000
1552.384155 6297.000000
1553.945435 6032.000000
1555.505615 5740.000000
1557.065063 5769.000000
1558.623413 5890.000000
1560.181030 6274.000000
1561.737549 7029.000000
1563.292847 5848.000000
1564.847534 6359.000000
1566.401489 5636.000000
1567.954468 6301.000000
1569.506104 5711.000000
1571.057007 5877.000000
1572.607178 6322.000000
1574.156372 6389.000000
1575.704224 5863.000000
1577.251587 5519.000000
1578.797974 5726.000000
1580.343506 5089.000000
1581.888062 6731.000000
1583.431396 6427.000000
1584.974121 6654.000000
1586.515991 6504.000000
1588.056763 6806.000000
1589.596558 5838.000000
1591.135620 6730.000000
1592.673584 5933.000000
1594.211060 6173.000000
1595.747192 5956.000000
1597.282227 6744.000000
1598.816772 6308.000000
1600.350342 6090.000000
1601.883057 6247.000000
1603.414185 6344.000000
1604.945068 6301.000000
1606.475098 5837.000000
1608.003906 6208.000000
1609.531616 6191.000000
1611.058716 5996.000000
1612.585083 5858.000000
1614.110474 6275.000000
1615.635010 5804.000000
1617.158203 5859.000000
1618.680664 5673.000000
1620.202393 6640.000000
1621.723267 6987.000000
1623.242676 15016.000000
1624.761597 6247.000000
1626.279785 6098.000000
1627.797119 5841.000000
1629.313354 6430.000000
1630.828247 7100.000000
1632.342651 6819.000000
1633.856323 5789.000000
1635.368896 6863.000000
1636.880249 5952.000000
1638.391235 6448.000000
1639.901123 6323.000000
1641.410156 6211.000000
1642.917847 5658.000000
1644.425171 6129.000000
1645.931641 7148.000000
1647.437134 6290.000000
1648.941772 6842.000000
1650.444946 6189.000000
1651.947510 6594.000000
1653.449707 6353.000000
1654.950562 6605.000000
1656.450317 7612.000000
1657.949219 6166.000000
1659.447754 6557.000000
1660.945068 6299.000000
1662.441650 5958.000000
1663.936646 6512.000000
1665.431396 6365.000000
1666.925293 5271.000000
1668.418213 5775.000000
1669.909790 20805.000000
1671.400879 6505.000000
1672.891357 6155.000000
1674.380737 6046.000000
1675.868652 7050.000000
1677.356323 6871.000000
1678.843018 6042.000000
1680.328857 5463.000000
1681.813843 6093.000000
1683.297363 6253.000000
1684.780640 6238.000000
1686.263062 5864.000000
1687.744385 6283.000000
1689.224243 6243.000000
1690.703857 5558.000000
1692.182739 6661.000000
1693.660645 6080.000000
1695.137573 6115.000000
1696.613281 5759.000000
1698.088623 6128.000000
1699.562744 6374.000000
1701.036255 5532.000000
1702.508301 5606.000000
1703.980103 6886.000000
1705.450928 6396.000000
1706.920898 7132.000000
1708.389526 5164.000000
1709.857666 5912.000000
1711.325073 6413.000000
1712.791382 5517.000000
1714.257080 5808.000000
1715.721069 6192.000000
1717.184937 6073.000000
1718.647949 7110.000000
1720.109985 6438.000000
1721.570801 6624.000000
1723.031006 5541.000000
1724.490479 6398.000000
1725.949097 6300.000000
1727.406738 6128.000000
1728.863037 6264.000000
1730.319092 6131.000000
1731.774170 6496.000000
1733.228271 6068.000000
1734.681152 6916.000000
1736.133789 5969.000000
1737.585327 6959.000000
1739.036133 6009.000000
1740.485962 6592.000000
1741.934448 5948.000000
1743.382568 7606.000000
1744.829834 6595.000000
1746.276367 6743.000000
1747.721313 6756.000000
1749.166016 6273.000000
1750.609863 5856.000000
1752.052856 5471.000000
1753.494385 6615.000000
1754.935669 6401.000000
1756.376099 19638.000000
1757.815552 6272.000000
1759.254028 5279.000000
1760.691528 6143.000000
1762.128540 7639.000000
1763.564575 5844.000000
1764.999756 7204.000000
1766.433472 6243.000000
1767.867065 6491.000000
1769.299683 6683.000000
1770.731445 5788.000000
1772.162354 5945.000000
1773.592041 6431.000000
1775.020996 6182.000000
1776.449463 6334.000000
1777.876953 6760.000000
1779.303101 6299.000000
1780.729004 5674.000000
1782.153809 6912.000000
1783.578003 5608.000000
1785.000732 6768.000000
1786.422974 6615.000000
1787.844482 6944.000000
1789.265259 5860.000000
1790.685059 6161.000000
1792.103516 6221.000000
1793.521484 6915.000000
1794.938843 5557.000000
1796.355347 6077.000000
1797.770386 6603.000000
1799.185059 5902.000000
1800.599121 6618.000000
1802.011963 6079.000000
1803.424194 7042.000000
1804.835083 7138.000000
1806.245483 7756.000000
1807.655151 6540.000000
1809.063843 5994.000000
1810.471436 5445.000000
1811.878540 6465.000000
1813.284790 6441.000000
1814.690063 6681.000000
1816.094238 5976.000000
1817.498047 5954.000000
1818.900879 6290.000000
1820.302856 6111.000000
1821.704224 5966.000000
1823.104126 6377.000000
1824.503418 6544.000000
1825.902222 6576.000000
1827.300171 7507.000000
1828.696777 5788.000000
1830.092773 6842.000000
1831.488037 5949.000000
1832.882690 8144.000000
1834.276367 6027.000000
1835.668701 6872.000000
1837.060547 6420.000000
1838.451782 5854.000000
1839.842041 7189.000000
1841.231079 6087.000000
1842.619751 6157.000000
1844.007446 6060.000000
1845.394409 5865.000000
1846.780029 6963.000000
1848.165405 5878.000000
1849.549927 6387.000000
1850.933716 6344.000000
1852.316406 6379.000000
1853.697876 5482.000000
1855.078857 6492.000000
1856.459351 6298.000000
1857.838867 5748.000000
1859.216919 5991.000000
1860.594849 6233.000000
1861.971802 7928.000000
1863.348022 6168.000000
1864.723389 6136.000000
1866.097290 5778.000000
1867.471069 5707.000000
1868.843994 6196.000000
1870.215820 5941.000000
1871.586670 6976.000000
1872.957153 5513.000000
1874.326538 6091.000000
1875.695435 6104.000000
1877.062744 7127.000000
1878.429932 6056.000000
1879.796143 6054.000000
1881.161621 6791.000000
1882.526367 7517.000000
1883.889526 6810.000000
1885.252563 6956.000000
1886.614746 6393.000000
1887.976074 6495.000000
1889.336060 5723.000000
1890.695679 5836.000000
1892.054688 6184.000000
1893.412720 6655.000000
1894.769897 7322.000000
1896.125854 5975.000000
1897.481567 7576.000000
1898.836304 5845.000000
1900.190186 5590.000000
1901.542969 5924.000000
1902.895264 6082.000000
1904.246826 6028.000000
1905.597534 6915.000000
1906.947021 6512.000000
1908.296021 6676.000000
1909.644165 5840.000000
1910.991699 6224.000000
1912.338501 6363.000000
1913.683716 6957.000000
1915.028687 6148.000000
1916.372925 5477.000000
1917.716309 6596.000000
1919.058350 5991.000000
1920.400146 6743.000000
1921.741089 7088.000000
1923.081299 6259.000000
1924.420532 6412.000000
1925.758789 6407.000000
1927.096436 6487.000000
1928.433350 7021.000000
1929.769409 6827.000000
1931.104248 5576.000000
1932.438721 6859.000000
1933.772461 7310.000000
1935.105347 6327.000000
1936.436768 5766.000000
1937.768311 6353.000000
1939.098511 6687.000000
1940.428223 5861.000000
1941.757080 6054.000000
1943.084717 5888.000000
1944.411865 5114.000000
1945.738281 5858.000000
1947.063965 6558.000000
1948.388306 5817.000000
1949.712402 6728.000000
1951.035645 6437.000000
1952.358154 6405.000000
1953.679565 5852.000000
1955.000000 7426.000000
1956.319824 6069.000000
1957.639282 5563.000000
1958.957764 6906.000000
1960.274902 5949.000000
1961.591675 5841.000000
1962.907715 6606.000000
1964.223022 6618.000000
1965.536865 6421.000000
1966.850464 5755.000000
1968.163330 6298.000000
1969.475342 6092.000000
1970.786743 6069.000000
1972.096802 6358.000000
1973.406372 5986.000000
1974.715210 6216.000000
1976.023438 6637.000000
1977.330322 6139.000000
1978.636597 7305.000000
1979.942505 5584.000000
1981.247192 6493.000000
1982.551392 5906.000000
1983.854370 5702.000000
1985.156982 7599.000000
1986.458618 6169.000000
1987.759644 6651.000000
1989.059082 6117.000000
1990.358643 6629.000000
1991.657104 5342.000000
1992.955078 6115.000000
1994.251465 6135.000000
1995.547852 5783.000000
1996.843262 5654.000000
1998.137939 6537.000000
1999.431763 5775.000000
2000.724365 6579.000000
2002.016479 5790.000000
2003.308105 7189.000000
2004.598999 6510.000000
2005.888306 6347.000000
2007.177368 6854.000000
2008.465698 5968.000000
2009.753296 5955.000000
2011.040039 6684.000000
2012.325684 5691.000000
2013.610962 6289.000000
2014.895264 6009.000000
2016.178955 5630.000000
2017.461304 6181.000000
2018.743286 6487.000000
2020.024780 6842.000000
2021.305298 5931.000000
2022.585083 6141.000000
2023.863770 6779.000000
2025.141724 5923.000000
2026.419189 5941.000000
2027.696045 6343.000000
2028.971191 5942.000000
2030.246460 6631.000000
2031.520752 6295.000000
2032.794067 5998.000000
2034.066528 6002.000000
2035.338623 6165.000000
2036.609619 7039.000000
2037.880371 6574.000000
2039.149780 6028.000000
2040.418091 6804.000000
2041.686401 6626.000000
2042.953735 6011.000000
2044.220337 6096.000000
2045.485718 5704.000000
2046.750488 5949.000000
2048.014893 5513.000000
2049.278320 5862.000000
2050.541260 6425.000000
2051.802246 6152.000000
2053.063721 6070.000000
2054.323975 5947.000000
2055.583496 6672.000000
2056.842285 6318.000000
2058.100098 6873.000000
2059.357422 5904.000000
2060.614014 6083.000000
2061.869141 6541.000000
2063.124268 5672.000000
2064.378418 5598.000000
2065.631836 5680.000000
2066.884521 6842.000000
2068.135986 6254.000000
2069.387207 6405.000000
2070.637695 5589.000000
2071.887451 5433.000000
2073.135742 6580.000000
2074.384033 6493.000000
2075.631348 7386.000000
2076.877930 5635.000000
2078.123779 6079.000000
2079.368408 7052.000000
2080.612549 7670.000000
2081.856201 5517.000000
2083.098877 6167.000000
2084.340332 6971.000000
2085.581543 5965.000000
2086.822266 6428.000000
2088.062012 6790.000000
2089.300537 7087.000000
2090.538574 6199.000000
2091.775879 5854.000000
2093.012939 6689.000000
2094.248535 6112.000000
2095.483398 6171.000000
2096.718018 6158.000000
2097.951660 5697.000000
2099.184326 6174.000000
2100.416260 6948.000000
2101.647705 6447.000000
2102.878174 6760.000000
2104.107910 6103.000000
2105.337402 6061.000000
2106.564941 6033.000000
2107.792725 6039.000000
2109.019775 6477.000000
2110.245850 5566.000000
2111.470459 6434.000000
2112.695313 7007.000000
2113.918945 7074.000000
2115.142090 6258.000000
2116.364014 7653.000000
2117.585693 6037.000000
2118.806396 6863.000000
2120.026367 6065.000000
2121.245850 6153.000000
2122.463867 6670.000000
2123.681885 7107.000000
2124.898926 5814.000000
2126.115479 5850.000000
2127.330322 6606.000000
2128.545410 6348.000000
2129.759521 6999.000000
2130.972900 5765.000000
2132.185547 6176.000000
2133.396729 5816.000000
2134.608154 6461.000000
2135.818359 6666.000000
2137.028076 5942.000000
2138.236328 6153.000000
2139.444580 5708.000000
2140.652100 5943.000000
2141.858398 7732.000000
2143.063965 5980.000000
2144.269287 5686.000000
2145.473633 5621.000000
2146.677246 6358.000000
2147.880371 6184.000000
2149.082031 6517.000000
2150.283447 5356.000000
2151.484131 6390.000000
2152.684082 6136.000000
2153.882813 6000.000000
2155.081299 6963.000000
2156.279297 6177.000000
2157.476318 6089.000000
2158.672607 5164.000000
2159.867676 5305.000000
2161.062500 6123.000000
2162.256592 5591.000000
2163.449707 6122.000000
2164.641846 6965.000000
2165.833740 5942.000000
2167.024902 6399.000000
2168.215088 6331.000000
2169.404541 6549.000000
2170.593506 6827.000000
2171.781494 6304.000000
2172.969238 5790.000000
2174.155518 5966.000000
2175.341064 6590.000000
2176.526367 6059.000000
2177.711182 5921.000000
2178.894775 6432.000000
2180.077637 7556.000000
2181.259521 6368.000000
2182.441162 5999.000000
2183.622314 6535.000000
2184.802246 5784.000000
2185.981201 5609.000000
2187.159668 6365.000000
2188.337891 6847.000000
2189.514893 7199.000000
2190.690918 6753.000000
2191.866699 6091.000000
2193.041992 5638.000000
2194.215820 6643.000000
2195.389160 6166.000000
2196.562256 6198.000000
2197.734131 6539.000000
2198.905518 7112.000000
2200.076416 6342.000000
2201.245605 6900.000000
2202.414795 7589.000000
2203.583496 6371.000000
2204.751221 5969.000000
2205.917969 5701.000000
2207.083984 7233.000000
2208.249512 6662.000000
2209.414795 6050.000000
2210.578613 6810.000000
2211.741943 5502.000000
2212.904053 6330.000000
2214.066406 6185.000000
2215.227539 6736.000000
2216.387695 6760.000000
2217.547363 6365.000000
2218.706787 6664.000000
2219.864990 6382.000000
2221.022217 6393.000000
2222.179199 6833.000000
2223.335449 6614.000000
2224.490967 6764.000000
2225.645752 6268.000000
2226.799561 6426.000000
2227.952393 6111.000000
2229.105713 6945.000000
2230.257080 6229.000000
2231.408203 6193.000000
2232.558594 6549.000000
2233.708496 7743.000000
2234.857422 6359.000000
2236.005859 5131.000000
2237.152832 6818.000000
2238.300049 7066.000000
2239.446045 6082.000000
2240.591797 7339.000000
2241.735840 7447.000000
2242.880127 6784.000000
2244.023438 6148.000000
2245.166016 6032.000000
2246.307617 5814.000000
2247.448975 5883.000000
2248.589355 6573.000000
2249.729004 6500.000000
2250.868164 5909.000000
2252.006104 5868.000000
2253.144043 6231.000000
2254.281006 5354.000000
2255.417236 6389.000000
2256.552490 6211.000000
2257.687012 7280.000000
2258.821289 6407.000000
2259.955078 5461.000000
2261.087402 6126.000000
2262.219238 6831.000000
2263.350586 6273.000000
2264.480957 6542.000000
2265.611084 8126.000000
2266.739990 6700.000000
2267.868408 6171.000000
2268.996338 5574.000000
2270.123291 6172.000000
2271.249512 5944.000000
2272.374756 6761.000000
2273.500000 6511.000000
2274.624512 6485.000000
2275.747803 5945.000000
2276.870361 6329.000000
2277.992432 6170.000000
2279.114014 7447.000000
2280.234863 6406.000000
2281.354492 6454.000000
2282.473633 7218.000000
2283.592529 7784.000000
2284.710693 7298.000000
2285.827881 5905.000000
2286.944092 6464.000000
2288.060059 7052.000000
2289.175293 6972.000000
2290.289795 7396.000000
2291.403076 5878.000000
2292.516357 6345.000000
2293.628906 6021.000000
2294.740723 5425.000000
2295.851807 6837.000000
2296.961670 6452.000000
2298.071045 6150.000000
2299.180176 6746.000000
2300.288330 6274.000000
2301.395508 6782.000000
2302.502441 5904.000000
2303.608643 6400.000000
2304.714355 6608.000000
2305.818604 6621.000000
2306.922607 5448.000000
2308.026123 5789.000000
2309.129150 6612.000000
2310.230957 7457.000000
2311.332031 7386.000000
2312.432617 6617.000000
2313.532715 5511.000000
2314.632080 6429.000000
2315.729980 6642.000000
2316.828369 7020.000000
2317.925293 8202.000000
2319.021973 6911.000000
2320.118164 5822.000000
2321.212646 6868.000000
2322.307129 7517.000000
2323.400879 5832.000000
2324.494385 6111.000000
2325.586182 6544.000000
2326.677979 6965.000000
2327.769043 6154.000000
2328.859375 6297.000000
2329.948730 6930.000000
2331.038086 6077.000000
2332.126221 6346.000000
2333.213867 7024.000000
2334.301270 6538.000000
2335.386963 6752.000000
2336.472412 7815.000000
2337.557617 6292.000000
2338.641846 6741.000000
2339.725098 5953.000000
2340.808105 6492.000000
2341.890137 7087.000000
2342.971924 6012.000000
2344.052979 7451.000000
2345.132813 6706.000000
2346.212158 5744.000000
2347.291016 6830.000000
2348.369385 6613.000000
2349.446289 6314.000000
2350.522949 6985.000000
2351.599365 6113.000000
2352.674805 6457.000000
2353.749268 5935.000000
2354.823486 6308.000000
2355.896973 6871.000000
2356.969971 6302.000000
2358.041748 6962.000000
2359.113281 6310.000000
2360.183838 6809.000000
2361.254150 7535.000000
2362.323486 7641.000000
2363.391846 6841.000000
2364.459961 6808.000000
2365.527344 7147.000000
2366.594238 7239.000000
2367.660400 6155.000000
2368.725342 6959.000000
2369.790283 6920.000000
2370.854492 6379.000000
2371.917969 6850.000000
2372.980225 5851.000000
2374.042480 6414.000000
2375.103760 6440.000000
2376.164795 5918.000000
2377.224609 6276.000000
2378.283691 7918.000000
2379.342773 6520.000000
2380.400879 7672.000000
2381.458252 6949.000000
2382.514648 8072.000000
2383.570801 7961.000000
2384.626465 6300.000000
2385.681396 7117.000000
2386.734863 6779.000000
2387.788574 6588.000000
2388.841309 6343.000000
2389.893555 6789.000000
2390.945068 6215.000000
2391.995605 6627.000000
2393.045898 6537.000000
2394.095215 6343.000000
2395.144531 6295.000000
2396.192383 6938.000000
2397.239746 7003.000000
2398.286865 6390.000000
2399.333008 6734.000000
2400.378418 6202.000000
2401.423096 6757.000000
2402.467773 7731.000000
2403.510986 7489.000000
2404.554199 6584.000000
2405.595947 5936.000000
2406.637939 6778.000000
2407.679199 7142.000000
2408.719482 6151.000000
2409.759033 6484.000000
2410.797607 6397.000000
2411.836426 5997.000000
2412.874023 6552.000000
2413.911377 6878.000000
2414.947510 7425.000000
2415.983398 6246.000000
2417.018555 6270.000000
2418.053223 6941.000000
2419.086426 7224.000000
2420.119873 6462.000000
2421.152344 6737.000000
2422.184570 6821.000000
2423.215332 7138.000000
2424.246094 6464.000000
2425.276367 6892.000000
2426.305420 6891.000000
2427.334473 6654.000000
2428.361816 7416.000000
2429.389648 6769.000000
2430.416260 7237.000000
2431.442627 6951.000000
2432.467529 7736.000000
2433.492676 6628.000000
2434.516846 7139.000000
2435.540771 6679.000000
2436.563477 5858.000000
2437.585449 6329.000000
2438.607178 6684.000000
2439.628174 6619.000000
2440.648682 6079.000000
2441.667969 6593.000000
2442.687256 6586.000000
2443.705566 8505.000000
2444.723633 6326.000000
2445.740234 6455.000000
2446.756836 6647.000000
2447.772705 6056.000000
2448.788574 7046.000000
2449.802979 6896.000000
2450.816650 5587.000000
2451.829834 7318.000000
2452.842773 6017.000000
2453.854980 7176.000000
2454.866211 6736.000000
2455.877197 7667.000000
2456.887451 6464.000000
2457.897217 7659.000000
2458.906006 5904.000000
2459.914063 5972.000000
2460.922119 6367.000000
2461.928955 7405.000000
2462.935547 5390.000000
2463.940918 7456.000000
2464.946045 7029.000000
2465.950928 5846.000000
2466.954590 6578.000000
2467.958008 6404.000000
2468.960449 7708.000000
2469.962646 7375.000000
2470.964355 6896.000000
2471.965088 6620.000000
2472.964844 6920.000000
2473.964600 6773.000000
2474.963379 5687.000000
2475.961670 6640.000000
2476.958984 7084.000000
2477.956055 6145.000000
2478.953125 7047.000000
2479.948730 5827.000000
2480.944336 7121.000000
2481.938232 6724.000000
2482.932129 8123.000000
2483.925537 6882.000000
2484.918457 6935.000000
2485.910400 7531.000000
2486.901611 7232.000000
2487.892578 6822.000000
2488.883057 5852.000000
2489.872559 6674.000000
2490.861328 6531.000000
2491.850098 5713.000000
2492.837891 6849.000000
2493.824463 6596.000000
2494.811035 8105.000000
2495.797119 6782.000000
2496.782471 7119.000000
2497.766846 8234.000000
2498.750977 6100.000000
2499.735107 6943.000000
2500.717773 5781.000000
2501.699951 6995.000000
2502.681641 6901.000000
2503.662598 7321.000000
2504.643066 6579.000000
2505.623291 5807.000000
2506.602051 6330.000000
2507.580566 7599.000000
2508.558594 6754.000000
2509.536133 7130.000000
2510.512695 6087.000000
2511.489014 6025.000000
2512.464600 6427.000000
2513.439697 6292.000000
2514.414307 6428.000000
2515.387695 7647.000000
2516.360840 6862.000000
2517.333740 7026.000000
2518.305664 6216.000000
2519.276855 6880.000000
2520.247559 6971.000000
2521.218018 7880.000000
2522.187744 8181.000000
2523.156494 6172.000000
2524.124512 6124.000000
2525.092529 7695.000000
2526.059570 6388.000000
2527.026367 5510.000000
2527.991943 7249.000000
2528.957520 7116.000000
2529.922363 7778.000000
2530.886719 6300.000000
2531.849854 6400.000000
2532.813232 5903.000000
2533.775635 5997.000000
2534.737793 6712.000000
2535.698730 6353.000000
2536.658936 6137.000000
2537.619385 6211.000000
2538.578857 6786.000000
2539.537598 6853.000000
2540.495361 6838.000000
2541.453369 6227.000000
2542.410645 6794.000000
2543.366943 6113.000000
2544.322998 7191.000000
2545.277832 6253.000000
2546.232910 7795.000000
2547.187256 7028.000000
2548.140869 6862.000000
2549.093506 7263.000000
2550.045898 6763.000000
2550.997803 6983.000000
2551.948975 6417.000000
2552.899414 7796.000000
2553.849365 7178.000000
2554.799072 7370.000000
2555.748047 6615.000000
2556.696533 6262.000000
2557.643799 7208.000000
2558.591064 6312.000000
2559.537598 6568.000000
2560.483643 6786.000000
2561.428711 7440.000000
2562.373535 6757.000000
2563.317871 7244.000000
2564.261719 6833.000000
2565.205078 6701.000000
2566.146973 6613.000000
2567.089111 6603.000000
2568.030518 6209.000000
2568.971191 7203.000000
2569.911133 7287.000000
2570.851074 5778.000000
2571.790039 6186.000000
2572.728760 7595.000000
2573.666504 7222.000000
2574.604004 5518.000000
2575.540771 7013.000000
2576.476807 6781.000000
2577.412354 7575.000000
2578.347168 6424.000000
2579.281982 5969.000000
2580.215820 7078.000000
2581.149170 7283.000000
2582.081787 5954.000000
2583.014160 6937.000000
2583.945801 5466.000000
2584.876953 7113.000000
2585.807617 6955.000000
2586.737061 6929.000000
2587.666504 7239.000000
2588.595459 6533.000000
2589.524170 7503.000000
2590.451172 7319.000000
2591.378418 5915.000000
2592.305176 6835.000000
2593.231201 6379.000000
2594.156982 5622.000000
2595.081543 7698.000000
2596.005859 7639.000000
2596.929688 5315.000000
2597.853027 7391.000000
2598.775391 6329.000000
2599.697510 6897.000000
2600.619141 8359.000000
2601.540039 6474.000000
2602.460205 6027.000000
2603.380127 6414.000000
2604.299561 6478.000000
2605.218750 6466.000000
2606.136963 5856.000000
2607.053955 5959.000000
2607.971191 7280.000000
2608.888184 5872.000000
2609.804199 7545.000000
2610.718994 6652.000000
2611.634277 6642.000000
2612.548828 6565.000000
2613.462402 6568.000000
2614.375977 6478.000000
2615.288330 7629.000000
2616.200684 7060.000000
2617.112061 6807.000000
2618.023193 5788.000000
2618.933594 7220.000000
2619.843750 6743.000000
2620.753174 6192.000000
2621.662109 6738.000000
2622.570068 6285.000000
2623.478271 7012.000000
2624.385498 6647.000000
2625.292236 7081.000000
2626.198242 6025.000000
2627.104004 6602.000000
2628.009033 6480.000000
2628.913818 7914.000000
2629.817871 6498.000000
2630.720947 6415.000000
2631.624023 6513.000000
2632.526123 5680.000000
2633.428223 6744.000000
2634.330078 6972.000000
2635.230225 6762.000000
2636.130615 6387.000000
2637.030273 6417.000000
2637.929688 6004.000000
2638.827637 6916.000000
2639.726074 6821.000000
2640.624023 6451.000000
2641.521240 6083.000000
2642.417236 6205.000000
2643.313232 6788.000000
2644.208984 6126.000000
2645.104004 6475.000000
2645.998779 6679.000000
2646.892090 7290.000000
2647.785400 6389.000000
2648.678467 6837.000000
2649.571289 6463.000000
2650.462402 7442.000000
2651.353760 6452.000000
2652.244629 7638.000000
2653.134766 7338.000000
2654.024658 6586.000000
2654.913330 7269.000000
2655.802246 6689.000000
2656.690674 6625.000000
2657.578125 7364.000000
2658.464600 6445.000000
2659.351563 7187.000000
2660.237793 6931.000000
2661.123535 6906.000000
2662.008057 6537.000000
2662.892578 6435.000000
2663.776855 6226.000000
2664.660400 7059.000000
2665.543457 7828.000000
2666.425781 7335.000000
2667.307617 6291.000000
2668.188721 6716.000000
2669.070068 6086.000000
2669.949951 6577.000000
2670.830078 7414.000000
2671.709473 7266.000000
2672.588867 6196.000000
2673.467529 6157.000000
2674.344482 6455.000000
2675.222168 6805.000000
2676.099121 6460.000000
2676.975342 8097.000000
2677.851074 7187.000000
2678.726074 6338.000000
2679.601318 7746.000000
2680.475586 6953.000000
2681.349365 7350.000000
2682.222412 7050.000000
2683.095215 6220.000000
2683.967773 6172.000000
2684.839600 7018.000000
2685.710693 6569.000000
2686.581543 6896.000000
2687.451904 7081.000000
2688.322021 6785.000000
2689.190430 6332.000000
2690.059570 7374.000000
2690.927979 7104.000000
2691.796143 6674.000000
2692.663574 6951.000000
2693.529785 5869.000000
2694.396484 7181.000000
2695.262207 7449.000000
2696.127930 7209.000000
2696.992188 8055.000000
2697.857178 6618.000000
2698.720703 7307.000000
2699.584473 5875.000000
2700.446777 7475.000000
2701.309570 6842.000000
2702.171387 6013.000000
2703.032715 6934.000000
2703.894043 6699.000000
2704.754150 7466.000000
2705.614258 7369.000000
2706.473877 6634.000000
2707.333252 6912.000000
2708.190918 7198.000000
2709.048828 6908.000000
2709.907227 7370.000000
2710.764404 6745.000000
2711.620850 6017.000000
2712.476807 6921.000000
2713.332764 6116.000000
2714.187988 6905.000000
2715.042480 6099.000000
2715.896484 7002.000000
2716.750488 7419.000000
2717.603516 6305.000000
2718.456787 6630.000000
2719.308350 7746.000000
2720.160400 6793.000000
2721.012207 6314.000000
2721.862793 6622.000000
2722.713379 6428.000000
2723.563477 7144.000000
2724.412842 7075.000000
2725.262207 7004.000000
2726.110352 6685.000000
2726.958008 6593.000000
2727.806152 7069.000000
2728.653076 6854.000000
2729.500488 5580.000000
2730.346436 7562.000000
2731.191650 7015.000000
2732.037354 6438.000000
2732.882080 7128.000000
2733.726807 7381.000000
2734.570313 6857.000000
2735.414063 7798.000000
2736.257080 7089.000000
2737.099609 6104.000000
2737.941162 6306.000000
2738.783203 6759.000000
2739.624268 6937.000000
2740.465088 5819.000000
2741.305664 5917.000000
2742.145020 7748.000000
2742.984375 6826.000000
2743.823730 6962.000000
2744.661865 6815.000000
2745.499512 7930.000000
2746.337158 6329.000000
2747.174316 7137.000000
2748.011230 6240.000000
2748.847656 6059.000000
2749.682861 6632.000000
2750.518311 6327.000000
2751.353271 6342.000000
2752.187500 6280.000000
2753.021484 6886.000000
2753.854980 6865.000000
2754.688477 8038.000000
2755.520996 6820.000000
2756.353027 7316.000000
2757.184570 6792.000000
2758.016113 7127.000000
2758.846680 7285.000000
2759.677490 7300.000000
2760.507080 7301.000000
2761.336670 6845.000000
2762.166016 7314.000000
2762.994629 6862.000000
2763.822754 6808.000000
2764.650391 7011.000000
2765.478027 6694.000000
2766.305176 7989.000000
2767.131592 5817.000000
2767.957520 7496.000000
2768.782959 6846.000000
2769.608154 7845.000000
2770.433350 7107.000000
2771.257324 6842.000000
2772.081299 6516.000000
2772.905273 7732.000000
2773.728027 6663.000000
2774.551025 6978.000000
2775.372803 6885.000000
2776.194580 6996.000000
2777.016357 6509.000000
2777.837158 8066.000000
2778.657227 6552.000000
2779.477539 7043.000000
2780.297363 7329.000000
2781.117188 6478.000000
2781.935059 5945.000000
2782.754150 8088.000000
2783.572021 6555.000000
2784.389648 6726.000000
2785.206787 7124.000000
2786.023438 7290.000000
2786.839844 7204.000000
2787.655762 6278.000000
2788.471436 5977.000000
2789.286133 6425.000000
2790.101318 6936.000000
2790.915771 7145.000000
2791.729736 6632.000000
2792.543457 7475.000000
2793.355957 8834.000000
2794.168701 7016.000000
2794.980957 7478.000000
2795.792725 7240.000000
2796.603760 7435.000000
2797.415527 6608.000000
2798.226074 7169.000000
2799.036621 7064.000000
2799.845703 7480.000000
2800.655518 8263.000000
2801.464600 7817.000000
2802.273438 6738.000000
2803.081787 7200.000000
2803.889160 6097.000000
2804.697021 6487.000000
2805.504150 7027.000000
2806.311035 7008.000000
2807.116699 7164.000000
2807.922852 6666.000000
2808.728271 6486.000000
2809.533691 7306.000000
2810.338379 6245.000000
2811.142090 7708.000000
2811.946289 7481.000000
2812.750000 6289.000000
2813.553467 6109.000000
2814.355469 6658.000000
2815.158203 7376.000000
2815.960205 7806.000000
2816.761963 6198.000000
2817.563232 6567.000000
2818.364014 7328.000000
2819.164307 6561.000000
2819.964844 6656.000000
2820.764404 8108.000000
2821.563477 7211.000000
2822.362549 6677.000000
2823.161377 6895.000000
2823.959717 6361.000000
2824.757080 7069.000000
2825.554688 7167.000000
2826.351563 6690.000000
2827.148682 7422.000000
2827.945068 8014.000000
2828.740723 7035.000000
2829.536377 7379.000000
2830.331787 7672.000000
2831.126709 7544.000000
2831.920898 6653.000000
2832.715088 6914.000000
2833.509033 5630.000000
2834.302490 6900.000000
2835.095215 7093.000000
2835.887695 8187.000000
2836.680176 7765.000000
2837.472412 7537.000000
2838.264160 6452.000000
2839.054932 6851.000000
2839.845703 8922.000000
2840.636719 7487.000000
2841.426758 6239.000000
2842.216309 7708.000000
2843.006104 7175.000000
2843.794922 7385.000000
2844.583740 7802.000000
2845.372559 7747.000000
2846.160400 7556.000000
2846.947754 7255.000000
2847.735352 7594.000000
2848.522461 7344.000000
2849.308838 6707.000000
2850.095215 7501.000000
2850.881348 7191.000000
2851.666992 7573.000000
2852.451660 7312.000000
2853.236816 6930.000000
2854.021729 7462.000000
2854.805908 7158.000000
2855.590088 6930.000000
2856.373047 8292.000000
2857.156250 6940.000000
2857.939209 6781.000000
2858.721680 7860.000000
2859.503906 6317.000000
2860.285645 6709.000000
2861.067139 7544.000000
2861.848877 7474.000000
2862.629883 7653.000000
2863.410156 6630.000000
2864.190186 6695.000000
2864.970215 8241.000000
2865.750000 7473.000000
2866.528809 8187.000000
2867.307861 7696.000000
2868.086426 6810.000000
2868.864746 7075.000000
2869.642578 7238.000000
2870.420166 6958.000000
2871.197510 7537.000000
2871.974609 6953.000000
2872.751221 6487.000000
2873.527344 7584.000000
2874.303467 7220.000000
2875.079102 8374.000000
2875.854492 7331.000000
2876.629395 6847.000000
2877.404053 8128.000000
2878.178711 6872.000000
2878.953125 7977.000000
2879.726807 6938.000000
2880.499756 7475.000000
2881.273438 6876.000000
2882.046143 7696.000000
2882.818848 7890.000000
2883.590820 8300.000000
2884.362549 6246.000000
2885.134766 6876.000000
2885.905762 6916.000000
2886.676270 6189.000000
2887.447266 8469.000000
2888.218262 7420.000000
2888.988525 8000.000000
2889.757813 7608.000000
2890.527344 7006.000000
2891.296875 7346.000000
2892.065918 7364.000000
2892.834473 7913.000000
2893.603027 7757.000000
2894.370605 7041.000000
2895.138672 6605.000000
2895.906250 7465.000000
2896.673828 8406.000000
2897.440186 7406.000000
2898.207520 6555.000000
2898.973633 7307.000000
2899.739990 7018.000000
2900.504883 8284.000000
2901.270264 7060.000000
2902.036133 6475.000000
2902.800537 7843.000000
2903.564941 7901.000000
2904.329590 8396.000000
2905.093262 6636.000000
2905.857666 8467.000000
2906.621338 6766.000000
2907.384277 8351.000000
2908.146973 6528.000000
2908.910156 9197.000000
2909.672852 6990.000000
2910.434326 6849.000000
2911.196289 6849.000000
