scanname Analyse050
timestamp 2017-02-10 21:06:46
ccdbias 897.503418
ccdgain 3.473401
sigmaread 8.960639
laserwavenum -0.649602
wavenumcorrection -0.126638
scancount 1
totalexposurems 10000
singleexposurems 10000
measurementstate Unknown
scanmode Manual
snr 255.360153 7.416324 6.210552
replacelist 3
374 49888.000000 14982.000000
672 38813.000000 31320.000000
673 36417.000000 5539.000000
peaks 52
278.311493 0.701235 0.000000 1.478694 0.000187
287.629303 0.700768 0.000000 0.746978 0.000042
301.820374 0.702503 0.000000 0.180348 0.000023
329.977020 0.717651 0.000000 0.800680 0.000136
342.121460 0.720538 0.000000 0.709513 0.000032
349.068726 0.723312 0.000000 0.599270 0.000023
386.342621 0.729245 0.000000 1.347458 0.000294
417.587494 0.707657 0.000000 0.717117 0.000217
450.002716 0.731469 0.000000 0.409622 0.000048
456.808960 0.737743 0.000000 0.251997 0.000040
464.089752 0.741465 0.000000 0.430805 0.000027
486.718384 0.750135 0.000000 0.490925 0.000056
529.548828 0.750732 0.000000 0.587840 0.000138
559.051941 0.786344 0.000000 1.343232 0.000230
566.188171 0.791299 0.000000 1.146512 0.000100
572.023804 0.794810 0.000000 0.668015 0.000158
581.695068 0.787992 0.000000 0.702928 0.000075
660.594604 0.809351 0.000000 1.251974 0.000117
673.481018 0.807853 0.000000 1.402918 0.000266
715.713074 0.815758 0.000000 5.330985 0.001099
721.447510 0.796949 0.000000 1.185909 0.000050
741.107605 0.812867 0.000000 0.942880 0.000104
753.099487 0.817117 0.000000 0.735973 0.000038
764.836060 0.832722 0.000000 1.263810 0.000421
773.585388 0.833185 0.000000 3.688770 0.000431
803.459656 0.793822 0.000000 2.032107 0.000139
831.070496 0.816226 0.000000 0.267602 0.000137
843.789307 0.822164 0.000000 0.732062 0.000040
853.640625 0.845591 0.000000 0.937461 0.000249
874.068542 0.850068 0.000000 1.708604 0.000554
937.962402 0.818811 0.000000 0.515673 0.000331
954.714233 0.807062 0.000000 3.667957 0.001022
1012.827271 0.785490 0.000000 0.941711 0.000191
1030.062378 0.810649 0.000000 0.962939 0.000199
1044.579102 0.824019 0.000000 4.118153 0.001231
1085.222412 0.783949 0.000000 0.791801 0.000127
1101.868896 0.777116 0.000000 1.294075 0.000374
1120.842651 0.783554 0.000000 0.794311 0.000193
1135.900391 0.778448 0.000000 1.805239 0.000722
1150.138062 0.769461 0.000000 1.948227 0.000749
1171.936035 0.750478 0.000000 0.516184 0.000241
1211.487793 0.746256 0.000000 0.651851 0.000095
1235.138428 0.754112 0.000000 1.387623 0.000446
1260.387085 0.759825 0.000000 1.998980 0.000596
1277.212402 0.742294 0.000000 0.423172 0.000413
1316.260986 0.803823 0.000000 11.061176 0.002068
1349.218262 0.741010 0.000000 0.433913 0.000125
1385.989990 0.729443 0.000000 0.282755 0.000157
1452.760010 0.791590 0.000000 7.462398 0.002354
1614.501099 0.689068 0.000000 2.374369 0.000725
1664.882080 0.710402 0.000000 11.211540 0.006243
1747.923218 0.617477 0.000000 1.820997 0.000712
finalresult GLS_NoMatch 0
spectrum 2048
-96.951851 45728.000000
-94.324982 45728.000000
-91.699989 46309.000000
-89.076889 46294.000000
-86.455658 47058.000000
-83.836327 46752.000000
-81.218857 46980.000000
-78.603264 46815.000000
-75.989548 47019.000000
-73.377708 47412.000000
-70.767731 47269.000000
-68.159637 47487.000000
-65.553391 47438.000000
-62.949024 47490.000000
-60.346516 47340.000000
-57.745861 47778.000000
-55.147068 47211.000000
-52.550133 46585.000000
-49.955051 47012.000000
-47.361824 46872.000000
-44.770447 47136.000000
-42.180916 46678.000000
-39.593227 47478.000000
-37.007389 47367.000000
-34.423393 46927.000000
-31.841232 47648.000000
-29.260920 47057.000000
-26.682434 47684.000000
-24.105791 47202.000000
-21.530973 47009.000000
-18.957996 46784.000000
-16.386839 46678.000000
-13.817516 46408.000000
-11.250017 45463.000000
-8.684338 46878.000000
-6.120484 46567.000000
-3.558444 47008.000000
-0.998228 47052.000000
1.560180 46635.000000
4.116767 45840.000000
6.671549 45914.000000
9.224514 46264.000000
11.775679 45141.000000
14.325031 44922.000000
16.872587 44056.000000
19.418331 44097.000000
21.962282 43432.000000
24.504429 40890.000000
27.044779 38696.000000
29.583344 36073.000000
32.120110 32250.000000
34.655075 22555.000000
37.188263 12911.000000
39.719669 8972.000000
42.249283 8430.000000
44.777100 8231.000000
47.303158 7426.000000
49.827427 6702.000000
52.349926 5688.000000
54.870628 5228.000000
57.389576 5299.000000
59.906750 6232.000000
62.422146 7852.000000
64.935768 9432.000000
67.447632 9748.000000
69.957748 7134.000000
72.466072 4488.000000
74.972641 3673.000000
77.477463 3052.000000
79.980530 2608.000000
82.481819 2256.000000
84.981369 2240.000000
87.479164 2234.000000
89.975227 2356.000000
92.469513 2737.000000
94.962059 3132.000000
97.452888 2845.000000
99.941948 2728.000000
102.429260 2096.000000
104.914848 1835.000000
107.398697 1745.000000
109.880798 1666.000000
112.361176 1519.000000
114.839828 1505.000000
117.316757 1398.000000
119.791931 1430.000000
122.265396 1477.000000
124.737129 1674.000000
127.207153 1674.000000
129.675415 1821.000000
132.142014 2176.000000
134.606857 2514.000000
137.070007 2908.000000
139.531418 3340.000000
141.991135 4322.000000
144.449127 5112.000000
146.905426 6392.000000
149.360016 8152.000000
151.812881 10024.000000
154.264069 16041.000000
156.713562 25076.000000
159.161331 29531.000000
161.607391 33555.000000
164.051773 33072.000000
166.494476 36770.000000
168.935486 37368.000000
171.374786 38746.000000
173.812378 38379.000000
176.248337 39791.000000
178.682556 40084.000000
181.115097 40531.000000
183.545990 41640.000000
185.975159 41646.000000
188.402679 42547.000000
190.828522 43155.000000
193.252686 43110.000000
195.675186 42955.000000
198.095993 42939.000000
200.515137 44146.000000
202.932617 44827.000000
205.348404 43479.000000
207.762543 44254.000000
210.175049 45147.000000
212.585876 45613.000000
214.995026 45669.000000
217.402542 44683.000000
219.808350 46056.000000
222.212570 45690.000000
224.615082 45637.000000
227.015976 45442.000000
229.415222 45930.000000
231.812805 45675.000000
234.208725 45109.000000
236.603027 45883.000000
238.995667 46627.000000
241.386688 45636.000000
243.776047 45761.000000
246.163788 45981.000000
248.549881 45365.000000
250.934341 46266.000000
253.317154 44597.000000
255.698395 45730.000000
258.077942 45697.000000
260.455902 45829.000000
262.832184 44665.000000
265.206909 44714.000000
267.579987 44309.000000
269.951416 46086.000000
272.321198 45807.000000
274.689423 46354.000000
277.056000 45793.000000
279.420990 45465.000000
281.784363 46168.000000
284.146088 45882.000000
286.506226 45071.000000
288.864746 46122.000000
291.221680 45619.000000
293.576996 45676.000000
295.930725 46165.000000
298.282806 46142.000000
300.633331 45796.000000
302.982269 45726.000000
305.329559 45229.000000
307.675323 45713.000000
310.019409 45536.000000
312.361969 44744.000000
314.702911 44423.000000
317.042236 44907.000000
319.380005 45125.000000
321.716217 43924.000000
324.050781 45817.000000
326.383789 45490.000000
328.715240 45986.000000
331.045105 45350.000000
333.373383 45556.000000
335.700043 44753.000000
338.025208 45639.000000
340.348755 45712.000000
342.670746 46037.000000
344.991180 44444.000000
347.309998 44238.000000
349.627258 45938.000000
351.942993 46020.000000
354.257141 44957.000000
356.569702 45568.000000
358.880707 45560.000000
361.190186 44877.000000
363.498138 45647.000000
365.804474 46303.000000
368.109222 45543.000000
370.412506 45531.000000
372.714172 45718.000000
375.014343 45638.000000
377.312958 45738.000000
379.610016 46258.000000
381.905518 45989.000000
384.199493 46124.000000
386.491882 46892.000000
388.782776 46519.000000
391.072144 45816.000000
393.359924 45871.000000
395.646179 45624.000000
397.930939 45180.000000
400.214081 46106.000000
402.495789 45748.000000
404.775970 45934.000000
407.054565 44812.000000
409.331635 45640.000000
411.607178 45397.000000
413.881195 45608.000000
416.153778 45580.000000
418.424744 45808.000000
420.694214 45477.000000
422.962189 44835.000000
425.228607 44791.000000
427.493530 45680.000000
429.756989 45647.000000
432.018860 45519.000000
434.279266 45954.000000
436.538116 45261.000000
438.795502 45784.000000
441.051392 46198.000000
443.305786 46111.000000
445.558655 46405.000000
447.809967 44886.000000
450.059875 45700.000000
452.308197 45557.000000
454.555084 46218.000000
456.800507 45242.000000
459.044373 45257.000000
461.286743 44920.000000
463.527618 46114.000000
465.767090 45035.000000
468.004974 46277.000000
470.241425 45902.000000
472.476349 45659.000000
474.709808 44501.000000
476.941833 45033.000000
479.172333 46050.000000
481.401337 45352.000000
483.628876 45427.000000
485.854919 45815.000000
488.079529 45081.000000
490.302673 45839.000000
492.524353 45276.000000
494.744476 44979.000000
496.963196 46033.000000
499.180420 45525.000000
501.396271 46186.000000
503.610504 45605.000000
505.823425 45293.000000
508.034760 45303.000000
510.244659 44853.000000
512.453125 45219.000000
514.660217 45174.000000
516.865723 45301.000000
519.069824 45149.000000
521.272400 45461.000000
523.473572 45146.000000
525.673401 45021.000000
527.871704 44734.000000
530.068481 46337.000000
532.263916 45774.000000
534.457825 46048.000000
536.650391 43947.000000
538.841431 44855.000000
541.031067 45537.000000
543.219299 44648.000000
545.406006 44356.000000
547.591248 44667.000000
549.775208 45245.000000
551.957581 45033.000000
554.138611 45128.000000
556.318115 45391.000000
558.496338 45426.000000
560.673035 45291.000000
562.848328 44870.000000
565.022217 44949.000000
567.194641 45414.000000
569.365662 45252.000000
571.535217 45106.000000
573.703491 46093.000000
575.870239 45011.000000
578.035522 45080.000000
580.199402 45264.000000
582.362000 45601.000000
584.523071 45333.000000
586.682739 45790.000000
588.841064 45615.000000
590.997864 45300.000000
593.153320 44771.000000
595.307373 45694.000000
597.460083 45356.000000
599.611267 44207.000000
601.761108 44625.000000
603.909607 44705.000000
606.056519 45344.000000
608.202209 44883.000000
610.346497 44926.000000
612.489319 44594.000000
614.630676 45150.000000
616.770813 44788.000000
618.909424 43611.000000
621.046753 45568.000000
623.182617 44692.000000
625.317078 44243.000000
627.450073 43945.000000
629.581909 44519.000000
631.712280 44503.000000
633.841248 44201.000000
635.968750 44562.000000
638.094971 44802.000000
640.219666 43665.000000
642.343140 44629.000000
644.465271 44054.000000
646.585938 43904.000000
648.705261 44399.000000
650.823181 45278.000000
652.939758 45113.000000
655.054932 44396.000000
657.168762 44293.000000
659.281128 44991.000000
661.392273 44705.000000
663.502014 45435.000000
665.610291 44789.000000
667.717407 44545.000000
669.823059 44041.000000
671.927246 45158.000000
674.030212 45165.000000
676.131775 43813.000000
678.231995 45537.000000
680.330811 44138.000000
682.428284 44676.000000
684.524475 43874.000000
686.619202 44669.000000
688.712708 43778.000000
690.804871 44216.000000
692.895508 42772.000000
694.984924 44085.000000
697.073059 44242.000000
699.159729 44708.000000
701.245178 43896.000000
703.329102 45364.000000
705.411804 44531.000000
707.493225 44516.000000
709.573181 42841.000000
711.651917 44068.000000
713.729187 44761.000000
715.805176 43654.000000
717.879883 44085.000000
719.953308 43258.000000
722.025208 43855.000000
724.095947 42835.000000
726.165344 44345.000000
728.233337 43610.000000
730.299988 43608.000000
732.365417 42797.000000
734.429504 44202.000000
736.492249 43742.000000
738.553650 43324.000000
740.613770 43276.000000
742.672485 43794.000000
744.729980 43244.000000
746.786194 43205.000000
748.841003 43164.000000
750.894531 43376.000000
752.946655 42335.000000
754.997559 43968.000000
757.047241 43049.000000
759.095459 43587.000000
761.142456 43605.000000
763.188171 42793.000000
765.232483 44536.000000
767.275513 44159.000000
769.317322 43540.500000
771.357788 42922.000000
773.396851 43422.000000
775.434753 43683.000000
777.471313 43723.000000
779.506653 44384.000000
781.540649 43957.000000
783.573242 42812.000000
785.604675 44198.000000
787.634705 38157.000000
789.663452 43688.000000
791.691040 43322.000000
793.717285 43201.000000
795.742126 43668.000000
797.765869 44023.000000
799.788208 43141.000000
801.809326 43588.000000
803.829102 42722.000000
805.847595 44445.000000
807.864868 42729.000000
809.880737 42371.000000
811.895447 43420.000000
813.908813 42716.000000
815.920959 42801.000000
817.931885 42895.000000
819.941467 42358.000000
821.949829 43547.000000
823.956787 43095.000000
825.962524 42771.000000
827.967041 42994.000000
829.970276 43021.000000
831.972229 42242.000000
833.972900 42618.000000
835.972351 42715.000000
837.970459 42339.000000
839.967468 41650.000000
841.963074 42489.000000
843.957520 42708.000000
845.950623 42502.000000
847.942505 41810.000000
849.933044 43055.000000
851.922302 41898.000000
853.910522 42704.000000
855.897339 43040.000000
857.882935 42355.000000
859.867249 41557.000000
861.850464 42568.000000
863.832275 42519.000000
865.812866 43148.000000
867.792175 41265.000000
869.770325 41903.000000
871.747131 42851.000000
873.722656 43206.000000
875.697144 42908.000000
877.670166 42935.000000
879.642151 43551.000000
881.612793 42398.000000
883.582275 42477.000000
885.550415 42820.000000
887.517395 42993.000000
889.483032 41729.000000
891.447510 41773.000000
893.410767 41439.000000
895.372803 40699.000000
897.333557 41127.000000
899.293091 40446.000000
901.251343 40009.000000
903.208496 40213.000000
905.164490 40454.000000
907.119080 39294.000000
909.072449 39544.000000
911.024658 39430.000000
912.975647 39201.000000
914.925354 38284.000000
916.873901 38813.000000
918.821228 38808.000000
920.767273 38691.000000
922.712036 38575.000000
924.655762 38224.000000
926.598328 38558.000000
928.539612 38792.000000
930.479553 37878.000000
932.418396 38585.000000
934.355957 38812.000000
936.292297 38269.000000
938.227478 38528.000000
940.161377 38281.000000
942.094177 38514.000000
944.025757 37651.000000
945.956177 39270.000000
947.885376 37948.000000
949.813232 37498.000000
951.740051 37895.000000
953.665588 38622.000000
955.589844 39244.000000
957.513000 38615.000000
959.434998 37988.000000
961.355713 37473.000000
963.275269 38175.000000
965.193665 39221.000000
967.111023 38147.000000
969.026917 38192.000000
970.941711 38382.000000
972.855286 38553.000000
974.767700 37998.000000
976.678894 37878.000000
978.588928 38789.000000
980.497681 37969.000000
982.405396 38038.000000
984.311890 37708.000000
986.217163 38297.000000
988.121338 37111.000000
990.024292 37626.000000
991.926025 36900.000000
993.826599 37229.000000
995.726013 36862.000000
997.624207 37966.000000
999.521240 36516.000000
1001.417053 36464.000000
1003.311707 35166.000000
1005.205261 37081.000000
1007.097534 35280.000000
1008.988892 36277.000000
1010.878906 36916.000000
1012.767700 35597.000000
1014.655334 35970.000000
1016.541809 35368.000000
1018.427124 35495.000000
1020.311279 36271.000000
1022.194214 36274.000000
1024.076050 36097.000000
1025.956665 37140.000000
1027.836182 36583.000000
1029.714722 36555.000000
1031.591919 37412.000000
1033.467773 36690.000000
1035.342651 37144.000000
1037.216553 36538.000000
1039.088989 36222.000000
1040.960449 36541.000000
1042.830566 37724.000000
1044.699707 37772.000000
1046.567627 37635.000000
1048.434448 36408.000000
1050.300171 36778.000000
1052.164673 37036.000000
1054.028076 36920.000000
1055.890137 36941.000000
1057.751221 37488.000000
1059.611206 36801.000000
1061.469849 36723.000000
1063.327393 37512.000000
1065.183838 36590.000000
1067.039185 37372.000000
1068.893311 37462.000000
1070.746582 37039.000000
1072.598389 36944.000000
1074.449219 37087.000000
1076.298828 36996.000000
1078.147217 37376.000000
1079.994751 35161.000000
1081.840942 37380.000000
1083.685913 36482.000000
1085.530029 37213.000000
1087.372803 36941.000000
1089.214355 35814.000000
1091.055176 36617.000000
1092.894409 35984.000000
1094.732910 35606.000000
1096.570068 35473.000000
1098.406006 34420.000000
1100.240967 34290.000000
1102.074707 35000.000000
1103.907471 34684.000000
1105.738892 34329.000000
1107.569458 33271.000000
1109.398682 33548.000000
1111.226929 33219.000000
1113.053955 32539.000000
1114.880005 34066.000000
1116.704834 33302.000000
1118.528564 32569.000000
1120.351074 33505.000000
1122.172485 33698.000000
1123.993042 33753.000000
1125.812134 33348.000000
1127.630371 32938.000000
1129.447266 33129.000000
1131.263306 33205.000000
1133.078125 33421.000000
1134.891846 34185.000000
1136.704468 34212.000000
1138.515869 34527.000000
1140.326294 34181.000000
1142.135620 33765.000000
1143.943604 33467.000000
1145.750854 34237.000000
1147.556641 34133.000000
1149.361572 34579.000000
1151.165405 34582.000000
1152.968018 34002.000000
1154.769775 33933.000000
1156.570068 33755.000000
1158.369385 33601.000000
1160.167725 33535.000000
1161.964722 33831.000000
1163.760986 33358.000000
1165.555908 33066.000000
1167.349731 32683.000000
1169.142700 31253.000000
1170.934326 32934.000000
1172.724976 31823.000000
1174.514648 32228.000000
1176.302856 32415.000000
1178.090210 30958.000000
1179.876465 31481.000000
1181.661621 32223.000000
1183.445679 32005.000000
1185.228638 30346.000000
1187.010620 32012.000000
1188.791382 31806.000000
1190.571167 31481.000000
1192.349854 30723.000000
1194.127563 30857.000000
1195.904053 29989.000000
1197.679443 30329.000000
1199.453735 30054.000000
1201.226929 29734.000000
1202.999268 29794.000000
1204.770264 29483.000000
1206.540405 30301.000000
1208.309326 29852.000000
1210.077148 29585.000000
1211.844116 30084.000000
1213.609741 30025.000000
1215.374390 28951.000000
1217.137939 29445.000000
1218.900391 29953.000000
1220.661987 29152.000000
1222.422363 29871.000000
1224.181641 29482.000000
1225.940063 29867.000000
1227.697266 28938.000000
1229.453369 29600.000000
1231.208374 30421.000000
1232.962524 30100.000000
1234.715332 30421.000000
1236.467163 30292.000000
1238.218140 30381.000000
1239.967773 31626.000000
1241.716553 29723.000000
1243.463989 30289.000000
1245.210693 30064.000000
1246.956177 30003.000000
1248.700806 30008.000000
1250.444092 29463.000000
1252.186401 29335.000000
1253.927612 30391.000000
1255.667969 30445.000000
1257.407227 29696.000000
1259.145264 29082.000000
1260.882446 28718.000000
1262.618408 29863.000000
1264.353394 29742.000000
1266.087402 29203.000000
1267.820435 30551.000000
1269.552246 30427.000000
1271.283081 30289.000000
1273.012695 29519.000000
1274.741455 30662.000000
1276.469116 30757.000000
1278.195679 30858.000000
1279.921387 30858.000000
1281.645752 29942.000000
1283.369263 31156.000000
1285.091797 29499.000000
1286.813354 29681.000000
1288.533691 30012.000000
1290.253052 29544.000000
1291.971313 28827.000000
1293.688599 29435.000000
1295.404907 29967.000000
1297.119995 29252.000000
1298.834106 29440.000000
1300.547241 29729.000000
1302.259521 29058.000000
1303.970581 27154.000000
1305.680664 29940.000000
1307.389648 28724.000000
1309.097412 28661.000000
1310.804565 28413.000000
1312.510254 29663.000000
1314.215210 28756.000000
1315.919189 29780.000000
1317.621948 30405.000000
1319.323730 30357.000000
1321.024658 31502.000000
1322.724243 28409.000000
1324.422974 29643.500000
1326.120972 17293.500000
1327.817627 27094.000000
1329.513184 26512.000000
1331.207886 26654.000000
1332.901367 27374.000000
1334.593994 27675.000000
1336.285767 25869.000000
1337.976196 27017.000000
1339.665894 26627.000000
1341.354492 27087.000000
1343.041992 25762.000000
1344.728516 27515.000000
1346.413940 26377.000000
1348.098389 27382.000000
1349.781982 26231.000000
1351.464355 27168.000000
1353.145752 27643.000000
1354.826294 27278.000000
1356.505615 27308.000000
1358.184326 28121.000000
1359.861694 27465.000000
1361.537964 28177.000000
1363.213257 28429.000000
1364.887817 27492.000000
1366.561157 27594.000000
1368.233521 27223.000000
1369.904907 28710.000000
1371.575317 27054.000000
1373.244629 27609.000000
1374.912964 27832.000000
1376.580444 27503.000000
1378.246826 27096.000000
1379.912231 27285.000000
1381.576660 27454.000000
1383.239868 27183.000000
1384.902466 27481.000000
1386.563721 26803.000000
1388.224121 26506.000000
1389.883423 26691.000000
1391.541748 26598.000000
1393.199341 26214.000000
1394.855713 26602.000000
1396.511230 25952.000000
1398.165527 26542.000000
1399.818970 26921.000000
1401.471313 26701.000000
1403.122925 26431.000000
1404.773315 25668.000000
1406.422607 26173.000000
1408.071167 24751.000000
1409.718628 24223.000000
1411.365112 25147.000000
1413.010742 24947.000000
1414.655396 25182.000000
1416.298828 24531.000000
1417.941406 24382.000000
1419.582886 24430.000000
1421.223511 24558.000000
1422.863159 24436.000000
1424.501709 24717.000000
1426.139404 24103.000000
1427.776001 24199.000000
1429.411621 24327.000000
1431.046509 23940.000000
1432.680298 24087.000000
1434.312988 23949.000000
1435.944702 24246.000000
1437.575562 24103.000000
1439.205322 24451.000000
1440.833984 23309.000000
1442.462036 24374.000000
1444.088989 24308.000000
1445.714722 24553.000000
1447.339844 24935.000000
1448.963867 25075.000000
1450.586914 25796.000000
1452.208984 26240.000000
1453.829956 25354.000000
1455.449951 26562.000000
1457.069214 26103.000000
1458.687134 27520.000000
1460.304443 19392.000000
1461.920776 25893.000000
1463.535889 24124.000000
1465.150146 24335.000000
1466.763550 25036.000000
1468.375854 24987.000000
1469.987305 24650.000000
1471.597900 24500.000000
1473.207275 24614.000000
1474.815674 24741.000000
1476.423218 24670.000000
1478.029785 24159.000000
1479.635620 24928.000000
1481.240234 24151.000000
1482.843994 24241.000000
1484.446533 23192.000000
1486.048462 23074.000000
1487.649170 22952.000000
1489.249146 22733.000000
1490.848022 22410.000000
1492.446045 22596.000000
1494.042969 22373.000000
1495.639038 23220.000000
1497.234131 23677.000000
1498.828247 23877.000000
1500.421631 23272.000000
1502.013916 23674.000000
1503.604980 23405.000000
1505.195557 23101.000000
1506.784790 23074.000000
1508.373413 22984.000000
1509.960938 22677.000000
1511.547363 22522.000000
1513.133057 22586.000000
1514.717651 22340.000000
1516.301392 22416.000000
1517.884033 22441.000000
1519.465942 22452.000000
1521.046753 22429.000000
1522.626831 22324.000000
1524.205688 21964.000000
1525.783691 21803.000000
1527.360962 21504.000000
1528.937012 21541.000000
1530.512329 21423.000000
1532.086548 21248.000000
1533.660034 21338.000000
1535.232300 21383.000000
1536.803833 21341.000000
1538.374390 21353.000000
1539.944092 21073.000000
1541.512573 21129.000000
1543.080322 20978.000000
1544.647217 20962.000000
1546.212891 20727.000000
1547.777832 20810.000000
1549.341675 20965.000000
1550.904907 20419.000000
1552.466797 20700.000000
1554.028076 20801.000000
1555.588257 20509.000000
1557.147705 20529.000000
1558.706055 20547.000000
1560.263672 20372.000000
1561.820190 20253.000000
1563.375488 20487.000000
1564.930176 20379.000000
1566.484131 20603.000000
1568.037109 20500.000000
1569.588745 20630.000000
1571.139648 20631.000000
1572.689819 20546.000000
1574.239014 20575.000000
1575.786865 20652.000000
1577.334229 20627.000000
1578.880615 20638.000000
1580.426147 20931.000000
1581.970703 20647.000000
1583.514038 20720.000000
1585.056763 20710.000000
1586.598633 20597.000000
1588.139404 20543.000000
1589.679199 20791.000000
1591.218262 20549.000000
1592.756226 20568.000000
1594.293701 20306.000000
1595.829834 20686.000000
1597.364868 20597.000000
1598.899414 20298.000000
1600.432983 20377.000000
1601.965698 20420.000000
1603.496826 20569.000000
1605.027710 20502.000000
1606.557739 20552.000000
1608.086548 20217.000000
1609.614258 20337.000000
1611.141357 20430.000000
1612.667725 20660.000000
1614.193115 20527.000000
1615.717651 20417.000000
1617.240845 20210.000000
1618.763306 20404.000000
1620.285034 20884.000000
1621.805908 22710.000000
1623.325317 16590.000000
1624.844238 20231.000000
1626.362427 20273.000000
1627.879761 20175.000000
1629.395996 20176.000000
1630.910889 19831.000000
1632.425293 19841.000000
1633.938965 19874.000000
1635.451538 19706.000000
1636.962891 19855.000000
1638.473877 19527.000000
1639.983765 19626.000000
1641.492798 19652.000000
1643.000488 19433.000000
1644.507813 19290.000000
1646.014282 19175.000000
1647.519775 19188.000000
1649.024414 19220.000000
1650.527588 19121.000000
1652.030151 18895.000000
1653.532349 18887.000000
1655.033203 18813.000000
1656.532959 18543.000000
1658.031860 18649.000000
1659.530396 18627.000000
1661.027710 18559.000000
1662.524292 18438.000000
1664.019287 18150.000000
1665.514038 18074.000000
1667.007935 18558.000000
1668.500854 22853.000000
1669.992432 11529.000000
1671.483521 17600.000000
1672.973999 17683.000000
1674.463379 17504.000000
1675.951294 17409.000000
1677.438965 17519.000000
1678.925659 17856.000000
1680.411499 17682.000000
1681.896484 17443.000000
1683.380005 17155.000000
1684.863281 17014.000000
1686.345703 17129.000000
1687.827026 17112.000000
1689.306885 16995.000000
1690.786499 17026.000000
1692.265381 17035.000000
1693.743286 17082.000000
1695.220215 16939.000000
1696.695923 17066.000000
1698.171265 16843.000000
1699.645386 16833.000000
1701.118896 16728.000000
1702.590942 16911.000000
1704.062744 16673.000000
1705.533569 16795.000000
1707.003540 16686.000000
1708.472168 16871.000000
1709.940308 16902.000000
1711.407715 16726.000000
1712.874023 16806.000000
1714.339722 16855.000000
1715.803711 16818.000000
1717.267578 16880.000000
1718.730591 16768.000000
1720.192627 16731.000000
1721.653442 16666.000000
1723.113647 16781.000000
1724.573120 16801.000000
1726.031738 16813.000000
1727.489380 16691.000000
1728.945679 16632.000000
1730.401733 16569.000000
1731.856812 16618.000000
1733.310913 16450.000000
1734.763794 16370.000000
1736.216431 16481.000000
1737.667969 16298.000000
1739.118774 16473.000000
1740.568604 16312.000000
1742.017090 16203.000000
1743.465210 15891.000000
1744.912476 15971.000000
1746.359009 15783.000000
1747.803955 15847.000000
1749.248657 15853.000000
1750.692505 15782.000000
1752.135498 15735.000000
1753.577026 15791.000000
1755.018311 18570.000000
1756.458740 12114.000000
1757.898193 15657.000000
1759.336670 15649.000000
1760.774170 15457.000000
1762.211182 15124.000000
1763.647217 15092.000000
1765.082397 15223.000000
1766.516113 15321.000000
1767.949707 15562.000000
1769.382324 15313.000000
1770.814087 15551.000000
1772.244995 15587.000000
1773.674683 15209.000000
1775.103638 14900.000000
1776.532104 14783.000000
1777.959595 14330.000000
1779.385742 13741.000000
1780.811646 14578.000000
1782.236450 14397.000000
1783.660645 14458.000000
1785.083374 14357.000000
1786.505615 14337.000000
1787.927124 14329.000000
1789.347900 14502.000000
1790.767700 14253.000000
1792.186157 14057.000000
1793.604126 14123.000000
1795.021484 14094.000000
1796.437988 14136.000000
1797.853027 14063.000000
1799.267700 13962.000000
1800.681763 14015.000000
1802.094604 14120.000000
1803.506836 13768.000000
1804.917725 13862.000000
1806.328125 13717.000000
1807.737793 13951.000000
1809.146484 13903.000000
1810.554077 13727.000000
1811.961182 13772.000000
1813.367432 13789.000000
1814.772705 13990.000000
1816.176880 13910.000000
1817.580688 13978.000000
1818.983521 13972.000000
1820.385498 13865.000000
1821.786865 13833.000000
1823.186768 13793.000000
1824.586060 13735.000000
1825.984863 13720.000000
1827.382813 13770.000000
1828.779419 13778.000000
1830.175415 13770.000000
1831.570679 13678.000000
1832.965332 13539.000000
1834.359009 13752.000000
1835.751343 13687.000000
1837.143188 13517.000000
1838.534424 13776.000000
1839.924683 13573.000000
1841.313721 13732.000000
1842.702393 13589.000000
1844.090088 13550.000000
1845.477051 13471.000000
1846.862671 13377.000000
1848.248047 13219.000000
1849.632568 13361.000000
1851.016357 13281.000000
1852.399048 13267.000000
1853.780518 13149.000000
1855.161499 13114.000000
1856.541992 12938.000000
1857.921509 12954.000000
1859.299561 12987.000000
1860.677490 12858.000000
1862.054443 12804.000000
1863.430664 12839.000000
1864.806030 12624.000000
1866.179932 12650.000000
1867.553711 12544.000000
1868.926636 12444.000000
1870.298462 12415.000000
1871.669312 12381.000000
1873.039795 12288.000000
1874.409180 12296.000000
1875.778076 12181.000000
1877.145386 12011.000000
1878.512573 12122.000000
1879.878784 12060.000000
1881.244263 12016.000000
1882.609009 12071.000000
1883.972168 11967.000000
1885.335205 11987.000000
1886.697388 12148.000000
1888.058716 11864.000000
1889.418701 11851.000000
1890.778320 11842.000000
1892.137329 11798.000000
1893.495361 11752.000000
1894.852539 11620.000000
1896.208496 11794.000000
1897.564209 11699.000000
1898.918945 11756.000000
1900.272827 11796.000000
1901.625610 11715.000000
1902.977905 11704.000000
1904.329468 11613.000000
1905.680176 11748.000000
1907.029663 11764.000000
1908.378662 11731.000000
1909.726807 11803.000000
1911.074341 11615.000000
1912.421143 11439.000000
1913.766357 11729.000000
1915.111328 11769.000000
1916.455566 11794.000000
1917.798950 11826.000000
1919.140991 11766.000000
1920.482788 11694.000000
1921.823730 11658.000000
1923.163940 11753.000000
1924.503174 11616.000000
1925.841431 11632.000000
1927.179077 11673.000000
1928.515991 11536.000000
1929.852051 11558.000000
1931.186890 11544.000000
1932.521362 11564.000000
1933.855103 11346.000000
1935.187988 11377.000000
1936.519409 11416.000000
1937.850952 11343.000000
1939.181152 11259.000000
1940.510864 11304.000000
1941.839722 11494.000000
1943.167358 11340.000000
1944.494507 11261.000000
1945.820923 11331.000000
1947.146606 11281.000000
1948.470947 11320.000000
1949.795044 11139.000000
1951.118286 11203.000000
1952.440796 11262.000000
1953.762207 11035.000000
1955.082642 11015.000000
1956.402466 11007.000000
1957.721924 11009.000000
1959.040405 10845.000000
1960.357544 10842.000000
1961.674316 10799.000000
1962.990356 10669.000000
1964.305664 10782.000000
1965.619507 10659.000000
1966.933105 10735.000000
1968.245972 10637.000000
1969.557983 10685.000000
1970.869385 10540.000000
1972.179443 10566.000000
1973.489014 10443.000000
1974.797852 10442.000000
1976.106079 10218.000000
1977.412964 10276.000000
1978.719238 10159.000000
1980.025146 10363.000000
1981.329834 10488.000000
1982.634033 10288.000000
1983.937012 10200.000000
1985.239624 10286.000000
1986.541260 10239.000000
1987.842285 10139.000000
1989.141724 9819.000000
1990.441284 10020.000000
1991.739746 9940.000000
1993.037720 9793.000000
1994.334106 9873.000000
1995.630493 9811.000000
1996.925903 9749.000000
1998.220581 9568.000000
1999.514404 9778.000000
2000.807007 9654.000000
2002.099121 9619.000000
2003.390747 9594.000000
2004.681641 9568.000000
2005.970947 9400.000000
2007.260010 9612.000000
2008.548340 9506.000000
2009.835938 9536.000000
2011.122681 9447.000000
2012.408325 9419.000000
2013.693604 9332.000000
2014.977905 9411.000000
2016.261597 9435.000000
2017.543945 9370.000000
2018.825928 9354.000000
2020.107422 9444.000000
2021.387939 9303.000000
2022.667725 9274.000000
2023.946411 9160.000000
2025.224365 9396.000000
2026.501831 9163.000000
2027.778687 9229.000000
2029.053833 9327.000000
2030.329102 9281.000000
2031.603394 9393.000000
2032.876709 9471.000000
2034.149170 9570.000000
2035.421265 9449.000000
2036.692261 9433.000000
2037.963013 9366.000000
2039.232422 9349.000000
2040.500732 9525.000000
2041.769043 9310.000000
2043.036377 9354.000000
2044.302979 9396.000000
2045.568359 9278.000000
2046.833130 9597.000000
2048.097656 9321.000000
2049.361084 9164.000000
2050.624023 9197.000000
2051.885010 9209.000000
2053.146484 9095.000000
2054.406738 9083.000000
2055.666260 8927.000000
2056.925049 8877.000000
2058.182861 8962.000000
2059.440186 8926.000000
2060.696777 8950.000000
2061.951904 8837.000000
2063.207031 8911.000000
2064.461182 9017.000000
2065.714600 8907.000000
2066.967285 8752.000000
2068.218750 8850.000000
2069.469971 8809.000000
2070.720459 8743.000000
2071.970215 8741.000000
2073.218506 9077.000000
2074.466797 8629.000000
2075.714111 8647.000000
2076.960693 8601.000000
2078.206543 8546.000000
2079.451172 8630.000000
2080.695313 8465.000000
2081.938965 8545.000000
2083.181641 8495.000000
2084.423096 8396.000000
2085.664307 8380.000000
2086.905029 8242.000000
2088.144775 8395.000000
2089.383301 8394.000000
2090.621338 8228.000000
2091.858643 8261.000000
2093.095703 8135.000000
2094.331299 8221.000000
2095.566162 8180.000000
2096.800781 8256.000000
2098.034424 8247.000000
2099.267090 8134.000000
2100.499023 8045.000000
2101.730469 8104.000000
2102.960938 8129.000000
2104.190674 8074.000000
2105.420166 8065.000000
2106.647705 7882.000000
2107.875488 7893.000000
2109.102539 7709.000000
2110.328613 7860.000000
2111.553223 7782.000000
2112.778076 7716.000000
2114.001709 7835.000000
2115.224854 7890.000000
2116.446777 7776.000000
2117.668457 7763.000000
2118.889160 7781.000000
2120.109131 7766.000000
2121.328613 7857.000000
2122.546631 7940.000000
2123.764648 7883.000000
2124.981689 7870.000000
2126.198242 7876.000000
2127.413086 7871.000000
2128.628174 7763.000000
2129.842285 7834.000000
2131.055664 7744.000000
2132.268311 7711.000000
2133.479492 7773.000000
2134.690918 7798.000000
2135.901123 7612.000000
2137.110840 7683.000000
2138.319092 7895.000000
2139.527344 7787.000000
2140.734863 7711.000000
2141.941162 7575.000000
2143.146729 7527.000000
2144.352051 7698.000000
2145.556396 7653.000000
2146.760010 7665.000000
2147.963135 7535.000000
2149.164795 7638.000000
2150.366211 7601.000000
2151.566895 7510.000000
2152.766846 7346.000000
2153.965576 7522.000000
2155.164063 7404.000000
2156.362061 7658.000000
2157.559082 7357.000000
2158.755371 7349.000000
2159.950439 7276.000000
2161.145264 7247.000000
2162.339355 7180.000000
2163.532471 7125.000000
2164.724609 7065.000000
2165.916504 7088.000000
2167.107666 7070.000000
2168.297852 6944.000000
2169.487305 6875.000000
2170.676270 6885.000000
2171.864258 6785.000000
2173.052002 6812.000000
2174.238281 6693.000000
2175.423828 6754.000000
2176.609131 6701.000000
2177.793945 6618.000000
2178.977539 6532.000000
2180.160400 6674.000000
2181.342285 6600.000000
2182.523926 6686.000000
2183.705078 6672.000000
2184.885010 6668.000000
2186.063965 6668.000000
2187.242432 6467.000000
2188.420654 6507.000000
2189.597656 6668.000000
2190.773682 6540.000000
2191.949463 6613.000000
2193.124756 6657.000000
2194.298584 6557.000000
2195.471924 6637.000000
2196.645020 6591.000000
2197.816895 6495.000000
2198.988281 6578.000000
2200.159180 6606.000000
2201.328369 6546.000000
2202.497559 6458.000000
2203.666260 6511.000000
2204.833984 6528.000000
2206.000732 6567.000000
2207.166748 6477.000000
2208.332275 6464.000000
2209.497559 6575.000000
2210.661377 6533.000000
2211.824707 6534.000000
2212.986816 6437.000000
2214.149170 6495.000000
2215.310303 6338.000000
2216.470459 6290.000000
2217.630127 6344.000000
2218.789551 6230.000000
2219.947754 6290.000000
2221.104980 6293.000000
2222.261963 6443.000000
2223.418213 6355.000000
2224.573730 6228.000000
2225.728516 6196.000000
2226.882324 6254.000000
2228.035156 6234.000000
2229.188477 6186.000000
2230.339844 6156.000000
2231.490967 6192.000000
2232.641357 6117.000000
2233.791260 6036.000000
2234.940186 6007.000000
2236.088623 6112.000000
2237.235596 5936.000000
2238.382813 6038.000000
2239.528809 6001.000000
2240.674561 5822.000000
2241.818604 5825.000000
2242.962891 5740.000000
2244.106201 5780.000000
2245.248779 5691.000000
2246.390381 5736.000000
2247.531738 5630.000000
2248.672119 5685.000000
2249.811768 5671.000000
2250.950928 5547.000000
2252.088867 5552.000000
2253.226807 5687.000000
2254.363770 5519.000000
2255.500000 5614.000000
2256.635254 5509.000000
2257.769775 5393.000000
2258.904053 5506.000000
2260.037842 5689.000000
2261.170166 5756.000000
2262.302002 5414.000000
2263.433350 5430.000000
2264.563721 5364.000000
2265.693848 5146.000000
2266.822754 5340.000000
2267.951172 5145.000000
2269.079102 5304.000000
2270.206055 5311.000000
2271.332275 5259.000000
2272.457520 5324.000000
2273.582764 5298.000000
2274.707275 5341.000000
2275.830566 5290.000000
2276.953125 5289.000000
2278.075195 5316.000000
2279.196777 5351.000000
2280.317627 5271.000000
2281.437256 5301.000000
2282.556396 5214.000000
2283.675293 5177.000000
2284.793457 5006.000000
2285.910645 4977.000000
2287.026855 5117.000000
2288.142822 5041.000000
2289.258057 5101.000000
2290.372559 5061.000000
2291.485840 5023.000000
2292.599121 5133.000000
2293.711670 5235.000000
2294.823486 5273.000000
2295.934570 5222.000000
2297.044434 5169.000000
2298.153809 5146.000000
2299.262939 5163.000000
2300.371094 5209.000000
2301.478271 5208.000000
2302.585205 5274.000000
2303.691406 5129.000000
2304.797119 5119.000000
2305.901367 5186.000000
2307.005371 5100.000000
2308.108887 5080.000000
2309.211914 5061.000000
2310.313721 4986.000000
2311.414795 4989.000000
2312.515381 4965.000000
2313.615479 4943.000000
2314.714844 4910.000000
2315.812744 4848.000000
2316.911133 4990.000000
2318.008057 4861.000000
2319.104736 4883.000000
2320.200928 4883.000000
2321.295410 4804.000000
2322.389893 4708.000000
2323.483643 4851.000000
2324.577148 4651.000000
2325.668945 4798.000000
2326.760742 4680.000000
2327.851807 4788.000000
2328.942139 4806.000000
2330.031494 4814.000000
2331.120850 4743.000000
2332.208984 4765.000000
2333.296631 4672.000000
2334.384033 4625.000000
2335.469727 4585.000000
2336.555176 4743.000000
2337.640381 4559.000000
2338.724609 4392.000000
2339.807861 4486.000000
2340.890869 4470.000000
2341.972900 4442.000000
2343.054688 4350.000000
2344.135742 4404.000000
2345.215576 4493.000000
2346.294922 4393.000000
2347.373779 4389.000000
2348.452148 4371.000000
2349.529053 4371.000000
2350.605713 4382.000000
2351.682129 4322.000000
2352.757568 4239.000000
2353.832031 4294.000000
2354.906250 4366.000000
2355.979736 4181.000000
2357.052734 4364.000000
2358.124512 4329.000000
2359.196045 4272.000000
2360.266602 4128.000000
2361.336914 4106.000000
2362.406250 4097.000000
2363.474609 4085.000000
2364.542725 4151.000000
2365.610107 4001.000000
2366.677002 4023.000000
2367.743164 4195.000000
2368.808105 3977.000000
2369.873047 4041.000000
2370.937256 3977.000000
2372.000732 4026.000000
2373.062988 3966.000000
2374.125244 3994.000000
2375.186523 3955.000000
2376.247559 3931.000000
2377.307373 4000.000000
2378.366455 3955.000000
2379.425537 3900.000000
2380.483643 3846.000000
2381.541016 3953.000000
2382.597412 3893.000000
2383.653564 3910.000000
2384.709229 3860.000000
2385.764160 3941.000000
2386.817627 3818.000000
2387.871338 3838.000000
2388.924072 3828.000000
2389.976318 3859.000000
2391.027832 3883.000000
2392.078369 3745.000000
2393.128662 3808.000000
2394.177979 3840.000000
2395.227295 3910.000000
2396.275146 3949.000000
2397.322510 3737.000000
2398.369629 3880.000000
2399.415771 3733.000000
2400.461182 3893.000000
2401.505859 3807.000000
2402.550537 3710.000000
2403.593750 3759.000000
2404.636963 3754.000000
2405.678711 3678.000000
2406.720703 3851.000000
2407.761963 3837.000000
2408.802246 3743.000000
2409.841797 3871.000000
2410.880371 3825.000000
2411.919189 3874.000000
2412.956787 3701.000000
2413.994141 3733.000000
2415.030273 3862.000000
2416.066162 3658.000000
2417.101318 3792.000000
2418.135986 3695.000000
2419.169189 3806.000000
2420.202637 3748.000000
2421.235107 3779.000000
2422.267334 3715.000000
2423.298096 3775.000000
2424.328857 3655.000000
2425.359131 3624.000000
2426.388184 3558.000000
2427.417236 3642.000000
2428.444580 3590.000000
2429.472412 3561.000000
2430.499023 3524.000000
2431.525391 3600.000000
2432.550293 3444.000000
2433.575439 3525.000000
2434.599609 3497.000000
2435.623535 3397.000000
2436.646240 3436.000000
2437.668213 3419.000000
2438.689941 3402.000000
2439.710938 3381.000000
2440.731445 3445.000000
2441.750732 3392.000000
2442.770020 3399.000000
2443.788330 3276.000000
2444.806396 3286.000000
2445.822998 3341.000000
2446.839600 3297.000000
2447.855469 3323.000000
2448.871338 3192.000000
2449.885742 3320.000000
2450.899414 3257.000000
2451.912598 3202.000000
2452.925537 3158.000000
2453.937744 3209.000000
2454.948975 3157.000000
2455.959961 3222.000000
2456.970215 3235.000000
2457.979980 3087.000000
2458.988770 3243.000000
2459.996826 3146.000000
2461.004883 3180.000000
2462.011719 3079.000000
2463.018311 3041.000000
2464.023682 3034.000000
2465.028809 3128.000000
2466.033691 3056.000000
2467.037354 3086.000000
2468.040771 3073.000000
2469.043213 3112.000000
2470.045410 3092.000000
2471.047119 3120.000000
2472.047852 3043.000000
2473.047607 3023.000000
2474.047363 3068.000000
2475.046143 2905.000000
2476.044434 2908.000000
2477.041748 2930.000000
2478.038818 2883.000000
2479.035889 3039.000000
2480.031494 2967.000000
2481.027100 2929.000000
2482.020996 2936.000000
2483.014893 3006.000000
2484.008301 2970.000000
2485.001221 3030.000000
2485.993164 2886.000000
2486.984375 2997.000000
2487.975342 2967.000000
2488.965820 3060.000000
2489.955322 2975.000000
2490.944092 2991.000000
2491.932861 2998.000000
2492.920654 2982.000000
2493.907227 2897.000000
2494.893799 2998.000000
2495.879883 2998.000000
2496.865234 2888.000000
2497.849609 2971.000000
2498.833740 2942.000000
2499.817871 2915.000000
2500.800537 2933.000000
2501.782715 2828.000000
2502.764404 2898.000000
2503.745361 2844.000000
2504.725830 2889.000000
2505.706055 2917.000000
2506.684814 2928.000000
2507.663330 2985.000000
2508.641357 2747.000000
2509.618896 2842.000000
2510.595459 2859.000000
2511.571777 2844.000000
2512.547363 2835.000000
2513.522461 2763.000000
2514.497070 2725.000000
2515.470459 2698.000000
2516.443604 2751.000000
2517.416504 2799.000000
2518.388428 2801.000000
2519.359619 2755.000000
2520.330322 2697.000000
2521.300781 2687.000000
2522.270508 2802.000000
2523.239258 2697.000000
2524.207275 2726.000000
2525.175293 2557.000000
2526.142334 2671.000000
2527.109131 2576.000000
2528.074707 2571.000000
2529.040283 2544.000000
2530.005127 2573.000000
2530.969482 2641.000000
2531.932617 2591.000000
2532.895996 2718.000000
2533.858398 2613.000000
2534.820557 2522.000000
2535.781494 2726.000000
2536.741699 2642.000000
2537.702148 2595.000000
2538.661621 2593.000000
2539.620361 2608.000000
2540.578125 2536.000000
2541.536133 2632.000000
2542.493408 2523.000000
2543.449707 2391.000000
2544.405762 2447.000000
2545.360596 2456.000000
2546.315674 2479.000000
2547.270020 2430.000000
2548.223633 2278.000000
2549.176270 2454.000000
2550.128662 2349.000000
2551.080566 2474.000000
2552.031738 2433.000000
2552.982178 2367.000000
2553.932129 2349.000000
2554.881836 2466.000000
2555.830811 2416.000000
2556.779297 2271.000000
2557.726563 2337.000000
2558.673828 2338.000000
2559.620361 2451.000000
2560.566406 2287.000000
2561.511475 2307.000000
2562.456299 2278.000000
2563.400635 2317.000000
2564.344482 2227.000000
2565.287842 2274.000000
2566.229736 2306.000000
2567.171875 2224.000000
2568.113281 2295.000000
2569.053955 2198.000000
2569.993896 2203.000000
2570.933838 2257.000000
2571.872803 2292.000000
2572.811523 2205.000000
2573.749268 2256.000000
2574.686768 2322.000000
2575.623535 2310.000000
2576.559570 2283.000000
2577.495117 2231.000000
2578.429932 2300.000000
2579.364746 2255.000000
2580.298584 2384.000000
2581.231934 2405.000000
2582.164551 2223.000000
2583.096924 2255.000000
2584.028564 2282.000000
2584.959717 2284.000000
2585.890381 2201.000000
2586.819824 2275.000000
2587.749268 2239.000000
2588.678223 2117.000000
2589.606934 2305.000000
2590.533936 2231.000000
2591.461182 2270.000000
2592.387939 2115.000000
2593.313965 2182.000000
2594.239746 2247.000000
2595.164307 2109.000000
2596.088623 2085.000000
2597.012451 2147.000000
2597.935791 2119.000000
2598.858154 2069.000000
2599.780273 2166.000000
2600.701904 2130.000000
2601.622803 2117.000000
2602.542969 2139.000000
2603.462891 2218.000000
2604.382324 2184.000000
2605.301514 2096.000000
2606.219727 2103.000000
2607.136719 2126.000000
2608.053955 2132.000000
2608.970947 2096.000000
2609.886963 2073.000000
2610.801758 2083.000000
2611.717041 2031.000000
2612.631592 2048.000000
2613.545166 2076.000000
2614.458740 2009.000000
2615.371094 1971.000000
2616.283447 2042.000000
2617.194824 2096.000000
2618.105957 1904.000000
2619.016357 1929.000000
2619.926514 1965.000000
2620.835938 1973.000000
2621.744873 1960.000000
2622.652832 1957.000000
2623.561035 1997.000000
2624.468262 1933.000000
2625.375000 1894.000000
2626.281006 1921.000000
2627.186768 1873.000000
2628.091797 1866.000000
2628.996582 1878.000000
2629.900635 1867.000000
2630.803711 1846.000000
2631.706787 2014.000000
2632.608887 1952.000000
2633.510986 1849.000000
2634.412842 1951.000000
2635.312988 1828.000000
2636.213379 1861.000000
2637.113037 1880.000000
2638.012451 1885.000000
2638.910400 1825.000000
2639.808838 1852.000000
2640.706787 1851.000000
2641.604004 1840.000000
2642.500000 1909.000000
2643.395996 1674.000000
2644.291748 1720.000000
2645.186768 1802.000000
2646.081543 1883.000000
2646.974854 1761.000000
2647.868164 1812.000000
2648.761230 1760.000000
2649.654053 1760.000000
2650.545166 1742.000000
2651.436523 1858.000000
2652.327393 1611.000000
2653.217529 1740.000000
2654.107422 1632.000000
2654.996094 1717.000000
2655.885010 1783.000000
2656.773438 1747.000000
2657.660889 1619.000000
2658.547363 1688.000000
2659.434326 1621.000000
2660.320557 1714.000000
2661.206299 1707.000000
2662.090820 1753.000000
2662.975342 1761.000000
2663.859619 1719.000000
2664.743164 1824.000000
2665.626221 1695.000000
2666.508545 1715.000000
2667.390381 1698.000000
2668.271484 1742.000000
2669.152832 1748.000000
2670.032715 1698.000000
2670.912842 1706.000000
2671.792236 1664.000000
2672.671631 1796.000000
2673.550293 1676.000000
2674.427246 1801.000000
2675.304932 1668.000000
2676.181885 1652.000000
2677.058105 1784.000000
2677.933838 1727.000000
2678.808838 1685.000000
2679.684082 1675.000000
2680.558350 1613.000000
2681.432129 1628.000000
2682.305176 1569.000000
2683.177979 1674.000000
2684.050537 1673.000000
2684.922363 1670.000000
2685.793457 1577.000000
2686.664307 1621.000000
2687.534668 1631.000000
2688.404785 1626.000000
2689.273193 1565.000000
2690.142334 1563.000000
2691.010742 1506.000000
2691.878906 1655.000000
2692.746338 1569.000000
2693.612549 1542.000000
2694.479248 1505.000000
2695.344971 1487.000000
2696.210693 1567.000000
2697.074951 1541.000000
2697.939941 1457.000000
2698.803467 1499.000000
2699.667236 1586.000000
2700.529541 1542.000000
2701.392334 1562.000000
2702.254150 1547.000000
2703.115479 1658.000000
2703.976807 1497.000000
2704.836914 1537.000000
2705.697021 1533.000000
2706.556641 1541.000000
2707.416016 1480.000000
2708.273682 1478.000000
2709.131592 1526.000000
2709.989990 1366.000000
2710.847168 1477.000000
2711.703613 1517.000000
2712.559570 1384.000000
2713.415527 1392.000000
2714.270752 1492.000000
2715.125244 1390.000000
2715.979248 1591.000000
2716.833252 1543.000000
2717.686279 1547.000000
2718.539551 1288.000000
2719.391113 1448.000000
2720.243164 1434.000000
2721.094971 1498.000000
2721.945557 1406.000000
2722.796143 1404.000000
2723.646240 1459.000000
2724.495605 1484.000000
2725.344971 1453.000000
2726.193115 1420.000000
2727.040771 1471.000000
2727.888916 1486.000000
2728.735840 1348.000000
2729.583252 1411.000000
2730.429199 1316.000000
2731.274414 1342.000000
2732.120117 1384.000000
2732.964844 1331.000000
2733.809570 1434.000000
2734.653076 1368.000000
2735.496826 1379.000000
2736.339844 1460.000000
2737.182373 1407.000000
2738.023926 1376.000000
2738.865967 1365.000000
2739.707031 1361.000000
2740.547852 1424.000000
2741.388428 1345.000000
2742.227783 1333.000000
2743.067139 1314.000000
2743.906494 1373.000000
2744.744629 1256.000000
2745.582275 1234.000000
2746.419922 1330.000000
2747.257080 1292.000000
2748.093994 1309.000000
2748.930420 1276.000000
2749.765625 1364.000000
2750.601074 1348.000000
2751.436035 1360.000000
2752.270264 1374.000000
2753.104248 1424.000000
2753.937744 1317.000000
2754.771240 1256.000000
2755.603760 1392.000000
2756.435791 1312.000000
2757.267334 1268.000000
2758.098877 1307.000000
2758.929443 1280.000000
2759.760254 1375.000000
2760.589844 1252.000000
2761.419434 1340.000000
2762.248779 1242.000000
2763.077393 1335.000000
2763.905518 1318.000000
2764.733154 1155.000000
2765.560791 1277.000000
2766.387939 1244.000000
2767.214355 1307.000000
2768.040283 1193.000000
2768.865723 1203.000000
2769.690918 1243.000000
2770.516113 1179.000000
2771.340088 1189.000000
2772.164063 1097.000000
2772.988037 1145.000000
2773.810791 1165.000000
2774.633789 1158.000000
2775.455566 1169.000000
2776.277344 1153.000000
2777.099121 1202.000000
2777.919922 1183.000000
2778.739990 1124.000000
2779.560303 1170.000000
2780.380127 1114.000000
2781.199951 1192.000000
2782.017822 1210.000000
2782.836914 1172.000000
2783.654785 1159.000000
2784.472412 1180.000000
2785.289551 1145.000000
2786.106201 1128.000000
2786.922607 1068.000000
2787.738525 1134.000000
2788.554199 1107.000000
2789.368896 1189.000000
2790.184082 1029.000000
2790.998535 1164.000000
2791.812500 1224.000000
2792.626221 1094.000000
2793.438721 1129.000000
2794.251465 1109.000000
2795.063721 1088.000000
2795.875488 1088.000000
2796.686523 1112.000000
2797.498291 1094.000000
2798.308838 1079.000000
2799.119385 1168.000000
2799.928467 1144.000000
2800.738281 1147.000000
2801.547363 1048.000000
2802.356201 1078.000000
2803.164551 1045.000000
2803.971924 1041.000000
2804.779785 1082.000000
2805.586914 1172.000000
2806.393799 1067.000000
2807.199463 1206.000000
2808.005615 1158.000000
2808.811035 1080.000000
2809.616455 1077.000000
2810.421143 1047.000000
2811.224854 1120.000000
2812.029053 1057.000000
2812.832764 1099.000000
2813.636230 1073.000000
2814.438232 1022.000000
2815.240967 991.000000
2816.042969 993.000000
2816.844727 990.000000
2817.645996 1053.000000
2818.446777 1048.000000
2819.247070 1034.000000
2820.047607 1027.000000
2820.847168 945.000000
2821.646240 1086.000000
2822.445313 1085.000000
2823.244141 1004.000000
2824.042480 1033.000000
2824.839844 1031.000000
2825.637451 996.000000
2826.434326 1062.000000
2827.231445 987.000000
2828.027832 1042.000000
2828.823486 1026.000000
2829.619141 1064.000000
2830.414551 1037.000000
2831.209473 1014.000000
2832.003662 1055.000000
2832.797852 1084.000000
2833.591797 1131.000000
2834.385254 995.000000
2835.177979 1073.000000
2835.970459 1046.000000
2836.762939 1023.000000
2837.555176 1086.000000
2838.346924 1026.000000
2839.137695 1001.000000
2839.928467 1039.000000
2840.719482 1029.000000
2841.509521 1045.000000
2842.299072 1004.000000
2843.088867 1113.000000
2843.877686 974.000000
2844.666504 1105.000000
2845.455322 973.000000
2846.243164 952.000000
2847.030518 1002.000000
2847.818115 947.000000
2848.605225 1022.000000
2849.391602 1026.000000
2850.177979 980.000000
2850.964111 936.000000
2851.749756 1027.000000
2852.534424 1032.000000
2853.319580 889.000000
2854.104492 808.000000
2854.888672 977.000000
2855.672852 1043.000000
2856.455811 1011.000000
2857.239014 961.000000
2858.021973 995.000000
2858.804443 974.000000
2859.586670 1130.000000
2860.368408 986.000000
2861.149902 927.000000
2861.931641 1066.000000
2862.712646 967.000000
2863.492920 983.000000
2864.272949 949.000000
2865.052979 990.000000
2865.832764 1065.000000
2866.611572 1171.000000
2867.390625 1137.000000
2868.169189 1121.000000
2868.947510 1131.000000
2869.725342 1011.000000
2870.502930 1139.000000
2871.280273 1130.000000
2872.057373 1147.000000
2872.833984 1106.000000
2873.610107 1166.000000
2874.386230 1218.000000
2875.161865 1197.000000
2875.937256 1191.000000
2876.712158 1251.000000
2877.486816 1240.000000
2878.261475 1297.000000
2879.035889 1293.000000
2879.809570 1206.000000
2880.582520 1302.000000
2881.356201 1281.000000
2882.128906 1219.000000
2882.901611 1201.000000
2883.673584 1324.000000
2884.445313 1297.000000
2885.217529 1258.000000
2885.988525 1215.000000
2886.759033 1294.000000
2887.530029 1213.000000
2888.301025 1302.000000
2889.071289 1191.000000
2889.840576 1206.000000
2890.610107 1248.000000
2891.379639 1142.000000
2892.148682 1216.000000
2892.917236 1218.000000
2893.685791 1220.000000
2894.453369 1181.000000
2895.221436 1247.000000
2895.989014 1149.000000
2896.756592 1215.000000
2897.522949 1264.000000
2898.290283 1170.000000
2899.056396 1151.000000
2899.822754 1186.000000
2900.587646 1125.000000
2901.353027 1276.000000
2902.118896 1229.000000
2902.883301 1089.000000
2903.647705 1169.000000
2904.412354 1197.000000
2905.176025 1192.000000
2905.940430 1033.000000
2906.704102 1074.000000
2907.467041 1102.000000
2908.229736 1142.000000
2908.992920 1048.000000
2909.755615 1074.000000
2910.517090 1096.000000
2911.279053 1096.000000
spectrumdark 2048
-96.951851 6174.000000
-94.324982 6174.000000
-91.699989 6028.000000
-89.076889 6291.000000
-86.455658 5772.000000
-83.836327 6228.000000
-81.218857 6116.000000
-78.603264 6344.000000
-75.989548 6215.000000
-73.377708 5821.000000
-70.767731 6076.000000
-68.159637 5869.000000
-65.553391 5961.000000
-62.949024 5962.000000
-60.346516 6099.000000
-57.745861 5633.000000
-55.147068 6242.000000
-52.550133 6866.000000
-49.955051 6444.000000
-47.361824 6551.000000
-44.770447 6283.000000
-42.180916 6716.000000
-39.593227 5888.000000
-37.007389 6049.000000
-34.423393 6423.000000
-31.841232 5687.000000
-29.260920 6260.000000
-26.682434 5636.000000
-24.105791 6127.000000
-21.530973 6239.000000
-18.957996 6443.000000
-16.386839 6504.000000
-13.817516 6760.000000
-11.250017 7703.000000
-8.684338 6266.000000
-6.120484 6491.000000
-3.558444 6001.000000
-0.998228 5828.000000
1.560180 6174.000000
4.116767 6885.000000
6.671549 6594.000000
9.224514 5979.000000
11.775679 6740.000000
14.325031 6437.000000
16.872587 6703.000000
19.418331 5988.000000
21.962282 5722.000000
24.504429 6600.000000
27.044779 6714.000000
29.583344 6786.000000
32.120110 6168.000000
34.655075 5773.000000
37.188263 7181.000000
39.719669 6384.000000
42.249283 7045.000000
44.777100 6489.000000
47.303158 7823.000000
49.827427 5614.000000
52.349926 6233.000000
54.870628 6766.000000
57.389576 6314.000000
59.906750 6407.000000
62.422146 6625.000000
64.935768 5631.000000
67.447632 5689.000000
69.957748 6556.000000
72.466072 6555.000000
74.972641 5946.000000
77.477463 6310.000000
79.980530 6355.000000
82.481819 6285.000000
84.981369 6095.000000
87.479164 6296.000000
89.975227 5680.000000
92.469513 7202.000000
94.962059 5719.000000
97.452888 6922.000000
99.941948 7096.000000
102.429260 6404.000000
104.914848 6188.000000
107.398697 6398.000000
109.880798 5748.000000
112.361176 6545.000000
114.839828 6212.000000
117.316757 6465.000000
119.791931 7180.000000
122.265396 6764.000000
124.737129 5847.000000
127.207153 6728.000000
129.675415 6286.000000
132.142014 6248.000000
134.606857 5636.000000
137.070007 6191.000000
139.531418 7285.000000
141.991135 6808.000000
144.449127 6337.000000
146.905426 5921.000000
149.360016 5799.000000
151.812881 6826.000000
154.264069 6324.000000
156.713562 6559.000000
159.161331 6099.000000
161.607391 6567.000000
164.051773 8772.000000
166.494476 6460.000000
168.935486 6750.000000
171.374786 6179.000000
173.812378 7258.000000
176.248337 6553.000000
178.682556 6937.000000
181.115097 7161.000000
183.545990 6698.000000
185.975159 7149.000000
188.402679 6630.000000
190.828522 6295.000000
193.252686 6678.000000
195.675186 7137.000000
198.095993 7391.000000
200.515137 6504.000000
202.932617 6018.000000
205.348404 7549.000000
207.762543 7014.000000
210.175049 6322.000000
212.585876 6064.000000
214.995026 6197.000000
217.402542 7386.000000
219.808350 6116.000000
222.212570 6541.000000
224.615082 6693.000000
227.015976 6911.000000
229.415222 6460.000000
231.812805 6753.000000
234.208725 7298.000000
236.603027 6526.000000
238.995667 5811.000000
241.386688 6800.000000
243.776047 6599.000000
246.163788 6377.000000
248.549881 6981.000000
250.934341 6059.000000
253.317154 7756.000000
255.698395 6623.000000
258.077942 6631.000000
260.455902 6479.000000
262.832184 7562.000000
265.206909 7557.000000
267.579987 7898.000000
269.951416 6155.000000
272.321198 6414.000000
274.689423 5856.000000
277.056000 6334.000000
279.420990 6725.000000
281.784363 5974.000000
284.146088 6268.000000
286.506226 7101.000000
288.864746 6021.000000
291.221680 6506.000000
293.576996 6404.000000
295.930725 5928.000000
298.282806 5946.000000
300.633331 6283.000000
302.982269 6324.000000
305.329559 6824.000000
307.675323 6349.000000
310.019409 6504.000000
312.361969 7303.000000
314.702911 7625.000000
317.042236 7116.000000
319.380005 6915.000000
321.716217 8124.000000
324.050781 6190.000000
326.383789 6474.000000
328.715240 5996.000000
331.045105 6607.000000
333.373383 6409.000000
335.700043 7177.000000
338.025208 6333.000000
340.348755 6240.000000
342.670746 5902.000000
344.991180 7519.000000
347.309998 7726.000000
349.627258 5995.000000
351.942993 5896.000000
354.257141 6973.000000
356.569702 6338.000000
358.880707 6384.000000
361.190186 7054.000000
363.498138 6305.000000
365.804474 5650.000000
368.109222 6413.000000
370.412506 6409.000000
372.714172 6288.000000
375.014343 6362.000000
377.312958 6245.000000
379.610016 5743.000000
381.905518 6059.000000
384.199493 5900.000000
386.491882 5220.000000
388.782776 5555.000000
391.072144 6254.000000
393.359924 6230.000000
395.646179 6461.000000
397.930939 6989.000000
400.214081 6035.000000
402.495789 6385.000000
404.775970 6168.000000
407.054565 7291.000000
409.331635 6466.000000
411.607178 6698.000000
413.881195 6486.000000
416.153778 6481.000000
418.424744 6243.000000
420.694214 6548.000000
422.962189 7204.000000
425.228607 7217.000000
427.493530 6262.000000
429.756989 6315.000000
432.018860 6440.000000
434.279266 5976.000000
436.538116 6631.000000
438.795502 6092.000000
441.051392 5655.000000
443.305786 5764.000000
445.558655 5436.000000
447.809967 6974.000000
450.059875 6101.000000
452.308197 6266.000000
454.555084 5572.000000
456.800507 6481.000000
459.044373 6488.000000
461.286743 6859.000000
463.527618 5653.000000
465.767090 6713.000000
468.004974 5442.000000
470.241425 5840.000000
472.476349 6063.000000
474.709808 7270.000000
476.941833 6731.000000
479.172333 5672.000000
481.401337 6424.000000
483.628876 6258.000000
485.854919 5964.000000
488.079529 6599.000000
490.302673 5861.000000
492.524353 6424.000000
494.744476 6736.000000
496.963196 5721.000000
499.180420 6207.000000
501.396271 5551.000000
503.610504 6144.000000
505.823425 6449.000000
508.034760 6426.000000
510.244659 6835.000000
512.453125 6499.000000
514.660217 6549.000000
516.865723 6403.000000
519.069824 6569.000000
521.272400 6203.000000
523.473572 6554.000000
525.673401 6610.000000
527.871704 6911.000000
530.068481 5275.000000
532.263916 5830.000000
534.457825 5536.000000
536.650391 7584.000000
538.841431 6683.000000
541.031067 5987.000000
543.219299 6860.000000
545.406006 7097.000000
547.591248 6804.000000
549.775208 6191.000000
551.957581 6367.000000
554.138611 6200.000000
556.318115 5967.000000
558.496338 5888.000000
560.673035 6014.000000
562.848328 6418.000000
565.022217 6400.000000
567.194641 5898.000000
569.365662 6052.000000
571.535217 6228.000000
573.703491 5248.000000
575.870239 6368.000000
578.035522 6273.000000
580.199402 6101.000000
582.362000 5776.000000
584.523071 6025.000000
586.682739 5620.000000
588.841064 5791.000000
590.997864 6126.000000
593.153320 6580.000000
595.307373 5735.000000
597.460083 6061.000000
599.611267 7198.000000
601.761108 6776.000000
603.909607 6697.000000
606.056519 6010.000000
608.202209 6451.000000
610.346497 6413.000000
612.489319 6693.000000
614.630676 6158.000000
616.770813 6464.000000
618.909424 7622.000000
621.046753 5679.000000
623.182617 6527.000000
625.317078 6929.000000
627.450073 7208.000000
629.581909 6612.000000
631.712280 6583.000000
633.841248 6862.000000
635.968750 6463.000000
638.094971 6181.000000
640.219666 7293.000000
642.343140 6343.000000
644.465271 6840.000000
646.585938 6990.000000
648.705261 6495.000000
650.823181 5566.000000
652.939758 5695.000000
655.054932 6420.000000
657.168762 6492.000000
659.281128 5786.000000
661.392273 6096.000000
663.502014 5358.000000
665.610291 6000.000000
667.717407 6273.000000
669.823059 6789.000000
671.927246 5697.000000
674.030212 5689.000000
676.131775 7009.000000
678.231995 5283.000000
680.330811 6742.000000
682.428284 6186.000000
684.524475 6975.000000
686.619202 6179.000000
688.712708 7006.000000
690.804871 6541.000000
692.895508 7957.000000
694.984924 6630.000000
697.073059 6454.000000
699.159729 5936.000000
701.245178 6690.000000
703.329102 5187.000000
705.411804 5940.000000
707.493225 5881.000000
709.573181 7552.000000
711.651917 6233.000000
713.729187 5494.000000
715.805176 6581.000000
717.879883 6142.000000
719.953308 6956.000000
722.025208 6327.000000
724.095947 7344.000000
726.165344 5746.000000
728.233337 6409.000000
730.299988 6384.000000
732.365417 7155.000000
734.429504 5720.000000
736.492249 6144.000000
738.553650 6507.000000
740.613770 6597.000000
742.672485 6038.000000
744.729980 6593.000000
746.786194 6636.000000
748.841003 6655.000000
750.894531 6418.000000
752.946655 7429.000000
754.997559 5803.000000
757.047241 6693.000000
759.095459 6235.000000
761.142456 6188.000000
763.188171 7031.000000
765.232483 5282.000000
767.275513 5694.000000
769.317322 6331.500000
771.357788 6969.000000
773.396851 6370.000000
775.434753 6017.000000
777.471313 5992.000000
779.506653 5332.000000
781.540649 5726.000000
783.573242 6916.000000
785.604675 5539.000000
787.634705 11585.000000
789.663452 6044.000000
791.691040 6289.000000
793.717285 6380.000000
795.742126 5838.000000
797.765869 5486.000000
799.788208 6312.000000
801.809326 5827.000000
803.829102 6660.000000
805.847595 4908.000000
807.864868 6553.000000
809.880737 6848.000000
811.895447 5703.000000
813.908813 6361.000000
815.920959 6213.000000
817.931885 6030.000000
819.941467 6536.000000
821.949829 5275.000000
823.956787 5675.000000
825.962524 5982.000000
827.967041 5740.000000
829.970276 5672.000000
831.972229 6443.000000
833.972900 6051.000000
835.972351 5944.000000
837.970459 6321.000000
839.967468 7036.000000
841.963074 6194.000000
843.957520 5938.000000
845.950623 6149.000000
847.942505 6815.000000
849.933044 5569.000000
851.922302 6757.000000
853.910522 5940.000000
855.897339 5738.000000
857.882935 6423.000000
859.867249 7263.000000
861.850464 6322.000000
863.832275 6405.000000
865.812866 5821.000000
867.792175 7703.000000
869.770325 7150.000000
871.747131 6177.000000
873.722656 5871.000000
875.697144 6123.000000
877.670166 6054.000000
879.642151 5376.000000
881.612793 6431.000000
883.582275 6134.000000
885.550415 5567.000000
887.517395 5137.000000
889.483032 6113.000000
891.447510 5882.000000
893.410767 5992.000000
895.372803 6499.000000
897.333557 5918.000000
899.293091 6394.000000
901.251343 6697.000000
903.208496 6321.000000
905.164490 5915.000000
907.119080 6893.000000
909.072449 6477.000000
911.024658 6422.000000
912.975647 6391.000000
914.925354 7115.000000
916.873901 6346.000000
918.821228 6158.000000
920.767273 6141.000000
922.712036 6074.000000
924.655762 6302.000000
926.598328 5876.000000
928.539612 5537.000000
930.479553 6402.000000
932.418396 5661.000000
934.355957 5461.000000
936.292297 5976.000000
938.227478 5775.000000
940.161377 6056.000000
942.094177 5847.000000
944.025757 6743.000000
945.956177 5197.000000
947.885376 6490.000000
949.813232 7017.000000
951.740051 6655.000000
953.665588 5922.000000
955.589844 5307.000000
957.513000 5941.000000
959.434998 6683.000000
961.355713 7215.000000
963.275269 6485.000000
965.193665 5342.000000
967.111023 6394.000000
969.026917 6407.000000
970.941711 6147.000000
972.855286 5919.000000
974.767700 6400.000000
976.678894 6457.000000
978.588928 5478.000000
980.497681 6158.000000
982.405396 6083.000000
984.311890 6349.000000
986.217163 5686.000000
988.121338 6792.000000
990.024292 6193.000000
991.926025 6814.000000
993.826599 6406.000000
995.726013 6568.000000
997.624207 5320.000000
999.521240 6570.000000
1001.417053 6573.000000
1003.311707 7672.000000
1005.205261 5588.000000
1007.097534 7169.000000
1008.988892 6080.000000
1010.878906 5318.000000
1012.767700 6640.000000
1014.655334 6301.000000
1016.541809 6874.000000
1018.427124 6692.000000
1020.311279 5921.000000
1022.194214 5885.000000
1024.076050 6178.000000
1025.956665 5196.000000
1027.836182 5852.000000
1029.714722 6102.000000
1031.591919 5394.000000
1033.467773 6189.000000
1035.342651 5897.000000
1037.216553 6600.000000
1039.088989 6984.000000
1040.960449 6664.000000
1042.830566 5487.000000
1044.699707 5495.000000
1046.567627 5721.000000
1048.434448 7041.000000
1050.300171 6716.000000
1052.164673 6418.000000
1054.028076 6463.000000
1055.890137 6455.000000
1057.751221 5859.000000
1059.611206 6508.000000
1061.469849 6629.000000
1063.327393 5810.000000
1065.183838 6715.000000
1067.039185 5939.000000
1068.893311 5812.000000
1070.746582 6214.000000
1072.598389 6264.000000
1074.449219 6107.000000
1076.298828 6147.000000
1078.147217 5713.000000
1079.994751 7853.000000
1081.840942 5521.000000
1083.685913 6214.000000
1085.530029 5378.000000
1087.372803 5470.000000
1089.214355 6486.000000
1091.055176 5438.000000
1092.894409 5788.000000
1094.732910 6052.000000
1096.570068 6009.000000
1098.406006 6789.000000
1100.240967 6556.000000
1102.074707 5421.000000
1103.907471 5665.000000
1105.738892 6103.000000
1107.569458 7251.000000
1109.398682 6576.000000
1111.226929 6451.000000
1113.053955 7075.000000
1114.880005 5415.000000
1116.704834 6286.000000
1118.528564 7144.000000
1120.351074 6035.000000
1122.172485 5846.000000
1123.993042 5898.000000
1125.812134 6505.000000
1127.630371 7032.000000
1129.447266 6843.000000
1131.263306 6716.000000
1133.078125 6477.000000
1134.891846 5630.000000
1136.704468 5741.000000
1138.515869 5606.000000
1140.326294 6173.000000
1142.135620 6679.000000
1143.943604 6900.000000
1145.750854 5910.000000
1147.556641 5889.000000
1149.361572 5366.000000
1151.165405 5374.000000
1152.968018 6113.000000
1154.769775 6049.000000
1156.570068 6074.000000
1158.369385 6077.000000
1160.167725 5909.000000
1161.964722 5455.000000
1163.760986 5866.000000
1165.555908 6045.000000
1167.349731 6290.000000
1169.142700 7667.000000
1170.934326 5615.000000
1172.724976 6513.000000
1174.514648 6035.000000
1176.302856 5848.000000
1178.090210 7419.000000
1179.876465 6798.000000
1181.661621 5818.000000
1183.445679 5954.000000
1185.228638 7684.000000
1187.010620 5862.000000
1188.791382 5881.000000
1190.571167 6285.000000
1192.349854 6944.000000
1194.127563 6648.000000
1195.904053 7232.000000
1197.679443 6578.000000
1199.453735 6558.000000
1201.226929 6709.000000
1202.999268 6472.000000
1204.770264 6644.000000
1206.540405 5669.000000
1208.309326 6037.000000
1210.077148 6330.000000
1211.844116 5788.000000
1213.609741 5897.000000
1215.374390 6998.000000
1217.137939 6506.000000
1218.900391 5893.000000
1220.661987 6661.000000
1222.422363 5878.000000
1224.181641 6308.000000
1225.940063 6036.000000
1227.697266 7143.000000
1229.453369 6443.000000
1231.208374 5525.000000
1232.962524 5957.000000
1234.715332 5793.000000
1236.467163 5998.000000
1238.218140 5998.000000
1239.967773 4866.000000
1241.716553 6979.000000
1243.463989 6491.000000
1245.210693 6588.000000
1246.956177 6516.000000
1248.700806 6392.000000
1250.444092 6790.000000
1252.186401 6686.000000
1253.927612 5317.000000
1255.667969 5057.000000
1257.407227 5844.000000
1259.145264 6580.000000
1260.882446 7056.000000
1262.618408 6078.000000
1264.353394 6454.000000
1266.087402 7325.000000
1267.820435 5985.000000
1269.552246 6181.000000
1271.283081 6433.000000
1273.012695 7205.000000
1274.741455 5871.000000
1276.469116 5615.000000
1278.195679 5527.000000
1279.921387 5522.000000
1281.645752 6426.000000
1283.369263 5150.000000
1285.091797 6850.000000
1286.813354 6662.000000
1288.533691 6173.000000
1290.253052 6601.000000
1291.971313 7229.000000
1293.688599 6456.000000
1295.404907 5752.000000
1297.119995 6419.000000
1298.834106 6150.000000
1300.547241 5775.000000
1302.259521 6376.000000
1303.970581 8269.000000
1305.680664 5238.000000
1307.389648 6325.000000
1309.097412 6647.000000
1310.804565 6972.000000
1312.510254 5751.000000
1314.215210 6897.000000
1315.919189 6166.000000
1317.621948 5963.000000
1319.323730 6557.000000
1321.024658 5990.000000
1322.724243 9974.000000
1324.422974 7756.500000
1326.120972 18895.500000
1327.817627 6471.000000
1329.513184 7105.000000
1331.207886 6741.000000
1332.901367 5737.000000
1334.593994 5379.000000
1336.285767 7402.000000
1337.976196 6254.000000
1339.665894 6587.000000
1341.354492 6111.000000
1343.041992 7546.000000
1344.728516 5612.000000
1346.413940 6777.000000
1348.098389 5903.000000
1349.781982 7226.000000
1351.464355 6353.000000
1353.145752 5940.000000
1354.826294 6486.000000
1356.505615 6599.000000
1358.184326 5841.000000
1359.861694 6562.000000
1361.537964 5753.000000
1363.213257 5536.000000
1364.887817 6563.000000
1366.561157 6478.000000
1368.233521 6744.000000
1369.904907 5119.000000
1371.575317 6732.000000
1373.244629 6150.000000
1374.912964 5705.000000
1376.580444 6012.000000
1378.246826 6495.000000
1379.912231 6160.000000
1381.576660 5812.000000
1383.239868 5959.000000
1384.902466 5645.000000
1386.563721 6343.000000
1388.224121 6625.000000
1389.883423 6425.000000
1391.541748 6446.000000
1393.199341 6831.000000
1394.855713 6442.000000
1396.511230 7063.000000
1398.165527 6303.000000
1399.818970 5848.000000
1401.471313 6078.000000
1403.122925 6469.000000
1404.773315 7127.000000
1406.422607 6258.000000
1408.071167 7584.000000
1409.718628 7888.000000
1411.365112 6126.000000
1413.010742 6147.000000
1414.655396 5985.000000
1416.298828 7004.000000
1417.941406 7152.000000
1419.582886 6833.000000
1421.223511 6471.000000
1422.863159 6495.000000
1424.501709 5933.000000
1426.139404 6613.000000
1427.776001 6303.000000
1429.411621 5919.000000
1431.046509 6399.000000
1432.680298 5878.000000
1434.312988 6071.000000
1435.944702 5630.000000
1437.575562 6054.000000
1439.205322 6051.000000
1440.833984 7737.000000
1442.462036 5947.000000
1444.088989 6225.000000
1445.714722 6185.000000
1447.339844 6178.000000
1448.963867 6486.000000
1450.586914 6006.000000
1452.208984 5995.000000
1453.829956 7362.000000
1455.449951 6212.000000
1457.069214 6844.000000
1458.687134 5689.000000
1460.304443 14362.000000
1461.920776 5556.000000
1463.535889 7229.000000
1465.150146 6364.000000
1466.763550 5170.000000
1468.375854 5585.000000
1469.987305 6324.000000
1471.597900 6322.000000
1473.207275 5964.000000
1474.815674 5948.000000
1476.423218 6195.000000
1478.029785 6725.000000
1479.635620 5304.000000
1481.240234 6285.000000
1482.843994 5501.000000
1484.446533 6662.000000
1486.048462 5539.000000
1487.649170 5492.000000
1489.249146 5579.000000
1490.848022 6190.000000
1492.446045 6396.000000
1494.042969 6678.000000
1495.639038 6289.000000
1497.234131 6031.000000
1498.828247 5416.000000
1500.421631 6596.000000
1502.013916 5456.000000
1503.604980 6178.000000
1505.195557 6735.000000
1506.784790 6433.000000
1508.373413 6152.000000
1509.960938 6540.000000
1511.547363 6892.000000
1513.133057 6215.000000
1514.717651 6623.000000
1516.301392 6316.000000
1517.884033 6205.000000
1519.465942 6584.000000
1521.046753 6654.000000
1522.626831 6051.000000
1524.205688 6217.000000
1525.783691 6354.000000
1527.360962 6272.000000
1528.937012 5673.000000
1530.512329 5859.000000
1532.086548 6319.000000
1533.660034 5476.000000
1535.232300 5953.000000
1536.803833 6411.000000
1538.374390 6387.000000
1539.944092 6318.000000
1541.512573 5360.000000
1543.080322 6534.000000
1544.647217 5666.000000
1546.212891 6778.000000
1547.777832 5965.000000
1549.341675 5021.000000
1550.904907 7461.000000
1552.466797 6329.000000
1554.028076 5917.000000
1555.588257 5670.000000
1557.147705 5767.000000
1558.706055 5906.000000
1560.263672 6263.000000
1561.820190 7007.000000
1563.375488 5872.000000
1564.930176 6350.000000
1566.484131 5588.000000
1568.037109 6326.000000
1569.588745 5626.000000
1571.139648 5908.000000
1572.689819 6241.000000
1574.239014 6328.000000
1575.786865 5748.000000
1577.334229 5541.000000
1578.880615 5717.000000
1580.426147 5051.000000
1581.970703 6656.000000
1583.514038 6292.000000
1585.056763 6558.000000
1586.598633 6446.000000
1588.139404 6762.000000
1589.679199 5804.000000
1591.218262 6624.000000
1592.756226 5864.000000
1594.293701 6177.000000
1595.829834 5932.000000
1597.364868 6709.000000
1598.899414 6233.000000
1600.432983 5940.000000
1601.965698 6110.000000
1603.496826 6200.000000
1605.027710 6235.000000
1606.557739 5695.000000
1608.086548 6145.000000
1609.614258 6144.000000
1611.141357 6001.000000
1612.667725 5794.000000
1614.193115 6207.000000
1615.717651 5839.000000
1617.240845 5780.000000
1618.763306 5607.000000
1620.285034 6572.000000
1621.805908 6943.000000
1623.325317 15574.000000
1624.844238 6189.000000
1626.362427 6014.000000
1627.879761 5949.000000
1629.395996 6330.000000
1630.910889 7001.000000
1632.425293 6755.000000
1633.938965 5749.000000
1635.451538 6819.000000
1636.962891 5905.000000
1638.473877 6406.000000
1639.983765 6206.000000
1641.492798 6134.000000
1643.000488 5662.000000
1644.507813 6102.000000
1646.014282 7080.000000
1647.519775 6313.000000
1649.024414 6844.000000
1650.527588 6145.000000
1652.030151 6569.000000
1653.532349 6360.000000
1655.033203 6678.000000
1656.532959 7485.000000
1658.031860 5891.000000
1659.530396 6518.000000
1661.027710 6208.000000
1662.524292 5913.000000
1664.019287 6491.000000
1665.514038 6358.000000
1667.007935 5192.000000
1668.500854 5697.000000
1669.992432 21226.000000
1671.483521 6478.000000
1672.973999 6085.000000
1674.463379 5988.000000
1675.951294 6915.000000
1677.438965 6868.000000
1678.925659 6009.000000
1680.411499 5314.000000
1681.896484 6069.000000
1683.380005 6190.000000
1684.863281 6208.000000
1686.345703 5870.000000
1687.827026 6208.000000
1689.306885 6218.000000
1690.786499 5441.000000
1692.265381 6593.000000
1693.743286 5992.000000
1695.220215 6161.000000
1696.695923 5708.000000
1698.171265 6051.000000
1699.645386 6211.000000
1701.118896 5496.000000
1702.590942 5502.000000
1704.062744 6804.000000
1705.533569 6342.000000
1707.003540 6995.000000
1708.472168 5169.000000
1709.940308 5796.000000
1711.407715 6276.000000
1712.874023 5485.000000
1714.339722 5727.000000
1715.803711 6246.000000
1717.267578 5916.000000
1718.730591 6929.000000
1720.192627 6339.000000
1721.653442 6623.000000
1723.113647 5408.000000
1724.573120 6344.000000
1726.031738 6098.000000
1727.489380 6002.000000
1728.945679 6242.000000
1730.401733 6085.000000
1731.856812 6420.000000
1733.310913 5981.000000
1734.763794 6829.000000
1736.216431 5944.000000
1737.667969 6746.000000
1739.118774 5944.000000
1740.568604 6555.000000
1742.017090 5883.000000
1743.465210 7356.000000
1744.912476 6549.000000
1746.359009 6636.000000
1747.803955 6651.000000
1749.248657 6067.000000
1750.692505 5812.000000
1752.135498 5542.000000
1753.577026 6592.000000
1755.018311 6302.000000
1756.458740 19442.000000
1757.898193 6244.000000
1759.336670 5225.000000
1760.774170 6125.000000
1762.211182 7593.000000
1763.647217 5868.000000
1765.082397 7176.000000
1766.516113 6143.000000
1767.949707 6451.000000
1769.382324 6710.000000
1770.814087 5713.000000
1772.244995 5728.000000
1773.674683 6327.000000
1775.103638 6150.000000
1776.532104 6216.000000
1777.959595 6655.000000
1779.385742 6269.000000
1780.811646 5586.000000
1782.236450 6932.000000
1783.660645 5557.000000
1785.083374 6686.000000
1786.505615 6527.000000
1787.927124 6848.000000
1789.347900 5713.000000
1790.767700 5914.000000
1792.186157 6173.000000
1793.604126 6838.000000
1795.021484 5512.000000
1796.437988 6059.000000
1797.853027 6500.000000
1799.267700 5795.000000
1800.681763 6528.000000
1802.094604 5952.000000
1803.506836 7011.000000
1804.917725 7073.000000
1806.328125 7742.000000
1807.737793 6448.000000
1809.146484 5897.000000
1810.554077 5399.000000
1811.961182 6495.000000
1813.367432 6389.000000
1814.772705 6713.000000
1816.176880 5990.000000
1817.580688 5886.000000
1818.983521 6247.000000
1820.385498 6011.000000
1821.786865 5854.000000
1823.186768 6328.000000
1824.586060 6517.000000
1825.984863 6539.000000
1827.382813 7402.000000
1828.779419 5808.000000
1830.175415 6748.000000
1831.570679 5926.000000
1832.965332 8115.000000
1834.359009 6000.000000
1835.751343 6825.000000
1837.143188 6456.000000
1838.534424 5820.000000
1839.924683 7095.000000
1841.313721 5925.000000
1842.702393 6043.000000
1844.090088 5909.000000
1845.477051 5805.000000
1846.862671 6891.000000
1848.248047 5859.000000
1849.632568 6359.000000
1851.016357 6318.000000
1852.399048 6290.000000
1853.780518 5399.000000
1855.161499 6490.000000
1856.541992 6291.000000
1857.921509 5740.000000
1859.299561 5936.000000
1860.677490 6307.000000
1862.054443 7825.000000
1863.430664 6143.000000
1864.806030 6136.000000
1866.179932 5620.000000
1867.553711 5723.000000
1868.926636 6223.000000
1870.298462 5958.000000
1871.669312 6904.000000
1873.039795 5484.000000
1874.409180 6030.000000
1875.778076 6070.000000
1877.145386 7104.000000
1878.512573 6020.000000
1879.878784 6024.000000
1881.244263 6780.000000
1882.609009 7532.000000
1883.972168 6836.000000
1885.335205 6889.000000
1886.697388 6325.000000
1888.058716 6440.000000
1889.418701 5684.000000
1890.778320 5825.000000
1892.137329 6131.000000
1893.495361 6643.000000
1894.852539 7253.000000
1896.208496 5921.000000
1897.564209 7643.000000
1898.918945 5830.000000
1900.272827 5494.000000
1901.625610 5859.000000
1902.977905 5890.000000
1904.329468 5939.000000
1905.680176 6840.000000
1907.029663 6513.000000
1908.378662 6602.000000
1909.726807 5773.000000
1911.074341 6138.000000
1912.421143 6329.000000
1913.766357 6766.000000
1915.111328 6057.000000
1916.455566 5426.000000
1917.798950 6481.000000
1919.140991 5899.000000
1920.482788 6696.000000
1921.823730 6958.000000
1923.163940 6152.000000
1924.503174 6282.000000
1925.841431 6374.000000
1927.179077 6444.000000
1928.515991 7028.000000
1929.852051 6752.000000
1931.186890 5572.000000
1932.521362 6665.000000
1933.855103 7281.000000
1935.187988 6264.000000
1936.519409 5760.000000
1937.850952 6321.000000
1939.181152 6611.000000
1940.510864 5794.000000
1941.839722 6084.000000
1943.167358 5813.000000
1944.494507 5075.000000
1945.820923 5846.000000
1947.146606 6532.000000
1948.470947 5733.000000
1949.795044 6695.000000
1951.118286 6278.000000
1952.440796 6433.000000
1953.762207 5792.000000
1955.082642 7431.000000
1956.402466 6006.000000
1957.721924 5529.000000
1959.040405 6834.000000
1960.357544 5901.000000
1961.674316 5786.000000
1962.990356 6601.000000
1964.305664 6602.000000
1965.619507 6300.000000
1966.933105 5643.000000
1968.245972 6197.000000
1969.557983 6007.000000
1970.869385 5985.000000
1972.179443 6305.000000
1973.489014 5842.000000
1974.797852 6122.000000
1976.106079 6611.000000
1977.412964 6106.000000
1978.719238 7263.000000
1980.025146 5560.000000
1981.329834 6368.000000
1982.634033 5927.000000
1983.937012 5661.000000
1985.239624 7510.000000
1986.541260 6116.000000
1987.842285 6773.000000
1989.141724 6087.000000
1990.441284 6566.000000
1991.739746 5256.000000
1993.037720 6073.000000
1994.334106 6111.000000
1995.630493 5810.000000
1996.925903 5564.000000
1998.220581 6484.000000
1999.514404 5722.000000
2000.807007 6510.000000
2002.099121 5748.000000
2003.390747 7136.000000
2004.681641 6332.000000
2005.970947 6281.000000
2007.260010 6777.000000
2008.548340 6020.000000
2009.835938 6004.000000
2011.122681 6713.000000
2012.408325 5635.000000
2013.693604 6363.000000
2014.977905 6001.000000
2016.261597 5561.000000
2017.543945 5978.000000
2018.825928 6522.000000
2020.107422 6735.000000
2021.387939 5882.000000
2022.667725 6127.000000
2023.946411 6772.000000
2025.224365 5792.000000
2026.501831 5947.000000
2027.778687 6309.000000
2029.053833 5747.000000
2030.329102 6640.000000
2031.603394 6064.000000
2032.876709 5954.000000
2034.149170 5935.000000
2035.421265 6183.000000
2036.692261 6961.000000
2037.963013 6633.000000
2039.232422 6009.000000
2040.500732 6714.000000
2041.769043 6554.000000
2043.036377 5919.000000
2044.302979 6006.000000
2045.568359 5670.000000
2046.833130 5477.000000
2048.097656 5320.000000
2049.361084 5855.000000
2050.624023 6408.000000
2051.885010 6116.000000
2053.146484 6070.000000
2054.406738 5856.000000
2055.666260 6491.000000
2056.925049 6261.000000
2058.182861 6856.000000
2059.440186 6149.000000
2060.696777 6033.000000
2061.951904 6523.000000
2063.207031 5622.000000
2064.461182 5576.000000
2065.714600 5607.000000
2066.967285 6850.000000
2068.218750 6262.000000
2069.469971 6249.000000
2070.720459 5616.000000
2071.970215 5487.000000
2073.218506 6116.000000
2074.466797 6512.000000
2075.714111 7398.000000
2076.960693 5557.000000
2078.206543 6062.000000
2079.451172 6945.000000
2080.695313 7665.000000
2081.938965 5453.000000
2083.181641 6038.000000
2084.423096 6932.000000
2085.664307 5914.000000
2086.905029 6434.000000
2088.144775 6738.000000
2089.383301 7057.000000
2090.621338 6192.000000
2091.858643 5752.000000
2093.095703 6601.000000
2094.331299 6081.000000
2095.566162 6231.000000
2096.800781 6009.000000
2098.034424 5612.000000
2099.267090 6098.000000
2100.499023 6891.000000
2101.730469 6415.000000
2102.960938 6714.000000
2104.190674 6004.000000
2105.420166 5972.000000
2106.647705 5967.000000
2107.875488 5978.000000
2109.102539 6313.000000
2110.328613 5469.000000
2111.553223 6400.000000
2112.778076 6951.000000
2114.001709 6992.000000
2115.224854 6195.000000
2116.446777 7526.000000
2117.668457 5989.000000
2118.889160 6798.000000
2120.109131 6032.000000
2121.328613 6170.000000
2122.546631 6529.000000
2123.764648 7034.000000
2124.981689 5704.000000
2126.198242 5837.000000
2127.413086 6524.000000
2128.628174 6347.000000
2129.842285 6948.000000
2131.055664 5692.000000
2132.268311 6099.000000
2133.479492 5785.000000
2134.690918 6559.000000
2135.901123 6664.000000
2137.110840 5925.000000
2138.319092 6118.000000
2139.527344 5670.000000
2140.734863 5867.000000
2141.941162 7637.000000
2143.146729 5902.000000
2144.352051 5672.000000
2145.556396 5485.000000
2146.760010 6283.000000
2147.963135 6262.000000
2149.164795 6416.000000
2150.366211 5316.000000
2151.566895 6287.000000
2152.766846 6078.000000
2153.965576 6013.000000
2155.164063 6952.000000
2156.362061 6164.000000
2157.559082 5954.000000
2158.755371 5140.000000
2159.950439 5251.000000
2161.145264 6069.000000
2162.339355 5524.000000
2163.532471 6057.000000
2164.724609 6937.000000
2165.916504 5891.000000
2167.107666 6307.000000
2168.297852 6256.000000
2169.487305 6462.000000
2170.676270 6823.000000
2171.864258 6254.000000
2173.052002 5731.000000
2174.238281 5912.000000
2175.423828 6508.000000
2176.609131 5947.000000
2177.793945 5841.000000
2178.977539 6395.000000
2180.160400 7484.000000
2181.342285 6317.000000
2182.523926 5906.000000
2183.705078 6526.000000
2184.885010 5690.000000
2186.063965 5537.000000
2187.242432 6331.000000
2188.420654 6901.000000
2189.597656 7125.000000
2190.773682 6725.000000
2191.949463 6022.000000
2193.124756 5599.000000
2194.298584 6599.000000
2195.471924 6118.000000
2196.645020 6099.000000
2197.816895 6360.000000
2198.988281 7075.000000
2200.159180 6271.000000
2201.328369 6925.000000
2202.497559 7639.000000
2203.666260 6304.000000
2204.833984 5898.000000
2206.000732 5651.000000
2207.166748 7182.000000
2208.332275 6698.000000
2209.497559 5980.000000
2210.661377 6692.000000
2211.824707 5427.000000
2212.986816 6213.000000
2214.149170 6189.000000
2215.310303 6661.000000
2216.470459 6717.000000
2217.630127 6275.000000
2218.789551 6583.000000
2219.947754 6399.000000
2221.104980 6278.000000
2222.261963 6743.000000
2223.418213 6595.000000
2224.573730 6727.000000
2225.728516 6279.000000
2226.882324 6404.000000
2228.035156 6067.000000
2229.188477 6863.000000
2230.339844 6166.000000
2231.490967 6099.000000
2232.641357 6560.000000
2233.791260 7715.000000
2234.940186 6303.000000
2236.088623 5173.000000
2237.235596 6834.000000
2238.382813 7040.000000
2239.528809 6066.000000
2240.674561 7222.000000
2241.818604 7330.000000
2242.962891 6748.000000
2244.106201 6120.000000
2245.248779 6000.000000
2246.390381 5732.000000
2247.531738 5848.000000
2248.672119 6400.000000
2249.811768 6361.000000
2250.950928 5808.000000
2252.088867 5788.000000
2253.226807 6161.000000
2254.363770 5352.000000
2255.500000 6315.000000
2256.635254 6141.000000
2257.769775 7300.000000
2258.904053 6362.000000
2260.037842 5357.000000
2261.170166 6051.000000
2262.302002 6822.000000
2263.433350 6277.000000
2264.563721 6421.000000
2265.693848 8119.000000
2266.822754 6650.000000
2267.951172 6092.000000
2269.079102 5526.000000
2270.206055 6055.000000
2271.332275 5971.000000
2272.457520 6693.000000
2273.582764 6500.000000
2274.707275 6400.000000
2275.830566 5950.000000
2276.953125 6363.000000
2278.075195 5930.000000
2279.196777 7385.000000
2280.317627 6368.000000
2281.437256 6388.000000
2282.556396 7114.000000
2283.675293 7616.000000
2284.793457 7206.000000
2285.910645 5925.000000
2287.026855 6341.000000
2288.142822 7000.000000
2289.258057 6793.000000
2290.372559 7380.000000
2291.485840 5830.000000
2292.599121 6363.000000
2293.711670 5936.000000
2294.823486 5339.000000
2295.934570 6700.000000
2297.044434 6445.000000
2298.153809 6119.000000
2299.262939 6684.000000
2300.371094 6291.000000
2301.478271 6748.000000
2302.585205 5791.000000
2303.691406 6246.000000
2304.797119 6616.000000
2305.901367 6522.000000
2307.005371 5444.000000
2308.108887 5691.000000
2309.211914 6525.000000
2310.313721 7441.000000
2311.414795 7316.000000
2312.515381 6612.000000
2313.615479 5519.000000
2314.714844 6326.000000
2315.812744 6451.000000
2316.911133 6997.000000
2318.008057 8229.000000
2319.104736 6854.000000
2320.200928 5797.000000
2321.295410 6874.000000
2322.389893 7582.000000
2323.483643 5822.000000
2324.577148 6052.000000
2325.668945 6430.000000
2326.760742 7053.000000
2327.851807 6088.000000
2328.942139 6281.000000
2330.031494 6973.000000
2331.120850 6093.000000
2332.208984 6298.000000
2333.296631 6816.000000
2334.384033 6546.000000
2335.469727 6718.000000
2336.555176 7670.000000
2337.640381 6344.000000
2338.724609 6761.000000
2339.807861 5921.000000
2340.890869 6424.000000
2341.972900 7848.000000
2343.054688 6057.000000
2344.135742 7454.000000
2345.215576 6610.000000
2346.294922 5652.000000
2347.373779 6816.000000
2348.452148 6487.000000
2349.529053 6293.000000
2350.605713 6921.000000
2351.682129 6040.000000
2352.757568 6432.000000
2353.832031 5955.000000
2354.906250 6259.000000
2355.979736 6770.000000
2357.052734 6185.000000
2358.124512 6905.000000
2359.196045 6255.000000
2360.266602 6810.000000
2361.336914 7500.000000
2362.406250 7590.000000
2363.474609 6835.000000
2364.542725 6723.000000
2365.610107 7080.000000
2366.677002 7125.000000
2367.743164 6028.000000
2368.808105 6911.000000
2369.873047 6955.000000
2370.937256 6305.000000
2372.000732 6914.000000
2373.062988 5808.000000
2374.125244 6258.000000
2375.186523 6326.000000
2376.247559 5922.000000
2377.307373 6272.000000
2378.366455 7857.000000
2379.425537 6493.000000
2380.483643 7628.000000
2381.541016 6913.000000
2382.597412 7988.000000
2383.653564 7818.000000
2384.709229 6263.000000
2385.764160 6988.000000
2386.817627 6791.000000
2387.871338 6544.000000
2388.924072 6309.000000
2389.976318 6735.000000
2391.027832 6136.000000
2392.078369 6690.000000
2393.128662 6541.000000
2394.177979 6187.000000
2395.227295 6154.000000
2396.275146 6837.000000
2397.322510 7001.000000
2398.369629 6331.000000
2399.415771 6710.000000
2400.461182 6136.000000
2401.505859 6730.000000
2402.550537 7731.000000
2403.593750 7395.000000
2404.636963 6568.000000
2405.678711 5809.000000
2406.720703 6640.000000
2407.761963 7114.000000
2408.802246 6066.000000
2409.841797 6409.000000
2410.880371 6310.000000
2411.919189 6021.000000
2412.956787 6493.000000
2413.994141 6865.000000
2415.030273 7327.000000
2416.066162 6293.000000
2417.101318 6230.000000
2418.135986 6858.000000
2419.169189 7195.000000
2420.202637 6470.000000
2421.235107 6659.000000
2422.267334 6785.000000
2423.298096 7008.000000
2424.328857 6407.000000
2425.359131 6796.000000
2426.388184 6871.000000
2427.417236 6658.000000
2428.444580 7392.000000
2429.472412 6663.000000
2430.499023 7305.000000
2431.525391 6930.000000
2432.550293 7756.000000
2433.575439 6552.000000
2434.599609 7123.000000
2435.623535 6714.000000
2436.646240 5809.000000
2437.668213 6353.000000
2438.689941 6572.000000
2439.710938 6623.000000
2440.731445 6013.000000
2441.750732 6446.000000
2442.770020 6506.000000
2443.788330 8428.000000
2444.806396 6274.000000
2445.822998 6419.000000
2446.839600 6564.000000
2447.855469 5932.000000
2448.871338 6992.000000
2449.885742 6788.000000
2450.899414 5567.000000
2451.912598 7244.000000
2452.925537 5985.000000
2453.937744 7176.000000
2454.948975 6716.000000
2455.959961 7655.000000
2456.970215 6329.000000
2457.979980 7631.000000
2458.988770 5860.000000
2459.996826 5933.000000
2461.004883 6314.000000
2462.011719 7338.000000
2463.018311 5447.000000
2464.023682 7401.000000
2465.028809 6886.000000
2466.033691 5837.000000
2467.037354 6472.000000
2468.040771 6347.000000
2469.043213 7618.000000
2470.045410 7317.000000
2471.047119 6843.000000
2472.047852 6537.000000
2473.047607 6882.000000
2474.047363 6700.000000
2475.046143 5726.000000
2476.044434 6634.000000
2477.041748 7039.000000
2478.038818 6144.000000
2479.035889 6961.000000
2480.031494 5836.000000
2481.027100 7136.000000
2482.020996 6715.000000
2483.014893 8024.000000
2484.008301 6799.000000
2485.001221 6881.000000
2485.993164 7493.000000
2486.984375 7206.000000
2487.975342 6705.000000
2488.965820 5811.000000
2489.955322 6599.000000
2490.944092 6471.000000
2491.932861 5588.000000
2492.920654 6835.000000
2493.907227 6610.000000
2494.893799 8066.000000
2495.879883 6723.000000
2496.865234 7116.000000
2497.849609 7991.000000
2498.833740 5996.000000
2499.817871 6913.000000
2500.800537 5726.000000
2501.782715 7040.000000
2502.764404 6794.000000
2503.745361 7212.000000
2504.725830 6507.000000
2505.706055 5705.000000
2506.684814 6284.000000
2507.663330 7552.000000
2508.641357 6785.000000
2509.618896 7050.000000
2510.595459 6118.000000
2511.571777 5972.000000
2512.547363 6412.000000
2513.522461 6210.000000
2514.497070 6432.000000
2515.470459 7636.000000
2516.443604 6793.000000
2517.416504 6864.000000
2518.388428 6081.000000
2519.359619 6812.000000
2520.330322 6920.000000
2521.300781 7826.000000
2522.270508 7980.000000
2523.239258 6087.000000
2524.207275 6080.000000
2525.175293 7757.000000
2526.142334 6260.000000
2527.109131 5513.000000
2528.074707 7278.000000
2529.040283 7024.000000
2530.005127 7743.000000
2530.969482 6313.000000
2531.932617 6339.000000
2532.895996 5797.000000
2533.858398 5952.000000
2534.820557 6670.000000
2535.781494 6346.000000
2536.741699 6099.000000
2537.702148 6119.000000
2538.661621 6729.000000
2539.620361 6776.000000
2540.578125 6681.000000
2541.536133 6210.000000
2542.493408 6766.000000
2543.449707 6138.000000
2544.405762 7085.000000
2545.360596 6203.000000
2546.315674 7721.000000
2547.270020 6997.000000
2548.223633 6508.000000
2549.176270 7179.000000
2550.128662 6790.000000
2551.080566 6950.000000
2552.031738 6362.000000
2552.982178 7689.000000
2553.932129 7286.000000
2554.881836 7364.000000
2555.830811 6625.000000
2556.779297 6248.000000
2557.726563 7075.000000
2558.673828 6268.000000
2559.620361 6505.000000
2560.566406 6763.000000
2561.511475 7396.000000
2562.456299 6747.000000
2563.400635 7128.000000
2564.344482 6890.000000
2565.287842 6606.000000
2566.229736 6593.000000
2567.171875 6543.000000
2568.113281 6120.000000
2569.053955 7185.000000
2569.993896 7293.000000
2570.933838 5666.000000
2571.872803 6134.000000
2572.811523 7429.000000
2573.749268 7195.000000
2574.686768 5431.000000
2575.623535 6936.000000
2576.559570 6817.000000
2577.495117 7470.000000
2578.429932 6367.000000
2579.364746 5967.000000
2580.298584 6981.000000
2581.231934 7031.000000
2582.164551 5852.000000
2583.096924 6911.000000
2584.028564 5391.000000
2584.959717 6991.000000
2585.890381 7003.000000
2586.819824 6836.000000
2587.749268 7194.000000
2588.678223 6498.000000
2589.606934 7442.000000
2590.533936 7330.000000
2591.461182 5857.000000
2592.387939 6820.000000
2593.313965 6284.000000
2594.239746 5580.000000
2595.164307 7621.000000
2596.088623 7626.000000
2597.012451 5316.000000
2597.935791 7241.000000
2598.858154 6341.000000
2599.780273 6822.000000
2600.701904 8296.000000
2601.622803 6361.000000
2602.542969 5758.000000
2603.462891 6330.000000
2604.382324 6329.000000
2605.301514 6417.000000
2606.219727 5822.000000
2607.136719 5981.000000
2608.053955 7173.000000
2608.970947 5926.000000
2609.886963 7514.000000
2610.801758 6636.000000
2611.717041 6595.000000
2612.631592 6519.000000
2613.545166 6613.000000
2614.458740 6097.000000
2615.371094 7584.000000
2616.283447 6958.000000
2617.194824 6782.000000
2618.105957 5786.000000
2619.016357 7231.000000
2619.926514 6589.000000
2620.835938 6172.000000
2621.744873 6589.000000
2622.652832 6216.000000
2623.561035 6815.000000
2624.468262 6615.000000
2625.375000 7057.000000
2626.281006 5990.000000
2627.186768 6581.000000
2628.091797 6531.000000
2628.996582 7779.000000
2629.900635 6503.000000
2630.803711 6441.000000
2631.706787 6346.000000
2632.608887 5562.000000
2633.510986 6694.000000
2634.412842 6958.000000
2635.312988 6694.000000
2636.213379 6376.000000
2637.113037 6420.000000
2638.012451 5957.000000
2638.910400 6929.000000
2639.808838 6745.000000
2640.706787 6388.000000
2641.604004 6077.000000
2642.500000 6107.000000
2643.395996 6891.000000
2644.291748 6119.000000
2645.186768 6452.000000
2646.081543 6575.000000
2646.974854 7099.000000
2647.868164 6254.000000
2648.761230 6766.000000
2649.654053 6445.000000
2650.545166 7446.000000
2651.436523 6382.000000
2652.327393 7633.000000
2653.217529 7256.000000
2654.107422 6619.000000
2654.996094 7224.000000
2655.885010 6521.000000
2656.773438 6598.000000
2657.660889 7333.000000
2658.547363 6454.000000
2659.434326 7145.000000
2660.320557 6807.000000
2661.206299 6840.000000
2662.090820 6511.000000
2662.975342 6356.000000
2663.859619 6142.000000
2664.743164 6999.000000
2665.626221 7764.000000
2666.508545 7294.000000
2667.390381 6204.000000
2668.271484 6548.000000
2669.152832 6066.000000
2670.032715 6605.000000
2670.912842 7329.000000
2671.792236 7192.000000
2672.671631 6236.000000
2673.550293 6168.000000
2674.427246 6374.000000
2675.304932 6747.000000
2676.181885 6376.000000
2677.058105 8069.000000
2677.933838 7153.000000
2678.808838 6241.000000
2679.684082 7711.000000
2680.558350 6984.000000
2681.432129 7299.000000
2682.305176 6991.000000
2683.177979 6179.000000
2684.050537 6083.000000
2684.922363 6952.000000
2685.793457 6526.000000
2686.664307 6855.000000
2687.534668 7103.000000
2688.404785 6671.000000
2689.273193 6320.000000
2690.142334 7404.000000
2691.010742 7114.000000
2691.878906 6582.000000
2692.746338 6910.000000
2693.612549 5873.000000
2694.479248 7149.000000
2695.344971 7401.000000
2696.210693 7136.000000
2697.074951 7953.000000
2697.939941 6618.000000
2698.803467 7282.000000
2699.667236 5803.000000
2700.529541 7412.000000
2701.392334 6778.000000
2702.254150 5860.000000
2703.115479 6772.000000
2703.976807 6730.000000
2704.836914 7416.000000
2705.697021 7276.000000
2706.556641 6581.000000
2707.416016 6829.000000
2708.273682 7152.000000
2709.131592 6877.000000
2709.989990 7393.000000
2710.847168 6719.000000
2711.703613 5918.000000
2712.559570 6924.000000
2713.415527 6070.000000
2714.270752 6955.000000
2715.125244 6190.000000
2715.979248 6756.000000
2716.833252 7237.000000
2717.686279 6225.000000
2718.539551 6614.000000
2719.391113 7680.000000
2720.243164 6712.000000
2721.094971 6238.000000
2721.945557 6523.000000
2722.796143 6433.000000
2723.646240 7077.000000
2724.495605 6992.000000
2725.344971 6976.000000
2726.193115 6626.000000
2727.040771 6527.000000
2727.888916 6942.000000
2728.735840 6928.000000
2729.583252 5576.000000
2730.429199 7484.000000
2731.274414 7042.000000
2732.120117 6416.000000
2732.964844 6985.000000
2733.809570 7301.000000
2734.653076 6913.000000
2735.496826 7769.000000
2736.339844 7092.000000
2737.182373 6070.000000
2738.023926 6259.000000
2738.865967 6770.000000
2739.707031 6915.000000
2740.547852 5792.000000
2741.388428 5953.000000
2742.227783 7726.000000
2743.067139 6832.000000
2743.906494 6855.000000
2744.744629 6872.000000
2745.582275 7935.000000
2746.419922 6360.000000
2747.257080 7141.000000
2748.093994 6179.000000
2748.930420 6045.000000
2749.765625 6614.000000
2750.601074 6324.000000
2751.436035 6270.000000
2752.270264 6223.000000
2753.104248 6839.000000
2753.937744 6840.000000
2754.771240 8065.000000
2755.603760 6701.000000
2756.435791 7290.000000
2757.267334 6866.000000
2758.098877 7104.000000
2758.929443 7214.000000
2759.760254 7199.000000
2760.589844 7292.000000
2761.419434 6697.000000
2762.248779 7281.000000
2763.077393 6809.000000
2763.905518 6738.000000
2764.733154 6897.000000
2765.560791 6654.000000
2766.387939 8014.000000
2767.214355 5750.000000
2768.040283 7496.000000
2768.865723 6886.000000
2769.690918 7792.000000
2770.516113 7097.000000
2771.340088 6745.000000
2772.164063 6609.000000
2772.988037 7673.000000
2773.810791 6677.000000
2774.633789 6994.000000
2775.455566 6887.000000
2776.277344 6995.000000
2777.099121 6399.000000
2777.919922 7990.000000
2778.739990 6528.000000
2779.560303 6986.000000
2780.380127 7350.000000
2781.199951 6443.000000
2782.017822 5956.000000
2782.836914 8020.000000
2783.654785 6505.000000
2784.472412 6729.000000
2785.289551 7150.000000
2786.106201 7252.000000
2786.922607 7216.000000
2787.738525 6239.000000
2788.554199 5927.000000
2789.368896 6361.000000
2790.184082 7028.000000
2790.998535 7097.000000
2791.812500 6491.000000
2792.626221 7450.000000
2793.438721 8751.000000
2794.251465 6961.000000
2795.063721 7439.000000
2795.875488 7211.000000
2796.686523 7361.000000
2797.498291 6567.000000
2798.308838 7210.000000
2799.119385 6970.000000
2799.928467 7338.000000
2800.738281 8131.000000
2801.547363 7830.000000
2802.356201 6625.000000
2803.164551 7136.000000
2803.971924 6192.000000
2804.779785 6427.000000
2805.586914 6893.000000
2806.393799 6979.000000
2807.199463 7080.000000
2808.005615 6589.000000
2808.811035 6475.000000
2809.616455 7322.000000
2810.421143 6190.000000
2811.224854 7593.000000
2812.029053 7506.000000
2812.832764 6291.000000
2813.636230 6041.000000
2814.438232 6308.000000
2815.240967 7339.000000
2816.042969 7877.000000
2816.844727 6234.000000
2817.645996 6515.000000
2818.446777 7296.000000
2819.247070 6543.000000
2820.047607 6726.000000
2820.847168 8004.000000
2821.646240 7110.000000
2822.445313 6444.000000
2823.244141 6871.000000
2824.042480 6329.000000
2824.839844 7032.000000
2825.637451 7381.000000
2826.434326 6629.000000
2827.231445 7339.000000
2828.027832 7943.000000
2828.823486 6953.000000
2829.619141 7314.000000
2830.414551 7550.000000
2831.209473 7451.000000
2832.003662 6627.000000
2832.797852 6806.000000
2833.591797 5609.000000
2834.385254 6840.000000
2835.177979 7154.000000
2835.970459 8115.000000
2836.762939 7641.000000
2837.555176 7482.000000
2838.346924 6428.000000
2839.137695 6801.000000
2839.928467 8831.000000
2840.719482 7403.000000
2841.509521 6248.000000
2842.299072 7640.000000
2843.088867 7083.000000
2843.877686 7358.000000
2844.666504 7739.000000
2845.455322 7709.000000
2846.243164 7500.000000
2847.030518 7211.000000
2847.818115 7505.000000
2848.605225 7306.000000
2849.391602 6582.000000
2850.177979 7404.000000
2850.964111 7222.000000
2851.749756 7514.000000
2852.534424 7117.000000
2853.319580 6972.000000
2854.104492 7513.000000
2854.888672 7084.000000
2855.672852 6924.000000
2856.455811 8247.000000
2857.239014 6829.000000
2858.021973 6771.000000
2858.804443 7781.000000
2859.586670 6161.000000
2860.368408 6639.000000
2861.149902 7590.000000
2861.931641 7478.000000
2862.712646 7627.000000
2863.492920 6591.000000
2864.272949 6814.000000
2865.052979 8213.000000
2865.832764 7432.000000
2866.611572 8062.000000
2867.390625 7619.000000
2868.169189 6757.000000
2868.947510 6939.000000
2869.725342 7228.000000
2870.502930 6856.000000
2871.280273 7470.000000
2872.057373 6958.000000
2872.833984 6443.000000
2873.610107 7476.000000
2874.386230 7105.000000
2875.161865 8268.000000
2875.937256 7188.000000
2876.712158 6595.000000
2877.486816 8028.000000
2878.261475 6682.000000
2879.035889 7813.000000
2879.809570 6792.000000
2880.582520 7175.000000
2881.356201 6748.000000
2882.128906 7592.000000
2882.901611 7887.000000
2883.673584 8193.000000
2884.445313 6214.000000
2885.217529 6800.000000
2885.988525 6868.000000
2886.759033 6134.000000
2887.530029 8350.000000
2888.301025 7356.000000
2889.071289 8025.000000
2889.840576 7621.000000
2890.610107 6869.000000
2891.379639 7252.000000
2892.148682 7349.000000
2892.917236 7886.000000
2893.685791 7670.000000
2894.453369 7034.000000
2895.221436 6469.000000
2895.989014 7410.000000
2896.756592 8313.000000
2897.522949 7312.000000
2898.290283 6516.000000
2899.056396 7210.000000
2899.822754 6936.000000
2900.587646 8255.000000
2901.353027 6933.000000
2902.118896 6368.000000
2902.883301 7749.000000
2903.647705 7680.000000
2904.412354 8355.000000
2905.176025 6650.000000
2905.940430 8537.000000
2906.704102 6682.000000
2907.467041 8341.000000
2908.229736 6503.000000
2908.992920 9184.000000
2909.755615 6979.000000
2910.517090 6804.000000
2911.279053 6804.000000
