scanname Analyse023
timestamp 2017-02-10 20:25:30
ccdbias 904.317383
ccdgain 3.473401
sigmaread 8.960639
laserwavenum -0.607457
wavenumcorrection -0.084493
scancount 1
totalexposurems 10000
singleexposurems 10000
measurementstate Unknown
scanmode Manual
snr 7.609219 0.246645 0.113304
replacelist 1
1415 7618.000000 7104.000000
peaks 9
402.273407 0.020914 0.000000 0.136962 0.000008
452.522003 0.018951 0.000000 0.146687 0.000009
810.839172 0.021096 0.000000 0.520005 0.000079
841.690674 0.019970 0.000000 0.319021 0.000046
973.351868 0.013855 0.000000 0.103643 0.000018
1153.860596 0.016151 0.000000 0.059117 0.000030
1331.469360 0.021431 0.000000 0.160887 0.000028
1458.323608 0.023698 0.000000 0.164235 0.000043
2060.178955 0.009533 0.000000 0.037748 0.000056
finalresult GLS_Multiple 89
A11883	Polypropylene (Isotactic)	6.211450e-001
A13500	Poly(propylene-co-ethylene)	6.145510e-001
A0115	Polypropylene	6.043442e-001
A1531	Ethyl formate	4.580895e-001
A10674	Dibutyl succinate	4.283193e-001
A0138	Dibutyl ether	4.269312e-001
A3653	(R)-(+)-3-Methylcyclopentanone	4.246439e-001
A2313	Barium peroxide	4.217326e-001
A0400	Potassium permanganate	4.203591e-001
A2098	Diethylene glycol dibutyl ether	4.181648e-001
A9546	4-Methoxy-alpha-methylbenzyl alcohol	4.161034e-001
A0340	Butyronitrile	4.120434e-001
A0369	2,4,6-Tribromophenol	4.109806e-001
A5628	4-(4-Methoxyphenyl)butyric acid	4.072286e-001
A11885	Poly(methyl methacrylate-co-butyl methacrylate)	4.063113e-001
A1270	Methyl DL-lactate	4.055049e-001
A2225	Diethylene glycol butyl ether	4.027658e-001
A11872	Poly(methyl methacrylate)	4.020318e-001
A8610	5-Methyl-2-pyrrolidinone	4.015839e-001
A0793	Tris(2-methoxyethoxy)(vinyl)silane	4.004726e-001
A7848	Butyl glycolate	4.001611e-001
A13507	Poly(methyl methacrylate-co-ethyl acrylate)	4.000393e-001
A7225	Dibutyl adipate	3.986199e-001
A2721	Formaldehyde diethyl acetal	3.973528e-001
A10301	2-Methoxytetrahydropyran	3.963434e-001
A14069	(R)-(-)-1,2-Propanediol	3.952553e-001
A11482	Methyl 5-methoxysalicylate	3.952153e-001
A13820	(-)-Methyl L-lactate	3.950136e-001
A1676	Trifluoroacetic acid	3.942232e-001
A0518	Propylene glycol	3.910313e-001
A12669	Oxamide	3.905917e-001
A14792	N-Guanylurea sulfate salt hydrate	3.900598e-001
A1754	N,N-Dimethylhydrazine	3.894885e-001
A3868	N-formylmorpholine	3.891433e-001
A6025	2-Nitrothiophene	3.887849e-001
A2727	Acrolein diethyl acetal	3.877516e-001
A6278	6-Methylnicotinamide	3.874338e-001
A0408	Chromium(VI) oxide	3.873941e-001
A1002	Dibutyl maleate	3.872486e-001
A12733	Tri-tert-butyl borate	3.870502e-001
A1928	Ammonium sulfate	3.864290e-001
A8920	Perrhenic acid solution	3.847547e-001
A4565	1-Bromo-2,6-dichlorobenzene	3.818792e-001
A5382	3-Methoxypropionic acid	3.817220e-001
A0761	N,N,N',N'-Tetrakis(2-Hydroxypropyl)ethylenediamine	3.805058e-001
A1584	Pentane	3.785113e-001
A12955	2-Chloro-1,3,2-dioxaphospholane	3.784853e-001
A12947	Diethyl (trichloromethyl)phosphonate	3.770948e-001
A10745	Neomycin sulfate salt	3.767577e-001
A15973	Silver azide	3.766023e-001
A3222	Potassium nitrite	3.765242e-001
A13034	4'-Nitrobenzo-15-crown-5	3.763688e-001
A0524	Propionic acid	3.760319e-001
A12725	Cerium(III) fluoride	3.753073e-001
A2863	Streptomycin sulfate salt	3.739126e-001
A2423	Hydroxyurea	3.736157e-001
A7885	beta-Carotene	3.734999e-001
A14724	Ammonium metatungstate hydrate	3.733066e-001
A2210	Calcium peroxide hydrate	3.730876e-001
A2034	Allyltrichlorosilane	3.724186e-001
A2273	Triethylene glycol dimethyl ether	3.716219e-001
A5377	4-Methyl-2-nitroanisole	3.714935e-001
A3625	1-Dimethylamino-2-propanol	3.707497e-001
A7024	Hydrazine monohydrobromide	3.707497e-001
A2017	Isopropylamine	3.700578e-001
A10581	Piperidine	3.699427e-001
A2926	Arsenic (III) Chloride	3.693799e-001
A10860	Ethyleneimine polymer soln.	3.688434e-001
A10613	Chloral	3.686514e-001
A2147	Hydrazine sulfate salt	3.684604e-001
A3251	Methyltrichlorosilane	3.681030e-001
A1721	p-Benzoquinone	3.680139e-001
A6141	Barium strontium tungsten oxide	3.678862e-001
A14252	2-Methyl-5-nitrophenol	3.678607e-001
A1586	Sulfuryl chloride	3.673260e-001
A2160	Lead(II) sulfate	3.671095e-001
A11366	4-Isopropylanisole	3.669313e-001
A0544	1,4-Dioxane	3.668929e-001
A12438	Methyl dichlorophosphite	3.666641e-001
A12448	Tribromofluoromethane	3.655973e-001
A10529	1-Formylpiperazine	3.651407e-001
A0629	Cyanuric chloride	3.648365e-001
A0401	Antimony(III) oxide powder	3.639633e-001
A2413	Sodium selenate	3.618936e-001
A8797	6-Nitroindoline	3.604727e-001
A2322	Silver sulfate	3.570318e-001
A8580	Sodium permanganate solution	3.567700e-001
A0291	Tetrachloroethylene	3.565208e-001
A0027	2-Propanol	3.560228e-001
spectrum 2048
-96.993996 45843.000000
-94.367126 45843.000000
-91.742134 46318.000000
-89.119034 46254.000000
-86.497803 47119.000000
-83.878471 46971.000000
-81.261002 47213.000000
-78.645409 46932.000000
-76.031693 47196.000000
-73.419853 47335.000000
-70.809875 47290.000000
-68.201782 47494.000000
-65.595535 47553.000000
-62.991169 47553.000000
-60.388660 47446.000000
-57.788006 47944.000000
-55.189213 47372.000000
-52.592278 46674.000000
-49.997196 47062.000000
-47.403969 47025.000000
-44.812592 47273.000000
-42.223061 46748.000000
-39.635372 47644.000000
-37.049534 47512.000000
-34.465538 47089.000000
-31.883377 47821.000000
-29.303064 47217.000000
-26.724579 47705.000000
-24.147936 47283.000000
-21.573118 47154.000000
-19.000141 46918.000000
-16.428984 46866.000000
-13.859660 46446.000000
-11.292162 45522.000000
-8.726482 46953.000000
-6.162629 46720.000000
-3.600589 47068.000000
-1.040373 47196.000000
1.518035 46601.000000
4.074623 45842.000000
6.629405 45948.000000
9.182370 46407.000000
11.733535 45272.000000
14.282887 45090.000000
16.830442 44388.000000
19.376186 44549.000000
21.920137 44102.000000
24.462284 41800.000000
27.002634 39811.000000
29.541199 37003.000000
32.077965 32921.000000
34.612930 24592.000000
37.146118 14296.000000
39.677525 9182.000000
42.207138 8238.000000
44.734955 7738.000000
47.261013 6948.000000
49.785282 6212.000000
52.307781 5504.000000
54.828484 5025.000000
57.347431 5296.000000
59.864605 6212.000000
62.380001 7897.000000
64.893623 8359.000000
67.405487 8042.000000
69.915604 6363.000000
72.423927 4400.000000
74.930496 3346.000000
77.435318 2837.000000
79.938385 2492.000000
82.439674 2179.000000
84.939224 2103.000000
87.437019 2016.000000
89.933083 2290.000000
92.427368 3004.000000
94.919914 3159.000000
97.410744 2846.000000
99.899803 2312.000000
102.387115 1841.000000
104.872704 1628.000000
107.356552 1438.000000
109.838654 1457.000000
112.319031 1316.000000
114.797684 1202.000000
117.274612 1068.000000
119.749786 1032.000000
122.223251 942.000000
124.694984 997.000000
127.165009 1025.000000
129.633270 992.000000
132.099869 904.000000
134.564713 933.000000
137.027863 850.000000
139.489273 839.000000
141.948990 1043.000000
144.406982 987.000000
146.863281 986.000000
149.317871 1009.000000
151.770737 1023.000000
154.221924 1122.000000
156.671417 1138.000000
159.119186 1089.000000
161.565247 1270.000000
164.009628 1431.000000
166.452332 1523.000000
168.893341 1572.000000
171.332642 1702.000000
173.770233 1663.000000
176.206192 1650.000000
178.640411 1550.000000
181.072952 1593.000000
183.503845 1632.000000
185.933014 1511.000000
188.360535 1512.000000
190.786377 1536.000000
193.210541 1425.000000
195.633041 1497.000000
198.053848 1386.000000
200.472992 1416.000000
202.890472 1464.000000
205.306259 1497.000000
207.720398 1410.000000
210.132904 1567.000000
212.543732 1564.000000
214.952881 1580.000000
217.360397 1677.000000
219.766205 1827.000000
222.170425 1822.000000
224.572937 1868.000000
226.973831 1852.000000
229.373077 1898.000000
231.770660 1938.000000
234.166580 1927.000000
236.560883 1828.000000
238.953522 1940.000000
241.344543 1980.000000
243.733902 1888.000000
246.121643 1949.000000
248.507736 1860.000000
250.892197 1704.000000
253.275009 1896.000000
255.656250 1803.000000
258.035797 1746.000000
260.413757 1708.000000
262.790039 1777.000000
265.164764 1637.000000
267.537842 1638.000000
269.909271 1624.000000
272.279053 1619.000000
274.647278 1610.000000
277.013855 1743.000000
279.378845 1644.000000
281.742218 1676.000000
284.103943 1645.000000
286.464081 1524.000000
288.822601 1446.000000
291.179535 1577.000000
293.534851 1583.000000
295.888580 1570.000000
298.240662 1539.000000
300.591187 1517.000000
302.940125 1574.000000
305.287415 1482.000000
307.633179 1427.000000
309.977264 1350.000000
312.319824 1430.000000
314.660767 1480.000000
317.000092 1480.000000
319.337860 1598.000000
321.674072 1361.000000
324.008636 1505.000000
326.341644 1356.000000
328.673096 1379.000000
331.002960 1384.000000
333.331238 1322.000000
335.657898 1466.000000
337.983063 1304.000000
340.306610 1294.000000
342.628601 1293.000000
344.949036 1256.000000
347.267853 1176.000000
349.585114 1244.000000
351.900848 1249.000000
354.214996 1222.000000
356.527557 1263.000000
358.838562 1440.000000
361.148041 1304.000000
363.455994 1197.000000
365.762329 1179.000000
368.067078 1178.000000
370.370361 1303.000000
372.672028 1307.000000
374.972198 1222.000000
377.270813 1207.000000
379.567871 1172.000000
381.863373 1271.000000
384.157349 1215.000000
386.449738 1125.000000
388.740631 1269.000000
391.029999 1265.000000
393.317780 1369.000000
395.604034 1311.000000
397.888794 1413.000000
400.171936 1350.000000
402.453644 1353.000000
404.733826 1403.000000
407.012421 1358.000000
409.289490 1294.000000
411.565033 1231.000000
413.839050 1239.000000
416.111633 1246.000000
418.382599 1205.000000
420.652069 1232.000000
422.920044 1139.000000
425.186462 1151.000000
427.451385 1117.000000
429.714844 1190.000000
431.976715 1093.000000
434.237122 1146.000000
436.495972 1134.000000
438.753357 1098.000000
441.009247 1113.000000
443.263641 1115.000000
445.516510 1135.000000
447.767822 1108.000000
450.017731 1204.000000
452.266052 1074.000000
454.512939 1189.000000
456.758362 1146.000000
459.002228 1213.000000
461.244598 1224.000000
463.485474 1136.000000
465.724945 1053.000000
467.962830 1021.000000
470.199280 969.000000
472.434204 937.000000
474.667664 1056.000000
476.899689 971.000000
479.130188 1002.000000
481.359192 919.000000
483.586731 986.000000
485.812775 1000.000000
488.037384 890.000000
490.260529 1004.000000
492.482208 994.000000
494.702332 968.000000
496.921051 941.000000
499.138275 1007.000000
501.354126 911.000000
503.568359 953.000000
505.781281 833.000000
507.992615 939.000000
510.202515 938.000000
512.410950 903.000000
514.618042 966.000000
516.823547 946.000000
519.027649 973.000000
521.230225 911.000000
523.431396 995.000000
525.631226 964.000000
527.829529 1044.000000
530.026306 991.000000
532.221741 1083.000000
534.415649 942.000000
536.608215 984.000000
538.799255 949.000000
540.988892 990.000000
543.177124 918.000000
545.363831 913.000000
547.549072 1004.000000
549.733032 938.000000
551.915405 876.000000
554.096436 921.000000
556.275940 833.000000
558.454163 861.000000
560.630859 924.000000
562.806152 900.000000
564.980042 837.000000
567.152466 843.000000
569.323486 834.000000
571.493042 859.000000
573.661316 916.000000
575.828064 807.000000
577.993347 826.000000
580.157227 892.000000
582.319824 897.000000
584.480896 879.000000
586.640564 845.000000
588.798889 897.000000
590.955688 763.000000
593.111145 802.000000
595.265198 883.000000
597.417908 797.000000
599.569092 757.000000
601.718933 821.000000
603.867432 831.000000
606.014343 889.000000
608.160034 770.000000
610.304321 782.000000
612.447144 842.000000
614.588501 866.000000
616.728638 814.000000
618.867249 845.000000
621.004578 847.000000
623.140442 808.000000
625.274902 888.000000
627.407898 853.000000
629.539734 863.000000
631.670105 786.000000
633.799072 903.000000
635.926575 824.000000
638.052795 805.000000
640.177490 786.000000
642.300964 715.000000
644.423096 826.000000
646.543762 844.000000
648.663086 822.000000
650.781006 799.000000
652.897583 739.000000
655.012756 825.000000
657.126587 812.000000
659.238953 712.000000
661.350098 741.000000
663.459839 782.000000
665.568115 766.000000
667.675232 721.000000
669.780884 880.000000
671.885071 539.000000
673.988037 780.000000
676.089600 820.000000
678.189819 789.000000
680.288635 787.000000
682.386108 813.000000
684.482300 775.000000
686.577026 748.000000
688.670532 731.000000
690.762695 822.000000
692.853333 842.000000
694.942749 846.000000
697.030884 776.000000
699.117554 654.000000
701.203003 952.000000
703.286926 715.000000
705.369629 811.000000
707.451050 805.000000
709.531006 751.000000
711.609741 697.000000
713.687012 710.000000
715.763000 773.000000
717.837708 787.000000
719.911133 669.000000
721.983032 775.000000
724.053772 792.000000
726.123169 783.000000
728.191162 765.000000
730.257813 777.000000
732.323242 770.000000
734.387329 700.000000
736.450073 662.000000
738.511475 654.000000
740.571594 847.000000
742.630310 800.000000
744.687805 744.000000
746.744019 707.000000
748.798828 748.000000
750.852356 858.000000
752.904480 723.000000
754.955383 751.000000
757.005066 797.000000
759.053284 756.000000
761.100281 752.000000
763.145996 734.000000
765.190308 678.000000
767.233337 689.000000
769.275146 819.000000
771.315613 775.000000
773.354675 796.000000
775.392578 747.000000
777.429138 778.000000
779.464478 775.000000
781.498474 766.000000
783.531067 772.000000
785.562500 747.000000
787.592529 720.000000
789.621277 754.000000
791.648865 772.000000
793.675110 876.000000
795.699951 834.000000
797.723694 835.000000
799.746033 932.000000
801.767151 824.000000
803.786926 912.000000
805.805420 1043.000000
807.822693 1105.000000
809.838562 1264.000000
811.853271 1151.000000
813.866638 1065.000000
815.878784 982.000000
817.889709 978.000000
819.899292 928.000000
821.907654 847.000000
823.914612 762.000000
825.920349 857.000000
827.924866 855.000000
829.928101 787.000000
831.930054 859.000000
833.930725 843.000000
835.930176 934.000000
837.928284 951.000000
839.925293 1103.000000
841.920898 1030.000000
843.915344 1051.000000
845.908447 961.000000
847.900330 923.000000
849.890869 811.000000
851.880127 793.000000
853.868347 747.000000
855.855164 782.000000
857.840759 778.000000
859.825073 813.000000
861.808289 711.000000
863.790100 753.000000
865.770691 845.000000
867.750000 721.000000
869.728149 623.000000
871.704956 758.000000
873.680481 841.000000
875.654968 766.000000
877.627991 781.000000
879.599976 762.000000
881.570618 733.000000
883.540100 782.000000
885.508240 732.000000
887.475220 814.000000
889.440857 677.000000
891.405334 750.000000
893.368591 785.000000
895.330627 716.000000
897.291382 801.000000
899.250916 658.000000
901.209167 773.000000
903.166321 730.000000
905.122314 672.000000
907.076904 701.000000
909.030273 635.000000
910.982483 753.000000
912.933472 632.000000
914.883179 680.000000
916.831726 570.000000
918.779053 583.000000
920.725098 518.000000
922.669861 593.000000
924.613586 621.000000
926.556152 597.000000
928.497437 535.000000
930.437378 660.000000
932.376221 611.000000
934.313782 541.000000
936.250122 554.000000
938.185303 578.000000
940.119202 703.000000
942.052002 695.000000
943.983582 638.000000
945.914001 568.000000
947.843201 517.000000
949.771057 647.000000
951.697876 582.000000
953.623413 443.000000
955.547668 588.000000
957.470825 639.000000
959.392822 510.000000
961.313538 612.000000
963.233093 545.000000
965.151489 592.000000
967.068848 597.000000
968.984741 677.000000
970.899536 647.000000
972.813110 730.000000
974.725525 716.000000
976.636719 698.000000
978.546753 702.000000
980.455505 543.000000
982.363220 673.000000
984.269714 608.000000
986.174988 489.000000
988.079163 532.000000
989.982117 589.000000
991.883850 603.000000
993.784424 656.000000
995.683838 638.000000
997.582031 648.000000
999.479065 650.000000
1001.374878 559.000000
1003.269531 684.000000
1005.163086 539.000000
1007.055359 605.000000
1008.946716 616.000000
1010.836731 474.000000
1012.725525 535.000000
1014.613159 633.000000
1016.499634 547.000000
1018.384949 536.000000
1020.269104 497.000000
1022.152039 595.000000
1024.033936 530.000000
1025.914551 485.000000
1027.794067 428.000000
1029.672607 701.000000
1031.549805 571.000000
1033.425659 541.000000
1035.300537 591.000000
1037.174438 596.000000
1039.046875 614.000000
1040.918335 539.000000
1042.788452 554.000000
1044.657593 518.000000
1046.525513 547.000000
1048.392334 557.000000
1050.258057 522.000000
1052.122559 568.000000
1053.985962 576.000000
1055.848022 490.000000
1057.709106 418.000000
1059.569092 507.000000
1061.427734 541.000000
1063.285278 509.000000
1065.141724 507.000000
1066.997070 512.000000
1068.851196 530.000000
1070.704468 415.000000
1072.556274 497.000000
1074.407104 506.000000
1076.256714 448.000000
1078.105103 504.000000
1079.952637 531.000000
1081.798828 501.000000
1083.643799 396.000000
1085.487915 525.000000
1087.330688 484.000000
1089.172241 526.000000
1091.013062 483.000000
1092.852295 461.000000
1094.690796 607.000000
1096.527954 467.000000
1098.363892 513.000000
1100.198853 463.000000
1102.032593 503.000000
1103.865356 487.000000
1105.696777 514.000000
1107.527344 578.000000
1109.356567 390.000000
1111.184814 563.000000
1113.011841 478.000000
1114.837891 464.000000
1116.662720 524.000000
1118.486450 487.000000
1120.308960 474.000000
1122.130371 428.000000
1123.950928 461.000000
1125.770020 457.000000
1127.588257 395.000000
1129.405151 501.000000
1131.221191 516.000000
1133.036011 445.000000
1134.849731 543.000000
1136.662354 463.000000
1138.473755 582.000000
1140.284180 500.000000
1142.093506 554.000000
1143.901489 593.000000
1145.708740 595.000000
1147.514526 607.000000
1149.319458 712.000000
1151.123291 715.000000
1152.925903 793.000000
1154.727661 794.000000
1156.527954 738.000000
1158.327271 619.000000
1160.125610 574.000000
1161.922607 710.000000
1163.718872 648.000000
1165.513794 600.000000
1167.307617 610.000000
1169.100586 553.000000
1170.892212 451.000000
1172.682861 561.000000
1174.472534 588.000000
1176.260742 567.000000
1178.048096 582.000000
1179.834351 527.000000
1181.619507 522.000000
1183.403564 568.000000
1185.186523 571.000000
1186.968506 472.000000
1188.749268 441.000000
1190.529053 556.000000
1192.307739 479.000000
1194.085449 499.000000
1195.861938 463.000000
1197.637329 462.000000
1199.411621 547.000000
1201.184814 563.000000
1202.957153 625.000000
1204.728149 495.000000
1206.498291 483.000000
1208.267212 561.000000
1210.035034 497.000000
1211.802002 577.000000
1213.567627 526.000000
1215.332275 602.000000
1217.095825 658.000000
1218.858276 526.000000
1220.619873 569.000000
1222.380249 588.000000
1224.139526 455.000000
1225.897949 561.000000
1227.655151 504.000000
1229.411255 566.000000
1231.166260 453.000000
1232.920410 597.000000
1234.673218 570.000000
1236.425049 500.000000
1238.176025 516.000000
1239.925659 487.000000
1241.674438 534.000000
1243.421875 549.000000
1245.168579 516.000000
1246.914063 533.000000
1248.658691 538.000000
1250.401978 503.000000
1252.144287 570.000000
1253.885498 499.000000
1255.625854 494.000000
1257.365112 544.000000
1259.103149 481.000000
1260.840332 436.000000
1262.576294 530.000000
1264.311279 532.000000
1266.045288 608.000000
1267.778320 515.000000
1269.510132 601.000000
1271.240967 624.000000
1272.970581 591.000000
1274.699341 576.000000
1276.427002 579.000000
1278.153564 655.000000
1279.879272 652.000000
1281.603638 553.000000
1283.327148 636.000000
1285.049683 522.000000
1286.771240 554.000000
1288.491577 704.000000
1290.210938 631.000000
1291.929199 620.000000
1293.646484 631.000000
1295.362793 651.000000
1297.077881 649.000000
1298.791992 625.000000
1300.505127 715.000000
1302.217407 646.000000
1303.928467 671.000000
1305.638550 627.000000
1307.347534 650.000000
1309.055298 661.000000
1310.762451 596.000000
1312.468140 593.000000
1314.173096 559.000000
1315.877075 735.000000
1317.579834 625.000000
1319.281616 688.000000
1320.982544 710.000000
1322.682129 1055.000000
1324.380859 205.000000
1326.078857 794.000000
1327.775513 809.000000
1329.471069 881.000000
1331.165771 854.000000
1332.859253 966.000000
1334.551880 755.000000
1336.243652 647.000000
1337.934082 657.000000
1339.623779 692.000000
1341.312378 672.000000
1342.999878 614.000000
1344.686401 670.000000
1346.371826 693.000000
1348.056274 641.000000
1349.739868 660.000000
1351.422241 704.000000
1353.103638 705.000000
1354.784180 639.000000
1356.463501 779.000000
1358.142212 772.000000
1359.819580 788.000000
1361.495850 711.000000
1363.171143 806.000000
1364.845703 781.000000
1366.519043 664.000000
1368.191406 780.000000
1369.862793 770.000000
1371.533203 715.000000
1373.202515 722.000000
1374.870850 712.000000
1376.538330 740.000000
1378.204712 709.000000
1379.870117 747.000000
1381.534546 696.000000
1383.197754 647.000000
1384.860352 725.000000
1386.521606 642.000000
1388.182007 666.000000
1389.841309 680.000000
1391.499634 686.000000
1393.157227 590.000000
1394.813599 617.000000
1396.469116 601.000000
1398.123413 617.000000
1399.776855 587.000000
1401.429199 683.000000
1403.080811 598.000000
1404.731201 613.000000
1406.380493 586.000000
1408.029053 574.000000
1409.676514 595.000000
1411.322998 520.000000
1412.968628 519.000000
1414.613281 565.000000
1416.256714 640.000000
1417.899292 567.000000
1419.540771 500.000000
1421.181396 563.000000
1422.821045 489.000000
1424.459595 563.000000
1426.097290 526.000000
1427.733887 505.000000
1429.369507 653.000000
1431.004395 638.000000
1432.638184 531.000000
1434.270874 627.000000
1435.902588 643.000000
1437.533447 578.000000
1439.163208 628.000000
1440.791870 654.000000
1442.419922 577.000000
1444.046875 578.000000
1445.672607 661.000000
1447.297729 599.000000
1448.921753 696.000000
1450.544800 742.000000
1452.166870 745.000000
1453.787842 715.000000
1455.407837 715.000000
1457.027100 825.000000
1458.645020 824.000000
1460.262329 887.000000
1461.878662 786.000000
1463.493774 721.000000
1465.108032 702.000000
1466.721436 712.000000
1468.333740 630.000000
1469.945190 649.000000
1471.555786 618.000000
1473.165161 599.000000
1474.773560 568.000000
1476.381104 593.000000
1477.987671 665.000000
1479.593506 484.000000
1481.198120 609.000000
1482.801880 540.000000
1484.404419 622.000000
1486.006348 550.000000
1487.607056 531.000000
1489.207031 570.000000
1490.805908 464.000000
1492.403931 492.000000
1494.000854 463.000000
1495.596924 489.000000
1497.192017 551.000000
1498.786133 467.000000
1500.379517 576.000000
1501.971802 545.000000
1503.562866 546.000000
1505.153442 446.000000
1506.742676 473.000000
1508.331299 564.000000
1509.918823 603.000000
1511.505249 511.000000
1513.090942 481.000000
1514.675537 421.000000
1516.259277 464.000000
1517.841919 586.000000
1519.423828 577.000000
1521.004639 611.000000
1522.584717 510.000000
1524.163574 433.000000
1525.741577 507.000000
1527.318848 483.000000
1528.894897 441.000000
1530.470215 553.000000
1532.044434 529.000000
1533.617920 534.000000
1535.190186 482.000000
1536.761719 450.000000
1538.332275 413.000000
1539.901978 426.000000
1541.470459 435.000000
1543.038208 431.000000
1544.605103 512.000000
1546.170776 426.000000
1547.735718 497.000000
1549.299561 463.000000
1550.862793 545.000000
1552.424683 624.000000
1553.985962 600.000000
1555.546143 479.000000
1557.105591 534.000000
1558.663940 527.000000
1560.221558 428.000000
1561.778076 488.000000
1563.333374 394.000000
1564.888062 503.000000
1566.442017 423.000000
1567.994995 431.000000
1569.546631 468.000000
1571.097534 380.000000
1572.647705 465.000000
1574.196899 494.000000
1575.744751 518.000000
1577.292114 400.000000
1578.838501 488.000000
1580.384033 371.000000
1581.928589 455.000000
1583.471924 480.000000
1585.014648 437.000000
1586.556519 432.000000
1588.097290 523.000000
1589.637085 394.000000
1591.176147 472.000000
1592.714111 417.000000
1594.251587 435.000000
1595.787720 410.000000
1597.322754 508.000000
1598.857300 491.000000
1600.390869 418.000000
1601.923584 438.000000
1603.454712 472.000000
1604.985596 477.000000
1606.515625 539.000000
1608.044434 420.000000
1609.572144 415.000000
1611.099243 436.000000
1612.625610 482.000000
1614.151001 531.000000
1615.675537 472.000000
1617.198730 458.000000
1618.721191 448.000000
1620.242920 493.000000
1621.763794 530.000000
1623.283203 489.000000
1624.802124 447.000000
1626.320313 479.000000
1627.837646 473.000000
1629.353882 505.000000
1630.868774 426.000000
1632.383179 434.000000
1633.896851 427.000000
1635.409424 394.000000
1636.920776 457.000000
1638.431763 445.000000
1639.941650 452.000000
1641.450684 545.000000
1642.958374 524.000000
1644.465698 455.000000
1645.972168 391.000000
1647.477661 451.000000
1648.982300 553.000000
1650.485474 487.000000
1651.988037 378.000000
1653.490234 391.000000
1654.991089 447.000000
1656.490845 326.000000
1657.989746 402.000000
1659.488281 435.000000
1660.985596 409.000000
1662.482178 429.000000
1663.977173 448.000000
1665.471924 364.000000
1666.965820 422.000000
1668.458740 382.000000
1669.950317 318.000000
1671.441406 355.000000
1672.931885 360.000000
1674.421265 383.000000
1675.909180 420.000000
1677.396851 348.000000
1678.883545 386.000000
1680.369385 460.000000
1681.854370 317.000000
1683.337891 373.000000
1684.821167 493.000000
1686.303589 308.000000
1687.784912 460.000000
1689.264771 485.000000
1690.744385 371.000000
1692.223267 385.000000
1693.701172 269.000000
1695.178101 285.000000
1696.653809 354.000000
1698.129150 354.000000
1699.603271 306.000000
1701.076782 354.000000
1702.548828 422.000000
1704.020630 284.000000
1705.491455 316.000000
1706.961426 376.000000
1708.430054 407.000000
1709.898193 384.000000
1711.365601 393.000000
1712.831909 365.000000
1714.297607 284.000000
1715.761597 399.000000
1717.225464 327.000000
1718.688477 305.000000
1720.150513 354.000000
1721.611328 332.000000
1723.071533 313.000000
1724.531006 274.000000
1725.989624 427.000000
1727.447266 368.000000
1728.903564 377.000000
1730.359619 306.000000
1731.814697 427.000000
1733.268799 355.000000
1734.721680 428.000000
1736.174316 339.000000
1737.625854 253.000000
1739.076660 342.000000
1740.526489 403.000000
1741.974976 269.000000
1743.423096 262.000000
1744.870361 450.000000
1746.316895 299.000000
1747.761841 233.000000
1749.206543 325.000000
1750.650391 323.000000
1752.093384 292.000000
1753.534912 258.000000
1754.976196 322.000000
1756.416626 350.000000
1757.856079 382.000000
1759.294556 387.000000
1760.732056 316.000000
1762.169067 331.000000
1763.605103 293.000000
1765.040283 277.000000
1766.473999 269.000000
1767.907593 376.000000
1769.340210 306.000000
1770.771973 291.000000
1772.202881 269.000000
1773.632568 263.000000
1775.061523 261.000000
1776.489990 296.000000
1777.917480 278.000000
1779.343628 349.000000
1780.769531 294.000000
1782.194336 145.000000
1783.618530 296.000000
1785.041260 243.000000
1786.463501 338.000000
1787.885010 248.000000
1789.305786 165.000000
1790.725586 360.000000
1792.144043 234.000000
1793.562012 213.000000
1794.979370 227.000000
1796.395874 230.000000
1797.810913 220.000000
1799.225586 248.000000
1800.639648 239.000000
1802.052490 283.000000
1803.464722 296.000000
1804.875610 233.000000
1806.286011 284.000000
1807.695679 205.000000
1809.104370 278.000000
1810.511963 245.000000
1811.919067 279.000000
1813.325317 304.000000
1814.730591 326.000000
1816.134766 353.000000
1817.538574 345.000000
1818.941406 214.000000
1820.343384 316.000000
1821.744751 179.000000
1823.144653 242.000000
1824.543945 251.000000
1825.942749 331.000000
1827.340698 252.000000
1828.737305 222.000000
1830.133301 216.000000
1831.528564 262.000000
1832.923218 218.000000
1834.316895 280.000000
1835.709229 281.000000
1837.101074 287.000000
1838.492310 324.000000
1839.882568 236.000000
1841.271606 255.000000
1842.660278 227.000000
1844.047974 186.000000
1845.434937 236.000000
1846.820557 216.000000
1848.205933 262.000000
1849.590454 198.000000
1850.974243 257.000000
1852.356934 263.000000
1853.738403 184.000000
1855.119385 183.000000
1856.499878 252.000000
1857.879395 302.000000
1859.257446 218.000000
1860.635376 123.000000
1862.012329 166.000000
1863.388550 288.000000
1864.763916 287.000000
1866.137817 188.000000
1867.511597 226.000000
1868.884521 213.000000
1870.256348 191.000000
1871.627197 125.000000
1872.997681 231.000000
1874.367065 279.000000
1875.735962 182.000000
1877.103271 190.000000
1878.470459 129.000000
1879.836670 266.000000
1881.202148 274.000000
1882.566895 259.000000
1883.930054 248.000000
1885.293091 201.000000
1886.655273 80.000000
1888.016602 240.000000
1889.376587 198.000000
1890.736206 216.000000
1892.095215 142.000000
1893.453247 228.000000
1894.810425 215.000000
1896.166382 204.000000
1897.522095 232.000000
1898.876831 140.000000
1900.230713 176.000000
1901.583496 178.000000
1902.935791 229.000000
1904.287354 161.000000
1905.638062 291.000000
1906.987549 156.000000
1908.336548 216.000000
1909.684692 205.000000
1911.032227 114.000000
1912.379028 191.000000
1913.724243 285.000000
1915.069214 248.000000
1916.413452 306.000000
1917.756836 247.000000
1919.098877 123.000000
1920.440674 182.000000
1921.781616 187.000000
1923.121826 229.000000
1924.461060 230.000000
1925.799316 355.000000
1927.136963 155.000000
1928.473877 275.000000
1929.809937 327.000000
1931.144775 207.000000
1932.479248 87.000000
1933.812988 205.000000
1935.145874 221.000000
1936.477295 238.000000
1937.808838 270.000000
1939.139038 154.000000
1940.468750 150.000000
1941.797607 162.000000
1943.125244 219.000000
1944.452393 192.000000
1945.778809 121.000000
1947.104492 176.000000
1948.428833 216.000000
1949.752930 173.000000
1951.076172 197.000000
1952.398682 179.000000
1953.720093 277.000000
1955.040527 112.000000
1956.360352 178.000000
1957.679810 121.000000
1958.998291 57.000000
1960.315430 149.000000
1961.632202 244.000000
1962.948242 116.000000
1964.263550 186.000000
1965.577393 153.000000
1966.890991 107.000000
1968.203857 211.000000
1969.515869 155.000000
1970.827271 171.000000
1972.137329 105.000000
1973.446899 239.000000
1974.755737 205.000000
1976.063965 126.000000
1977.370850 133.000000
1978.677124 126.000000
1979.983032 126.000000
1981.287720 273.000000
1982.591919 141.000000
1983.894897 193.000000
1985.197510 180.000000
1986.499146 112.000000
1987.800171 111.000000
1989.099609 190.000000
1990.399170 165.000000
1991.697632 180.000000
1992.995605 105.000000
1994.291992 167.000000
1995.588379 164.000000
1996.883789 163.000000
1998.178467 136.000000
1999.472290 123.000000
2000.764893 214.000000
2002.057007 169.000000
2003.348633 118.000000
2004.639526 177.000000
2005.928833 310.000000
2007.217896 121.000000
2008.506226 183.000000
2009.793823 67.000000
2011.080566 233.000000
2012.366211 179.000000
2013.651489 114.000000
2014.935791 170.000000
2016.219482 162.000000
2017.501831 126.000000
2018.783813 154.000000
2020.065308 133.000000
2021.345825 96.000000
2022.625610 209.000000
2023.904297 87.000000
2025.182251 165.000000
2026.459717 82.000000
2027.736572 183.000000
2029.011719 166.000000
2030.286987 114.000000
2031.561279 122.000000
2032.834595 144.000000
2034.107056 117.000000
2035.379150 140.000000
2036.650146 119.000000
2037.920898 127.000000
2039.190308 181.000000
2040.458618 -2.000000
2041.726929 84.000000
2042.994263 190.000000
2044.260864 151.000000
2045.526245 102.000000
2046.791016 148.000000
2048.055664 149.000000
2049.318848 96.000000
2050.581787 174.000000
2051.842773 164.000000
2053.104248 -4.000000
2054.364502 89.000000
2055.624023 171.000000
2056.882813 155.000000
2058.140625 143.000000
2059.397949 176.000000
2060.654541 137.000000
2061.909668 139.000000
2063.164795 170.000000
2064.418945 203.000000
2065.672363 156.000000
2066.925049 134.000000
2068.176514 62.000000
2069.427734 189.000000
2070.678223 117.000000
2071.927979 128.000000
2073.176270 -183.000000
2074.424561 89.000000
2075.671875 95.000000
2076.918457 103.000000
2078.164307 45.000000
2079.408936 46.000000
2080.653076 177.000000
2081.896729 213.000000
2083.139404 190.000000
2084.380859 135.000000
2085.622070 120.000000
2086.862793 121.000000
2088.102539 138.000000
2089.341064 155.000000
2090.579102 81.000000
2091.816406 149.000000
2093.053467 122.000000
2094.289063 189.000000
2095.523926 54.000000
2096.758545 142.000000
2097.992188 85.000000
2099.224854 48.000000
2100.456787 171.000000
2101.688232 148.000000
2102.918701 252.000000
2104.148438 170.000000
2105.377930 85.000000
2106.605469 173.000000
2107.833252 125.000000
2109.060303 108.000000
2110.286377 47.000000
2111.510986 102.000000
2112.735840 85.000000
2113.959473 69.000000
2115.182617 135.000000
2116.404541 61.000000
2117.626221 132.000000
2118.846924 79.000000
2120.066895 90.000000
2121.286377 185.000000
2122.504395 50.000000
2123.722412 152.000000
2124.939453 30.000000
2126.156006 80.000000
2127.370850 94.000000
2128.585938 65.000000
2129.800049 144.000000
2131.013428 175.000000
2132.226074 185.000000
2133.437256 72.000000
2134.648682 129.000000
2135.858887 140.000000
2137.068604 109.000000
2138.276855 6.000000
2139.485107 160.000000
2140.692627 42.000000
2141.898926 -68.000000
2143.104492 41.000000
2144.309814 147.000000
2145.514160 39.000000
2146.717773 132.000000
2147.920898 183.000000
2149.122559 166.000000
2150.323975 90.000000
2151.524658 66.000000
2152.724609 0.000000
2153.923340 178.000000
2155.121826 20.000000
2156.319824 160.000000
2157.516846 172.000000
2158.713135 59.000000
2159.908203 148.000000
2161.103027 95.000000
2162.297119 116.000000
2163.490234 144.000000
2164.682373 126.000000
2165.874268 44.000000
2167.065430 113.000000
2168.255615 132.000000
2169.445068 132.000000
2170.634033 115.000000
2171.822021 112.000000
2173.009766 111.000000
2174.196045 60.000000
2175.381592 121.000000
2176.566895 79.000000
2177.751709 107.000000
2178.935303 129.000000
2180.118164 125.000000
2181.300049 109.000000
2182.481689 131.000000
2183.662842 141.000000
2184.842773 11.000000
2186.021729 73.000000
2187.200195 157.000000
2188.378418 22.000000
2189.555420 101.000000
2190.731445 -14.000000
2191.907227 126.000000
2193.082520 25.000000
2194.256348 112.000000
2195.429688 58.000000
2196.602783 108.000000
2197.774658 108.000000
2198.946045 182.000000
2200.116943 59.000000
2201.286133 104.000000
2202.455322 149.000000
2203.624023 119.000000
2204.791748 125.000000
2205.958496 126.000000
2207.124512 44.000000
2208.290039 110.000000
2209.455322 151.000000
2210.619141 105.000000
2211.782471 51.000000
2212.944580 104.000000
2214.106934 88.000000
2215.268066 114.000000
2216.428223 131.000000
2217.587891 66.000000
2218.747314 127.000000
2219.905518 57.000000
2221.062744 128.000000
2222.219727 46.000000
2223.375977 41.000000
2224.531494 6.000000
2225.686279 66.000000
2226.840088 119.000000
2227.992920 108.000000
2229.146240 181.000000
2230.297607 91.000000
2231.448730 119.000000
2232.599121 46.000000
2233.749023 104.000000
2234.897949 65.000000
2236.046387 130.000000
2237.193359 50.000000
2238.340576 84.000000
2239.486572 107.000000
2240.632324 41.000000
2241.776367 144.000000
2242.920654 49.000000
2244.063965 103.000000
2245.206543 99.000000
2246.348145 39.000000
2247.489502 108.000000
2248.629883 34.000000
2249.769531 99.000000
2250.908691 18.000000
2252.046631 71.000000
2253.184570 91.000000
2254.321533 100.000000
2255.457764 78.000000
2256.593018 45.000000
2257.727539 49.000000
2258.861816 -1.000000
2259.995605 4.000000
2261.127930 159.000000
2262.259766 -15.000000
2263.391113 -1.000000
2264.521484 21.000000
2265.651611 103.000000
2266.780518 125.000000
2267.908936 6.000000
2269.036865 46.000000
2270.163818 57.000000
2271.290039 35.000000
2272.415283 137.000000
2273.540527 92.000000
2274.665039 -28.000000
2275.788330 69.000000
2276.910889 134.000000
2278.032959 71.000000
2279.154541 147.000000
2280.275391 91.000000
2281.395020 94.000000
2282.514160 119.000000
2283.633057 59.000000
2284.751221 113.000000
2285.868408 122.000000
2286.984619 -16.000000
2288.100586 55.000000
2289.215820 93.000000
2290.330322 101.000000
2291.443604 88.000000
2292.556885 80.000000
2293.669434 146.000000
2294.781250 57.000000
2295.892334 66.000000
2297.002197 76.000000
2298.111572 52.000000
2299.220703 133.000000
2300.328857 29.000000
2301.436035 44.000000
2302.542969 133.000000
2303.649170 76.000000
2304.754883 34.000000
2305.859131 118.000000
2306.963135 79.000000
2308.066650 57.000000
2309.169678 68.000000
2310.271484 128.000000
2311.372559 -48.000000
2312.473145 67.000000
2313.573242 130.000000
2314.672607 60.000000
2315.770508 68.000000
2316.868896 83.000000
2317.965820 -1.000000
2319.062500 84.000000
2320.158691 107.000000
2321.253174 41.000000
2322.347656 49.000000
2323.441406 117.000000
2324.534912 -11.000000
2325.626709 105.000000
2326.718506 342.000000
2327.809570 174.000000
2328.899902 111.000000
2329.989258 229.000000
2331.078613 102.000000
2332.166748 185.000000
2333.254395 151.000000
2334.341797 111.000000
2335.427490 62.000000
2336.512939 77.000000
2337.598145 103.000000
2338.682373 86.000000
2339.765625 90.000000
2340.848633 117.000000
2341.930664 95.500000
2343.012451 74.000000
2344.093506 88.000000
2345.173340 35.000000
2346.252686 38.000000
2347.331543 77.000000
2348.409912 80.000000
2349.486816 75.000000
2350.563477 66.000000
2351.639893 35.000000
2352.715332 106.000000
2353.789795 156.000000
2354.864014 -5.000000
2355.937500 89.000000
2357.010498 105.000000
2358.082275 -5.000000
2359.153809 72.000000
2360.224365 102.000000
2361.294678 50.000000
2362.364014 66.000000
2363.432373 51.000000
2364.500488 11.000000
2365.567871 204.000000
2366.634766 1.000000
2367.700928 48.000000
2368.765869 -6.000000
2369.830811 95.000000
2370.895020 68.000000
2371.958496 93.000000
2373.020752 25.000000
2374.083008 25.000000
2375.144287 11.000000
2376.205322 100.000000
2377.265137 -43.000000
2378.324219 166.000000
2379.383301 46.000000
2380.441406 1.000000
2381.498779 75.000000
2382.555176 45.000000
2383.611328 20.000000
2384.666992 136.000000
2385.721924 93.000000
2386.775391 22.000000
2387.829102 106.000000
2388.881836 5.000000
2389.934082 65.000000
2390.985596 95.000000
2392.036133 87.000000
2393.086426 108.000000
2394.135742 53.000000
2395.185059 25.000000
2396.232910 -5.000000
2397.280273 73.000000
2398.327393 28.000000
2399.373535 130.000000
2400.418945 94.000000
2401.463623 -77.000000
2402.508301 -30.000000
2403.551514 9.000000
2404.594727 31.000000
2405.636475 124.000000
2406.678467 50.000000
2407.719727 4.000000
2408.760010 -19.000000
2409.799561 -10.000000
2410.838135 40.000000
2411.876953 64.000000
2412.914551 64.000000
2413.951904 54.000000
2414.988037 41.000000
2416.023926 71.000000
2417.059082 35.000000
2418.093750 80.000000
2419.126953 -5.000000
2420.160400 70.000000
2421.192871 -49.000000
2422.225098 -6.000000
2423.255859 59.000000
2424.286621 -21.000000
2425.316895 16.000000
2426.345947 75.000000
2427.375000 68.000000
2428.402344 -2.000000
2429.430176 -66.000000
2430.456787 -5.000000
2431.483154 62.000000
2432.508057 60.000000
2433.533203 -9.000000
2434.557373 -1.000000
2435.581299 66.000000
2436.604004 63.000000
2437.625977 11.000000
2438.647705 110.000000
2439.668701 -1.000000
2440.689209 80.000000
2441.708496 31.000000
2442.727783 34.000000
2443.746094 28.000000
2444.764160 70.000000
2445.780762 24.000000
2446.797363 23.000000
2447.813232 44.000000
2448.829102 21.000000
2449.843506 140.000000
2450.857178 56.000000
2451.870361 -114.000000
2452.883301 16.000000
2453.895508 106.000000
2454.906738 20.000000
2455.917725 51.000000
2456.927979 92.000000
2457.937744 112.000000
2458.946533 -68.000000
2459.954590 49.000000
2460.962646 -14.000000
2461.969482 -121.000000
2462.976074 -20.000000
2463.981445 20.000000
2464.986572 6.000000
2465.991455 68.000000
2466.995117 55.000000
2467.998535 -12.000000
2469.000977 36.000000
2470.003174 43.000000
2471.004883 -52.000000
2472.005615 -5.000000
2473.005371 23.000000
2474.005127 35.000000
2475.003906 -13.000000
2476.002197 61.000000
2476.999512 77.000000
2477.996582 39.000000
2478.993652 25.000000
2479.989258 57.000000
2480.984863 42.000000
2481.978760 135.000000
2482.972656 23.000000
2483.966064 50.000000
2484.958984 2.000000
2485.950928 127.000000
2486.942139 39.000000
2487.933105 -22.000000
2488.923584 43.000000
2489.913086 3.000000
2490.901855 58.000000
2491.890625 94.000000
2492.878418 -25.000000
2493.864990 74.000000
2494.851563 107.000000
2495.837646 61.000000
2496.822998 27.000000
2497.807373 26.000000
2498.791504 48.000000
2499.775635 82.000000
2500.758301 49.000000
2501.740479 -9.000000
2502.722168 27.000000
2503.703125 -56.000000
2504.683594 52.000000
2505.663818 23.000000
2506.642578 27.000000
2507.621094 -35.000000
2508.599121 55.000000
2509.576660 57.000000
2510.553223 54.000000
2511.529541 38.000000
2512.505127 37.000000
2513.480225 53.000000
2514.454834 15.000000
2515.428223 21.000000
2516.401367 21.000000
2517.374268 62.000000
2518.346191 33.000000
2519.317383 -34.000000
2520.288086 -19.000000
2521.258545 -66.000000
2522.228271 104.000000
2523.197021 151.000000
2524.165039 120.000000
2525.133057 -1.000000
2526.100098 8.000000
2527.066895 133.000000
2528.032471 135.000000
2528.998047 -20.000000
2529.962891 -10.000000
2530.927246 52.000000
2531.890381 31.000000
2532.853760 113.000000
2533.816162 -19.000000
2534.778320 57.000000
2535.739258 5.000000
2536.699463 98.000000
2537.659912 54.000000
2538.619385 46.000000
2539.578125 61.000000
2540.535889 73.000000
2541.493896 72.000000
2542.451172 20.000000
2543.407471 -13.000000
2544.363525 27.000000
2545.318359 74.000000
2546.273438 -43.000000
2547.227783 48.000000
2548.181396 -242.000000
2549.134033 -78.000000
2550.086426 16.000000
2551.038330 -47.000000
2551.989502 73.000000
2552.939941 96.000000
2553.889893 -57.000000
2554.839600 33.000000
2555.788574 41.000000
2556.737061 -54.000000
2557.684326 -8.000000
2558.631592 18.000000
2559.578125 -25.000000
2560.524170 54.000000
2561.469238 8.000000
2562.414063 101.000000
2563.358398 61.000000
2564.302246 93.000000
2565.245605 79.000000
2566.187500 -51.000000
2567.129639 46.000000
2568.071045 18.000000
2569.011719 27.000000
2569.951660 55.000000
2570.891602 34.000000
2571.830566 63.000000
2572.769287 53.000000
2573.707031 -62.000000
2574.644531 46.000000
2575.581299 -4.000000
2576.517334 18.000000
2577.452881 9.000000
2578.387695 49.000000
2579.322510 43.000000
2580.256348 23.000000
2581.189697 -15.000000
2582.122314 63.000000
2583.054688 82.000000
2583.986328 61.000000
2584.917480 23.000000
2585.848145 -31.000000
2586.777588 26.000000
2587.707031 104.000000
2588.635986 -90.000000
2589.564697 -55.000000
2590.491699 -6.000000
2591.418945 -40.000000
2592.345703 20.000000
2593.271729 -17.000000
2594.197510 -6.000000
2595.122070 73.000000
2596.046387 24.000000
2596.970215 28.000000
2597.893555 71.000000
2598.815918 48.000000
2599.738037 -46.000000
2600.659668 32.000000
2601.580566 83.000000
2602.500732 -13.000000
2603.420654 -31.000000
2604.340088 -80.000000
2605.259277 -16.000000
2606.177490 29.000000
2607.094482 47.000000
2608.011719 15.000000
2608.928711 36.000000
2609.844727 -53.000000
2610.759521 -43.000000
2611.674805 6.000000
2612.589355 -18.000000
2613.502930 -71.000000
2614.416504 30.000000
2615.328857 34.000000
2616.241211 -56.000000
2617.152588 12.000000
2618.063721 -39.000000
2618.974121 336.000000
2619.884277 36.000000
2620.793701 4.000000
2621.702637 -12.000000
2622.610596 -22.000000
2623.518799 40.000000
2624.426025 -43.000000
2625.332764 -109.000000
2626.238770 29.000000
2627.144531 83.000000
2628.049561 23.000000
2628.954346 42.000000
2629.858398 50.000000
2630.761475 -18.000000
2631.664551 14.000000
2632.566650 -45.000000
2633.468750 -83.000000
2634.370605 -4.000000
2635.270752 25.000000
2636.171143 -8.000000
2637.070801 42.000000
2637.970215 13.000000
2638.868164 4.000000
2639.766602 90.000000
2640.664551 -28.000000
2641.561768 16.000000
2642.457764 10.000000
2643.353760 0.000000
2644.249512 24.000000
2645.144531 0.000000
2646.039307 -52.000000
2646.932617 37.000000
2647.825928 -49.000000
2648.718994 -41.000000
2649.611816 36.000000
2650.502930 56.000000
2651.394287 19.000000
2652.285156 66.000000
2653.175293 22.000000
2654.065186 -17.000000
2654.953857 25.000000
2655.842773 69.000000
2656.731201 -31.000000
2657.618652 -104.000000
2658.505127 9.000000
2659.392090 -13.000000
2660.278320 57.000000
2661.164063 55.000000
2662.048584 -81.000000
2662.933105 -11.000000
2663.817383 49.000000
2664.700928 -41.000000
2665.583984 -117.000000
2666.466309 33.000000
2667.348145 27.000000
2668.229248 -35.000000
2669.110596 30.000000
2669.990479 -2.000000
2670.870605 -30.000000
2671.750000 -30.000000
2672.629395 34.000000
2673.508057 9.000000
2674.385010 -52.000000
2675.262695 56.000000
2676.139648 -68.000000
2677.015869 -23.000000
2677.891602 -3.000000
2678.766602 59.000000
2679.641846 5.000000
2680.516113 -24.000000
2681.389893 -2.000000
2682.262939 -38.000000
2683.135742 7.000000
2684.008301 -5.000000
2684.880127 21.000000
2685.751221 -20.000000
2686.622070 120.000000
2687.492432 -34.000000
2688.362549 59.000000
2689.230957 -5.000000
2690.100098 -17.000000
2690.968506 -9.000000
2691.836670 51.000000
2692.704102 33.000000
2693.570313 -47.000000
2694.437012 -5.000000
2695.302734 22.000000
2696.168457 109.000000
2697.032715 -9.000000
2697.897705 14.000000
2698.761230 90.000000
2699.625000 -44.000000
2700.487305 -55.000000
2701.350098 -7.000000
2702.211914 52.000000
2703.073242 21.000000
2703.934570 -35.000000
2704.794678 129.000000
2705.654785 70.000000
2706.514404 -32.000000
2707.373779 3.000000
2708.231445 26.000000
2709.089355 22.000000
2709.947754 92.000000
2710.804932 -75.000000
2711.661377 49.000000
2712.517334 55.000000
2713.373291 -8.000000
2714.228516 0.000000
2715.083008 10.000000
2715.937012 9.000000
2716.791016 10.000000
2717.644043 -17.000000
2718.497314 -60.000000
2719.348877 -40.000000
2720.200928 55.000000
2721.052734 -36.000000
2721.903320 11.000000
2722.753906 -52.000000
2723.604004 -12.000000
2724.453369 -18.000000
2725.302734 51.000000
2726.150879 3.000000
2726.998535 -8.000000
2727.846680 3.000000
2728.693604 -8.000000
2729.541016 54.000000
2730.386963 -71.000000
2731.232178 -76.000000
2732.077881 19.000000
2732.922607 -12.000000
2733.767334 31.000000
2734.610840 -39.000000
2735.454590 -32.000000
2736.297607 45.000000
2737.140137 -32.000000
2737.981689 98.000000
2738.823730 -110.000000
2739.664795 -52.000000
2740.505615 54.000000
2741.346191 -19.000000
2742.185547 -20.000000
2743.024902 41.000000
2743.864258 -21.000000
2744.702393 12.000000
2745.540039 31.000000
2746.377686 -20.000000
2747.214844 -17.000000
2748.051758 59.000000
2748.888184 -21.000000
2749.723389 67.000000
2750.558838 -55.000000
2751.393799 -2.000000
2752.228027 -33.000000
2753.062012 -78.000000
2753.895508 26.000000
2754.729004 122.000000
2755.561523 43.000000
2756.393555 -26.000000
2757.225098 1.000000
2758.056641 -89.000000
2758.887207 12.000000
2759.718018 15.000000
2760.547607 41.000000
2761.377197 -58.000000
2762.206543 -38.000000
2763.035156 7.000000
2763.863281 41.000000
2764.690918 109.000000
2765.518555 -5.000000
2766.345703 -92.000000
2767.172119 -39.000000
2767.998047 -54.000000
2768.823486 -103.000000
2769.648682 30.000000
2770.473877 111.000000
2771.297852 22.000000
2772.121826 -148.000000
2772.945801 -86.000000
2773.768555 -28.000000
2774.591553 34.000000
2775.413330 48.000000
2776.235107 69.000000
2777.056885 -20.000000
2777.877686 -3.000000
2778.697754 -4.000000
2779.518066 24.000000
2780.337891 78.000000
2781.157715 -17.000000
2781.975586 26.000000
2782.794678 -24.000000
2783.612549 56.000000
2784.430176 -77.000000
2785.247314 1.000000
2786.063965 -49.000000
2786.880371 57.000000
2787.696289 76.000000
2788.511963 7.000000
2789.326660 -14.000000
2790.141846 -58.000000
2790.956299 70.000000
2791.770264 12.000000
2792.583984 -106.000000
2793.396484 40.000000
2794.209229 40.000000
2795.021484 -32.000000
2795.833252 12.000000
2796.644287 -69.000000
2797.456055 8.000000
2798.266602 -23.000000
2799.077148 -83.000000
2799.886230 -84.000000
2800.696045 -5.000000
2801.505127 -56.000000
2802.313965 -18.000000
2803.122314 -141.000000
2803.929688 -96.000000
2804.737549 7.000000
2805.544678 -24.000000
2806.351563 -11.000000
2807.157227 54.000000
2807.963379 16.000000
2808.768799 -26.000000
2809.574219 20.000000
2810.378906 -26.000000
2811.182617 -4.000000
2811.986816 32.000000
2812.790527 -20.000000
2813.593994 -108.000000
2814.395996 -32.000000
2815.198730 -16.000000
2816.000732 0.000000
2816.802490 15.000000
2817.603760 4.000000
2818.404541 -21.000000
2819.204834 -84.000000
2820.005371 -72.000000
2820.804932 -38.000000
2821.604004 -48.000000
2822.403076 26.000000
2823.201904 35.000000
2824.000244 -16.000000
2824.797607 15.000000
2825.595215 53.000000
2826.392090 -5.000000
2827.189209 1.000000
2827.985596 -17.000000
2828.781250 -11.000000
2829.576904 -21.000000
2830.372314 -237.000000
2831.167236 15.000000
2831.961426 -27.000000
2832.755615 -3.000000
2833.549561 5.000000
2834.343018 -107.000000
2835.135742 -61.000000
2835.928223 11.000000
2836.720703 26.000000
2837.512939 5.000000
2838.304688 2.000000
2839.095459 -30.000000
2839.886230 -15.000000
2840.677246 124.000000
2841.467285 -46.000000
2842.256836 21.000000
2843.046631 7.000000
2843.835449 -34.000000
2844.624268 -84.000000
2845.413086 -64.000000
2846.200928 -95.000000
2846.988281 3.000000
2847.775879 -15.000000
2848.562988 64.000000
2849.349365 16.000000
2850.135742 6.000000
2850.921875 7.000000
2851.707520 -63.000000
2852.492188 -13.000000
2853.277344 -52.000000
2854.062256 -120.000000
2854.846436 -42.000000
2855.630615 1.000000
2856.413574 26.000000
2857.196777 -19.000000
2857.979736 -35.000000
2858.762207 32.000000
2859.544434 -38.000000
2860.326172 -15.000000
2861.107666 74.000000
2861.889404 21.000000
2862.670410 -56.000000
2863.450684 100.000000
2864.230713 -53.000000
2865.010742 44.000000
2865.790527 21.000000
2866.569336 96.000000
2867.348389 29.000000
2868.126953 -79.000000
2868.905273 48.000000
2869.683105 -5.000000
2870.460693 12.000000
2871.238037 97.000000
2872.015137 26.000000
2872.791748 -32.000000
2873.567871 93.000000
2874.343994 80.000000
2875.119629 49.000000
2875.895020 -17.000000
2876.669922 13.000000
2877.444580 -42.000000
2878.219238 29.000000
2878.993652 33.000000
2879.767334 -67.000000
2880.540283 -33.000000
2881.313965 80.000000
2882.086670 11.000000
2882.859375 -77.000000
2883.631348 63.000000
2884.403076 67.000000
2885.175293 56.000000
2885.946289 135.000000
2886.716797 18.000000
2887.487793 -13.000000
2888.258789 35.000000
2889.029053 41.000000
2889.798340 5.000000
2890.567871 -100.000000
2891.337402 73.000000
2892.106445 37.000000
2892.875000 -109.000000
2893.643555 57.000000
2894.411133 72.000000
2895.179199 42.000000
2895.946777 14.000000
2896.714355 -2.000000
2897.480713 -3.000000
2898.248047 -31.000000
2899.014160 41.000000
2899.780518 56.000000
2900.545410 -75.000000
2901.310791 -54.000000
2902.076660 -15.000000
2902.841064 -42.000000
2903.605469 -11.000000
2904.370117 -109.000000
2905.133789 -23.000000
2905.898193 31.000000
2906.661865 -16.000000
2907.424805 -10.000000
2908.187500 -2.000000
2908.950684 69.000000
2909.713379 58.000000
2910.474854 3.000000
2911.236816 3.000000
spectrumdark 2048
-96.993996 6181.000000
-94.367126 6181.000000
-91.742134 6106.000000
-89.119034 6447.000000
-86.497803 5818.000000
-83.878471 6184.000000
-81.261002 5987.000000
-78.645409 6393.000000
-76.031693 6123.000000
-73.419853 6020.000000
-70.809875 6125.000000
-68.201782 5966.000000
-65.595535 5946.000000
-62.991169 5966.000000
-60.388660 6128.000000
-57.788006 5606.000000
-55.189213 6172.000000
-52.592278 6917.000000
-49.997196 6464.000000
-47.403969 6516.000000
-44.812592 6280.000000
-42.223061 6781.000000
-39.635372 5878.000000
-37.049534 6020.000000
-34.465538 6437.000000
-31.883377 5701.000000
-29.303064 6310.000000
-26.724579 5744.000000
-24.147936 6149.000000
-21.573118 6255.000000
-19.000141 6467.000000
-16.428984 6429.000000
-13.859660 6877.000000
-11.292162 7767.000000
-8.726482 6318.000000
-6.162629 6463.000000
-3.600589 6030.000000
-1.040373 5815.000000
1.518035 6314.000000
4.074623 6945.000000
6.629405 6678.000000
9.182370 6005.000000
11.733535 6751.000000
14.282887 6481.000000
16.830442 6622.000000
19.376186 6028.000000
21.920137 5767.000000
24.462284 6727.000000
27.002634 6759.000000
29.541199 6761.000000
32.077965 6165.000000
34.612930 5814.000000
37.146118 7206.000000
39.677525 6291.000000
42.207138 7174.000000
44.734955 6542.000000
47.261013 7885.000000
49.785282 5684.000000
52.307781 6194.000000
54.828484 6764.000000
57.347431 6348.000000
59.864605 6411.000000
62.380001 6572.000000
64.893623 5629.000000
67.405487 5697.000000
69.915604 6569.000000
72.423927 6519.000000
74.930496 5953.000000
77.435318 6411.000000
79.938385 6418.000000
82.439674 6270.000000
84.939224 6087.000000
87.437019 6346.000000
89.933083 5782.000000
92.427368 7237.000000
94.919914 5804.000000
97.410744 6887.000000
99.899803 7200.000000
102.387115 6348.000000
104.872704 6170.000000
107.356552 6413.000000
109.838654 5722.000000
112.319031 6721.000000
114.797684 6148.000000
117.274612 6441.000000
119.749786 7154.000000
122.223251 6840.000000
124.694984 5906.000000
127.165009 6732.000000
129.633270 6250.000000
132.099869 6340.000000
134.564713 5700.000000
137.027863 6224.000000
139.489273 7292.000000
141.948990 6853.000000
144.406982 6393.000000
146.863281 6012.000000
149.317871 5824.000000
151.770737 6876.000000
154.221924 6342.000000
156.671417 6571.000000
159.119186 6140.000000
161.565247 6685.000000
164.009628 8672.000000
166.452332 6425.000000
168.893341 6767.000000
171.332642 6205.000000
173.770233 7235.000000
176.206192 6620.000000
178.640411 6991.000000
181.072952 7126.000000
183.503845 6611.000000
185.933014 7142.000000
188.360535 6665.000000
190.786377 6330.000000
193.210541 6701.000000
195.633041 7102.000000
198.053848 7397.000000
200.472992 6518.000000
202.890472 6060.000000
205.306259 7579.000000
207.720398 7173.000000
210.132904 6411.000000
212.543732 6080.000000
214.952881 6260.000000
217.360397 7427.000000
219.766205 6131.000000
222.170425 6494.000000
224.572937 6656.000000
226.973831 6989.000000
229.373077 6470.000000
231.770660 6834.000000
234.166580 7321.000000
236.560883 6561.000000
238.953522 6070.000000
241.344543 6820.000000
243.733902 6561.000000
246.121643 6347.000000
248.507736 7030.000000
250.892197 6176.000000
253.275009 7877.000000
255.656250 6703.000000
258.035797 6694.000000
260.413757 6520.000000
262.790039 7544.000000
265.164764 7618.000000
267.537842 7870.000000
269.909271 6128.000000
272.279053 6509.000000
274.647278 5901.000000
277.013855 6300.000000
279.378845 6501.000000
281.742218 6016.000000
284.103943 6187.000000
286.464081 7135.000000
288.822601 5989.000000
291.179535 6482.000000
293.534851 6425.000000
295.888580 5939.000000
298.240662 5971.000000
300.591187 6326.000000
302.940125 6373.000000
305.287415 6803.000000
307.633179 6479.000000
309.977264 6550.000000
312.319824 7385.000000
314.660767 7575.000000
317.000092 7167.000000
319.337860 6910.000000
321.674072 8164.000000
324.008636 6274.000000
326.341644 6511.000000
328.673096 6007.000000
331.002960 6620.000000
333.331238 6501.000000
335.657898 7212.000000
337.983063 6378.000000
340.306610 6254.000000
342.628601 6004.000000
344.949036 7498.000000
347.267853 7808.000000
349.585114 5997.000000
351.900848 5844.000000
354.214996 6944.000000
356.527557 6349.000000
358.838562 6225.000000
361.148041 7038.000000
363.455994 6405.000000
365.762329 5689.000000
368.067078 6527.000000
370.370361 6411.000000
372.672028 6217.000000
374.972198 6395.000000
377.270813 6286.000000
379.567871 5734.000000
381.863373 6050.000000
384.157349 5846.000000
386.449738 5246.000000
388.740631 5593.000000
391.029999 6228.000000
393.317780 6281.000000
395.604034 6580.000000
397.888794 7045.000000
400.171936 6186.000000
402.453644 6529.000000
404.733826 6142.000000
407.012421 7276.000000
409.289490 6498.000000
411.565033 6921.000000
413.839050 6746.000000
416.111633 6700.000000
418.382599 6496.000000
420.652069 6492.000000
422.920044 7194.000000
425.186462 7288.000000
427.451385 6292.000000
429.714844 6320.000000
431.976715 6520.000000
434.237122 5993.000000
436.495972 6665.000000
438.753357 6121.000000
441.009247 5628.000000
443.263641 5836.000000
445.516510 5471.000000
447.767822 6907.000000
450.017731 6046.000000
452.266052 6284.000000
454.512939 5601.000000
456.758362 6447.000000
459.002228 6458.000000
461.244598 6424.000000
463.485474 5612.000000
465.724945 6687.000000
467.962830 5478.000000
470.199280 5913.000000
472.434204 6152.000000
474.667664 7333.000000
476.899689 6742.000000
479.130188 5645.000000
481.359192 6474.000000
483.586731 6321.000000
485.812775 5902.000000
488.037384 6609.000000
490.260529 5871.000000
492.482208 6412.000000
494.702332 6683.000000
496.921051 5672.000000
499.138275 6247.000000
501.354126 5603.000000
503.568359 6108.000000
505.781281 6522.000000
507.992615 6484.000000
510.202515 6910.000000
512.410950 6542.000000
514.618042 6549.000000
516.823547 6437.000000
519.027649 6581.000000
521.230225 6213.000000
523.431396 6636.000000
525.631226 6687.000000
527.829529 6970.000000
530.026306 5378.000000
532.221741 5874.000000
534.415649 5572.000000
536.608215 7543.000000
538.799255 6700.000000
540.988892 6049.000000
543.177124 6977.000000
545.363831 7144.000000
547.549072 6798.000000
549.733032 6189.000000
551.915405 6407.000000
554.096436 6122.000000
556.275940 6033.000000
558.454163 5924.000000
560.630859 6011.000000
562.806152 6394.000000
564.980042 6421.000000
567.152466 5898.000000
569.323486 6020.000000
571.493042 6351.000000
573.661316 5204.000000
575.828064 6430.000000
577.993347 6316.000000
580.157227 6112.000000
582.319824 5731.000000
584.480896 6053.000000
586.640564 5637.000000
588.798889 5740.000000
590.955688 6181.000000
593.111145 6622.000000
595.265198 5750.000000
597.417908 6151.000000
599.569092 7285.000000
601.718933 6815.000000
603.867432 6713.000000
606.014343 5985.000000
608.160034 6522.000000
610.304321 6483.000000
612.447144 6986.000000
614.588501 6154.000000
616.728638 6434.000000
618.867249 7684.000000
621.004578 5715.000000
623.140442 6593.000000
625.274902 6876.000000
627.407898 7184.000000
629.539734 6604.000000
631.670105 6587.000000
633.799072 6739.000000
635.926575 6512.000000
638.052795 6269.000000
640.177490 7337.000000
642.300964 6471.000000
644.423096 6831.000000
646.543762 6824.000000
648.663086 6550.000000
650.781006 5603.000000
652.897583 5738.000000
655.012756 6418.000000
657.126587 6453.000000
659.238953 5888.000000
661.350098 6179.000000
663.459839 5441.000000
665.568115 6069.000000
667.675232 6346.000000
669.780884 6804.000000
671.885071 5906.000000
673.988037 5734.000000
676.089600 6986.000000
678.189819 5329.000000
680.288635 6745.000000
682.386108 6257.000000
684.482300 6969.000000
686.577026 6405.000000
688.670532 7126.000000
690.762695 6663.000000
692.853333 7959.000000
694.942749 6614.000000
697.030884 6543.000000
699.117554 6052.000000
701.203003 6595.000000
703.286926 5219.000000
705.369629 5881.000000
707.451050 5914.000000
709.531006 7601.000000
711.609741 6230.000000
713.687012 5546.000000
715.763000 6611.000000
717.837708 6048.000000
719.911133 7039.000000
721.983032 6320.000000
724.053772 7381.000000
726.123169 5754.000000
728.191162 6469.000000
730.257813 6383.000000
732.323242 7068.000000
734.387329 5791.000000
736.450073 6221.000000
738.511475 6602.000000
740.571594 6562.000000
742.630310 6005.000000
744.687805 6666.000000
746.744019 6655.000000
748.798828 6681.000000
750.852356 6329.000000
752.904480 7495.000000
754.955383 5717.000000
757.005066 6683.000000
759.053284 6370.000000
761.100281 6163.000000
763.145996 7022.000000
765.190308 5355.000000
767.233337 5727.000000
769.275146 14961.000000
771.315613 7215.000000
773.354675 6340.000000
775.392578 6119.000000
777.429138 5958.000000
779.464478 5306.000000
781.498474 5739.000000
783.531067 6901.000000
785.562500 5570.000000
787.592529 12153.000000
789.621277 6056.000000
791.648865 6335.000000
793.675110 6311.000000
795.699951 5805.000000
797.723694 5543.000000
799.746033 6373.000000
801.767151 5847.000000
803.786926 6667.000000
805.805420 4895.000000
807.822693 6735.000000
809.838562 6802.000000
811.853271 5723.000000
813.866638 6422.000000
815.878784 6222.000000
817.889709 6067.000000
819.899292 6552.000000
821.907654 5298.000000
823.914612 5716.000000
825.920349 6040.000000
827.924866 5723.000000
829.928101 5741.000000
831.930054 6456.000000
833.930725 6077.000000
835.930176 5936.000000
837.928284 6302.000000
839.925293 6942.000000
841.920898 6208.000000
843.915344 5998.000000
845.908447 6180.000000
847.900330 6824.000000
849.890869 5576.000000
851.880127 6820.000000
853.868347 6004.000000
855.855164 5732.000000
857.840759 6472.000000
859.825073 7281.000000
861.808289 6348.000000
863.790100 6393.000000
865.770691 5832.000000
867.750000 7720.000000
869.728149 7158.000000
871.704956 6173.000000
873.680481 6067.000000
875.654968 6125.000000
877.627991 6017.000000
879.599976 5377.000000
881.570618 6406.000000
883.540100 6087.000000
885.508240 5574.000000
887.475220 5127.000000
889.440857 6178.000000
891.405334 5789.000000
893.368591 5938.000000
895.330627 6453.000000
897.291382 5802.000000
899.250916 6425.000000
901.209167 6678.000000
903.166321 6377.000000
905.122314 6022.000000
907.076904 6857.000000
909.030273 6503.000000
910.982483 6373.000000
912.933472 6423.000000
914.883179 7044.000000
916.831726 6354.000000
918.779053 6170.000000
920.725098 6158.000000
922.669861 6058.000000
924.613586 6300.000000
926.556152 5916.000000
928.497437 5664.000000
930.437378 6445.000000
932.376221 5704.000000
934.313782 5517.000000
936.250122 5977.000000
938.185303 5877.000000
940.119202 6071.000000
942.052002 5884.000000
943.983582 6771.000000
945.914001 5242.000000
947.843201 6426.000000
949.771057 7006.000000
951.697876 6588.000000
953.623413 6051.000000
955.547668 5404.000000
957.470825 5936.000000
959.392822 6797.000000
961.313538 7228.000000
963.233093 6491.000000
965.151489 5328.000000
967.068848 6393.000000
968.984741 6434.000000
970.899536 6185.000000
972.813110 5978.000000
974.725525 6421.000000
976.636719 6514.000000
978.546753 5452.000000
980.455505 6258.000000
982.363220 6104.000000
984.269714 6366.000000
986.174988 5796.000000
988.079163 6848.000000
989.982117 6217.000000
991.883850 6840.000000
993.784424 6549.000000
995.683838 6528.000000
997.582031 5261.000000
999.479065 6542.000000
1001.374878 6560.000000
1003.269531 7634.000000
1005.163086 5549.000000
1007.055359 7198.000000
1008.946716 6057.000000
1010.836731 5381.000000
1012.725525 6637.000000
1014.613159 6335.000000
1016.499634 6892.000000
1018.384949 6699.000000
1020.269104 5978.000000
1022.152039 5842.000000
1024.033936 6214.000000
1025.914551 5217.000000
1027.794067 5919.000000
1029.672607 6001.000000
1031.549805 5468.000000
1033.425659 6196.000000
1035.300537 5926.000000
1037.174438 6578.000000
1039.046875 7043.000000
1040.918335 6740.000000
1042.788452 5505.000000
1044.657593 5517.000000
1046.525513 5825.000000
1048.392334 6974.000000
1050.258057 6776.000000
1052.122559 6415.000000
1053.985962 6459.000000
1055.848022 6486.000000
1057.709106 5957.000000
1059.569092 6421.000000
1061.427734 6626.000000
1063.285278 5794.000000
1065.141724 6721.000000
1066.997070 5923.000000
1068.851196 5755.000000
1070.704468 6300.000000
1072.556274 6361.000000
1074.407104 6151.000000
1076.256714 6174.000000
1078.105103 5746.000000
1079.952637 7944.000000
1081.798828 5567.000000
1083.643799 6239.000000
1085.487915 5444.000000
1087.330688 5580.000000
1089.172241 6493.000000
1091.013062 5442.000000
1092.852295 5770.000000
1094.690796 6008.000000
1096.527954 6069.000000
1098.363892 6810.000000
1100.198853 6528.000000
1102.032593 5412.000000
1103.865356 5700.000000
1105.696777 6150.000000
1107.527344 7221.000000
1109.356567 6577.000000
1111.184814 6420.000000
1113.011841 7073.000000
1114.837891 5397.000000
1116.662720 6279.000000
1118.486450 7151.000000
1120.308960 6129.000000
1122.130371 5898.000000
1123.950928 5862.000000
1125.770020 6582.000000
1127.588257 7090.000000
1129.405151 6994.000000
1131.221191 6677.000000
1133.036011 6521.000000
1134.849731 5584.000000
1136.662354 5832.000000
1138.473755 5548.000000
1140.284180 6159.000000
1142.093506 6778.000000
1143.901489 6977.000000
1145.708740 5972.000000
1147.514526 5989.000000
1149.319458 5382.000000
1151.123291 5401.000000
1152.925903 6139.000000
1154.727661 6096.000000
1156.527954 6122.000000
1158.327271 6141.000000
1160.125610 5914.000000
1161.922607 5430.000000
1163.718872 5937.000000
1165.513794 6144.000000
1167.307617 6399.000000
1169.100586 7808.000000
1170.892212 5813.000000
1172.682861 6558.000000
1174.472534 6017.000000
1176.260742 5843.000000
1178.048096 7532.000000
1179.834351 6886.000000
1181.619507 5756.000000
1183.403564 5935.000000
1185.186523 7658.000000
1186.968506 5909.000000
1188.749268 5921.000000
1190.529053 6305.000000
1192.307739 6967.000000
1194.085449 6688.000000
1195.861938 7187.000000
1197.637329 6591.000000
1199.411621 6499.000000
1201.184814 6682.000000
1202.957153 6477.000000
1204.728149 6710.000000
1206.498291 5715.000000
1208.267212 6107.000000
1210.035034 6345.000000
1211.802002 5727.000000
1213.567627 5940.000000
1215.332275 6951.000000
1217.095825 6510.000000
1218.858276 6026.000000
1220.619873 6699.000000
1222.380249 5861.000000
1224.139526 6443.000000
1225.897949 6012.000000
1227.655151 7225.000000
1229.411255 6418.000000
1231.166260 5558.000000
1232.920410 5959.000000
1234.673218 5792.000000
1236.425049 6034.000000
1238.176025 5984.000000
1239.925659 4928.000000
1241.674438 7038.000000
1243.421875 6496.000000
1245.168579 6573.000000
1246.914063 6512.000000
1248.658691 6413.000000
1250.401978 6805.000000
1252.144287 6692.000000
1253.885498 5379.000000
1255.625854 5165.000000
1257.365112 5819.000000
1259.103149 6611.000000
1260.840332 7128.000000
1262.576294 6138.000000
1264.311279 6427.000000
1266.045288 7238.000000
1267.778320 6022.000000
1269.510132 6204.000000
1271.240967 6416.000000
1272.970581 7259.000000
1274.699341 5861.000000
1276.427002 5716.000000
1278.153564 5520.000000
1279.879272 5496.000000
1281.603638 6491.000000
1283.327148 5207.000000
1285.049683 6889.000000
1286.771240 6668.000000
1288.491577 6345.000000
1290.210938 6710.000000
1291.929199 7230.000000
1293.646484 6427.000000
1295.362793 5781.000000
1297.077881 6426.000000
1298.791992 6157.000000
1300.505127 5717.000000
1302.217407 6470.000000
1303.928467 8306.000000
1305.638550 5232.000000
1307.347534 6322.000000
1309.055298 6675.000000
1310.762451 7033.000000
1312.468140 5817.000000
1314.173096 6900.000000
1315.877075 6117.000000
1317.579834 6031.000000
1319.281616 6555.000000
1320.982544 6066.000000
1322.682129 10184.000000
1324.380859 31471.000000
1326.078857 5570.000000
1327.775513 6518.000000
1329.471069 7176.000000
1331.165771 6848.000000
1332.859253 5639.000000
1334.551880 5441.000000
1336.243652 7412.000000
1337.934082 6309.000000
1339.623779 6572.000000
1341.312378 6130.000000
1342.999878 7623.000000
1344.686401 5741.000000
1346.371826 6803.000000
1348.056274 6032.000000
1349.739868 7316.000000
1351.422241 6355.000000
1353.103638 5978.000000
1354.784180 6578.000000
1356.463501 6752.000000
1358.142212 5872.000000
1359.819580 6486.000000
1361.495850 5864.000000
1363.171143 5585.000000
1364.845703 6569.000000
1366.519043 6464.000000
1368.191406 6828.000000
1369.862793 5188.000000
1371.533203 6787.000000
1373.202515 6179.000000
1374.870850 5668.000000
1376.538330 5889.000000
1378.204712 6492.000000
1379.870117 6102.000000
1381.534546 5862.000000
1383.197754 5973.000000
1384.860352 5690.000000
1386.521606 6392.000000
1388.182007 6573.000000
1389.841309 6425.000000
1391.499634 6443.000000
1393.157227 6885.000000
1394.813599 6508.000000
1396.469116 7054.000000
1398.123413 6362.000000
1399.776855 5879.000000
1401.429199 6139.000000
1403.080811 6469.000000
1404.731201 7209.000000
1406.380493 6281.000000
1408.029053 7470.000000
1409.676514 7910.000000
1411.322998 6286.000000
1412.968628 6298.000000
1414.613281 6030.000000
1416.256714 6997.000000
1417.899292 7132.000000
1419.540771 6925.000000
1421.181396 6484.000000
1422.821045 6513.000000
1424.459595 6015.000000
1426.097290 6609.000000
1427.733887 6354.000000
1429.369507 5953.000000
1431.004395 6371.000000
1432.638184 5978.000000
1434.270874 6167.000000
1435.902588 5620.000000
1437.533447 6163.000000
1439.163208 6106.000000
1440.791870 7780.000000
1442.419922 6031.000000
1444.046875 6280.000000
1445.672607 6178.000000
1447.297729 6177.000000
1448.921753 6509.000000
1450.544800 5987.000000
1452.166870 6064.000000
1453.787842 7416.000000
1455.407837 6334.000000
1457.027100 6878.000000
1458.645020 5715.000000
1460.262329 14372.000000
1461.878662 5557.000000
1463.493774 7389.000000
1465.108032 6360.000000
1466.721436 5211.000000
1468.333740 5612.000000
1469.945190 6266.000000
1471.555786 6319.000000
1473.165161 5989.000000
1474.773560 5966.000000
1476.381104 6164.000000
1477.987671 6705.000000
1479.593506 5363.000000
1481.198120 6255.000000
1482.801880 5549.000000
1484.404419 6664.000000
1486.006348 5554.000000
1487.607056 5511.000000
1489.207031 5626.000000
1490.805908 6294.000000
1492.403931 6448.000000
1494.000854 6709.000000
1495.596924 6359.000000
1497.192017 6001.000000
1498.786133 5541.000000
1500.379517 6544.000000
1501.971802 5523.000000
1503.562866 6123.000000
1505.153442 6811.000000
1506.742676 6443.000000
1508.331299 6124.000000
1509.918823 6542.000000
1511.505249 6851.000000
1513.090942 6130.000000
1514.675537 6663.000000
1516.259277 6428.000000
1517.841919 6152.000000
1519.423828 6563.000000
1521.004639 6616.000000
1522.584717 6078.000000
1524.163574 6252.000000
1525.741577 6385.000000
1527.318848 6286.000000
1528.894897 5713.000000
1530.470215 5904.000000
1532.044434 6273.000000
1533.617920 5455.000000
1535.190186 5944.000000
1536.761719 6439.000000
1538.332275 6509.000000
1539.901978 6339.000000
1541.470459 5539.000000
1543.038208 6601.000000
1544.605103 5627.000000
1546.170776 6803.000000
1547.735718 5946.000000
1549.299561 5050.000000
1550.862793 7415.000000
1552.424683 6251.000000
1553.985962 5938.000000
1555.546143 5704.000000
1557.105591 5792.000000
1558.663940 5870.000000
1560.221558 6299.000000
1561.778076 7057.000000
1563.333374 5885.000000
1564.888062 6321.000000
1566.442017 5628.000000
1567.994995 6371.000000
1569.546631 5666.000000
1571.097534 5942.000000
1572.647705 6219.000000
1574.196899 6325.000000
1575.744751 5730.000000
1577.292114 5545.000000
1578.838501 5629.000000
1580.384033 5102.000000
1581.928589 6655.000000
1583.471924 6377.000000
1585.014648 6606.000000
1586.556519 6458.000000
1588.097290 6716.000000
1589.637085 5822.000000
1591.176147 6706.000000
1592.714111 5929.000000
1594.251587 6157.000000
1595.787720 5905.000000
1597.322754 6664.000000
1598.857300 6209.000000
1600.390869 5987.000000
1601.923584 6154.000000
1603.454712 6291.000000
1604.985596 6296.000000
1606.515625 5750.000000
1608.044434 6134.000000
1609.572144 6149.000000
1611.099243 6046.000000
1612.625610 5840.000000
1614.151001 6164.000000
1615.675537 5816.000000
1617.198730 5822.000000
1618.721191 5681.000000
1620.242920 6580.000000
1621.763794 6948.000000
1623.283203 15624.000000
1624.802124 6221.000000
1626.320313 6035.000000
1627.837646 5933.000000
1629.353882 6372.000000
1630.868774 7009.000000
1632.383179 6763.000000
1633.896851 5762.000000
1635.409424 6826.000000
1636.920776 5973.000000
1638.431763 6450.000000
1639.941650 6255.000000
1641.450684 6145.000000
1642.958374 5577.000000
1644.465698 6126.000000
1645.972168 7140.000000
1647.477661 6231.000000
1648.982300 6803.000000
1650.485474 6199.000000
1651.988037 6604.000000
1653.490234 6348.000000
1654.991089 6598.000000
1656.490845 7602.000000
1657.989746 6171.000000
1659.488281 6509.000000
1660.985596 6257.000000
1662.482178 5953.000000
1663.977173 6513.000000
1665.471924 6391.000000
1666.965820 5198.000000
1668.458740 5699.000000
1669.950317 20903.000000
1671.441406 6511.000000
1672.931885 6134.000000
1674.421265 5941.000000
1675.909180 6954.000000
1677.396851 6886.000000
1678.883545 6031.000000
1680.369385 5428.000000
1681.854370 6103.000000
1683.337891 6244.000000
1684.821167 6212.000000
1686.303589 5915.000000
1687.784912 6236.000000
1689.264771 6175.000000
1690.744385 5544.000000
1692.223267 6561.000000
1693.701172 6070.000000
1695.178101 6176.000000
1696.653809 5787.000000
1698.129150 6044.000000
1699.603271 6386.000000
1701.076782 5497.000000
1702.548828 5552.000000
1704.020630 6947.000000
1705.491455 6437.000000
1706.961426 7084.000000
1708.430054 5163.000000
1709.898193 5800.000000
1711.365601 6342.000000
1712.831909 5494.000000
1714.297607 5797.000000
1715.761597 6218.000000
1717.225464 6009.000000
1718.688477 7029.000000
1720.150513 6373.000000
1721.611328 6642.000000
1723.071533 5461.000000
1724.531006 6434.000000
1725.989624 6138.000000
1727.447266 5986.000000
1728.903564 6232.000000
1730.359619 6103.000000
1731.814697 6441.000000
1733.268799 6020.000000
1734.721680 6832.000000
1736.174316 6000.000000
1737.625854 6938.000000
1739.076660 5955.000000
1740.526489 6532.000000
1741.974976 5988.000000
1743.423096 7668.000000
1744.870361 6572.000000
1746.316895 6663.000000
1747.761841 6757.000000
1749.206543 6133.000000
1750.650391 5985.000000
1752.093384 5596.000000
1753.534912 6539.000000
1754.976196 6371.000000
1756.416626 19486.000000
1757.856079 6218.000000
1759.294556 5221.000000
1760.732056 6079.000000
1762.169067 7563.000000
1763.605103 5844.000000
1765.040283 7124.000000
1766.473999 6175.000000
1767.907593 6422.000000
1769.340210 6675.000000
1770.771973 5764.000000
1772.202881 5897.000000
1773.632568 6406.000000
1775.061523 6152.000000
1776.489990 6274.000000
1777.917480 6713.000000
1779.343628 6247.000000
1780.769531 5589.000000
1782.194336 7017.000000
1783.618530 5561.000000
1785.041260 6699.000000
1786.463501 6455.000000
1787.885010 6922.000000
1789.305786 5939.000000
1790.725586 6135.000000
1792.144043 6211.000000
1793.562012 6894.000000
1794.979370 5549.000000
1796.395874 6095.000000
1797.810913 6554.000000
1799.225586 5894.000000
1800.639648 6620.000000
1802.052490 6026.000000
1803.464722 6999.000000
1804.875610 7196.000000
1806.286011 7753.000000
1807.695679 6497.000000
1809.104370 5929.000000
1810.511963 5422.000000
1811.919067 6464.000000
1813.325317 6303.000000
1814.730591 6690.000000
1816.134766 5930.000000
1817.538574 5921.000000
1818.941406 6232.000000
1820.343384 6010.000000
1821.744751 5917.000000
1823.144653 6365.000000
1824.543945 6502.000000
1825.942749 6581.000000
1827.340698 7469.000000
1828.737305 5771.000000
1830.133301 6827.000000
1831.528564 5961.000000
1832.923218 8178.000000
1834.316895 6018.000000
1835.709229 6854.000000
1837.101074 6363.000000
1838.492310 5870.000000
1839.882568 7141.000000
1841.271606 6073.000000
1842.660278 6096.000000
1844.047974 6083.000000
1845.434937 5852.000000
1846.820557 6983.000000
1848.205933 5843.000000
1849.590454 6437.000000
1850.974243 6326.000000
1852.356934 6365.000000
1853.738403 5410.000000
1855.119385 6539.000000
1856.499878 6343.000000
1857.879395 5700.000000
1859.257446 6010.000000
1860.635376 6269.000000
1862.012329 7978.000000
1863.388550 6098.000000
1864.763916 6077.000000
1866.137817 5708.000000
1867.511597 5731.000000
1868.884521 6272.000000
1870.256348 5925.000000
1871.627197 6955.000000
1872.997681 5441.000000
1874.367065 6031.000000
1875.735962 6125.000000
1877.103271 7194.000000
1878.470459 6067.000000
1879.836670 5998.000000
1881.202148 6738.000000
1882.566895 7543.000000
1883.930054 6760.000000
1885.293091 6935.000000
1886.655273 6373.000000
1888.016602 6445.000000
1889.376587 5675.000000
1890.736206 5757.000000
1892.095215 6154.000000
1893.453247 6690.000000
1894.810425 7311.000000
1896.166382 5987.000000
1897.522095 7623.000000
1898.876831 5861.000000
1900.230713 5588.000000
1901.583496 5931.000000
1902.935791 5958.000000
1904.287354 5954.000000
1905.638062 6895.000000
1906.987549 6588.000000
1908.336548 6686.000000
1909.684692 5825.000000
1911.032227 6185.000000
1912.379028 6314.000000
1913.724243 6792.000000
1915.069214 6064.000000
1916.413452 5430.000000
1917.756836 6511.000000
1919.098877 6076.000000
1920.440674 6744.000000
1921.781616 7009.000000
1923.121826 6148.000000
1924.461060 6362.000000
1925.799316 6264.000000
1927.136963 6545.000000
1928.473877 6978.000000
1929.809937 6720.000000
1931.144775 5601.000000
1932.479248 6864.000000
1933.812988 7339.000000
1935.145874 6269.000000
1936.477295 5717.000000
1937.808838 6294.000000
1939.139038 6637.000000
1940.468750 5798.000000
1941.797607 6083.000000
1943.125244 5823.000000
1944.452393 5040.000000
1945.778809 5874.000000
1947.104492 6532.000000
1948.428833 5731.000000
1949.752930 6695.000000
1951.076172 6336.000000
1952.398682 6420.000000
1953.720093 5768.000000
1955.040527 7502.000000
1956.360352 6047.000000
1957.679810 5593.000000
1958.998291 6945.000000
1960.315430 5909.000000
1961.632202 5892.000000
1962.948242 6610.000000
1964.263550 6607.000000
1965.577393 6347.000000
1966.890991 5714.000000
1968.203857 6237.000000
1969.515869 6025.000000
1970.827271 6071.000000
1972.137329 6367.000000
1973.446899 5852.000000
1974.755737 6135.000000
1976.063965 6655.000000
1977.370850 6087.000000
1978.677124 7250.000000
1979.983032 5616.000000
1981.287720 6439.000000
1982.591919 5982.000000
1983.894897 5695.000000
1985.197510 7564.000000
1986.499146 6133.000000
1987.800171 6838.000000
1989.099609 6080.000000
1990.399170 6591.000000
1991.697632 5336.000000
1992.995605 6130.000000
1994.291992 6160.000000
1995.588379 5813.000000
1996.883789 5618.000000
1998.178467 6540.000000
1999.472290 5756.000000
2000.764893 6580.000000
2002.057007 5810.000000
2003.348633 7196.000000
2004.639526 6472.000000
2005.928833 6209.000000
2007.217896 6800.000000
2008.506226 5968.000000
2009.793823 6053.000000
2011.080566 6801.000000
2012.366211 5655.000000
2013.651489 6381.000000
2014.935791 6044.000000
2016.219482 5627.000000
2017.501831 6078.000000
2018.783813 6478.000000
2020.065308 6774.000000
2021.345825 5973.000000
2022.625610 6086.000000
2023.904297 6805.000000
2025.182251 5816.000000
2026.459717 5945.000000
2027.736572 6287.000000
2029.011719 5741.000000
2030.286987 6634.000000
2031.561279 6120.000000
2032.834595 5974.000000
2034.107056 5947.000000
2035.379150 6163.000000
2036.650146 7009.000000
2037.920898 6617.000000
2039.190308 5984.000000
2040.458618 6798.000000
2041.726929 6663.000000
2042.994263 5906.000000
2044.260864 5982.000000
2045.526245 5609.000000
2046.791016 5505.000000
2048.055664 5434.000000
2049.318848 5900.000000
2050.581787 6384.000000
2051.842773 6171.000000
2053.104248 6166.000000
2054.364502 5921.000000
2055.624023 6569.000000
2056.882813 6225.000000
2058.140625 6915.000000
2059.397949 5933.000000
2060.654541 6023.000000
2061.909668 6514.000000
2063.164795 5646.000000
2064.418945 5566.000000
2065.672363 5622.000000
2066.925049 6830.000000
2068.176514 6332.000000
2069.427734 6392.000000
2070.678223 5617.000000
2071.927979 5437.000000
2073.176270 6512.000000
2074.424561 6576.000000
2075.671875 7432.000000
2076.918457 5594.000000
2078.164307 6082.000000
2079.408936 7085.000000
2080.653076 7569.000000
2081.896729 5473.000000
2083.139404 6021.000000
2084.380859 6980.000000
2085.622070 5991.000000
2086.862793 6355.000000
2088.102539 6762.000000
2089.341064 7103.000000
2090.579102 6265.000000
2091.816406 5810.000000
2093.053467 6698.000000
2094.289063 6104.000000
2095.523926 6279.000000
2096.758545 6067.000000
2097.992188 5637.000000
2099.224854 6124.000000
2100.456787 6860.000000
2101.688232 6423.000000
2102.918701 6750.000000
2104.148438 6011.000000
2105.377930 6000.000000
2106.605469 6025.000000
2107.833252 5986.000000
2109.060303 6377.000000
2110.286377 5543.000000
2111.510986 6428.000000
2112.735840 7019.000000
2113.959473 7081.000000
2115.182617 6203.000000
2116.404541 7583.000000
2117.626221 5981.000000
2118.846924 6842.000000
2120.066895 6043.000000
2121.286377 6111.000000
2122.504395 6603.000000
2123.722412 7026.000000
2124.939453 5792.000000
2126.156006 5819.000000
2127.370850 6566.000000
2128.585938 6410.000000
2129.800049 6964.000000
2131.013428 5669.000000
2132.226074 6074.000000
2133.437256 5873.000000
2134.648682 6573.000000
2135.858887 6613.000000
2137.068604 5963.000000
2138.276855 6224.000000
2139.485107 5623.000000
2140.692627 5883.000000
2141.898926 7659.000000
2143.104492 5963.000000
2144.309814 5669.000000
2145.514160 5567.000000
2146.717773 6339.000000
2147.920898 6199.000000
2149.122559 6454.000000
2150.323975 5347.000000
2151.524658 6315.000000
2152.724609 6214.000000
2153.923340 5978.000000
2155.121826 6992.000000
2156.319824 6158.000000
2157.516846 5971.000000
2158.713135 5249.000000
2159.908203 5285.000000
2161.103027 6141.000000
2162.297119 5568.000000
2163.490234 5995.000000
2164.682373 6915.000000
2165.874268 5978.000000
2167.065430 6327.000000
2168.255615 6296.000000
2169.445068 6462.000000
2170.634033 6743.000000
2171.822021 6000.000000
2173.009766 5730.000000
2174.196045 5989.000000
2175.381592 6576.000000
2176.566895 6034.000000
2177.751709 5881.000000
2178.935303 6393.000000
2180.118164 7514.000000
2181.300049 6349.000000
2182.481689 5884.000000
2183.662842 6551.000000
2184.842773 5766.000000
2186.021729 5589.000000
2187.200195 6335.000000
2188.378418 6948.000000
2189.555420 7199.000000
2190.731445 6793.000000
2191.907227 6143.000000
2193.082520 5631.000000
2194.256348 6649.000000
2195.429688 6210.000000
2196.602783 6163.000000
2197.774658 6554.000000
2198.946045 7091.000000
2200.116943 6383.000000
2201.286133 6873.000000
2202.455322 7546.000000
2203.624023 6241.000000
2204.791748 5898.000000
2205.958496 5643.000000
2207.124512 7171.000000
2208.290039 6688.000000
2209.455322 5934.000000
2210.619141 6721.000000
2211.782471 5451.000000
2212.944580 6174.000000
2214.106934 6176.000000
2215.268066 6633.000000
2216.428223 6654.000000
2217.587891 6343.000000
2218.747314 6557.000000
2219.905518 6404.000000
2221.062744 6291.000000
2222.219727 6885.000000
2223.375977 6678.000000
2224.531494 6862.000000
2225.686279 6265.000000
2226.840088 6455.000000
2227.992920 6074.000000
2229.146240 6897.000000
2230.297607 6241.000000
2231.448730 6207.000000
2232.599121 6519.000000
2233.749023 7696.000000
2234.897949 6375.000000
2236.046387 5155.000000
2237.193359 6799.000000
2238.340576 7102.000000
2239.486572 6069.000000
2240.632324 7267.000000
2241.776367 7303.000000
2242.920654 6782.000000
2244.063965 6177.000000
2245.206543 5994.000000
2246.348145 5790.000000
2247.489502 5787.000000
2248.629883 6425.000000
2249.769531 6410.000000
2250.908691 5813.000000
2252.046631 5860.000000
2253.184570 6195.000000
2254.321533 5319.000000
2255.457764 6332.000000
2256.593018 6198.000000
2257.727539 7313.000000
2258.861816 6326.000000
2259.995605 5442.000000
2261.127930 6077.000000
2262.259766 6845.000000
2263.391113 6314.000000
2264.521484 6569.000000
2265.651611 8149.000000
2266.780518 6707.000000
2267.908936 6095.000000
2269.036865 5585.000000
2270.163818 6151.000000
2271.290039 6014.000000
2272.415283 6731.000000
2273.540527 6554.000000
2274.665039 6467.000000
2275.788330 5935.000000
2276.910889 6336.000000
2278.032959 5958.000000
2279.154541 7365.000000
2280.275391 6383.000000
2281.395020 6438.000000
2282.514160 7145.000000
2283.633057 7712.000000
2284.751221 7247.000000
2285.868408 5871.000000
2286.984619 6521.000000
2288.100586 6986.000000
2289.215820 6877.000000
2290.330322 7355.000000
2291.443604 5879.000000
2292.556885 6415.000000
2293.669434 5993.000000
2294.781250 5371.000000
2295.892334 6727.000000
2297.002197 6431.000000
2298.111572 6187.000000
2299.220703 6738.000000
2300.328857 6371.000000
2301.436035 6786.000000
2302.542969 5826.000000
2303.649170 6227.000000
2304.754883 6613.000000
2305.859131 6595.000000
2306.963135 5445.000000
2308.066650 5729.000000
2309.169678 6554.000000
2310.271484 7415.000000
2311.372559 7430.000000
2312.473145 6594.000000
2313.573242 5519.000000
2314.672607 6392.000000
2315.770508 6599.000000
2316.868896 6993.000000
2317.965820 8268.000000
2319.062500 6891.000000
2320.158691 5805.000000
2321.253174 6886.000000
2322.347656 7627.000000
2323.441406 5825.000000
2324.534912 6126.000000
2325.626709 6491.000000
2326.718506 7044.000000
2327.809570 6110.000000
2328.899902 6278.000000
2329.989258 6945.000000
2331.078613 6066.000000
2332.166748 6332.000000
2333.254395 6861.000000
2334.341797 6532.000000
2335.427490 6718.000000
2336.512939 7788.000000
2337.598145 6276.000000
2338.682373 6759.000000
2339.765625 5917.000000
2340.848633 6432.000000
2341.930664 6216.500000
2343.012451 6001.000000
2344.093506 7430.000000
2345.173340 6707.000000
2346.252686 5745.000000
2347.331543 6812.000000
2348.409912 6582.000000
2349.486816 6317.000000
2350.563477 6958.000000
2351.639893 6091.000000
2352.715332 6409.000000
2353.789795 5897.000000
2354.864014 6354.000000
2355.937500 6740.000000
2357.010498 6159.000000
2358.082275 7047.000000
2359.153809 6271.000000
2360.224365 6733.000000
2361.294678 7600.000000
2362.364014 7538.000000
2363.432373 6850.000000
2364.500488 6795.000000
2365.567871 7010.000000
2366.634766 7120.000000
2367.700928 6048.000000
2368.765869 6969.000000
2369.830811 7002.000000
2370.895020 6357.000000
2371.958496 6957.000000
2373.020752 5836.000000
2374.083008 6318.000000
2375.144287 6380.000000
2376.205322 5906.000000
2377.265137 6343.000000
2378.324219 7884.000000
2379.383301 6480.000000
2380.441406 7649.000000
2381.498779 6905.000000
2382.555176 8059.000000
2383.611328 7805.000000
2384.666992 6201.000000
2385.721924 6975.000000
2386.775391 6819.000000
2387.829102 6574.000000
2388.881836 6334.000000
2389.934082 6786.000000
2390.985596 6102.000000
2392.036133 6627.000000
2393.086426 6489.000000
2394.135742 6305.000000
2395.185059 6217.000000
2396.232910 6916.000000
2397.280273 7007.000000
2398.327393 6315.000000
2399.373535 6639.000000
2400.418945 6198.000000
2401.463623 6828.000000
2402.508301 7770.000000
2403.551514 7522.000000
2404.594727 6587.000000
2405.636475 5737.000000
2406.678467 6756.000000
2407.719727 7181.000000
2408.760010 6105.000000
2409.799561 6454.000000
2410.838135 6323.000000
2411.876953 5985.000000
2412.914551 6546.000000
2413.951904 6894.000000
2414.988037 7404.000000
2416.023926 6211.000000
2417.059082 6271.000000
2418.093750 6636.000000
2419.126953 7249.000000
2420.160400 6461.000000
2421.192871 6770.000000
2422.225098 6838.000000
2423.255859 7065.000000
2424.286621 6470.000000
2425.316895 6834.000000
2426.345947 6860.000000
2427.375000 6629.000000
2428.402344 7407.000000
2429.430176 6797.000000
2430.456787 7325.000000
2431.483154 6961.000000
2432.508057 7734.000000
2433.533203 6619.000000
2434.557373 7151.000000
2435.581299 6703.000000
2436.604004 5815.000000
2437.625977 6333.000000
2438.647705 6658.000000
2439.668701 6694.000000
2440.689209 5990.000000
2441.708496 6554.000000
2442.727783 6610.000000
2443.746094 8501.000000
2444.764160 6292.000000
2445.780762 6480.000000
2446.797363 6588.000000
2447.813232 5985.000000
2448.829102 7046.000000
2449.843506 6821.000000
2450.857178 5576.000000
2451.870361 7321.000000
2452.883301 6047.000000
2453.895508 7148.000000
2454.906738 6655.000000
2455.917725 7685.000000
2456.927979 6330.000000
2457.937744 7638.000000
2458.946533 5949.000000
2459.954590 5950.000000
2460.962646 6314.000000
2461.969482 7497.000000
2462.976074 5480.000000
2463.981445 7435.000000
2464.986572 6944.000000
2465.991455 5857.000000
2466.995117 6522.000000
2467.998535 6421.000000
2469.000977 7559.000000
2470.003174 7357.000000
2471.004883 6882.000000
2472.005615 6676.000000
2473.005371 6971.000000
2474.005127 6759.000000
2475.003906 5718.000000
2476.002197 6648.000000
2476.999512 6997.000000
2477.996582 6086.000000
2478.993652 6971.000000
2479.989258 5809.000000
2480.984863 7124.000000
2481.978760 6678.000000
2482.972656 8108.000000
2483.966064 6890.000000
2484.958984 6751.000000
2485.950928 7449.000000
2486.942139 7240.000000
2487.933105 6756.000000
2488.923584 5825.000000
2489.913086 6547.000000
2490.901855 6522.000000
2491.890625 5604.000000
2492.878418 6877.000000
2493.864990 6546.000000
2494.851563 8018.000000
2495.837646 6792.000000
2496.822998 7077.000000
2497.807373 8206.000000
2498.791504 6060.000000
2499.775635 6860.000000
2500.758301 5753.000000
2501.740479 7030.000000
2502.722168 6865.000000
2503.703125 7341.000000
2504.683594 6508.000000
2505.663818 5734.000000
2506.642578 6300.000000
2507.621094 7587.000000
2508.599121 6743.000000
2509.576660 7064.000000
2510.553223 6077.000000
2511.529541 5944.000000
2512.505127 6403.000000
2513.480225 6175.000000
2514.454834 6504.000000
2515.428223 7650.000000
2516.401367 6836.000000
2517.374268 6926.000000
2518.346191 6123.000000
2519.317383 6877.000000
2520.288086 6989.000000
2521.258545 7873.000000
2522.228271 8004.000000
2523.197021 6070.000000
2524.165039 6098.000000
2525.133057 7714.000000
2526.100098 6319.000000
2527.066895 5464.000000
2528.032471 7220.000000
2528.998047 7000.000000
2529.962891 7837.000000
2530.927246 6319.000000
2531.890381 6368.000000
2532.853760 5849.000000
2533.816162 5968.000000
2534.778320 6650.000000
2535.739258 6386.000000
2536.699463 6124.000000
2537.659912 6150.000000
2538.619385 6713.000000
2539.578125 6797.000000
2540.535889 6649.000000
2541.493896 6192.000000
2542.451172 6797.000000
2543.407471 6095.000000
2544.363525 7118.000000
2545.318359 6187.000000
2546.273438 7764.000000
2547.227783 7011.000000
2548.181396 6986.000000
2549.134033 7313.000000
2550.086426 6759.000000
2551.038330 6989.000000
2551.989502 6414.000000
2552.939941 7716.000000
2553.889893 7127.000000
2554.839600 7390.000000
2555.788574 6615.000000
2556.737061 6281.000000
2557.684326 7173.000000
2558.631592 6322.000000
2559.578125 6600.000000
2560.524170 6710.000000
2561.469238 7443.000000
2562.414063 6706.000000
2563.358398 7172.000000
2564.302246 6801.000000
2565.245605 6625.000000
2566.187500 6654.000000
2567.129639 6557.000000
2568.071045 6216.000000
2569.011719 7178.000000
2569.951660 7282.000000
2570.891602 5652.000000
2571.830566 6131.000000
2572.769287 7452.000000
2573.707031 7240.000000
2574.644531 5449.000000
2575.581299 7017.000000
2576.517334 6827.000000
2577.452881 7489.000000
2578.387695 6392.000000
2579.322510 5955.000000
2580.256348 7067.000000
2581.189697 7070.000000
2582.122314 5798.000000
2583.054688 6892.000000
2583.986328 5435.000000
2584.917480 7026.000000
2585.848145 7073.000000
2586.777588 6864.000000
2587.707031 7172.000000
2588.635986 6539.000000
2589.564697 7525.000000
2590.491699 7390.000000
2591.418945 5936.000000
2592.345703 6772.000000
2593.271729 6319.000000
2594.197510 5623.000000
2595.122070 7588.000000
2596.046387 7628.000000
2596.970215 5316.000000
2597.893555 7346.000000
2598.815918 6274.000000
2599.738037 6868.000000
2600.659668 8336.000000
2601.580566 6341.000000
2602.500732 5800.000000
2603.420654 6364.000000
2604.340088 6456.000000
2605.259277 6417.000000
2606.177490 5787.000000
2607.094482 5984.000000
2608.011719 7276.000000
2608.928711 5845.000000
2609.844727 7599.000000
2610.759521 6635.000000
2611.674805 6629.000000
2612.589355 6605.000000
2613.502930 6598.000000
2614.416504 6094.000000
2615.328857 7626.000000
2616.241211 7066.000000
2617.152588 6802.000000
2618.063721 5741.000000
2618.974121 7217.000000
2619.884277 6657.000000
2620.793701 6184.000000
2621.702637 6648.000000
2622.610596 6298.000000
2623.518799 6891.000000
2624.426025 6622.000000
2625.332764 7117.000000
2626.238770 6008.000000
2627.144531 6541.000000
2628.049561 6439.000000
2628.954346 7820.000000
2629.858398 6430.000000
2630.761475 6392.000000
2631.664551 6418.000000
2632.566650 5630.000000
2633.468750 6796.000000
2634.370605 7028.000000
2635.270752 6764.000000
2636.171143 6449.000000
2637.070801 6457.000000
2637.970215 6005.000000
2638.868164 6888.000000
2639.766602 6744.000000
2640.664551 6395.000000
2641.561768 6090.000000
2642.457764 6194.000000
2643.353760 6784.000000
2644.249512 6033.000000
2645.144531 6483.000000
2646.039307 6716.000000
2646.932617 7292.000000
2647.825928 6309.000000
2648.718994 6819.000000
2649.611816 6402.000000
2650.502930 7425.000000
2651.394287 6428.000000
2652.285156 7615.000000
2653.175293 7326.000000
2654.065186 6581.000000
2654.953857 7310.000000
2655.842773 6585.000000
2656.731201 6622.000000
2657.618652 7373.000000
2658.505127 6511.000000
2659.392090 7116.000000
2660.278320 6827.000000
2661.164063 6748.000000
2662.048584 6551.000000
2662.933105 6415.000000
2663.817383 6181.000000
2664.700928 7138.000000
2665.583984 7876.000000
2666.466309 7323.000000
2667.348145 6218.000000
2668.229248 6651.000000
2669.110596 6088.000000
2669.990479 6576.000000
2670.870605 7387.000000
2671.750000 7285.000000
2672.629395 6382.000000
2673.508057 6172.000000
2674.385010 6477.000000
2675.262695 6771.000000
2676.139648 6426.000000
2677.015869 8148.000000
2677.891602 7185.000000
2678.766602 6239.000000
2679.641846 7738.000000
2680.516113 7037.000000
2681.389893 7312.000000
2682.262939 7046.000000
2683.135742 6218.000000
2684.008301 6072.000000
2684.880127 6966.000000
2685.751221 6556.000000
2686.622070 6837.000000
2687.492432 7165.000000
2688.362549 6688.000000
2689.230957 6284.000000
2690.100098 7397.000000
2690.968506 7079.000000
2691.836670 6611.000000
2692.704102 6877.000000
2693.570313 5901.000000
2694.437012 7186.000000
2695.302734 7430.000000
2696.168457 7199.000000
2697.032715 7958.000000
2697.897705 6567.000000
2698.761230 7204.000000
2699.625000 5864.000000
2700.487305 7527.000000
2701.350098 6801.000000
2702.211914 5950.000000
2703.073242 6880.000000
2703.934570 6736.000000
2704.794678 7371.000000
2705.654785 7331.000000
2706.514404 6653.000000
2707.373779 6832.000000
2708.231445 7161.000000
2709.089355 6891.000000
2709.947754 7267.000000
2710.804932 6786.000000
2711.661377 5969.000000
2712.517334 6843.000000
2713.373291 6082.000000
2714.228516 6935.000000
2715.083008 6133.000000
2715.937012 6775.000000
2716.791016 7306.000000
2717.644043 6269.000000
2718.497314 6618.000000
2719.348877 7802.000000
2720.200928 6754.000000
2721.052734 6345.000000
2721.903320 6462.000000
2722.753906 6772.000000
2723.604004 7136.000000
2724.453369 7021.000000
2725.302734 6995.000000
2726.150879 6664.000000
2726.998535 6585.000000
2727.846680 6969.000000
2728.693604 6851.000000
2729.541016 5559.000000
2730.386963 7549.000000
2731.232178 7071.000000
2732.077881 6434.000000
2732.922607 7115.000000
2733.767334 7383.000000
2734.610840 6907.000000
2735.454590 7803.000000
2736.297607 7061.000000
2737.140137 6079.000000
2737.981689 6194.000000
2738.823730 6935.000000
2739.664795 7630.000000
2740.505615 5751.000000
2741.346191 5914.000000
2742.185547 7744.000000
2743.024902 6894.000000
2743.864258 6965.000000
2744.702393 6775.000000
2745.540039 7936.000000
2746.377686 6381.000000
2747.214844 7148.000000
2748.051758 6122.000000
2748.888184 6015.000000
2749.723389 6608.000000
2750.558838 6326.000000
2751.393799 6321.000000
2752.228027 6316.000000
2753.062012 6907.000000
2753.895508 6813.000000
2754.729004 7924.000000
2755.561523 6687.000000
2756.393555 7305.000000
2757.225098 6858.000000
2758.056641 7139.000000
2758.887207 7236.000000
2759.718018 7218.000000
2760.547607 7270.000000
2761.377197 6688.000000
2762.206543 7319.000000
2763.035156 6813.000000
2763.863281 6761.000000
2764.690918 6761.000000
2765.518555 6625.000000
2766.345703 7942.000000
2767.172119 5863.000000
2767.998047 7506.000000
2768.823486 6959.000000
2769.648682 7775.000000
2770.473877 7057.000000
2771.297852 6750.000000
2772.121826 6569.000000
2772.945801 7674.000000
2773.768555 6642.000000
2774.591553 6975.000000
2775.413330 6877.000000
2776.235107 6950.000000
2777.056885 6541.000000
2777.877686 7960.000000
2778.697754 6570.000000
2779.518066 7010.000000
2780.337891 7293.000000
2781.157715 6503.000000
2781.975586 5969.000000
2782.794678 8049.000000
2783.612549 6497.000000
2784.430176 6831.000000
2785.247314 7159.000000
2786.063965 7323.000000
2786.880371 7174.000000
2787.696289 6215.000000
2788.511963 5950.000000
2789.326660 6410.000000
2790.141846 7051.000000
2790.956299 7108.000000
2791.770264 6595.000000
2792.583984 7449.000000
2793.396484 8717.000000
2794.209229 6970.000000
2795.021484 7441.000000
2795.833252 7211.000000
2796.644287 7431.000000
2797.456055 6539.000000
2798.266602 7228.000000
2799.077148 7090.000000
2799.886230 7430.000000
2800.696045 8134.000000
2801.505127 7830.000000
2802.313965 6620.000000
2803.122314 7224.000000
2803.929688 6244.000000
2804.737549 6468.000000
2805.544678 6928.000000
2806.351563 7020.000000
2807.157227 7185.000000
2807.963379 6608.000000
2808.768799 6497.000000
2809.574219 7340.000000
2810.378906 6228.000000
2811.182617 7658.000000
2811.986816 7496.000000
2812.790527 6342.000000
2813.593994 6164.000000
2814.395996 6625.000000
2815.198730 7364.000000
2816.000732 7832.000000
2816.802490 6125.000000
2817.603760 6584.000000
2818.404541 7251.000000
2819.204834 6564.000000
2820.005371 6689.000000
2820.804932 8090.000000
2821.604004 7217.000000
2822.403076 6542.000000
2823.201904 6837.000000
2824.000244 6374.000000
2824.797607 6997.000000
2825.595215 7406.000000
2826.392090 6693.000000
2827.189209 7351.000000
2827.985596 8169.000000
2828.781250 6979.000000
2829.576904 7400.000000
2830.372314 7750.000000
2831.167236 7470.000000
2831.961426 6647.000000
2832.755615 6811.000000
2833.549561 5729.000000
2834.343018 6909.000000
2835.135742 7136.000000
2835.928223 8142.000000
2836.720703 7659.000000
2837.512939 7527.000000
2838.304688 6434.000000
2839.095459 6824.000000
2839.886230 8897.000000
2840.677246 7383.000000
2841.467285 6286.000000
2842.256836 7660.000000
2843.046631 7137.000000
2843.835449 7355.000000
2844.624268 7834.000000
2845.413086 7724.000000
2846.200928 7541.000000
2846.988281 7198.000000
2847.775879 7518.000000
2848.562988 7297.000000
2849.349365 6581.000000
2850.135742 7455.000000
2850.921875 7208.000000
2851.707520 7573.000000
2852.492188 7139.000000
2853.277344 6954.000000
2854.062256 7559.000000
2854.846436 7152.000000
2855.630615 6959.000000
2856.413574 8291.000000
2857.196777 6860.000000
2857.979736 6758.000000
2858.762207 7756.000000
2859.544434 6310.000000
2860.326172 6754.000000
2861.107666 7621.000000
2861.889404 7473.000000
2862.670410 7736.000000
2863.450684 6553.000000
2864.230713 6716.000000
2865.010742 8163.000000
2865.790527 7503.000000
2866.569336 8109.000000
2867.348389 7666.000000
2868.126953 6853.000000
2868.905273 6999.000000
2869.683105 7282.000000
2870.460693 6954.000000
2871.238037 7517.000000
2872.015137 6950.000000
2872.791748 6447.000000
2873.567871 7413.000000
2874.343994 7201.000000
2875.119629 8335.000000
2875.895020 7265.000000
2876.669922 6718.000000
2877.444580 8110.000000
2878.219238 6726.000000
2878.993652 7935.000000
2879.767334 6891.000000
2880.540283 7304.000000
2881.313965 6793.000000
2882.086670 7664.000000
2882.859375 7934.000000
2883.631348 8262.000000
2884.403076 6208.000000
2885.175293 6822.000000
2885.946289 6844.000000
2886.716797 6117.000000
2887.487793 8320.000000
2888.258789 7344.000000
2889.029053 7972.000000
2889.798340 7669.000000
2890.567871 6986.000000
2891.337402 7261.000000
2892.106445 7337.000000
2892.875000 8000.000000
2893.643555 7699.000000
2894.411133 6977.000000
2895.179199 6590.000000
2895.946777 7442.000000
2896.714355 8356.000000
2897.480713 7451.000000
2898.248047 6566.000000
2899.014160 7208.000000
2899.780518 6980.000000
2900.545410 8348.000000
2901.310791 7007.000000
2902.076660 6521.000000
2902.841064 7785.000000
2903.605469 7784.000000
2904.370117 8480.000000
2905.133789 6638.000000
2905.898193 8458.000000
2906.661865 6675.000000
2907.424805 8417.000000
2908.187500 6545.000000
2908.950684 9185.000000
2909.713379 6940.000000
2910.474854 6823.000000
2911.236816 6823.000000
