scanname Analyse120
timestamp 2017-02-10 23:10:18
ccdbias 953.790039
ccdgain 3.473401
sigmaread 8.960639
laserwavenum -0.581910
wavenumcorrection -0.058946
scancount 1
totalexposurems 10000
singleexposurems 10000
measurementstate Unknown
scanmode Manual
snr 56.610107 0.450364 0.254497
replacelist 1
671 15882.000000 9724.000000
peaks 4
876.504761 0.121591 0.000000 0.113347 0.000015
1153.718018 0.106604 0.000000 0.057840 0.000024
1313.416138 0.109028 0.000000 3.621774 0.000500
1336.707764 0.109082 0.000000 2.686389 0.000288
finalresult GLS_Multiple 83
A15973	Silver azide	2.314675e-001
A6025	2-Nitrothiophene	1.914135e-001
A8797	6-Nitroindoline	1.824761e-001
A9370	1,2-(Methylenedioxy)-4-nitrobenzene	1.804188e-001
A1573	2,6-Diiodo-4-nitrophenol	1.648228e-001
A8147	6-Chloro-2,4-dinitroaniline	1.461109e-001
A9480	4-Nitro-DL-phenylalanine	1.405452e-001
A5797	5-Nitroindazole	1.378226e-001
A11658	2-(2-Nitrovinyl)furan	1.345897e-001
A4059	4-Nitrophenyl disulfide	1.328834e-001
A10185	4-Nitrophenyl phenyl ether	1.326861e-001
A6176	4-Nitrobenzyl alcohol	1.254850e-001
A5772	trans-4-Bromo-beta-nitrostyrene	1.240663e-001
A14252	2-Methyl-5-nitrophenol	1.225798e-001
A0636	2,4-Dinitroaniline	1.206966e-001
A4681	1-Acetyl-5-nitroindoline	1.185321e-001
A8690	2-Amino-5-nitrobenzophenone	1.171927e-001
A2782	Acetamide	1.160794e-001
A2943	Potassium binoxalate	1.148861e-001
A11925	Butyl (S)-(-)-2-pyrrolidone-5-carboxylate	1.142435e-001
A0969	Diethylene glycol monopropyl ether	1.137481e-001
A4408	Acetamidine hydrochloride	1.136347e-001
A3051	6-Methylmercaptopurine riboside	1.133841e-001
A14031	Methyl (S)-(+)-2-pyrrolidone-5-carboxylate	1.133379e-001
A11101	Hydrogen peroxide, 70%	1.132834e-001
A8415	2-Chloro-6-methoxy-3-nitropyridine	1.131948e-001
A0273	Denatured Solvent Alcohol	1.128220e-001
A12040	Ethanol w/ sweetener	1.124614e-001
A4972	Boric acid	1.124473e-001
A8460	Ethanol	1.121304e-001
A6023	4-(4-Nitrophenyl)butyric acid	1.118019e-001
A0113	Hydrogen peroxide	1.117135e-001
A8248	5-Hydroxy-2-nitrobenzaldehyde	1.114462e-001
A6996	4-Fluoro-4'-hydroxybenzophenone	1.112513e-001
A3074	Ethyl n-propyl ether	1.111898e-001
A3082	Methyl n-propyl ether	1.109992e-001
A11321	4-Nitro-2-picoline N-oxide	1.109214e-001
A7779	Aminopyrazine	1.107014e-001
A2453	Calcium chromate	1.106708e-001
A5739	(R)-(+)-2-Pyrrolidone-5-carboxylic acid	1.104492e-001
A11100	Hydrogen peroxide, 50%	1.103594e-001
A4937	1-Iodo-4-nitrobenzene	1.103376e-001
A12725	Cerium(III) fluoride	1.102953e-001
A1564	Cyclooctatetraene	1.102642e-001
A7078	L-Pyroglutamic acid	1.102451e-001
A6013	Glycine methyl ester hydrochloride	1.102319e-001
A2385	Amphotericin B	1.095585e-001
A8849	2-Ethoxytetrahydrofuran	1.095169e-001
A0203	Sorbic acid	1.094562e-001
A1550	Nitroethane	1.094515e-001
A7749	Ethyl ethoxyacetate	1.094139e-001
A1351	Sodium propionate	1.090609e-001
A12925	Ethyl 2-nitropropionate	1.089066e-001
A7885	beta-Carotene	1.088931e-001
A12862	Tropylium tetrafluoroborate	1.088836e-001
A0251	Ethylamine	1.088122e-001
A14612	Ammonium hydrogenoxalate hydrate	1.088074e-001
A0292	Hydrazine	1.087840e-001
A3865	5-Nitrosalicylic acid	1.086431e-001
A4505	4-Hydroxybenzophenone	1.085688e-001
A14307	2-Iodo-5-nitrotoluene	1.085688e-001
A10955	Acifluorfen	1.084256e-001
A0693	1-Nitropropane	1.083456e-001
A1920	Sodium phosphate monobasic	1.083268e-001
A9459	1-(4-Nitrophenyl)-3-pyrrolidino-2-pyrazolin-5-one	1.081988e-001
A7214	5-Nitrosalicylaldehyde	1.081628e-001
A6889	Pyrazole	1.081557e-001
A13181	Polyethersulfone	1.080983e-001
A2435	Sodium percarbonate	1.080901e-001
A3976	2-Aminopyrimidine	1.080901e-001
A3640	(+/-)-1,2,4-Butanetriol	1.080853e-001
A3244	2-Methyl-5-nitroaniline	1.080667e-001
A12691	Ethylamine hydrochloride	1.080183e-001
A13791	trans-3,4-Dichloro-beta-nitrostyrene	1.078546e-001
A2792	Potassium oxalate monohydrate	1.078485e-001
A6465	2-Amino-5-bromopyrimidine	1.078098e-001
A14124	4-Nitrophenyl alpha-D-glucopyranoside	1.078018e-001
A0965	4,4'-Dinitrodiphenyl ether	1.078018e-001
A7278	2-Bromo-4-nitrotoluene	1.075996e-001
A4380	3-Amino-1,2,4-triazine	1.073654e-001
A4354	Allantoin	1.072098e-001
A11376	2-Bromo-6-chloro-4-nitroaniline	1.070686e-001
A15808	Ethylamine (70 wt% in water)	1.070568e-001
spectrum 2048
-97.019547 44674.000000
-94.392677 44674.000000
-91.767685 45337.000000
-89.144585 45492.000000
-86.523354 46371.000000
-83.904022 46187.000000
-81.286552 46613.000000
-78.670959 46321.000000
-76.057243 46608.000000
-73.445404 47070.000000
-70.835426 46858.000000
-68.227333 47059.000000
-65.621086 47113.000000
-63.016716 47113.000000
-60.414207 46999.000000
-57.813553 47453.000000
-55.214760 46859.000000
-52.617825 46278.000000
-50.022743 46614.000000
-47.429516 46590.000000
-44.838139 46846.000000
-42.248608 46337.000000
-39.660919 47184.000000
-37.075081 46984.000000
-34.491085 46601.000000
-31.908926 47291.000000
-29.328613 46766.000000
-26.750128 47268.000000
-24.173485 46855.000000
-21.598667 46637.000000
-19.025690 46467.000000
-16.454533 46356.000000
-13.885208 46080.000000
-11.317710 45085.000000
-8.752030 46442.000000
-6.188177 46090.000000
-3.626136 46544.000000
-1.065920 46573.000000
1.492488 46177.000000
4.049075 45061.000000
6.603857 44864.000000
9.156822 44828.000000
11.707987 43203.000000
14.257339 42214.000000
16.804893 40774.000000
19.350637 40259.000000
21.894588 38941.000000
24.436735 36490.000000
26.977085 34405.000000
29.515650 31896.000000
32.052418 28917.000000
34.587383 18759.000000
37.120571 11572.000000
39.651978 7190.000000
42.181591 6420.000000
44.709408 6155.000000
47.235466 5522.000000
49.759735 4828.000000
52.282234 4140.000000
54.802937 3876.000000
57.321884 4122.000000
59.839058 4792.000000
62.354454 5549.000000
64.868073 6523.000000
67.379936 6481.000000
69.890053 5157.000000
72.398376 3465.000000
74.904945 2574.000000
77.409767 2145.000000
79.912834 1843.000000
82.414124 1637.000000
84.913673 1674.000000
87.411469 1569.000000
89.907532 1678.000000
92.401817 2010.000000
94.894363 2246.000000
97.385193 2183.000000
99.874252 2018.000000
102.361565 1476.000000
104.847153 1213.000000
107.331001 1223.000000
109.813103 1106.000000
112.293480 971.000000
114.772133 953.000000
117.249062 918.000000
119.724236 929.000000
122.197701 909.000000
124.669434 771.000000
127.139458 890.000000
129.607727 828.000000
132.074326 830.000000
134.539169 899.000000
137.002319 854.000000
139.463730 951.000000
141.923447 1100.000000
144.381439 1319.000000
146.837738 1303.000000
149.292328 1573.000000
151.745193 1727.000000
154.196381 1991.000000
156.645874 2345.000000
159.093643 2798.000000
161.539703 3099.000000
163.984085 3539.000000
166.426788 3925.000000
168.867798 4066.000000
171.307098 4397.000000
173.744690 4518.000000
176.180649 4709.000000
178.614868 4871.000000
181.047409 4699.000000
183.478302 4706.000000
185.907471 4876.000000
188.334991 4697.000000
190.760834 4834.000000
193.184998 4710.000000
195.607498 4808.000000
198.028305 5080.000000
200.447449 5049.000000
202.864929 5156.000000
205.280716 5341.000000
207.694855 5572.000000
210.107361 5891.000000
212.518188 6114.000000
214.927338 6493.000000
217.334854 6998.000000
219.740662 7288.000000
222.144882 7730.000000
224.547394 8093.000000
226.948288 8355.000000
229.347534 8636.000000
231.745117 8704.000000
234.141037 8953.000000
236.535339 8767.000000
238.927979 9083.000000
241.319000 8992.000000
243.708359 9027.000000
246.096100 9127.000000
248.482193 8803.000000
250.866653 8987.000000
253.249466 8953.000000
255.630707 8989.000000
258.010254 9025.000000
260.388214 9038.000000
262.764496 8951.000000
265.139221 9050.000000
267.512299 8902.000000
269.883728 8922.000000
272.253510 8952.000000
274.621735 8851.000000
276.988312 8952.000000
279.353302 8908.000000
281.716675 9017.000000
284.078400 8851.000000
286.438538 9011.000000
288.797058 8931.000000
291.153992 8847.000000
293.509308 8898.000000
295.863037 8878.000000
298.215118 8990.000000
300.565643 8914.000000
302.914581 8875.000000
305.261871 8867.000000
307.607635 8675.000000
309.951721 8700.000000
312.294281 8688.000000
314.635223 8802.000000
316.974548 8793.000000
319.312317 8782.000000
321.648529 8665.000000
323.983093 8705.000000
326.316101 8676.000000
328.647552 8737.000000
330.977417 8727.000000
333.305695 8567.000000
335.632355 8567.000000
337.957520 8531.000000
340.281067 8662.000000
342.603058 8654.000000
344.923492 8486.000000
347.242310 8453.000000
349.559570 8435.000000
351.875305 8484.000000
354.189453 8461.000000
356.502014 8331.000000
358.813019 8534.000000
361.122498 8342.000000
363.430450 8556.000000
365.736786 8601.000000
368.041534 8418.000000
370.344818 8532.000000
372.646484 8667.000000
374.946655 8463.000000
377.245270 8530.000000
379.542328 8516.000000
381.837830 8660.000000
384.131805 8570.000000
386.424194 8667.000000
388.715088 8617.000000
391.004456 8663.000000
393.292236 8756.000000
395.578491 8852.000000
397.863251 8785.000000
400.146393 8830.000000
402.428101 8830.000000
404.708282 8720.000000
406.986877 8727.000000
409.263947 8666.000000
411.539490 8809.000000
413.813507 8552.000000
416.086090 8724.000000
418.357056 8739.000000
420.626526 8660.000000
422.894501 8623.000000
425.160919 8385.000000
427.425842 8528.000000
429.689301 8546.000000
431.951172 8504.000000
434.211578 8458.000000
436.470428 8514.000000
438.727814 8448.000000
440.983704 8448.000000
443.238098 8449.000000
445.490967 8369.000000
447.742279 8329.000000
449.992188 8277.000000
452.240509 8291.000000
454.487396 8302.000000
456.732819 8245.000000
458.976685 8225.000000
461.219055 8238.000000
463.459930 8218.000000
465.699402 8217.000000
467.937286 8209.000000
470.173737 8230.000000
472.408661 8147.000000
474.642120 8044.000000
476.874146 7934.000000
479.104645 8058.000000
481.333649 8063.000000
483.561188 8090.000000
485.787231 8112.000000
488.011841 8017.000000
490.234985 8196.000000
492.456665 8158.000000
494.676788 8109.000000
496.895508 8212.000000
499.112732 8115.000000
501.328583 8120.000000
503.542816 8125.000000
505.755737 8234.000000
507.967072 8187.000000
510.176971 8045.000000
512.385437 8191.000000
514.592529 8002.000000
516.798035 8169.000000
519.002136 8085.000000
521.204712 8091.000000
523.405884 8210.000000
525.605713 8103.000000
527.804016 8002.000000
530.000793 8110.000000
532.196228 8145.000000
534.390137 8016.000000
536.582703 8017.000000
538.773743 8001.000000
540.963379 7992.000000
543.151611 8030.000000
545.338318 8011.000000
547.523560 7950.000000
549.707520 7861.000000
551.889893 7723.000000
554.070923 7673.000000
556.250427 7601.000000
558.428650 7684.000000
560.605347 7691.000000
562.780640 7590.000000
564.954529 7483.000000
567.126953 7466.000000
569.297974 7572.000000
571.467529 7582.000000
573.635803 7521.000000
575.802551 7659.000000
577.967834 7512.000000
580.131714 7532.000000
582.294312 7635.000000
584.455383 7602.000000
586.615051 7663.000000
588.773376 7743.000000
590.930176 7677.000000
593.085632 7658.000000
595.239685 7611.000000
597.392395 7717.000000
599.543579 7577.000000
601.693420 7749.000000
603.841919 7672.000000
605.988831 7686.000000
608.134521 7662.000000
610.278809 7685.000000
612.421631 7654.000000
614.562988 7783.000000
616.703125 7659.000000
618.841736 7675.000000
620.979065 7799.000000
623.114929 7651.000000
625.249390 7549.000000
627.382385 7662.000000
629.514221 7550.000000
631.644592 7471.000000
633.773560 7478.000000
635.901062 7463.000000
638.027283 7331.000000
640.151978 7443.000000
642.275452 7222.000000
644.397583 7232.000000
646.518250 7125.000000
648.637573 7263.000000
650.755493 7199.000000
652.872070 7244.000000
654.987244 7288.000000
657.101074 7115.000000
659.213440 7154.000000
661.324585 7118.000000
663.434326 7216.000000
665.542603 7176.000000
667.649719 7121.000000
669.755371 7117.000000
671.859558 7049.000000
673.962524 7168.000000
676.064087 7124.000000
678.164307 7198.000000
680.263123 7310.000000
682.360596 7270.000000
684.456787 7243.000000
686.551514 7260.000000
688.645020 7245.000000
690.737183 7132.000000
692.827820 7267.000000
694.917236 7317.000000
697.005371 7384.000000
699.092041 7390.000000
701.177490 7332.000000
703.261414 7409.000000
705.344116 7242.000000
707.425537 7104.000000
709.505493 7148.000000
711.584229 6740.000000
713.661499 6782.000000
715.737488 6880.000000
717.812195 6956.000000
719.885620 6787.000000
721.957520 7057.000000
724.028259 7027.000000
726.097656 6973.000000
728.165649 6871.000000
730.232300 6783.000000
732.297729 6669.000000
734.361816 6729.000000
736.424561 6698.000000
738.485962 6841.000000
740.546082 6690.000000
742.604797 6598.000000
744.662292 6702.000000
746.718506 6773.000000
748.773315 6634.000000
750.826843 6740.000000
752.878967 6627.000000
754.929871 6551.000000
756.979553 6650.000000
759.027771 6623.000000
761.074768 6589.000000
763.120483 6510.000000
765.164795 6545.000000
767.207825 6513.000000
769.249634 6434.000000
771.290100 6526.000000
773.329163 6484.000000
775.367065 6543.000000
777.403625 6591.000000
779.438965 6575.000000
781.472961 6608.000000
783.505554 6656.000000
785.536987 6702.000000
787.567017 6466.000000
789.595764 6751.000000
791.623352 6820.000000
793.649597 6808.000000
795.674438 6637.000000
797.698181 6903.000000
799.720520 6814.000000
801.741638 6909.000000
803.761414 6936.000000
805.779907 6949.000000
807.797180 6951.000000
809.813049 6979.000000
811.827759 6974.000000
813.841125 6881.000000
815.853271 6734.000000
817.864197 6705.000000
819.873779 6577.000000
821.882141 6592.000000
823.889099 6565.000000
825.894836 6504.000000
827.899353 6555.000000
829.902588 6506.000000
831.904541 6480.000000
833.905212 6461.000000
835.904663 6284.000000
837.902771 6406.000000
839.899780 6412.000000
841.895386 6436.000000
843.889832 6338.000000
845.882935 6243.000000
847.874817 6153.000000
849.865356 6100.000000
851.854614 6120.000000
853.842834 6077.000000
855.829651 6033.000000
857.815247 6133.000000
859.799561 6012.000000
861.782776 6029.000000
863.764587 5982.000000
865.745178 5990.000000
867.724487 6006.000000
869.702637 5985.000000
871.679443 6074.000000
873.654968 6145.000000
875.629456 6115.000000
877.602478 6351.000000
879.574463 6299.000000
881.545105 6409.000000
883.514587 6322.000000
885.482727 6343.000000
887.449707 6279.000000
889.415344 6194.000000
891.379822 6229.000000
893.343079 6157.000000
895.305115 6195.000000
897.265869 6106.000000
899.225403 6185.000000
901.183655 6081.000000
903.140808 6077.000000
905.096802 6138.000000
907.051392 6080.000000
909.004761 6131.000000
910.956970 5917.000000
912.907959 5962.000000
914.857666 5927.000000
916.806213 5977.000000
918.753540 5889.000000
920.699585 5735.000000
922.644348 5624.000000
924.588074 5510.000000
926.530640 5690.000000
928.471924 5567.000000
930.411865 5451.000000
932.350708 5412.000000
934.288269 5484.000000
936.224609 5388.000000
938.159790 5478.000000
940.093689 5529.000000
942.026489 5389.000000
943.958069 5485.000000
945.888489 5449.000000
947.817688 5364.000000
949.745544 5370.000000
951.672363 5530.000000
953.597900 5626.000000
955.522156 5542.000000
957.445313 5483.000000
959.367310 5433.000000
961.288025 5460.000000
963.207581 5532.000000
965.125977 5572.000000
967.043335 5505.000000
968.959229 5527.000000
970.874023 5672.000000
972.787598 5587.000000
974.700012 5731.000000
976.611206 5731.000000
978.521240 5582.000000
980.429993 5541.000000
982.337708 5571.000000
984.244202 5582.000000
986.149475 5559.000000
988.053650 5428.000000
989.956604 5521.000000
991.858337 5562.000000
993.758911 5339.000000
995.658325 5525.000000
997.556519 5416.000000
999.453552 5355.000000
1001.349365 5373.000000
1003.244019 5270.000000
1005.137573 5222.000000
1007.029846 5184.000000
1008.921204 5038.000000
1010.811218 5062.000000
1012.700012 5112.000000
1014.587646 4975.000000
1016.474121 4987.000000
1018.359436 4940.000000
1020.243591 5012.000000
1022.126526 4972.000000
1024.008423 5063.000000
1025.889038 5014.000000
1027.768555 4989.000000
1029.647095 4972.000000
1031.524292 4968.000000
1033.400146 5026.000000
1035.275024 4896.000000
1037.148926 4949.000000
1039.021362 5084.000000
1040.892822 5049.000000
1042.762939 5036.000000
1044.632080 4948.000000
1046.500000 4874.000000
1048.366821 4913.000000
1050.232544 5042.000000
1052.097046 5084.000000
1053.960449 5029.000000
1055.822510 5220.000000
1057.683594 5130.000000
1059.543579 5089.000000
1061.402222 5009.000000
1063.259766 5089.000000
1065.116211 5041.000000
1066.971558 5285.000000
1068.825684 5197.000000
1070.678955 5162.000000
1072.530762 5117.000000
1074.381592 5134.000000
1076.231201 5046.000000
1078.079590 5089.000000
1079.927124 5056.000000
1081.773315 4958.000000
1083.618286 5064.000000
1085.462402 5068.000000
1087.305176 4905.000000
1089.146729 5140.000000
1090.987549 4960.000000
1092.826782 4883.000000
1094.665283 4925.000000
1096.502441 4910.000000
1098.338379 4857.000000
1100.173340 4800.000000
1102.007080 4642.000000
1103.839844 4639.000000
1105.671265 4665.000000
1107.501831 4731.000000
1109.331055 4644.000000
1111.159302 4528.000000
1112.986328 4466.000000
1114.812378 4507.000000
1116.637207 4486.000000
1118.460938 4463.000000
1120.283447 4451.000000
1122.104858 4432.000000
1123.925415 4550.000000
1125.744507 4441.000000
1127.562744 4586.000000
1129.379639 4422.000000
1131.195679 4527.000000
1133.010498 4465.000000
1134.824219 4538.000000
1136.636841 4587.000000
1138.448242 4556.000000
1140.258667 4647.000000
1142.067993 4591.000000
1143.875977 4679.000000
1145.683228 4639.000000
1147.489014 4877.000000
1149.293945 4718.000000
1151.097778 4834.000000
1152.900391 4866.000000
1154.702148 4738.000000
1156.502441 4718.000000
1158.301758 4764.000000
1160.100098 4697.000000
1161.897095 4704.000000
1163.693359 4611.000000
1165.488281 4584.000000
1167.282104 4576.000000
1169.075073 4573.000000
1170.866699 4627.000000
1172.657349 4330.000000
1174.447021 4411.000000
1176.235229 4320.000000
1178.022583 4377.000000
1179.808838 4529.000000
1181.593994 4355.000000
1183.378052 4263.000000
1185.161011 4304.000000
1186.942993 4266.000000
1188.723755 4322.000000
1190.503540 4397.000000
1192.282227 4285.000000
1194.059937 4320.000000
1195.836426 4255.000000
1197.611816 4099.000000
1199.386108 4282.000000
1201.159302 4165.000000
1202.931641 4123.000000
1204.702637 3987.000000
1206.472778 4113.000000
1208.241699 4056.000000
1210.009521 4033.000000
1211.776489 4117.000000
1213.542114 4049.000000
1215.306763 4054.000000
1217.070313 4085.000000
1218.832764 4046.000000
1220.594360 4070.000000
1222.354736 4022.000000
1224.114014 3895.000000
1225.872437 3917.000000
1227.629639 3967.000000
1229.385742 4065.000000
1231.140747 4045.000000
1232.894897 4051.000000
1234.647705 4082.000000
1236.399536 4062.000000
1238.150513 4067.000000
1239.900146 4171.000000
1241.648926 4099.000000
1243.396362 4185.000000
1245.143066 4188.000000
1246.888550 4206.000000
1248.633179 4198.000000
1250.376465 4195.000000
1252.118774 4082.000000
1253.859985 4219.000000
1255.600342 3976.000000
1257.339600 3997.000000
1259.077637 3841.000000
1260.814819 3831.000000
1262.550781 3915.000000
1264.285767 3799.000000
1266.019775 3907.000000
1267.752808 4110.000000
1269.484619 4170.000000
1271.215454 4178.000000
1272.945068 4113.000000
1274.673828 4179.000000
1276.401489 4031.000000
1278.128052 4141.000000
1279.853760 4171.000000
1281.578125 4174.000000
1283.301636 4050.000000
1285.024170 4054.000000
1286.745728 4213.000000
1288.466064 4250.000000
1290.185425 3952.000000
1291.903687 4011.000000
1293.620972 4079.000000
1295.337280 4038.000000
1297.052368 3988.000000
1298.766479 4053.000000
1300.479614 4005.000000
1302.191895 3929.000000
1303.902954 4012.000000
1305.613037 3920.000000
1307.322021 3918.000000
1309.029785 3873.000000
1310.736938 3806.000000
1312.442627 3856.000000
1314.147583 3881.000000
1315.851563 3963.000000
1317.554321 3859.000000
1319.256104 3992.000000
1320.957031 4072.000000
1322.656616 2611.000000
1324.355347 1150.000000
1326.053345 3718.000000
1327.750000 3820.000000
1329.445557 3787.000000
1331.140259 3728.000000
1332.833740 3772.000000
1334.526367 3776.000000
1336.218140 3659.000000
1337.908569 3694.000000
1339.598267 3740.000000
1341.286865 3576.000000
1342.974365 3661.000000
1344.660889 3617.000000
1346.346313 3660.000000
1348.030762 3675.000000
1349.714355 3547.000000
1351.396729 3697.000000
1353.078125 3757.000000
1354.758667 3767.000000
1356.437988 3810.000000
1358.116699 3766.000000
1359.794067 3902.000000
1361.470337 3842.000000
1363.145630 3774.000000
1364.820190 3812.000000
1366.493530 3928.000000
1368.165894 3852.000000
1369.837280 3792.000000
1371.507690 3767.000000
1373.177002 3808.000000
1374.845337 3740.000000
1376.512817 3799.000000
1378.179199 3755.000000
1379.844604 3762.000000
1381.509033 3879.000000
1383.172241 3649.000000
1384.834839 3693.000000
1386.496094 3650.000000
1388.156494 3557.000000
1389.815796 3542.000000
1391.474121 3573.000000
1393.131714 3646.000000
1394.788086 3603.000000
1396.443604 3650.000000
1398.097900 3484.000000
1399.751343 3557.000000
1401.403687 3560.000000
1403.055298 3634.000000
1404.705688 3517.000000
1406.354980 3492.000000
1408.003540 3358.000000
1409.651001 3381.000000
1411.297485 3308.000000
1412.943115 3321.000000
1414.587769 3289.000000
1416.231201 3312.000000
1417.873779 3386.000000
1419.515259 3268.000000
1421.155884 3246.000000
1422.795532 3305.000000
1424.434082 3231.000000
1426.071777 3275.000000
1427.708374 3119.000000
1429.343994 3360.000000
1430.978882 3153.000000
1432.612671 3214.000000
1434.245361 3186.000000
1435.877075 3194.000000
1437.507935 3248.000000
1439.137695 3234.000000
1440.766357 3191.000000
1442.394409 3168.000000
1444.021362 3224.000000
1445.647095 3112.000000
1447.272217 3312.000000
1448.896240 3170.000000
1450.519287 3335.000000
1452.141357 3304.000000
1453.762329 3403.000000
1455.382324 3404.000000
1457.001587 3456.000000
1458.619507 3377.000000
1460.236816 3180.000000
1461.853149 3290.000000
1463.468262 3216.000000
1465.082520 3195.000000
1466.695923 3297.000000
1468.308228 3363.000000
1469.919678 3305.000000
1471.530273 3280.000000
1473.139648 3317.000000
1474.748047 3223.000000
1476.355591 3154.000000
1477.962158 3309.000000
1479.567993 3237.000000
1481.172607 3201.000000
1482.776367 3119.000000
1484.378906 3105.000000
1485.980835 2999.000000
1487.581543 2987.000000
1489.181519 2895.000000
1490.780396 2850.000000
1492.378418 2953.000000
1493.975342 2794.000000
1495.571411 3026.000000
1497.166504 3177.000000
1498.760620 3141.000000
1500.354004 3102.000000
1501.946289 3063.000000
1503.537354 3017.000000
1505.127930 3053.000000
1506.717163 3106.000000
1508.305786 3020.000000
1509.893311 2870.000000
1511.479736 3018.000000
1513.065430 2939.000000
1514.650024 2963.000000
1516.233765 2924.000000
1517.816406 2840.000000
1519.398315 2972.000000
1520.979126 2993.000000
1522.559204 2797.000000
1524.138062 2943.000000
1525.716064 2804.000000
1527.293335 2776.000000
1528.869385 2854.000000
1530.444702 2794.000000
1532.018921 2787.000000
1533.592407 2840.000000
1535.164673 2744.000000
1536.736206 2728.000000
1538.306763 2801.000000
1539.876465 2722.000000
1541.444946 2701.000000
1543.012695 2700.000000
1544.579590 2779.000000
1546.145264 2735.000000
1547.710205 2632.000000
1549.274048 2631.000000
1550.837280 2729.000000
1552.399170 2749.000000
1553.960449 2762.000000
1555.520630 2825.000000
1557.080078 2815.000000
1558.638428 2542.000000
1560.196045 2658.000000
1561.752563 2688.000000
1563.307861 2717.000000
1564.862549 2634.000000
1566.416504 2652.000000
1567.969482 2573.000000
1569.521118 2640.000000
1571.072021 2711.000000
1572.622192 2605.000000
1574.171387 2616.000000
1575.719238 2625.000000
1577.266602 2588.000000
1578.812988 2618.000000
1580.358521 2642.000000
1581.903076 2740.000000
1583.446411 2701.000000
1584.989136 2643.000000
1586.531006 2700.000000
1588.071777 2504.000000
1589.611572 2668.000000
1591.150635 2555.000000
1592.688599 2630.000000
1594.226074 2635.000000
1595.762207 2656.000000
1597.297241 2612.000000
1598.831787 2523.000000
1600.365356 2644.000000
1601.898071 2629.000000
1603.429199 2561.000000
1604.960083 2688.000000
1606.490112 2610.000000
1608.018921 2565.000000
1609.546631 2541.000000
1611.073730 2541.000000
1612.600098 2569.000000
1614.125488 2616.000000
1615.650024 2573.000000
1617.173218 2607.000000
1618.695679 2606.000000
1620.217407 2577.000000
1621.738281 2520.000000
1623.257690 2611.000000
1624.776611 2555.000000
1626.294800 2488.000000
1627.812134 2473.000000
1629.328369 2500.000000
1630.843262 2418.000000
1632.357666 2430.000000
1633.871338 2544.000000
1635.383911 2362.000000
1636.895264 2381.000000
1638.406250 2376.000000
1639.916138 2407.000000
1641.425171 2488.000000
1642.932861 2412.000000
1644.440186 2335.000000
1645.946655 2349.000000
1647.452148 2297.000000
1648.956787 2324.000000
1650.459961 2404.000000
1651.962524 2401.000000
1653.464722 2287.000000
1654.965576 2307.000000
1656.465332 2393.000000
1657.964233 2216.000000
1659.462769 2257.000000
1660.960083 2250.000000
1662.456665 2337.000000
1663.951660 2229.000000
1665.446411 2183.000000
1666.940308 2137.000000
1668.433228 2047.000000
1669.924805 2105.000000
1671.415894 2213.000000
1672.906372 2205.000000
1674.395752 2226.000000
1675.883667 2183.000000
1677.371338 2170.000000
1678.858032 2178.000000
1680.343872 2187.000000
1681.828857 2101.000000
1683.312378 2069.000000
1684.795654 2144.000000
1686.278076 2071.000000
1687.759399 2097.000000
1689.239258 2115.000000
1690.718872 2066.000000
1692.197754 2064.000000
1693.675659 2142.000000
1695.152588 1978.000000
1696.628296 2107.000000
1698.103638 2116.000000
1699.577759 2099.000000
1701.051270 2112.000000
1702.523315 2095.000000
1703.995117 2062.000000
1705.465942 2077.000000
1706.935913 1974.000000
1708.404541 2023.000000
1709.872681 2154.000000
1711.340088 2068.000000
1712.806396 2042.000000
1714.272095 2084.000000
1715.736084 2042.000000
1717.199951 2035.000000
1718.662964 2059.000000
1720.125000 2071.000000
1721.585815 2157.000000
1723.046021 2024.000000
1724.505493 2010.000000
1725.964111 2158.000000
1727.421753 2034.000000
1728.878052 1950.000000
1730.334106 2064.000000
1731.789185 2124.000000
1733.243286 2043.000000
1734.696167 2080.000000
1736.148804 1981.000000
1737.600342 1957.000000
1739.051147 2059.000000
1740.500977 2119.000000
1741.949463 1988.000000
1743.397583 2029.000000
1744.844849 2062.000000
1746.291382 1954.000000
1747.736328 1875.000000
1749.181030 2064.000000
1750.624878 1938.000000
1752.067871 1925.000000
1753.509399 1911.000000
1754.950684 1921.000000
1756.391113 1820.000000
1757.830566 1944.000000
1759.269043 1893.000000
1760.706543 1990.000000
1762.143555 1902.000000
1763.579590 1817.000000
1765.014771 1856.000000
1766.448486 1954.000000
1767.882080 1903.000000
1769.314697 1867.000000
1770.746460 1898.000000
1772.177368 1996.000000
1773.607056 1888.000000
1775.036011 1847.000000
1776.464478 1789.000000
1777.891968 1728.000000
1779.318115 1672.000000
1780.744019 1841.000000
1782.168823 1770.000000
1783.593018 1701.000000
1785.015747 1749.000000
1786.437988 1852.000000
1787.859497 1834.000000
1789.280273 1728.000000
1790.700073 1749.000000
1792.118530 1754.000000
1793.536499 1740.000000
1794.953857 1756.000000
1796.370361 1652.000000
1797.785400 1798.000000
1799.200073 1681.000000
1800.614136 1688.000000
1802.026978 1632.000000
1803.439209 1640.000000
1804.850098 1733.000000
1806.260498 1674.000000
1807.670166 1640.000000
1809.078857 1751.000000
1810.486450 1663.000000
1811.893555 1641.000000
1813.299805 1681.000000
1814.705078 1677.000000
1816.109253 1694.000000
1817.513062 1599.000000
1818.915894 1642.000000
1820.317871 1745.000000
1821.719238 1603.000000
1823.119141 1708.000000
1824.518433 1759.000000
1825.917236 1744.000000
1827.315186 1662.000000
1828.711792 1691.000000
1830.107788 1760.000000
1831.503052 1686.000000
1832.897705 1651.000000
1834.291382 1675.000000
1835.683716 1618.000000
1837.075562 1651.000000
1838.466797 1617.000000
1839.857056 1667.000000
1841.246094 1631.000000
1842.634766 1697.000000
1844.022461 1618.000000
1845.409424 1594.000000
1846.795044 1706.000000
1848.180420 1541.000000
1849.564941 1585.000000
1850.948730 1624.000000
1852.331421 1540.000000
1853.712891 1517.000000
1855.093872 1549.000000
1856.474365 1521.000000
1857.853882 1505.000000
1859.231934 1532.000000
1860.609863 1503.000000
1861.986816 1523.000000
1863.363037 1473.000000
1864.738403 1537.000000
1866.112305 1483.000000
1867.486084 1482.000000
1868.859009 1490.000000
1870.230835 1465.000000
1871.601685 1449.000000
1872.972168 1467.000000
1874.341553 1400.000000
1875.710449 1472.000000
1877.077759 1462.000000
1878.444946 1378.000000
1879.811157 1418.000000
1881.176636 1464.000000
1882.541382 1423.000000
1883.904541 1415.000000
1885.267578 1524.000000
1886.629761 1409.000000
1887.991089 1388.000000
1889.351074 1379.000000
1890.710693 1478.000000
1892.069702 1407.000000
1893.427734 1425.000000
1894.784912 1467.000000
1896.140869 1306.000000
1897.496582 1328.000000
1898.851318 1378.000000
1900.205200 1263.000000
1901.557983 1378.000000
1902.910278 1372.000000
1904.261841 1392.000000
1905.612549 1351.000000
1906.962036 1427.000000
1908.311035 1380.000000
1909.659180 1401.000000
1911.006714 1329.000000
1912.353516 1358.000000
1913.698730 1387.000000
1915.043701 1299.000000
1916.387939 1397.000000
1917.731323 1362.000000
1919.073364 1433.000000
1920.415161 1334.000000
1921.756104 1334.000000
1923.096313 1450.000000
1924.435547 1372.000000
1925.773804 1381.000000
1927.111450 1371.000000
1928.448364 1455.000000
1929.784424 1381.000000
1931.119263 1319.000000
1932.453735 1349.000000
1933.787476 1434.000000
1935.120361 1325.000000
1936.451782 1241.000000
1937.783325 1318.000000
1939.113525 1318.000000
1940.443237 1376.000000
1941.772095 1298.000000
1943.099731 1387.000000
1944.426880 1331.000000
1945.753296 1388.000000
1947.078979 1304.000000
1948.403320 1240.000000
1949.727417 1335.000000
1951.050659 1282.000000
1952.373169 1333.000000
1953.694580 1307.000000
1955.015015 1304.000000
1956.334839 1227.000000
1957.654297 1267.000000
1958.972778 1375.000000
1960.289917 1210.000000
1961.606689 1220.000000
1962.922729 1378.000000
1964.238037 1239.000000
1965.551880 1157.000000
1966.865479 1276.000000
1968.178345 1152.000000
1969.490356 1224.000000
1970.801758 1178.000000
1972.111816 1194.000000
1973.421387 1224.000000
1974.730225 1240.000000
1976.038452 1159.000000
1977.345337 1105.000000
1978.651611 1204.000000
1979.957520 1283.000000
1981.262207 1193.000000
1982.566406 1161.000000
1983.869385 1287.000000
1985.171997 1228.000000
1986.473633 1186.000000
1987.774658 1137.000000
1989.074097 1179.000000
1990.373657 1193.000000
1991.672119 1112.000000
1992.970093 1051.000000
1994.266479 1145.000000
1995.562866 1082.000000
1996.858276 1042.000000
1998.152954 1172.000000
1999.446777 1114.000000
2000.739380 1010.000000
2002.031494 1016.000000
2003.323120 1084.000000
2004.614014 1064.000000
2005.903320 1108.000000
2007.192383 1088.000000
2008.480713 1113.000000
2009.768311 987.000000
2011.055054 1028.000000
2012.340698 1020.000000
2013.625977 940.000000
2014.910278 895.000000
2016.193970 997.000000
2017.476318 1052.000000
2018.758301 1033.000000
2020.039795 1052.000000
2021.320313 1121.000000
2022.600098 1006.000000
2023.878784 1108.000000
2025.156738 1026.000000
2026.434204 1117.000000
2027.711060 1046.000000
2028.986206 1052.000000
2030.261475 1057.000000
2031.535767 940.000000
2032.809082 1014.000000
2034.081543 1033.000000
2035.353638 1052.000000
2036.624634 1114.000000
2037.895386 1047.000000
2039.164795 1040.000000
2040.433105 1043.000000
2041.701416 984.000000
2042.968750 1084.000000
2044.235352 1013.000000
2045.500732 1044.000000
2046.765503 1375.000000
2048.030029 1028.000000
2049.293213 936.000000
2050.556152 1046.000000
2051.817139 984.000000
2053.078613 1093.000000
2054.338867 980.000000
2055.598389 904.000000
2056.857178 1043.000000
2058.114990 919.000000
2059.372314 910.000000
2060.628906 1029.000000
2061.884033 972.000000
2063.139160 1038.000000
2064.393311 929.000000
2065.646729 943.000000
2066.899414 974.000000
2068.150879 1007.000000
2069.402100 912.000000
2070.652588 1030.000000
2071.902344 970.000000
2073.150635 916.000000
2074.398926 938.000000
2075.646240 1033.000000
2076.892822 996.000000
2078.138672 965.000000
2079.383301 901.000000
2080.627441 972.000000
2081.871094 979.000000
2083.113770 1045.000000
2084.355225 887.000000
2085.596436 917.000000
2086.837158 823.000000
2088.076904 778.000000
2089.315430 922.000000
2090.553467 1019.000000
2091.790771 917.000000
2093.027832 922.000000
2094.263428 837.000000
2095.498291 836.000000
2096.732910 867.000000
2097.966553 833.000000
2099.199219 919.000000
2100.431152 791.000000
2101.662598 879.000000
2102.893066 807.000000
2104.122803 819.000000
2105.352295 841.000000
2106.579834 914.000000
2107.807617 861.000000
2109.034668 806.000000
2110.260742 807.000000
2111.485352 847.000000
2112.710205 799.000000
2113.933838 866.000000
2115.156982 844.000000
2116.378906 850.000000
2117.600586 837.000000
2118.821289 754.000000
2120.041260 796.000000
2121.260742 820.000000
2122.478760 881.000000
2123.696777 766.000000
2124.913818 839.000000
2126.130371 901.000000
2127.345215 811.000000
2128.560303 814.000000
2129.774414 792.000000
2130.987793 842.000000
2132.200439 841.000000
2133.411621 737.000000
2134.623047 899.000000
2135.833252 624.000000
2137.042969 831.000000
2138.251221 806.000000
2139.459473 858.000000
2140.666992 802.000000
2141.873291 697.000000
2143.078857 811.000000
2144.284180 808.000000
2145.488525 765.000000
2146.692139 773.000000
2147.895264 799.000000
2149.096924 893.000000
2150.298340 793.000000
2151.499023 705.000000
2152.698975 874.000000
2153.897705 781.000000
2155.096191 802.000000
2156.294189 877.000000
2157.491211 818.000000
2158.687500 808.000000
2159.882568 787.000000
2161.077393 704.000000
2162.271484 729.000000
2163.464600 716.000000
2164.656738 837.000000
2165.848633 773.000000
2167.039795 713.000000
2168.229980 735.000000
2169.419434 669.000000
2170.608398 781.000000
2171.796387 690.000000
2172.984131 698.000000
2174.170410 691.000000
2175.355957 671.000000
2176.541260 643.000000
2177.726074 772.000000
2178.909668 712.000000
2180.092529 746.000000
2181.274414 625.000000
2182.456055 594.000000
2183.637207 659.000000
2184.817139 583.000000
2185.996094 719.000000
2187.174561 689.000000
2188.352783 603.000000
2189.529785 610.000000
2190.705811 655.000000
2191.881592 678.000000
2193.056885 658.000000
2194.230713 602.000000
2195.404053 731.000000
2196.577148 651.000000
2197.749023 661.000000
2198.920410 628.000000
2200.091309 684.000000
2201.260498 747.000000
2202.429688 578.000000
2203.598389 749.000000
2204.766113 668.000000
2205.932861 639.000000
2207.098877 737.000000
2208.264404 580.000000
2209.429688 665.000000
2210.593506 684.000000
2211.756836 594.000000
2212.918945 598.000000
2214.081299 607.000000
2215.242432 583.000000
2216.402588 611.000000
2217.562256 656.000000
2218.721680 647.000000
2219.879883 682.000000
2221.037109 602.000000
2222.194092 645.000000
2223.350342 648.000000
2224.505859 685.000000
2225.660645 712.000000
2226.814453 587.000000
2227.967285 583.000000
2229.120605 584.000000
2230.271973 578.000000
2231.423096 615.000000
2232.573486 621.000000
2233.723389 494.000000
2234.872314 624.000000
2236.020752 592.000000
2237.167725 790.000000
2238.314941 593.000000
2239.460938 592.000000
2240.606689 544.000000
2241.750732 627.000000
2242.895020 527.000000
2244.038330 597.000000
2245.180908 516.000000
2246.322510 583.000000
2247.463867 518.000000
2248.604248 618.000000
2249.743896 501.000000
2250.883057 595.000000
2252.020996 530.000000
2253.158936 584.000000
2254.295898 493.000000
2255.432129 549.000000
2256.567383 563.000000
2257.701904 613.000000
2258.836182 497.000000
2259.969971 502.000000
2261.102295 590.000000
2262.234131 573.000000
2263.365479 542.000000
2264.495850 502.000000
2265.625977 455.000000
2266.754883 553.000000
2267.883301 586.000000
2269.011230 565.000000
2270.138184 436.000000
2271.264404 519.000000
2272.389648 506.000000
2273.514893 572.000000
2274.639404 530.000000
2275.762695 608.000000
2276.885254 482.000000
2278.007324 473.000000
2279.128906 509.000000
2280.249756 492.000000
2281.369385 541.000000
2282.488525 452.000000
2283.607422 433.000000
2284.725586 490.000000
2285.842773 469.000000
2286.958984 486.000000
2288.074951 468.000000
2289.190186 457.000000
2290.304688 457.000000
2291.417969 526.000000
2292.531250 489.000000
2293.643799 452.000000
2294.755615 459.000000
2295.866699 469.000000
2296.976563 555.000000
2298.085938 449.000000
2299.195068 536.000000
2300.303223 535.000000
2301.410400 483.000000
2302.517334 514.000000
2303.623535 477.000000
2304.729248 485.000000
2305.833496 563.000000
2306.937500 474.000000
2308.041016 469.000000
2309.144043 518.000000
2310.245850 502.000000
2311.346924 602.000000
2312.447510 452.000000
2313.547607 501.000000
2314.646973 476.000000
2315.744873 500.000000
2316.843262 500.000000
2317.940186 489.000000
2319.036865 502.000000
2320.133057 397.000000
2321.227539 479.000000
2322.322021 447.000000
2323.415771 358.000000
2324.509277 484.000000
2325.601074 490.000000
2326.692871 326.000000
2327.783936 531.000000
2328.874268 513.000000
2329.963623 576.000000
2331.052979 584.000000
2332.141113 576.000000
2333.228760 467.000000
2334.316162 546.000000
2335.401855 413.000000
2336.487305 537.000000
2337.572510 444.000000
2338.656738 409.000000
2339.739990 381.000000
2340.822998 439.000000
2341.905029 425.000000
2342.986816 459.000000
2344.067871 303.000000
2345.147705 442.000000
2346.227051 415.000000
2347.305908 354.000000
2348.384277 355.000000
2349.461182 382.000000
2350.537842 376.000000
2351.614258 451.000000
2352.689697 396.000000
2353.764160 466.000000
2354.838379 404.000000
2355.911865 479.000000
2356.984863 410.000000
2358.056641 360.000000
2359.128174 379.000000
2360.198730 435.000000
2361.269043 382.000000
2362.338379 364.000000
2363.406738 372.000000
2364.474854 398.000000
2365.542236 359.000000
2366.609131 319.000000
2367.675293 373.000000
2368.740234 420.000000
2369.805176 376.000000
2370.869385 374.000000
2371.932861 354.000000
2372.995117 423.000000
2374.057373 364.000000
2375.118652 445.000000
2376.179688 367.000000
2377.239502 352.000000
2378.298584 350.000000
2379.357666 393.000000
2380.415771 342.000000
2381.473145 242.000000
2382.529541 308.000000
2383.585693 372.000000
2384.641357 394.000000
2385.696289 369.000000
2386.749756 333.000000
2387.803467 392.000000
2388.856201 391.000000
2389.908447 343.000000
2390.959961 338.000000
2392.010498 390.000000
2393.060791 380.000000
2394.110107 379.000000
2395.159424 290.000000
2396.207275 324.000000
2397.254639 373.000000
2398.301758 308.000000
2399.347900 331.000000
2400.393311 505.000000
2401.437988 469.000000
2402.482666 406.000000
2403.525879 387.000000
2404.569092 311.000000
2405.610840 309.000000
2406.652832 337.000000
2407.694092 305.000000
2408.734375 331.000000
2409.773926 315.000000
2410.812500 349.000000
2411.851318 330.000000
2412.888916 366.000000
2413.926270 329.000000
2414.962402 337.000000
2415.998291 337.000000
2417.033447 307.000000
2418.068115 393.000000
2419.101318 421.000000
2420.134766 326.000000
2421.167236 359.000000
2422.199463 361.000000
2423.230225 353.000000
2424.260986 243.000000
2425.291260 324.000000
2426.320313 242.000000
2427.349365 322.000000
2428.376709 274.000000
2429.404541 307.000000
2430.431152 277.000000
2431.457520 359.000000
2432.482422 292.000000
2433.507568 348.000000
2434.531738 362.000000
2435.555664 325.000000
2436.578369 277.000000
2437.600342 316.000000
2438.622070 307.000000
2439.643066 308.000000
2440.663574 283.000000
2441.682861 430.000000
2442.702148 231.000000
2443.720459 350.000000
2444.738525 263.000000
2445.755127 211.000000
2446.771729 301.000000
2447.787598 246.000000
2448.803467 396.000000
2449.817871 386.000000
2450.831543 330.000000
2451.844727 290.000000
2452.857666 292.000000
2453.869873 244.000000
2454.881104 269.000000
2455.892090 205.000000
2456.902344 385.000000
2457.912109 343.000000
2458.920898 213.000000
2459.928955 277.000000
2460.937012 278.000000
2461.943848 282.000000
2462.950439 303.000000
2463.955811 109.000000
2464.960938 234.000000
2465.965820 208.000000
2466.969482 235.000000
2467.972900 263.000000
2468.975342 170.000000
2469.977539 320.000000
2470.979248 196.000000
2471.979980 275.000000
2472.979736 290.000000
2473.979492 284.000000
2474.978271 289.000000
2475.976563 284.000000
2476.973877 198.000000
2477.970947 249.000000
2478.968018 344.000000
2479.963623 273.000000
2480.959229 216.000000
2481.953125 153.000000
2482.947021 322.000000
2483.940430 213.000000
2484.933350 314.000000
2485.925293 352.000000
2486.916504 185.000000
2487.907471 315.000000
2488.897949 185.000000
2489.887451 241.000000
2490.876221 299.000000
2491.864990 322.000000
2492.852783 246.000000
2493.839355 273.000000
2494.825928 254.000000
2495.812012 266.000000
2496.797363 276.000000
2497.781738 228.000000
2498.765869 270.000000
2499.750000 291.000000
2500.732666 244.000000
2501.714844 288.000000
2502.696533 272.000000
2503.677490 244.000000
2504.657959 157.000000
2505.638184 300.000000
2506.616943 247.000000
2507.595459 219.000000
2508.573486 223.000000
2509.551025 191.000000
2510.527588 251.000000
2511.503906 282.000000
2512.479492 290.000000
2513.454590 306.000000
2514.429199 223.000000
2515.402588 167.000000
2516.375732 172.000000
2517.348633 253.000000
2518.320557 220.000000
2519.291748 162.000000
2520.262451 223.000000
2521.232910 300.000000
2522.202637 142.000000
2523.171387 179.000000
2524.139404 247.000000
2525.107422 254.000000
2526.074463 115.000000
2527.041260 313.000000
2528.006836 282.000000
2528.972412 250.000000
2529.937256 211.000000
2530.901611 229.000000
2531.864746 241.000000
2532.828125 212.000000
2533.790527 284.000000
2534.752686 162.000000
2535.713623 258.000000
2536.673828 234.000000
2537.634277 188.000000
2538.593750 221.000000
2539.552490 221.000000
2540.510254 228.000000
2541.468262 108.000000
2542.425537 195.000000
2543.381836 266.000000
2544.337891 215.000000
2545.292725 279.000000
2546.247803 180.000000
2547.202148 134.000000
2548.155762 -228.000000
2549.108398 298.000000
2550.060791 159.000000
2551.012695 277.000000
2551.963867 260.000000
2552.914307 197.000000
2553.864258 196.000000
2554.813965 203.000000
2555.762939 210.000000
2556.711426 204.000000
2557.658691 213.000000
2558.605957 208.000000
2559.552490 138.000000
2560.498535 231.000000
2561.443604 176.000000
2562.388428 125.000000
2563.332764 148.000000
2564.276611 88.000000
2565.219971 189.000000
2566.161865 137.000000
2567.104004 210.000000
2568.045410 204.000000
2568.986084 144.000000
2569.926025 230.000000
2570.865967 202.000000
2571.804932 176.000000
2572.743652 144.000000
2573.681396 169.000000
2574.618896 231.000000
2575.555664 224.000000
2576.491699 172.000000
2577.427246 165.000000
2578.362061 137.000000
2579.296875 138.000000
2580.230713 83.000000
2581.164063 120.000000
2582.096680 234.000000
2583.029053 183.000000
2583.960693 123.000000
2584.891846 134.000000
2585.822510 244.000000
2586.751953 205.000000
2587.681396 174.000000
2588.610352 151.000000
2589.539063 244.000000
2590.466064 148.000000
2591.393311 241.000000
2592.320068 220.000000
2593.246094 170.000000
2594.171875 167.000000
2595.096436 108.000000
2596.020752 130.000000
2596.944580 180.000000
2597.867920 143.000000
2598.790283 178.000000
2599.712402 96.000000
2600.634033 20.000000
2601.554932 229.000000
2602.475098 146.000000
2603.395020 145.000000
2604.314453 157.000000
2605.233643 180.000000
2606.151855 226.000000
2607.068848 172.000000
2607.986084 206.000000
2608.903076 246.000000
2609.819092 207.000000
2610.733887 204.000000
2611.649170 215.000000
2612.563721 139.000000
2613.477295 176.000000
2614.390869 274.000000
2615.303223 177.000000
2616.215576 186.000000
2617.126953 185.000000
2618.038086 189.000000
2618.948486 216.000000
2619.858643 179.000000
2620.768066 120.000000
2621.677002 238.000000
2622.584961 221.000000
2623.493164 180.000000
2624.400391 193.000000
2625.307129 151.000000
2626.213135 65.000000
2627.118896 158.000000
2628.023926 127.000000
2628.928711 55.000000
2629.832764 182.000000
2630.735840 155.000000
2631.638916 111.000000
2632.541016 185.000000
2633.443115 233.000000
2634.344971 192.000000
2635.245117 162.000000
2636.145508 173.000000
2637.045166 178.000000
2637.944580 143.000000
2638.842529 235.000000
2639.740967 255.000000
2640.638916 150.000000
2641.536133 99.000000
2642.432129 134.000000
2643.328125 14.000000
2644.223877 123.000000
2645.118896 213.000000
2646.013672 150.000000
2646.906982 148.000000
2647.800293 68.000000
2648.693359 125.000000
2649.586182 194.000000
2650.477295 117.000000
2651.368652 248.000000
2652.259521 192.000000
2653.149658 126.000000
2654.039551 89.000000
2654.928223 193.000000
2655.817139 83.000000
2656.705566 121.000000
2657.593018 163.000000
2658.479492 90.000000
2659.366455 167.000000
2660.252686 134.000000
2661.138428 97.000000
2662.022949 98.000000
2662.907471 168.000000
2663.791748 98.000000
2664.675293 120.000000
2665.558350 238.000000
2666.440674 181.000000
2667.322510 105.000000
2668.203613 260.000000
2669.084961 155.000000
2669.964844 167.000000
2670.844971 91.000000
2671.724365 133.000000
2672.603760 232.000000
2673.482422 197.000000
2674.359375 201.000000
2675.237061 178.000000
2676.114014 174.000000
2676.990234 228.000000
2677.865967 219.000000
2678.740967 149.000000
2679.616211 127.000000
2680.490479 169.000000
2681.364258 172.000000
2682.237305 107.000000
2683.110107 134.000000
2683.982666 146.000000
2684.854492 177.000000
2685.725586 152.000000
2686.596436 174.000000
2687.466797 83.000000
2688.336914 171.000000
2689.205322 147.000000
2690.074463 109.000000
2690.942871 192.000000
2691.811035 50.000000
2692.678467 130.000000
2693.544678 105.000000
2694.411377 42.000000
2695.277100 107.000000
2696.142822 40.000000
2697.007080 420.000000
2697.872070 199.000000
2698.735596 140.000000
2699.599365 121.000000
2700.461670 24.000000
2701.324463 87.000000
2702.186279 170.000000
2703.047607 196.000000
2703.908936 94.000000
2704.769043 164.000000
2705.629150 178.000000
2706.488770 177.000000
2707.348145 36.000000
2708.205811 120.000000
2709.063721 172.000000
2709.922119 145.000000
2710.779297 183.000000
2711.635742 195.000000
2712.491699 57.000000
2713.347656 123.000000
2714.202881 -11.000000
2715.057373 130.000000
2715.911377 141.000000
2716.765381 102.000000
2717.618408 78.000000
2718.471680 87.000000
2719.323242 89.000000
2720.175293 138.000000
2721.027100 68.000000
2721.877686 107.000000
2722.728271 87.000000
2723.578369 90.000000
2724.427734 51.000000
2725.277100 63.000000
2726.125244 74.000000
2726.972900 65.000000
2727.821045 140.000000
2728.667969 142.000000
2729.515381 121.000000
2730.361328 52.000000
2731.206543 29.000000
2732.052246 24.000000
2732.896973 55.000000
2733.741699 138.000000
2734.585205 69.000000
2735.428955 6.000000
2736.271973 88.000000
2737.114502 78.000000
2737.956055 108.000000
2738.798096 134.000000
2739.639160 39.000000
2740.479980 97.000000
2741.320557 108.000000
2742.159912 29.000000
2742.999268 100.000000
2743.838623 127.000000
2744.676758 63.000000
2745.514404 125.000000
2746.352051 154.000000
2747.189209 125.000000
2748.026123 126.000000
2748.862549 46.000000
2749.697754 81.000000
2750.533203 41.000000
2751.368164 138.000000
2752.202393 220.000000
2753.036377 71.000000
2753.869873 69.000000
2754.703369 98.000000
2755.535889 104.000000
2756.367920 75.000000
2757.199463 134.000000
2758.031006 182.000000
2758.861572 19.000000
2759.692383 92.000000
2760.521973 77.000000
2761.351563 24.000000
2762.180908 12.000000
2763.009521 154.000000
2763.837646 68.000000
2764.665283 83.000000
2765.492920 15.000000
2766.320068 297.000000
2767.146484 75.000000
2767.972412 104.000000
2768.797852 1.000000
2769.623047 121.000000
2770.448242 67.000000
2771.272217 82.000000
2772.096191 95.000000
2772.920166 147.000000
2773.742920 75.000000
2774.565918 -182.000000
2775.387695 91.000000
2776.209473 113.000000
2777.031250 61.000000
2777.852051 31.000000
2778.672119 91.000000
2779.492432 82.000000
2780.312256 -45.000000
2781.132080 -14.000000
2781.949951 58.000000
2782.769043 -25.000000
2783.586914 180.000000
2784.404541 82.000000
2785.221680 24.000000
2786.038330 49.000000
2786.854736 33.000000
2787.670654 79.000000
2788.486328 19.000000
2789.301025 144.000000
2790.116211 66.000000
2790.930664 6.000000
2791.744629 50.000000
2792.558350 157.000000
2793.370850 83.000000
2794.183594 19.000000
2794.995850 19.000000
2795.807617 72.000000
2796.618652 78.000000
2797.430420 70.000000
2798.240967 39.000000
2799.051514 57.000000
2799.860596 48.000000
2800.670410 72.000000
2801.479492 95.000000
2802.288330 38.000000
2803.096680 3.000000
2803.904053 17.000000
2804.711914 16.000000
2805.519043 31.000000
2806.325928 60.000000
2807.131592 121.000000
2807.937744 42.000000
2808.743164 -5.000000
2809.548584 49.000000
2810.353271 28.000000
2811.156982 79.000000
2811.961182 101.000000
2812.764893 35.000000
2813.568359 50.000000
2814.370361 164.000000
2815.173096 110.000000
2815.975098 74.000000
2816.776855 82.000000
2817.578125 72.000000
2818.378906 -25.000000
2819.179199 -3.000000
2819.979736 0.000000
2820.779297 131.000000
2821.578369 20.000000
2822.377441 118.000000
2823.176270 54.000000
2823.974609 11.000000
2824.771973 46.000000
2825.569580 131.000000
2826.366455 11.000000
2827.163574 63.000000
2827.959961 -69.000000
2828.755615 32.000000
2829.551270 126.000000
2830.346680 109.000000
2831.141602 83.000000
2831.935791 191.000000
2832.729980 124.000000
2833.523926 51.000000
2834.317383 57.000000
2835.110107 -14.000000
2835.902588 35.000000
2836.695068 77.000000
2837.487305 62.000000
2838.279053 -22.000000
2839.069824 96.000000
2839.860596 66.000000
2840.651611 7.000000
2841.441650 28.000000
2842.231201 104.000000
2843.020996 55.000000
2843.809814 61.000000
2844.598633 66.000000
2845.387451 -12.000000
2846.175293 112.000000
2846.962646 21.000000
2847.750244 -5.000000
2848.537354 104.000000
2849.323730 59.000000
2850.110107 32.000000
2850.896240 -15.000000
2851.681885 86.000000
2852.466553 -8.000000
2853.251709 98.000000
2854.036621 77.000000
2854.820801 78.000000
2855.604980 57.000000
2856.387939 40.000000
2857.171143 0.000000
2857.954102 105.000000
2858.736572 28.000000
2859.518799 58.000000
2860.300537 96.000000
2861.082031 68.000000
2861.863770 58.000000
2862.644775 21.000000
2863.425049 143.000000
2864.205078 16.000000
2864.985107 73.000000
2865.764893 45.000000
2866.543701 47.000000
2867.322754 110.000000
2868.101318 79.000000
2868.879639 90.000000
2869.657471 78.000000
2870.435059 58.000000
2871.212402 32.000000
2871.989502 2.000000
2872.766113 108.000000
2873.542236 81.000000
2874.318359 24.000000
2875.093994 57.000000
2875.869385 73.000000
2876.644287 120.000000
2877.418945 -2.000000
2878.193604 1.000000
2878.968018 114.000000
2879.741699 106.000000
2880.514648 51.000000
2881.288330 164.000000
2882.061035 59.000000
2882.833740 36.000000
2883.605713 56.000000
2884.377441 50.000000
2885.149658 73.000000
2885.920654 9.000000
2886.691162 64.000000
2887.462158 116.000000
2888.233154 53.000000
2889.003418 74.000000
2889.772705 94.000000
2890.542236 73.000000
2891.311768 68.000000
2892.080811 106.000000
2892.849365 76.000000
2893.617920 32.000000
2894.385498 -67.000000
2895.153564 41.000000
2895.921143 96.000000
2896.688721 137.000000
2897.455078 76.000000
2898.222412 30.000000
2898.988525 63.000000
2899.754883 -29.000000
2900.519775 98.000000
2901.285156 48.000000
2902.051025 83.000000
2902.815430 74.000000
2903.579834 -14.000000
2904.344482 124.000000
2905.108154 33.000000
2905.872559 58.000000
2906.636230 104.000000
2907.399170 84.000000
2908.161865 -20.000000
2908.925049 86.000000
2909.687744 113.000000
2910.449219 56.000000
2911.211182 56.000000
spectrumdark 2048
-97.019547 6156.000000
-94.392677 6156.000000
-91.767685 6068.000000
-89.144585 6415.000000
-86.523354 5821.000000
-83.904022 6250.000000
-81.286552 6016.000000
-78.670959 6381.000000
-76.057243 6226.000000
-73.445404 5839.000000
-70.835426 6100.000000
-68.227333 5964.000000
-65.621086 5951.000000
-63.016716 6024.000000
-60.414207 6139.000000
-57.813553 5652.000000
-55.214760 6236.000000
-52.617825 6835.000000
-50.022743 6508.000000
-47.429516 6542.000000
-44.838139 6276.000000
-42.248608 6757.000000
-39.660919 5903.000000
-37.075081 6060.000000
-34.491085 6452.000000
-31.908926 5757.000000
-29.328613 6291.000000
-26.750128 5727.000000
-24.173485 6145.000000
-21.598667 6289.000000
-19.025690 6446.000000
-16.454533 6546.000000
-13.885208 6763.000000
-11.317710 7723.000000
-8.752030 6266.000000
-6.188177 6504.000000
-3.626136 5988.000000
-1.065920 5790.000000
1.492488 6079.000000
4.049075 6944.000000
6.603857 6669.000000
9.156822 6036.000000
11.707987 6744.000000
14.257339 6518.000000
16.804893 6577.000000
19.350637 6027.000000
21.894588 5776.000000
24.436735 6717.000000
26.977085 6804.000000
29.515650 6811.000000
32.052418 6203.000000
34.587383 5840.000000
37.120571 7227.000000
39.651978 6265.000000
42.181591 7130.000000
44.709408 6550.000000
47.235466 7924.000000
49.759735 5694.000000
52.282234 6214.000000
54.802937 6733.000000
57.321884 6277.000000
59.839058 6441.000000
62.354454 6704.000000
64.868073 5661.000000
67.379936 5738.000000
69.890053 6510.000000
72.398376 6578.000000
74.904945 5993.000000
77.409767 6391.000000
79.912834 6372.000000
82.414124 6285.000000
84.913673 6120.000000
87.411469 6318.000000
89.907532 5766.000000
92.401817 7228.000000
94.894363 5818.000000
97.385193 6917.000000
99.874252 7140.000000
102.361565 6396.000000
104.847153 6212.000000
107.331001 6373.000000
109.813103 5747.000000
112.293480 6585.000000
114.772133 6272.000000
117.249062 6473.000000
119.724236 7195.000000
122.197701 6766.000000
124.669434 5882.000000
127.139458 6709.000000
129.607727 6259.000000
132.074326 6279.000000
134.539169 5656.000000
137.002319 6225.000000
139.463730 7267.000000
141.923447 6815.000000
144.381439 6371.000000
146.837738 6016.000000
149.292328 5818.000000
151.745193 6826.000000
154.196381 6363.000000
156.645874 6583.000000
159.093643 6028.000000
161.539703 6552.000000
163.984085 8632.000000
166.426788 6451.000000
168.867798 6866.000000
171.307098 6256.000000
173.744690 7225.000000
176.180649 6585.000000
178.614868 6878.000000
181.047409 7193.000000
183.478302 6716.000000
185.907471 6707.000000
188.334991 6703.000000
190.760834 6340.000000
193.184998 6707.000000
195.607498 7200.000000
198.028305 7362.000000
200.447449 6499.000000
202.864929 6076.000000
205.280716 7586.000000
207.694855 7076.000000
210.107361 6321.000000
212.518188 6123.000000
214.927338 6288.000000
217.334854 7313.000000
219.740662 6192.000000
222.144882 6535.000000
224.547394 6670.000000
226.948288 6880.000000
229.347534 6414.000000
231.745117 6833.000000
234.141037 7210.000000
236.535339 6504.000000
238.927979 5820.000000
241.319000 6780.000000
243.708359 6611.000000
246.096100 6312.000000
248.482193 7024.000000
250.866653 6068.000000
253.249466 7860.000000
255.630707 6667.000000
258.010254 6637.000000
260.388214 6472.000000
262.764496 7520.000000
265.139221 7524.000000
267.512299 7883.000000
269.883728 6182.000000
272.253510 6404.000000
274.621735 5900.000000
276.988312 6340.000000
279.353302 6775.000000
281.716675 6004.000000
284.078400 6277.000000
286.438538 7120.000000
288.797058 5933.000000
291.153992 6535.000000
293.509308 6433.000000
295.863037 5978.000000
298.215118 5900.000000
300.565643 6278.000000
302.914581 6342.000000
305.261871 6715.000000
307.607635 6481.000000
309.951721 6497.000000
312.294281 7388.000000
314.635223 7565.000000
316.974548 7139.000000
319.312317 6951.000000
321.648529 8110.000000
323.983093 6300.000000
326.316101 6479.000000
328.647552 5923.000000
330.977417 6603.000000
333.305695 6344.000000
335.632355 7244.000000
337.957520 6347.000000
340.281067 6211.000000
342.603058 5986.000000
344.923492 7568.000000
347.242310 7737.000000
349.559570 6014.000000
351.875305 5870.000000
354.189453 6932.000000
356.502014 6393.000000
358.813019 6475.000000
361.122498 7105.000000
363.430450 6345.000000
365.736786 5649.000000
368.041534 6391.000000
370.344818 6470.000000
372.646484 6219.000000
374.946655 6379.000000
377.245270 6338.000000
379.542328 6014.000000
381.837830 6028.000000
384.131805 5822.000000
386.424194 5250.000000
388.715088 5576.000000
391.004456 6233.000000
393.292236 6245.000000
395.578491 6488.000000
397.863251 7049.000000
400.146393 6040.000000
402.428101 6435.000000
404.708282 6155.000000
406.986877 7285.000000
409.263947 6466.000000
411.539490 6708.000000
413.813507 6491.000000
416.086090 6402.000000
418.357056 6374.000000
420.626526 6417.000000
422.894501 7096.000000
425.160919 7322.000000
427.425842 6304.000000
429.689301 6236.000000
431.951172 6486.000000
434.211578 6001.000000
436.470428 6513.000000
438.727814 6097.000000
440.983704 5636.000000
443.238098 5756.000000
445.490967 5454.000000
447.742279 6930.000000
449.992188 6010.000000
452.240509 6185.000000
454.487396 5620.000000
456.732819 6453.000000
458.976685 6453.000000
461.219055 6792.000000
463.459930 5615.000000
465.699402 6700.000000
467.937286 5475.000000
470.173737 5887.000000
472.408661 6065.000000
474.642120 7342.000000
476.874146 6717.000000
479.104645 5694.000000
481.333649 6423.000000
483.561188 6322.000000
485.787231 5937.000000
488.011841 6514.000000
490.234985 5872.000000
492.456665 6343.000000
494.676788 6684.000000
496.895508 5635.000000
499.112732 6276.000000
501.328583 5517.000000
503.542816 6138.000000
505.755737 6469.000000
507.967072 6399.000000
510.176971 6905.000000
512.385437 6427.000000
514.592529 6573.000000
516.798035 6422.000000
519.002136 6591.000000
521.204712 6178.000000
523.405884 6542.000000
525.605713 6671.000000
527.804016 6940.000000
530.000793 5339.000000
532.196228 5809.000000
534.390137 5573.000000
536.582703 7543.000000
538.773743 6684.000000
540.963379 6031.000000
543.151611 6862.000000
545.338318 7087.000000
547.523560 6755.000000
549.707520 6189.000000
551.889893 6419.000000
554.070923 6184.000000
556.250427 6023.000000
558.428650 5818.000000
560.605347 5954.000000
562.780640 6371.000000
564.954529 6432.000000
567.126953 5898.000000
569.297974 6025.000000
571.467529 6293.000000
573.635803 5274.000000
575.802551 6400.000000
577.967834 6296.000000
580.131714 6166.000000
582.294312 5747.000000
584.455383 6040.000000
586.615051 5672.000000
588.773376 5765.000000
590.930176 6136.000000
593.085632 6523.000000
595.239685 5797.000000
597.392395 6169.000000
599.543579 7279.000000
601.693420 6769.000000
603.841919 6671.000000
605.988831 6111.000000
608.134521 6502.000000
610.278809 6423.000000
612.421631 7046.000000
614.562988 6183.000000
616.703125 6475.000000
618.841736 7509.000000
620.979065 5706.000000
623.114929 6537.000000
625.249390 6899.000000
627.382385 7111.000000
629.514221 6614.000000
631.644592 6580.000000
633.773560 6786.000000
635.901062 6490.000000
638.027283 6211.000000
640.151978 7257.000000
642.275452 6360.000000
644.397583 6760.000000
646.518250 6873.000000
648.637573 6554.000000
650.755493 5702.000000
652.872070 5701.000000
654.987244 6404.000000
657.101074 6470.000000
659.213440 5805.000000
661.324585 6121.000000
663.434326 5398.000000
665.542603 6076.000000
667.649719 6261.000000
669.755371 6806.000000
671.859558 5718.000000
673.962524 5696.000000
676.064087 6992.000000
678.164307 5326.000000
680.263123 6700.000000
682.360596 6249.000000
684.456787 7033.000000
686.551514 6237.000000
688.645020 6972.000000
690.737183 6689.000000
692.827820 7891.000000
694.917236 6579.000000
697.005371 6466.000000
699.092041 5977.000000
701.177490 6698.000000
703.261414 5159.000000
705.344116 5903.000000
707.425537 5977.000000
709.505493 7598.000000
711.584229 6229.000000
713.661499 5567.000000
715.737488 6571.000000
717.812195 6046.000000
719.885620 6969.000000
721.957520 6278.000000
724.028259 7391.000000
726.097656 5782.000000
728.165649 6485.000000
730.232300 6358.000000
732.297729 7113.000000
734.361816 5755.000000
736.424561 6164.000000
738.485962 6395.000000
740.546082 6548.000000
742.604797 6030.000000
744.662292 6623.000000
746.718506 6368.000000
748.773315 6727.000000
750.826843 6321.000000
752.878967 7497.000000
754.929871 5787.000000
756.979553 6593.000000
759.027771 6315.000000
761.074768 6134.000000
763.120483 7043.000000
765.164795 5315.000000
767.207825 5746.000000
769.249634 14986.000000
771.290100 7205.000000
773.329163 6359.000000
775.367065 6138.000000
777.403625 5952.000000
779.438965 5425.000000
781.472961 5755.000000
783.505554 6874.000000
785.536987 5497.000000
787.567017 11760.000000
789.595764 6002.000000
791.623352 6242.000000
793.649597 6317.000000
795.674438 5846.000000
797.698181 5557.000000
799.720520 6325.000000
801.741638 5804.000000
803.761414 6639.000000
805.779907 4909.000000
807.797180 6690.000000
809.813049 6843.000000
811.827759 5716.000000
813.841125 6434.000000
815.853271 6271.000000
817.864197 6109.000000
819.873779 6575.000000
821.882141 5329.000000
823.889099 5677.000000
825.894836 6006.000000
827.899353 5718.000000
829.902588 5575.000000
831.904541 6434.000000
833.905212 5991.000000
835.904663 5921.000000
837.902771 6317.000000
839.899780 6906.000000
841.895386 6176.000000
843.889832 6011.000000
845.882935 6187.000000
847.874817 6870.000000
849.865356 5573.000000
851.854614 6784.000000
853.842834 5986.000000
855.829651 5611.000000
857.815247 6397.000000
859.799561 7310.000000
861.782776 6324.000000
863.764587 6416.000000
865.745178 5866.000000
867.724487 7766.000000
869.702637 7096.000000
871.679443 6236.000000
873.654968 5920.000000
875.629456 6177.000000
877.602478 5981.000000
879.574463 5436.000000
881.545105 6396.000000
883.514587 6129.000000
885.482727 5546.000000
887.449707 5230.000000
889.415344 6156.000000
891.379822 5805.000000
893.343079 6018.000000
895.305115 6484.000000
897.265869 5864.000000
899.225403 6424.000000
901.183655 6715.000000
903.140808 6261.000000
905.096802 6072.000000
907.051392 6829.000000
909.004761 6460.000000
910.956970 6487.000000
912.907959 6430.000000
914.857666 7065.000000
916.806213 6290.000000
918.753540 6165.000000
920.699585 6066.000000
922.644348 6113.000000
924.588074 6331.000000
926.530640 5904.000000
928.471924 5614.000000
930.411865 6448.000000
932.350708 5710.000000
934.288269 5503.000000
936.224609 5949.000000
938.159790 5813.000000
940.093689 6077.000000
942.026489 5896.000000
943.958069 6746.000000
945.888489 5210.000000
947.817688 6447.000000
949.745544 7014.000000
951.672363 6660.000000
953.597900 5896.000000
955.522156 5376.000000
957.445313 5983.000000
959.367310 6696.000000
961.288025 7325.000000
963.207581 6485.000000
965.125977 5257.000000
967.043335 6415.000000
968.959229 6476.000000
970.874023 6083.000000
972.787598 5963.000000
974.700012 6339.000000
976.611206 6406.000000
978.521240 5536.000000
980.429993 6226.000000
982.337708 6110.000000
984.244202 6374.000000
986.149475 5664.000000
988.053650 6788.000000
989.956604 6129.000000
991.858337 6777.000000
993.758911 6565.000000
995.658325 6569.000000
997.556519 5292.000000
999.453552 6790.000000
1001.349365 6450.000000
1003.244019 7687.000000
1005.137573 5542.000000
1007.029846 7117.000000
1008.921204 6137.000000
1010.811218 5352.000000
1012.700012 6559.000000
1014.587646 6317.000000
1016.474121 6943.000000
1018.359436 6759.000000
1020.243591 5981.000000
1022.126526 5879.000000
1024.008423 6194.000000
1025.889038 5206.000000
1027.768555 5866.000000
1029.647095 6139.000000
1031.524292 5451.000000
1033.400146 6209.000000
1035.275024 5920.000000
1037.148926 6569.000000
1039.021362 6975.000000
1040.892822 6666.000000
1042.762939 5499.000000
1044.632080 5504.000000
1046.500000 5807.000000
1048.366821 7174.000000
1050.232544 6700.000000
1052.097046 6466.000000
1053.960449 6440.000000
1055.822510 6406.000000
1057.683594 5861.000000
1059.543579 6516.000000
1061.402222 6664.000000
1063.259766 5753.000000
1065.116211 6756.000000
1066.971558 5878.000000
1068.825684 5825.000000
1070.678955 6177.000000
1072.530762 6311.000000
1074.381592 6112.000000
1076.231201 6153.000000
1078.079590 5691.000000
1079.927124 7914.000000
1081.773315 5590.000000
1083.618286 6173.000000
1085.462402 5458.000000
1087.305176 5603.000000
1089.146729 6453.000000
1090.987549 5485.000000
1092.826782 5731.000000
1094.665283 6048.000000
1096.502441 6030.000000
1098.338379 6778.000000
1100.173340 6599.000000
1102.007080 5419.000000
1103.839844 5520.000000
1105.671265 6204.000000
1107.501831 7280.000000
1109.331055 6538.000000
1111.159302 6411.000000
1112.986328 7105.000000
1114.812378 5388.000000
1116.637207 6301.000000
1118.460938 7125.000000
1120.283447 6115.000000
1122.104858 5887.000000
1123.925415 5861.000000
1125.744507 6558.000000
1127.562744 7046.000000
1129.379639 6823.000000
1131.195679 6631.000000
1133.010498 6506.000000
1134.824219 5601.000000
1136.636841 5801.000000
1138.448242 5638.000000
1140.258667 6122.000000
1142.067993 6748.000000
1143.875977 6955.000000
1145.683228 5962.000000
1147.489014 5836.000000
1149.293945 5364.000000
1151.097778 5385.000000
1152.900391 6119.000000
1154.702148 6161.000000
1156.502441 5857.000000
1158.301758 6109.000000
1160.100098 5890.000000
1161.897095 5475.000000
1163.693359 5879.000000
1165.488281 6090.000000
1167.282104 6339.000000
1169.075073 7657.000000
1170.866699 5631.000000
1172.657349 6478.000000
1174.447021 5989.000000
1176.235229 5763.000000
1178.022583 7411.000000
1179.808838 6727.000000
1181.593994 5761.000000
1183.378052 5994.000000
1185.161011 7654.000000
1186.942993 5902.000000
1188.723755 5870.000000
1190.503540 6263.000000
1192.282227 6917.000000
1194.059937 6637.000000
1195.836426 7125.000000
1197.611816 6605.000000
1199.386108 6467.000000
1201.159302 6647.000000
1202.931641 6475.000000
1204.702637 6678.000000
1206.472778 5683.000000
1208.241699 6123.000000
1210.009521 6295.000000
1211.776489 5751.000000
1213.542114 5861.000000
1215.306763 6915.000000
1217.070313 6530.000000
1218.832764 5947.000000
1220.594360 6671.000000
1222.354736 5910.000000
1224.114014 6287.000000
1225.872437 6081.000000
1227.629639 7091.000000
1229.385742 6422.000000
1231.140747 5512.000000
1232.894897 5998.000000
1234.647705 5874.000000
1236.399536 6026.000000
1238.150513 5988.000000
1239.900146 4912.000000
1241.648926 6988.000000
1243.396362 6448.000000
1245.143066 6564.000000
1246.888550 6468.000000
1248.633179 6429.000000
1250.376465 6740.000000
1252.118774 6696.000000
1253.859985 5273.000000
1255.600342 5112.000000
1257.339600 5802.000000
1259.077637 6613.000000
1260.814819 7145.000000
1262.550781 6070.000000
1264.285767 6477.000000
1266.019775 7248.000000
1267.752808 5914.000000
1269.484619 6171.000000
1271.215454 6360.000000
1272.945068 7251.000000
1274.673828 5908.000000
1276.401489 5649.000000
1278.128052 5558.000000
1279.853760 5549.000000
1281.578125 6382.000000
1283.301636 5257.000000
1285.024170 6914.000000
1286.745728 6453.000000
1288.466064 6038.000000
1290.185425 6669.000000
1291.903687 7291.000000
1293.620972 6405.000000
1295.337280 5754.000000
1297.052368 6413.000000
1298.766479 6130.000000
1300.479614 5811.000000
1302.191895 6455.000000
1303.902954 8340.000000
1305.613037 5638.000000
1307.322021 6273.000000
1309.029785 6623.000000
1310.736938 6991.000000
1312.442627 5773.000000
1314.147583 6828.000000
1315.851563 6095.000000
1317.554321 5978.000000
1319.256104 6534.000000
1320.957031 6034.000000
1322.656616 18626.500000
1324.355347 31219.000000
1326.053345 5576.000000
1327.750000 6461.000000
1329.445557 7117.000000
1331.140259 6889.000000
1332.833740 5739.000000
1334.526367 5393.000000
1336.218140 7071.000000
1337.908569 6194.000000
1339.598267 6555.000000
1341.286865 6054.000000
1342.974365 7590.000000
1344.660889 5659.000000
1346.346313 6701.000000
1348.030762 5883.000000
1349.714355 7265.000000
1351.396729 6365.000000
1353.078125 5903.000000
1354.758667 6527.000000
1356.437988 6698.000000
1358.116699 5875.000000
1359.794067 6478.000000
1361.470337 5775.000000
1363.145630 5630.000000
1364.820190 6609.000000
1366.493530 6383.000000
1368.165894 6725.000000
1369.837280 5183.000000
1371.507690 6761.000000
1373.177002 6155.000000
1374.845337 5691.000000
1376.512817 5967.000000
1378.179199 6355.000000
1379.844604 6006.000000
1381.509033 5787.000000
1383.172241 5922.000000
1384.834839 5703.000000
1386.496094 6355.000000
1388.156494 6556.000000
1389.815796 6451.000000
1391.474121 6469.000000
1393.131714 6810.000000
1394.788086 6439.000000
1396.443604 6957.000000
1398.097900 6359.000000
1399.751343 5819.000000
1401.403687 6088.000000
1403.055298 6451.000000
1404.705688 7214.000000
1406.354980 6262.000000
1408.003540 7491.000000
1409.651001 7884.000000
1411.297485 6142.000000
1412.943115 6201.000000
1414.587769 5952.000000
1416.231201 6986.000000
1417.873779 7061.000000
1419.515259 6820.000000
1421.155884 6483.000000
1422.795532 6489.000000
1424.434082 6005.000000
1426.071777 6639.000000
1427.708374 6321.000000
1429.343994 5958.000000
1430.978882 6387.000000
1432.612671 5895.000000
1434.245361 6155.000000
1435.877075 5715.000000
1437.507935 6113.000000
1439.137695 6043.000000
1440.766357 7759.000000
1442.394409 6010.000000
1444.021362 6195.000000
1445.647095 6198.000000
1447.272217 6143.000000
1448.896240 6587.000000
1450.519287 6017.000000
1452.141357 5978.000000
1453.762329 7389.000000
1455.382324 6282.000000
1457.001587 6859.000000
1458.619507 5691.000000
1460.236816 18981.000000
1461.853149 5559.000000
1463.468262 7305.000000
1465.082520 6251.000000
1466.695923 5215.000000
1468.308228 5615.000000
1469.919678 6214.000000
1471.530273 6331.000000
1473.139648 5923.000000
1474.748047 5962.000000
1476.355591 6211.000000
1477.962158 6709.000000
1479.567993 5310.000000
1481.172607 6247.000000
1482.776367 5508.000000
1484.378906 6862.000000
1485.980835 5486.000000
1487.581543 5472.000000
1489.181519 5598.000000
1490.780396 6264.000000
1492.378418 6485.000000
1493.975342 6648.000000
1495.571411 6265.000000
1497.166504 5945.000000
1498.760620 5512.000000
1500.354004 6511.000000
1501.946289 5481.000000
1503.537354 6026.000000
1505.127930 6771.000000
1506.717163 6357.000000
1508.305786 6106.000000
1509.893311 6578.000000
1511.479736 6817.000000
1513.065430 6190.000000
1514.650024 6587.000000
1516.233765 6173.000000
1517.816406 6276.000000
1519.398315 6590.000000
1520.979126 6573.000000
1522.559204 6075.000000
1524.138062 6139.000000
1525.716064 6436.000000
1527.293335 6292.000000
1528.869385 5646.000000
1530.444702 5879.000000
1532.018921 6290.000000
1533.592407 5433.000000
1535.164673 5929.000000
1536.736206 6332.000000
1538.306763 6374.000000
1539.876465 6345.000000
1541.444946 5490.000000
1543.012695 6539.000000
1544.579590 5637.000000
1546.145264 6764.000000
1547.710205 5966.000000
1549.274048 5076.000000
1550.837280 7406.000000
1552.399170 6295.000000
1553.960449 5952.000000
1555.520630 5684.000000
1557.080078 5668.000000
1558.638428 6033.000000
1560.196045 6282.000000
1561.752563 6964.000000
1563.307861 5861.000000
1564.862549 6357.000000
1566.416504 5627.000000
1567.969482 6304.000000
1569.521118 5673.000000
1571.072021 5858.000000
1572.622192 6186.000000
1574.171387 6303.000000
1575.719238 5777.000000
1577.266602 5523.000000
1578.812988 5717.000000
1580.358521 5060.000000
1581.903076 6575.000000
1583.446411 6287.000000
1584.989136 6587.000000
1586.531006 6434.000000
1588.071777 6728.000000
1589.611572 5790.000000
1591.150635 6674.000000
1592.688599 5875.000000
1594.226074 6065.000000
1595.762207 5817.000000
1597.297241 6669.000000
1598.831787 6248.000000
1600.365356 5922.000000
1601.898071 5803.000000
1603.429199 6270.000000
1604.960083 6350.000000
1606.490112 5744.000000
1608.018921 6112.000000
1609.546631 6155.000000
1611.073730 6009.000000
1612.600098 5868.000000
1614.125488 6181.000000
1615.650024 5753.000000
1617.173218 5698.000000
1618.695679 5586.000000
1620.217407 6557.000000
1621.738281 6914.000000
1623.257690 15406.000000
1624.776611 6084.000000
1626.294800 6081.000000
1627.812134 5923.000000
1629.328369 6393.000000
1630.843262 7025.000000
1632.357666 6729.000000
1633.871338 5707.000000
1635.383911 6803.000000
1636.895264 6002.000000
1638.406250 6426.000000
1639.916138 6239.000000
1641.425171 6143.000000
1642.932861 5619.000000
1644.440186 6104.000000
1645.946655 7080.000000
1647.452148 6267.000000
1648.956787 6814.000000
1650.459961 6115.000000
1651.962524 6513.000000
1653.464722 6328.000000
1654.965576 6630.000000
1656.465332 7460.000000
1657.964233 5982.000000
1659.462769 6527.000000
1660.960083 6185.000000
1662.456665 5889.000000
1663.951660 6441.000000
1665.446411 6345.000000
1666.940308 5235.000000
1668.433228 5727.000000
1669.924805 20779.000000
1671.415894 6431.000000
1672.906372 6067.000000
1674.395752 5922.000000
1675.883667 6878.000000
1677.371338 6831.000000
1678.858032 6034.000000
1680.343872 5318.000000
1681.828857 6080.000000
1683.312378 6201.000000
1684.795654 6118.000000
1686.278076 5909.000000
1687.759399 6213.000000
1689.239258 6176.000000
1690.718872 5518.000000
1692.197754 6608.000000
1693.675659 5971.000000
1695.152588 6139.000000
1696.628296 5732.000000
1698.103638 6225.000000
1699.577759 6317.000000
1701.051270 5462.000000
1702.523315 5511.000000
1703.995117 6861.000000
1705.465942 6370.000000
1706.935913 7059.000000
1708.404541 5169.000000
1709.872681 5814.000000
1711.340088 6470.000000
1712.806396 5484.000000
1714.272095 5722.000000
1715.736084 6175.000000
1717.199951 6001.000000
1718.662964 6929.000000
1720.125000 6321.000000
1721.585815 6552.000000
1723.046021 5567.000000
1724.505493 5691.000000
1725.964111 6095.000000
1727.421753 5986.000000
1728.878052 6248.000000
1730.334106 6035.000000
1731.789185 6410.000000
1733.243286 6027.000000
1734.696167 6837.000000
1736.148804 5988.000000
1737.600342 6702.000000
1739.051147 5917.000000
1740.500977 6534.000000
1741.949463 5911.000000
1743.397583 7289.000000
1744.844849 6500.000000
1746.291382 6642.000000
1747.736328 6792.000000
1749.181030 6159.000000
1750.624878 5807.000000
1752.067871 5536.000000
1753.509399 6561.000000
1754.950684 6389.000000
1756.391113 19350.000000
1757.830566 6278.000000
1759.269043 5277.000000
1760.706543 5978.000000
1762.143555 7518.000000
1763.579590 5832.000000
1765.014771 7085.000000
1766.448486 6146.000000
1767.882080 6417.000000
1769.314697 6653.000000
1770.746460 5904.000000
1772.177368 5690.000000
1773.607056 6368.000000
1775.036011 6178.000000
1776.464478 6295.000000
1777.891968 6640.000000
1779.318115 6232.000000
1780.744019 5540.000000
1782.168823 6885.000000
1783.593018 5595.000000
1785.015747 6604.000000
1786.437988 6553.000000
1787.859497 6836.000000
1789.280273 5754.000000
1790.700073 5975.000000
1792.118530 6165.000000
1793.536499 6791.000000
1794.953857 5497.000000
1796.370361 6084.000000
1797.785400 6486.000000
1799.200073 5854.000000
1800.614136 6562.000000
1802.026978 6011.000000
1803.439209 7004.000000
1804.850098 7096.000000
1806.260498 7728.000000
1807.670166 6513.000000
1809.078857 5895.000000
1810.486450 5457.000000
1811.893555 6417.000000
1813.299805 6336.000000
1814.705078 6674.000000
1816.109253 5918.000000
1817.513062 5982.000000
1818.915894 6318.000000
1820.317871 5961.000000
1821.719238 5884.000000
1823.119141 6329.000000
1824.518433 6392.000000
1825.917236 6500.000000
1827.315186 7407.000000
1828.711792 5752.000000
1830.107788 6674.000000
1831.503052 5880.000000
1832.897705 8097.000000
1834.291382 6003.000000
1835.683716 6809.000000
1837.075562 6349.000000
1838.466797 5908.000000
1839.857056 7074.000000
1841.246094 6014.000000
1842.634766 6018.000000
1844.022461 5998.000000
1845.409424 5816.000000
1846.795044 6820.000000
1848.180420 5881.000000
1849.564941 6373.000000
1850.948730 6277.000000
1852.331421 6356.000000
1853.712891 5408.000000
1855.093872 6543.000000
1856.474365 6315.000000
1857.853882 5726.000000
1859.231934 5960.000000
1860.609863 6264.000000
1861.986816 7854.000000
1863.363037 6111.000000
1864.738403 6005.000000
1866.112305 5689.000000
1867.486084 5689.000000
1868.859009 6189.000000
1870.230835 5955.000000
1871.601685 6867.000000
1872.972168 5434.000000
1874.341553 6106.000000
1875.710449 6066.000000
1877.077759 7087.000000
1878.444946 6051.000000
1879.811157 5985.000000
1881.176636 6712.000000
1882.541382 7465.000000
1883.904541 6743.000000
1885.267578 6850.000000
1886.629761 6334.000000
1887.991089 6492.000000
1889.351074 5634.000000
1890.710693 5734.000000
1892.069702 6117.000000
1893.427734 6561.000000
1894.784912 7237.000000
1896.140869 5928.000000
1897.496582 7657.000000
1898.851318 5831.000000
1900.205200 5562.000000
1901.557983 5927.000000
1902.910278 5953.000000
1904.261841 5942.000000
1905.612549 6855.000000
1906.962036 6528.000000
1908.311035 6615.000000
1909.659180 5762.000000
1911.006714 6144.000000
1912.353516 6291.000000
1913.698730 6820.000000
1915.043701 6055.000000
1916.387939 5477.000000
1917.731323 6500.000000
1919.073364 5974.000000
1920.415161 6672.000000
1921.756104 7003.000000
1923.096313 6095.000000
1924.435547 6261.000000
1925.773804 6237.000000
1927.111450 6501.000000
1928.448364 6979.000000
1929.784424 6682.000000
1931.119263 5623.000000
1932.453735 6683.000000
1933.787476 7235.000000
1935.120361 6231.000000
1936.451782 5773.000000
1937.783325 6350.000000
1939.113525 6611.000000
1940.443237 5754.000000
1941.772095 6042.000000
1943.099731 5778.000000
1944.426880 4993.000000
1945.753296 5794.000000
1947.078979 6481.000000
1948.403320 5801.000000
1949.727417 6652.000000
1951.050659 6318.000000
1952.373169 6380.000000
1953.694580 5783.000000
1955.015015 7338.000000
1956.334839 6088.000000
1957.654297 5541.000000
1958.972778 6756.000000
1960.289917 5914.000000
1961.606689 5837.000000
1962.922729 6473.000000
1964.238037 6590.000000
1965.551880 6245.000000
1966.865479 5613.000000
1968.178345 6250.000000
1969.490356 6031.000000
1970.801758 6020.000000
1972.111816 6282.000000
1973.421387 5790.000000
1974.730225 6173.000000
1976.038452 6551.000000
1977.345337 6100.000000
1978.651611 7184.000000
1979.957520 5505.000000
1981.262207 6374.000000
1982.566406 5963.000000
1983.869385 5668.000000
1985.171997 7521.000000
1986.473633 6099.000000
1987.774658 6817.000000
1989.074097 5982.000000
1990.373657 6557.000000
1991.672119 5258.000000
1992.970093 6079.000000
1994.266479 6075.000000
1995.562866 5756.000000
1996.858276 5602.000000
1998.152954 6485.000000
1999.446777 5690.000000
2000.739380 6523.000000
2002.031494 5673.000000
2003.323120 7125.000000
2004.614014 6442.000000
2005.903320 6260.000000
2007.192383 6767.000000
2008.480713 5902.000000
2009.768311 6011.000000
2011.055054 6792.000000
2012.340698 5696.000000
2013.625977 6358.000000
2014.910278 6096.000000
2016.193970 5615.000000
2017.476318 5980.000000
2018.758301 6472.000000
2020.039795 6765.000000
2021.320313 5881.000000
2022.600098 6062.000000
2023.878784 6692.000000
2025.156738 5873.000000
2026.434204 5842.000000
2027.711060 6235.000000
2028.986206 5720.000000
2030.261475 6576.000000
2031.535767 6074.000000
2032.809082 5900.000000
2034.081543 5946.000000
2035.353638 6132.000000
2036.624634 6881.000000
2037.895386 6569.000000
2039.164795 6000.000000
2040.433105 6716.000000
2041.701416 6617.000000
2042.968750 5851.000000
2044.235352 5943.000000
2045.500732 5688.000000
2046.765503 5604.000000
2048.030029 5383.000000
2049.293213 5891.000000
2050.556152 6367.000000
2051.817139 6157.000000
2053.078613 5997.000000
2054.338867 5926.000000
2055.598389 6470.000000
2056.857178 6235.000000
2058.114990 6851.000000
2059.372314 6166.000000
2060.628906 5956.000000
2061.884033 6516.000000
2063.139160 5603.000000
2064.393311 5575.000000
2065.646729 5629.000000
2066.899414 6836.000000
2068.150879 6193.000000
2069.402100 6383.000000
2070.652588 5583.000000
2071.902344 5374.000000
2073.150635 6153.000000
2074.398926 6527.000000
2075.646240 7402.000000
2076.892822 5542.000000
2078.138672 5996.000000
2079.383301 6930.000000
2080.627441 7582.000000
2081.871094 5460.000000
2083.113770 5928.000000
2084.355225 6992.000000
2085.596436 5953.000000
2086.837158 6409.000000
2088.076904 6796.000000
2089.315430 7093.000000
2090.553467 6152.000000
2091.790771 5751.000000
2093.027832 6566.000000
2094.263428 6076.000000
2095.498291 6215.000000
2096.732910 6076.000000
2097.966553 5623.000000
2099.199219 6029.000000
2100.431152 6900.000000
2101.662598 6387.000000
2102.893066 6740.000000
2104.122803 6006.000000
2105.352295 5963.000000
2106.579834 5977.000000
2107.807617 5963.000000
2109.034668 6280.000000
2110.260742 5480.000000
2111.485352 6394.000000
2112.710205 6999.000000
2113.933838 7015.000000
2115.156982 6209.000000
2116.378906 7533.000000
2117.600586 5933.000000
2118.821289 6830.000000
2120.041260 6039.000000
2121.260742 6170.000000
2122.478760 6554.000000
2123.696777 7014.000000
2124.913818 5745.000000
2126.130371 5758.000000
2127.345215 6573.000000
2128.560303 6345.000000
2129.774414 6760.000000
2130.987793 5678.000000
2132.200439 6049.000000
2133.411621 5871.000000
2134.623047 6495.000000
2135.833252 6805.000000
2137.042969 5877.000000
2138.251221 6187.000000
2139.459473 5598.000000
2140.666992 5854.000000
2141.873291 7610.000000
2143.078857 5910.000000
2144.284180 5630.000000
2145.488525 5516.000000
2146.692139 6312.000000
2147.895264 6184.000000
2149.096924 6493.000000
2150.298340 5308.000000
2151.499023 6317.000000
2152.698975 6012.000000
2153.897705 5949.000000
2155.096191 6887.000000
2156.294189 6085.000000
2157.491211 5931.000000
2158.687500 5189.000000
2159.882568 5254.000000
2161.077393 6166.000000
2162.271484 5591.000000
2163.464600 6050.000000
2164.656738 6826.000000
2165.848633 5861.000000
2167.039795 6332.000000
2168.229980 6298.000000
2169.419434 6468.000000
2170.608398 6765.000000
2171.796387 5999.000000
2172.984131 5737.000000
2174.170410 5912.000000
2175.355957 6528.000000
2176.541260 6018.000000
2177.726074 5751.000000
2178.909668 6322.000000
2180.092529 7357.000000
2181.274414 6305.000000
2182.456055 6093.000000
2183.637207 6535.000000
2184.817139 5725.000000
2185.996094 5491.000000
2187.174561 6327.000000
2188.352783 6915.000000
2189.529785 7238.000000
2190.705811 6630.000000
2191.881592 6091.000000
2193.056885 5583.000000
2194.230713 6707.000000
2195.404053 6121.000000
2196.577148 6172.000000
2197.749023 6318.000000
2198.920410 7098.000000
2200.091309 6286.000000
2201.260498 6850.000000
2202.429688 7584.000000
2203.598389 6273.000000
2204.766113 5873.000000
2205.932861 5657.000000
2207.098877 7037.000000
2208.264404 6656.000000
2209.429688 5983.000000
2210.593506 6763.000000
2211.756836 5450.000000
2212.918945 6159.000000
2214.081299 6169.000000
2215.242432 6678.000000
2216.402588 6683.000000
2217.562256 6277.000000
2218.721680 6575.000000
2219.879883 6298.000000
2221.037109 6357.000000
2222.194092 6731.000000
2223.350342 6586.000000
2224.505859 6707.000000
2225.660645 6252.000000
2226.814453 6391.000000
2227.967285 6042.000000
2229.120605 6885.000000
2230.271973 6166.000000
2231.423096 6165.000000
2232.573486 6495.000000
2233.723389 7716.000000
2234.872314 6231.000000
2236.020752 5181.000000
2237.167725 6571.000000
2238.314941 6931.000000
2239.460938 6045.000000
2240.606689 7282.000000
2241.750732 7263.000000
2242.895020 6743.000000
2244.038330 6171.000000
2245.180908 6059.000000
2246.322510 5729.000000
2247.463867 5887.000000
2248.604248 6338.000000
2249.743896 6411.000000
2250.883057 5779.000000
2252.020996 5827.000000
2253.158936 6167.000000
2254.295898 5364.000000
2255.432129 6307.000000
2256.567383 6114.000000
2257.701904 7194.000000
2258.836182 6346.000000
2259.969971 5444.000000
2261.102295 6118.000000
2262.234131 6777.000000
2263.365479 6248.000000
2264.495850 6476.000000
2265.625977 8113.000000
2266.754883 6664.000000
2267.883301 6034.000000
2269.011230 5520.000000
2270.138184 6156.000000
2271.264404 5934.000000
2272.389648 6740.000000
2273.514893 6532.000000
2274.639404 6380.000000
2275.762695 5896.000000
2276.885254 6309.000000
2278.007324 6024.000000
2279.128906 7448.000000
2280.249756 6373.000000
2281.369385 6436.000000
2282.488525 7043.000000
2283.607422 7673.000000
2284.725586 7205.000000
2285.842773 5902.000000
2286.958984 6440.000000
2288.074951 7014.000000
2289.190186 6851.000000
2290.304688 7378.000000
2291.417969 5761.000000
2292.531250 6336.000000
2293.643799 6028.000000
2294.755615 5390.000000
2295.866699 6765.000000
2296.976563 6427.000000
2298.085938 6173.000000
2299.195068 6620.000000
2300.303223 6292.000000
2301.410400 6726.000000
2302.517334 5859.000000
2303.623535 6247.000000
2304.729248 6600.000000
2305.833496 6500.000000
2306.937500 5456.000000
2308.041016 5770.000000
2309.144043 6527.000000
2310.245850 7380.000000
2311.346924 7184.000000
2312.447510 6605.000000
2313.547607 5485.000000
2314.646973 6339.000000
2315.744873 6552.000000
2316.843262 6973.000000
2317.940186 8162.000000
2319.036865 6862.000000
2320.133057 5802.000000
2321.227539 6829.000000
2322.322021 7611.000000
2323.415771 5908.000000
2324.509277 6029.000000
2325.601074 6477.000000
2326.692871 7155.000000
2327.783936 6130.000000
2328.874268 6272.000000
2329.963623 6855.000000
2331.052979 6014.000000
2332.141113 6275.000000
2333.228760 6876.000000
2334.316162 6457.000000
2335.401855 6738.000000
2336.487305 7716.000000
2337.572510 6274.000000
2338.656738 6717.000000
2339.739990 5942.000000
2340.822998 6424.000000
2341.905029 7061.000000
2342.986816 5977.000000
2344.067871 7462.000000
2345.147705 6680.000000
2346.227051 5684.000000
2347.305908 6779.000000
2348.384277 6550.000000
2349.461182 6308.000000
2350.537842 6976.000000
2351.614258 5968.000000
2352.689697 6434.000000
2353.764160 5912.000000
2354.838379 6305.000000
2355.911865 6681.000000
2356.984863 6232.000000
2358.056641 7012.000000
2359.128174 6273.000000
2360.198730 6759.000000
2361.269043 7498.000000
2362.338379 7484.000000
2363.406738 6844.000000
2364.474854 6727.000000
2365.542236 7094.000000
2366.609131 7133.000000
2367.675293 6032.000000
2368.740234 6788.000000
2369.805176 6979.000000
2370.869385 6253.000000
2371.932861 6911.000000
2372.995117 5724.000000
2374.057373 6309.000000
2375.118652 6254.000000
2376.179688 5939.000000
2377.239502 6266.000000
2378.298584 7893.000000
2379.357666 6422.000000
2380.415771 7613.000000
2381.473145 6919.000000
2382.529541 8032.000000
2383.585693 7790.000000
2384.641357 6212.000000
2385.696289 7026.000000
2386.749756 6754.000000
2387.803467 6521.000000
2388.856201 6265.000000
2389.908447 6721.000000
2390.959961 6173.000000
2392.010498 6596.000000
2393.060791 6491.000000
2394.110107 6182.000000
2395.159424 6231.000000
2396.207275 6871.000000
2397.254639 6960.000000
2398.301758 6355.000000
2399.347900 6628.000000
2400.393311 6122.000000
2401.437988 6642.000000
2402.482666 7660.000000
2403.525879 7475.000000
2404.569092 6600.000000
2405.610840 5789.000000
2406.652832 6665.000000
2407.694092 7120.000000
2408.734375 6070.000000
2409.773926 6420.000000
2410.812500 6287.000000
2411.851318 5887.000000
2412.888916 6477.000000
2413.926270 6889.000000
2414.962402 7337.000000
2415.998291 6211.000000
2417.033447 6239.000000
2418.068115 6622.000000
2419.101318 7239.000000
2420.134766 6466.000000
2421.167236 6678.000000
2422.199463 6787.000000
2423.230225 7041.000000
2424.260986 6430.000000
2425.291260 6824.000000
2426.320313 6924.000000
2427.349365 6679.000000
2428.376709 7363.000000
2429.404541 6676.000000
2430.431152 7292.000000
2431.457520 6889.000000
2432.482422 7730.000000
2433.507568 6523.000000
2434.531738 7068.000000
2435.555664 6697.000000
2436.578369 5879.000000
2437.600342 6380.000000
2438.622070 6619.000000
2439.643066 6625.000000
2440.663574 5982.000000
2441.682861 6435.000000
2442.702148 6565.000000
2443.720459 8403.000000
2444.738525 6283.000000
2445.755127 6484.000000
2446.771729 6578.000000
2447.787598 5999.000000
2448.803467 6958.000000
2449.817871 6775.000000
2450.831543 5572.000000
2451.844727 7221.000000
2452.857666 5975.000000
2453.869873 7192.000000
2454.881104 6654.000000
2455.892090 7740.000000
2456.902344 6318.000000
2457.912109 7551.000000
2458.920898 5920.000000
2459.928955 5961.000000
2460.937012 6317.000000
2461.943848 7332.000000
2462.950439 5414.000000
2463.955811 7469.000000
2464.960938 6942.000000
2465.965820 5911.000000
2466.969482 6521.000000
2467.972900 6364.000000
2468.975342 7631.000000
2469.977539 7257.000000
2470.979248 6851.000000
2471.979980 6590.000000
2472.979736 6973.000000
2473.979492 6742.000000
2474.978271 5630.000000
2475.976563 6590.000000
2476.973877 7064.000000
2477.970947 6046.000000
2478.968018 6861.000000
2479.963623 5793.000000
2480.959229 7121.000000
2481.953125 6768.000000
2482.947021 8045.000000
2483.940430 6866.000000
2484.933350 6694.000000
2485.925293 7431.000000
2486.916504 7201.000000
2487.907471 6667.000000
2488.897949 5925.000000
2489.887451 6584.000000
2490.876221 6447.000000
2491.864990 5603.000000
2492.852783 6791.000000
2493.839355 6539.000000
2494.825928 8037.000000
2495.812012 6707.000000
2496.797363 7074.000000
2497.781738 8371.000000
2498.765869 6022.000000
2499.750000 6871.000000
2500.732666 5790.000000
2501.714844 6929.000000
2502.696533 6850.000000
2503.677490 7244.000000
2504.657959 6583.000000
2505.638184 5760.000000
2506.616943 6323.000000
2507.595459 7581.000000
2508.573486 6733.000000
2509.551025 7070.000000
2510.527588 6073.000000
2511.503906 5939.000000
2512.479492 6362.000000
2513.454590 6203.000000
2514.429199 6488.000000
2515.402588 7546.000000
2516.375732 6871.000000
2517.348633 6884.000000
2518.320557 6106.000000
2519.291748 6897.000000
2520.262451 6788.000000
2521.232910 7735.000000
2522.202637 8045.000000
2523.171387 6165.000000
2524.139404 6115.000000
2525.107422 7800.000000
2526.074463 6327.000000
2527.041260 5490.000000
2528.006836 7159.000000
2528.972412 6987.000000
2529.937256 7737.000000
2530.901611 6363.000000
2531.864746 6337.000000
2532.828125 5891.000000
2533.790527 5950.000000
2534.752686 6703.000000
2535.713623 6383.000000
2536.673828 6107.000000
2537.634277 6179.000000
2538.593750 6812.000000
2539.552490 6806.000000
2540.510254 6667.000000
2541.468262 6283.000000
2542.425537 6723.000000
2543.381836 6053.000000
2544.337891 7076.000000
2545.292725 6191.000000
2546.247803 7727.000000
2547.202148 7018.000000
2548.155762 6815.000000
2549.108398 7148.000000
2550.060791 6730.000000
2551.012695 6862.000000
2551.963867 6380.000000
2552.914307 7702.000000
2553.864258 7268.000000
2554.813965 7352.000000
2555.762939 6640.000000
2556.711426 6244.000000
2557.658691 7045.000000
2558.605957 6304.000000
2559.552490 6544.000000
2560.498535 6729.000000
2561.443604 7444.000000
2562.388428 6719.000000
2563.332764 7200.000000
2564.276611 6904.000000
2565.219971 6627.000000
2566.161865 6608.000000
2567.104004 6566.000000
2568.045410 6172.000000
2568.986084 7200.000000
2569.926025 7266.000000
2570.865967 5685.000000
2571.804932 6188.000000
2572.743652 7541.000000
2573.681396 7212.000000
2574.618896 5441.000000
2575.555664 6910.000000
2576.491699 6793.000000
2577.427246 7514.000000
2578.362061 6433.000000
2579.296875 5962.000000
2580.230713 7153.000000
2581.164063 7147.000000
2582.096680 5801.000000
2583.029053 6906.000000
2583.960693 5505.000000
2584.891846 7078.000000
2585.822510 6950.000000
2586.751953 6854.000000
2587.681396 7181.000000
2588.610352 6510.000000
2589.539063 7381.000000
2590.466064 7384.000000
2591.393311 5893.000000
2592.320068 6782.000000
2593.246094 6265.000000
2594.171875 5623.000000
2595.096436 7657.000000
2596.020752 7623.000000
2596.944580 5348.000000
2597.867920 7283.000000
2598.790283 6246.000000
2599.712402 6886.000000
2600.634033 8358.000000
2601.554932 6408.000000
2602.475098 5959.000000
2603.395020 6360.000000
2604.314453 6396.000000
2605.233643 6449.000000
2606.151855 5817.000000
2607.068848 5998.000000
2607.986084 7256.000000
2608.903076 5828.000000
2609.819092 7539.000000
2610.733887 6618.000000
2611.649170 6561.000000
2612.563721 6525.000000
2613.477295 6545.000000
2614.390869 6063.000000
2615.303223 7616.000000
2616.215576 7039.000000
2617.126953 6779.000000
2618.038086 5678.000000
2618.948486 7155.000000
2619.858643 6620.000000
2620.768066 6162.000000
2621.677002 6566.000000
2622.584961 6193.000000
2623.493164 6819.000000
2624.400391 6637.000000
2625.307129 7081.000000
2626.213135 6084.000000
2627.118896 6598.000000
2628.023926 6559.000000
2628.928711 7858.000000
2629.832764 6467.000000
2630.735840 6404.000000
2631.638916 6421.000000
2632.541016 5583.000000
2633.443115 6685.000000
2634.344971 6931.000000
2635.245117 6653.000000
2636.145508 6415.000000
2637.045166 6547.000000
2637.944580 6022.000000
2638.842529 6823.000000
2639.740967 6639.000000
2640.638916 6343.000000
2641.536133 6131.000000
2642.432129 6176.000000
2643.328125 6842.000000
2644.223877 6078.000000
2645.118896 6398.000000
2646.013672 6610.000000
2646.906982 7040.000000
2647.800293 6328.000000
2648.693359 6753.000000
2649.586182 6425.000000
2650.477295 7476.000000
2651.368652 6356.000000
2652.259521 7529.000000
2653.149658 7327.000000
2654.039551 6618.000000
2654.928223 7277.000000
2655.817139 6625.000000
2656.705566 6622.000000
2657.593018 7271.000000
2658.479492 6481.000000
2659.366455 7134.000000
2660.252686 6858.000000
2661.138428 6821.000000
2662.022949 6566.000000
2662.907471 6382.000000
2663.791748 6229.000000
2664.675293 7045.000000
2665.558350 7711.000000
2666.440674 7308.000000
2667.322510 6244.000000
2668.203613 6538.000000
2669.084961 6079.000000
2669.964844 6515.000000
2670.844971 7380.000000
2671.724365 7189.000000
2672.603760 6192.000000
2673.482422 6131.000000
2674.359375 6395.000000
2675.237061 6736.000000
2676.114014 6362.000000
2676.990234 8085.000000
2677.865967 7106.000000
2678.740967 6203.000000
2679.616211 7721.000000
2680.490479 6948.000000
2681.364258 7306.000000
2682.237305 7032.000000
2683.110107 6210.000000
2683.982666 6119.000000
2684.854492 6933.000000
2685.725586 6504.000000
2686.596436 6857.000000
2687.466797 7121.000000
2688.336914 6659.000000
2689.205322 6322.000000
2690.074463 7384.000000
2690.942871 7063.000000
2691.811035 6686.000000
2692.678467 6963.000000
2693.544678 5853.000000
2694.411377 7197.000000
2695.277100 7391.000000
2696.142822 7269.000000
2697.007080 7870.000000
2697.872070 6606.000000
2698.735596 7239.000000
2699.599365 5835.000000
2700.461670 7446.000000
2701.324463 6813.000000
2702.186279 5868.000000
2703.047607 6867.000000
2703.908936 6754.000000
2704.769043 7465.000000
2705.629150 7323.000000
2706.488770 6564.000000
2707.348145 6866.000000
2708.205811 7141.000000
2709.063721 6850.000000
2709.922119 7342.000000
2710.779297 6732.000000
2711.635742 5925.000000
2712.491699 6874.000000
2713.347656 6057.000000
2714.202881 6973.000000
2715.057373 6116.000000
2715.911377 6811.000000
2716.765381 7289.000000
2717.618408 6294.000000
2718.471680 6490.000000
2719.323242 7728.000000
2720.175293 6730.000000
2721.027100 6294.000000
2721.877686 6445.000000
2722.728271 6684.000000
2723.578369 7145.000000
2724.427734 7029.000000
2725.277100 6941.000000
2726.125244 6683.000000
2726.972900 6585.000000
2727.821045 6994.000000
2728.667969 6806.000000
2729.515381 5519.000000
2730.361328 7447.000000
2731.206543 7039.000000
2732.052246 6472.000000
2732.896973 7013.000000
2733.741699 7306.000000
2734.585205 6926.000000
2735.428955 7863.000000
2736.271973 7153.000000
2737.114502 6078.000000
2737.956055 6241.000000
2738.798096 6740.000000
2739.639160 6895.000000
2740.479980 5790.000000
2741.320557 5941.000000
2742.159912 7778.000000
2742.999268 6816.000000
2743.838623 6898.000000
2744.676758 6800.000000
2745.514404 7790.000000
2746.352051 6296.000000
2747.189209 7120.000000
2748.026123 6184.000000
2748.862549 6065.000000
2749.697754 6637.000000
2750.533203 6324.000000
2751.368164 6305.000000
2752.202393 6161.000000
2753.036377 6879.000000
2753.869873 6815.000000
2754.703369 7992.000000
2755.535889 6766.000000
2756.367920 7303.000000
2757.199463 6790.000000
2758.031006 7055.000000
2758.861572 7265.000000
2759.692383 7253.000000
2760.521973 7275.000000
2761.351563 6720.000000
2762.180908 7307.000000
2763.009521 6830.000000
2763.837646 6807.000000
2764.665283 6946.000000
2765.492920 6681.000000
2766.320068 7854.000000
2767.146484 5829.000000
2767.972412 7486.000000
2768.797852 6949.000000
2769.623047 7759.000000
2770.448242 7068.000000
2771.272217 6846.000000
2772.096191 6577.000000
2772.920166 7642.000000
2773.742920 6390.000000
2774.565918 7021.000000
2775.387695 6929.000000
2776.209473 6939.000000
2777.031250 6501.000000
2777.852051 7992.000000
2778.672119 6543.000000
2779.492432 7027.000000
2780.312256 7350.000000
2781.132080 6479.000000
2781.949951 5984.000000
2782.769043 8054.000000
2783.586914 6474.000000
2784.404541 6748.000000
2785.221680 7151.000000
2786.038330 7236.000000
2786.854736 7249.000000
2787.670654 6265.000000
2788.486328 5989.000000
2789.301025 6387.000000
2790.116211 7033.000000
2790.930664 7206.000000
2791.744629 6566.000000
2792.558350 7391.000000
2793.370850 8771.000000
2794.183594 6999.000000
2794.995850 7433.000000
2795.807617 7181.000000
2796.618652 7327.000000
2797.430420 6563.000000
2798.240967 7214.000000
2799.051514 7047.000000
2799.860596 7419.000000
2800.670410 8283.000000
2801.479492 7803.000000
2802.288330 6656.000000
2803.096680 7266.000000
2803.904053 6226.000000
2804.711914 6467.000000
2805.519043 6778.000000
2806.325928 6801.000000
2807.131592 7181.000000
2807.937744 6696.000000
2808.743164 6519.000000
2809.548584 7321.000000
2810.353271 6250.000000
2811.156982 7610.000000
2811.961182 7452.000000
2812.764893 6346.000000
2813.568359 6114.000000
2814.370361 6276.000000
2815.173096 7328.000000
2815.975098 7796.000000
2816.776855 6140.000000
2817.578125 6552.000000
2818.378906 7313.000000
2819.179199 6552.000000
2819.979736 6624.000000
2820.779297 7969.000000
2821.578369 7168.000000
2822.377441 6475.000000
2823.176270 6964.000000
2823.974609 6401.000000
2824.771973 7063.000000
2825.569580 7017.000000
2826.366455 6711.000000
2827.163574 7369.000000
2827.959961 8138.000000
2828.755615 6975.000000
2829.551270 7291.000000
2830.346680 7539.000000
2831.141602 7446.000000
2831.935791 6600.000000
2832.729980 6794.000000
2833.523926 5755.000000
2834.317383 6823.000000
2835.110107 7241.000000
2835.902588 8156.000000
2836.695068 7684.000000
2837.487305 7498.000000
2838.279053 6462.000000
2839.069824 6775.000000
2839.860596 8865.000000
2840.651611 7500.000000
2841.441650 6288.000000
2842.231201 7629.000000
2843.020996 7183.000000
2843.809814 7342.000000
2844.598633 7785.000000
2845.387451 7741.000000
2846.175293 7462.000000
2846.962646 7227.000000
2847.750244 7488.000000
2848.537354 7230.000000
2849.323730 6627.000000
2850.110107 7456.000000
2850.896240 7283.000000
2851.681885 7488.000000
2852.466553 7185.000000
2853.251709 6835.000000
2854.036621 7420.000000
2854.820801 7079.000000
2855.604980 6940.000000
2856.387939 8275.000000
2857.171143 6834.000000
2857.954102 6793.000000
2858.736572 7771.000000
2859.518799 6292.000000
2860.300537 6634.000000
2861.082031 7552.000000
2861.863770 7470.000000
2862.644775 7602.000000
2863.425049 6545.000000
2864.205078 6780.000000
2864.985107 8204.000000
2865.764893 7472.000000
2866.543701 8160.000000
2867.322754 7663.000000
2868.101318 6773.000000
2868.879639 6832.000000
2869.657471 7224.000000
2870.435059 6953.000000
2871.212402 7507.000000
2871.989502 7018.000000
2872.766113 6389.000000
2873.542236 7440.000000
2874.318359 7162.000000
2875.093994 8298.000000
2875.869385 7184.000000
2876.644287 6603.000000
2877.418945 8016.000000
2878.193604 6628.000000
2878.968018 7760.000000
2879.741699 6761.000000
2880.514648 7183.000000
2881.288330 6697.000000
2882.061035 7604.000000
2882.833740 7829.000000
2883.605713 8218.000000
2884.377441 6227.000000
2885.149658 6794.000000
2885.920654 6921.000000
2886.691162 6183.000000
2887.462158 8272.000000
2888.233154 7366.000000
2889.003418 7956.000000
2889.772705 7590.000000
2890.542236 6982.000000
2891.311768 7201.000000
2892.080811 7344.000000
2892.849365 7833.000000
2893.617920 7924.000000
2894.385498 6953.000000
2895.153564 6626.000000
2895.921143 7428.000000
2896.688721 8294.000000
2897.455078 7405.000000
2898.222412 6543.000000
2898.988525 7236.000000
2899.754883 7053.000000
2900.519775 8293.000000
2901.285156 6999.000000
2902.051025 6499.000000
2902.815430 7684.000000
2903.579834 7751.000000
2904.344482 8410.000000
2905.108154 6650.000000
2905.872559 8483.000000
2906.636230 6685.000000
2907.399170 8363.000000
2908.161865 6576.000000
2908.925049 8900.000000
2909.687744 6966.000000
2910.449219 6814.000000
2911.211182 6814.000000
