scanname Analyse058
timestamp 2017-02-10 21:17:00
ccdbias 895.600098
ccdgain 3.473401
sigmaread 8.960639
laserwavenum -0.426662
wavenumcorrection 0.096302
scancount 1
totalexposurems 10000
singleexposurems 10000
measurementstate Unknown
scanmode Manual
snr 48.843765 0.446452 0.215425
replacelist 0
peaks 5
810.918762 0.108741 0.000000 0.379003 0.000083
841.153931 0.105507 0.000000 0.079686 0.000010
1316.846802 0.092336 0.000000 1.972489 0.000435
1458.628052 0.084096 0.000000 0.231358 0.000029
2329.943604 0.038241 0.000000 0.122387 0.000342
finalresult GLS_Multiple 90
A12955	2-Chloro-1,3,2-dioxaphospholane	3.749064e-001
A9321	Methyl 2-hydroxyisobutyrate	3.718017e-001
A9546	4-Methoxy-alpha-methylbenzyl alcohol	3.677589e-001
A1531	Ethyl formate	3.656862e-001
A5628	4-(4-Methoxyphenyl)butyric acid	3.622968e-001
A3653	(R)-(+)-3-Methylcyclopentanone	3.611386e-001
A9092	p-Tolyl ether	3.609250e-001
A11872	Poly(methyl methacrylate)	3.596820e-001
A4025	2,4-Dimethylpentane	3.589932e-001
A1754	N,N-Dimethylhydrazine	3.583176e-001
A3868	N-formylmorpholine	3.580928e-001
A1270	Methyl DL-lactate	3.579552e-001
A11885	Poly(methyl methacrylate-co-butyl methacrylate)	3.576556e-001
A10674	Dibutyl succinate	3.569193e-001
A13820	(-)-Methyl L-lactate	3.553017e-001
A7848	Butyl glycolate	3.552644e-001
A7225	Dibutyl adipate	3.550904e-001
A0138	Dibutyl ether	3.547804e-001
A6290	Bis(2,2,2-trifluoroethyl) phosphite	3.546811e-001
A13507	Poly(methyl methacrylate-co-ethyl acrylate)	3.544331e-001
A2721	Formaldehyde diethyl acetal	3.540733e-001
A1676	Trifluoroacetic acid	3.537763e-001
A2313	Barium peroxide	3.530089e-001
A0400	Potassium permanganate	3.527743e-001
A4807	2-(2-Nitroethoxy)tetrahydropyran	3.527620e-001
A8360	5-Chloro-2-nitroaniline	3.525516e-001
A10301	2-Methoxytetrahydropyran	3.524035e-001
A8610	5-Methyl-2-pyrrolidinone	3.519469e-001
A12733	Tri-tert-butyl borate	3.517989e-001
A1899	Dibutyl sebacate	3.517249e-001
A4881	2-(2-Chloroethoxy)tetrahydro-2H-pyran	3.516386e-001
A1519	Butyl vinyl ether	3.515401e-001
A0369	2,4,6-Tribromophenol	3.514909e-001
A5377	4-Methyl-2-nitroanisole	3.514165e-001
A0524	Propionic acid	3.508993e-001
A6700	4'-Methoxypropiophenone	3.506412e-001
A0793	Tris(2-methoxyethoxy)(vinyl)silane	3.505920e-001
A4269	2,4-Dibromoanisole	3.502109e-001
A3222	Potassium nitrite	3.499404e-001
A1002	Dibutyl maleate	3.497930e-001
A2839	5-Azacytidine	3.493513e-001
A3573	Ammonium tartrate dibasic	3.492039e-001
A2703	Acetaldehyde dimethyl acetal	3.491061e-001
A0518	Propylene glycol	3.489954e-001
A14069	(R)-(-)-1,2-Propanediol	3.484930e-001
A6278	6-Methylnicotinamide	3.470507e-001
A2098	Diethylene glycol dibutyl ether	3.469651e-001
A3625	1-Dimethylamino-2-propanol	3.464283e-001
A9308	Dimethyl 2,4-dimethylglutarate,mixture of (+/-) and meso	3.463672e-001
A10529	1-Formylpiperazine	3.460628e-001
A5382	3-Methoxypropionic acid	3.460020e-001
A9660	3-(4-Methoxybenzoyl)propionic acid	3.457584e-001
A0098	Roundup (weed and grass killer)	3.456365e-001
A0587	Triethylene glycol monobutyl ether	3.455756e-001
A8663	4-Methyl-3,5-dinitrobenzoic acid	3.451864e-001
A1149	Methyl 2-aminobenzoate	3.450165e-001
A2727	Acrolein diethyl acetal	3.448827e-001
A1224	Poly(ethylene glycol) butyl ether	3.448220e-001
A2225	Diethylene glycol butyl ether	3.446518e-001
A1226	Bis[2-(2-butoxyethoxy)ethyl] adipate	3.437057e-001
A0340	Butyronitrile	3.434269e-001
A7119	2-Deoxy-D-ribose	3.429186e-001
A2210	Calcium peroxide hydrate	3.427490e-001
A11482	Methyl 5-methoxysalicylate	3.423263e-001
A11768	Methyl (S)-(-)-3-Boc-2,2-dimethyl-4-oxazolidinecarboxylate	3.422053e-001
A10066	2,5-Lutidine	3.421813e-001
A0365	Tris(2-butoxyethyl) phosphate	3.419278e-001
A1748	3,4-Dihydro-2H-pyran	3.411075e-001
A0761	N,N,N',N'-Tetrakis(2-Hydroxypropyl)ethylenediamine	3.410593e-001
A8178	N,N'-Diisopropylethylenediamine	3.406981e-001
A7633	2-Nitro-p-cymene	3.402047e-001
A10296	Tri(ethylene glycol) divinyl ether	3.400242e-001
A2413	Sodium selenate	3.399522e-001
A4543	1,4-Butanediol divinyl ether	3.396161e-001
A1547	Isovaleric acid	3.395320e-001
A11767	Di(ethylene glycol) vinyl ether	3.394477e-001
A5310	4-Methyl-3-nitroanisole	3.394121e-001
A0937	Polyethylene glycol dimethyl ether	3.391236e-001
A13797	Isobutyltriethoxysilane	3.390520e-001
A0544	1,4-Dioxane	3.389798e-001
A3574	Sodium hexanitrocobaltate(III)	3.388599e-001
A11593	4-(Trifluoromethoxy)phenyl isocyanate	3.387160e-001
A8580	Sodium permanganate solution	3.385962e-001
A9593	(R)-(-)-2-Amino-1-propanol	3.385245e-001
A9484	S-(+)-2-Amino-1-propanol	3.384048e-001
A2630	DL-Alaninol	3.379858e-001
A5525	2-Methylene-1,3-propanediol	3.374236e-001
A10581	Piperidine	3.367427e-001
A8415	2-Chloro-6-methoxy-3-nitropyridine	3.349565e-001
A11366	4-Isopropylanisole	3.344933e-001
spectrum 2048
-97.174789 45298.000000
-94.547920 45298.000000
-91.922928 45996.000000
-89.299828 45921.000000
-86.678596 46754.000000
-84.059265 46602.000000
-81.441795 46888.000000
-78.826202 46679.000000
-76.212486 46950.000000
-73.600647 47324.000000
-70.990669 47165.000000
-68.382576 47351.000000
-65.776329 47343.000000
-63.171963 47332.000000
-60.569454 47292.000000
-57.968800 47771.000000
-55.370007 47263.000000
-52.773071 46482.000000
-50.177990 46883.000000
-47.584763 46872.000000
-44.993385 47107.000000
-42.403854 46650.000000
-39.816166 47440.000000
-37.230328 47281.000000
-34.646332 46889.000000
-32.064171 47643.000000
-29.483860 47015.000000
-26.905375 47609.000000
-24.328732 47130.000000
-21.753914 47019.000000
-19.180937 46797.000000
-16.609779 46730.000000
-14.040456 46386.000000
-11.472958 45425.000000
-8.907278 46758.000000
-6.343424 46561.000000
-3.781384 46928.000000
-1.221168 47037.000000
1.337240 46571.000000
3.893827 45664.000000
6.448609 45762.000000
9.001575 46004.000000
11.552739 44794.000000
14.102091 44457.000000
16.649647 43660.000000
19.195391 43891.000000
21.739342 43409.000000
24.281488 41224.000000
26.821838 39162.000000
29.360403 36444.000000
31.897171 33017.000000
34.432137 27649.000000
36.965324 16005.000000
39.496731 9187.000000
42.026344 8084.000000
44.554161 8034.000000
47.080219 7519.000000
49.604488 6214.000000
52.126987 5297.000000
54.647690 4949.000000
57.166637 5359.000000
59.683811 6307.000000
62.199207 8020.000000
64.712830 10766.000000
67.224693 10973.000000
69.734810 7334.000000
72.243134 4514.000000
74.749702 3565.000000
77.254524 3019.000000
79.757591 2350.000000
82.258881 2100.000000
84.758430 2012.000000
87.256226 1986.000000
89.752289 1982.000000
92.246574 2408.000000
94.739120 2633.000000
97.229950 2733.000000
99.719009 2503.000000
102.206322 2000.000000
104.691910 1491.000000
107.175758 1431.000000
109.657860 1377.000000
112.138237 1221.000000
114.616890 1156.000000
117.093819 1130.000000
119.568993 982.000000
122.042458 973.000000
124.514191 978.000000
126.984215 964.000000
129.452484 1016.000000
131.919083 912.000000
134.383926 986.000000
136.847076 1049.000000
139.308487 1093.000000
141.768204 1180.000000
144.226196 1283.000000
146.682495 1455.000000
149.137085 1590.000000
151.589951 1795.000000
154.041138 2001.000000
156.490631 2269.000000
158.938400 2554.000000
161.384460 2976.000000
163.828842 3327.000000
166.271545 3645.000000
168.712555 3757.000000
171.151855 4128.000000
173.589447 4084.000000
176.025406 4343.000000
178.459625 4278.000000
180.892166 4354.000000
183.323059 4248.000000
185.752228 4408.000000
188.179749 4298.000000
190.605591 4340.000000
193.029755 4428.000000
195.452255 4484.000000
197.873062 4471.000000
200.292206 4529.000000
202.709686 4768.000000
205.125473 4868.000000
207.539612 5040.000000
209.952118 5274.000000
212.362946 5635.000000
214.772095 5835.000000
217.179611 6287.000000
219.585419 6609.000000
221.989639 6981.000000
224.392151 7294.000000
226.793045 7414.000000
229.192291 7654.000000
231.589874 7954.000000
233.985794 8066.000000
236.380096 7987.000000
238.772736 7964.000000
241.163757 8104.000000
243.553116 8041.000000
245.940857 8284.000000
248.326950 8102.000000
250.711411 8103.000000
253.094223 7928.000000
255.475464 8150.000000
257.854980 8048.000000
260.232941 8087.000000
262.609222 8138.000000
264.983948 8092.000000
267.357025 8009.000000
269.728455 7936.000000
272.098236 8055.000000
274.466461 8044.000000
276.833038 7943.000000
279.198029 7954.000000
281.561401 8027.000000
283.923126 8063.000000
286.283264 7984.000000
288.641785 7823.000000
290.998718 7913.000000
293.354034 7982.000000
295.707764 8034.000000
298.059845 7885.000000
300.410370 7946.000000
302.759308 7909.000000
305.106598 7955.000000
307.452362 7872.000000
309.796448 7962.000000
312.139008 7809.000000
314.479950 7858.000000
316.819275 7674.000000
319.157043 7840.000000
321.493256 7796.000000
323.827820 7794.000000
326.160828 7859.000000
328.492279 7704.000000
330.822144 7853.000000
333.150421 7825.000000
335.477081 7595.000000
337.802246 7435.000000
340.125793 7696.000000
342.447784 7610.000000
344.768219 7557.000000
347.087036 7585.000000
349.404297 7477.000000
351.720032 7531.000000
354.034180 7497.000000
356.346741 7522.000000
358.657745 7619.000000
360.967224 7678.000000
363.275177 7611.000000
365.581512 7493.000000
367.886261 7536.000000
370.189545 7454.000000
372.491211 7555.000000
374.791382 7554.000000
377.089996 7686.000000
379.387054 7563.000000
381.682556 7564.000000
383.976532 7651.000000
386.268921 7647.000000
388.559814 7711.000000
390.849182 7666.000000
393.136963 7748.000000
395.423218 7790.000000
397.707977 7938.000000
399.991119 7858.000000
402.272827 7901.000000
404.553009 7741.000000
406.831604 7781.000000
409.108673 7780.000000
411.384216 7696.000000
413.658234 7673.000000
415.930817 7685.000000
418.201782 7586.000000
420.471252 7620.000000
422.739227 7580.000000
425.005646 7410.000000
427.270569 7458.000000
429.534027 7427.000000
431.795898 7316.000000
434.056305 7460.000000
436.315155 7420.000000
438.572540 7396.000000
440.828430 7435.000000
443.082825 7411.000000
445.335693 7347.000000
447.587006 7425.000000
449.836914 7251.000000
452.085236 7219.000000
454.332123 7281.000000
456.577545 7223.000000
458.821411 7250.000000
461.063782 7238.000000
463.304657 7182.000000
465.544128 7230.000000
467.782013 7334.000000
470.018463 7251.000000
472.253387 7069.000000
474.486847 6992.000000
476.718872 7037.000000
478.949371 7013.000000
481.178375 7006.000000
483.405914 7029.000000
485.631958 7012.000000
487.856567 6962.000000
490.079712 7013.000000
492.301392 7180.000000
494.521515 7074.000000
496.740234 7052.000000
498.957458 7041.000000
501.173309 7003.000000
503.387543 7099.000000
505.600464 7184.000000
507.811798 6968.000000
510.021698 7122.000000
512.230164 7157.000000
514.437256 7106.000000
516.642761 7100.000000
518.846863 7019.000000
521.049438 7056.000000
523.250610 7090.000000
525.450439 6952.000000
527.648743 7043.000000
529.845520 7046.000000
532.040955 7061.000000
534.234863 7016.000000
536.427429 6964.000000
538.618469 6846.000000
540.808105 6944.000000
542.996338 6890.000000
545.183044 6809.000000
547.368286 6768.000000
549.552246 6672.000000
551.734619 6639.000000
553.915649 6619.000000
556.095154 6603.000000
558.273376 6644.000000
560.450073 6521.000000
562.625366 6647.000000
564.799255 6550.000000
566.971680 6362.000000
569.142700 6653.000000
571.312256 6514.000000
573.480530 6603.000000
575.647278 6471.000000
577.812561 6460.000000
579.976440 6551.000000
582.139038 6604.000000
584.300110 6602.000000
586.459778 6658.000000
588.618103 6584.000000
590.774902 6642.000000
592.930359 6328.000000
595.084412 6576.000000
597.237122 6536.000000
599.388306 6603.000000
601.538147 6644.000000
603.686646 6584.000000
605.833557 6568.000000
607.979248 6551.000000
610.123535 6579.000000
612.266357 6688.000000
614.407715 6608.000000
616.547852 6604.000000
618.686462 6518.000000
620.823792 6478.000000
622.959656 6637.000000
625.094116 6420.000000
627.227112 6481.000000
629.358948 6504.000000
631.489319 6532.000000
633.618286 6474.000000
635.745789 6388.000000
637.872009 6210.000000
639.996704 6248.000000
642.120178 6264.000000
644.242310 6312.000000
646.362976 6292.000000
648.482300 6192.000000
650.600220 6200.000000
652.716797 6165.000000
654.831970 6260.000000
656.945801 5976.000000
659.058167 6089.000000
661.169312 6133.000000
663.279053 6119.000000
665.387329 6085.000000
667.494446 6135.000000
669.600098 6051.000000
671.704285 6151.000000
673.807251 6053.000000
675.908813 6214.000000
678.009033 6113.000000
680.107849 6094.000000
682.205322 6214.000000
684.301514 6161.000000
686.396240 6172.000000
688.489746 6158.000000
690.581909 6061.000000
692.672546 6176.000000
694.761963 6198.000000
696.850098 6261.000000
698.936768 6200.000000
701.022217 6270.000000
703.106140 6149.000000
705.188843 6181.000000
707.270264 6106.000000
709.350220 6081.000000
711.428955 5724.000000
713.506226 5915.000000
715.582214 5890.000000
717.656921 5869.000000
719.730347 5654.000000
721.802246 6105.000000
723.872986 5970.000000
725.942383 5809.000000
728.010376 5831.000000
730.077026 5883.000000
732.142456 5833.000000
734.206543 5803.000000
736.269287 5762.000000
738.330688 5743.000000
740.390808 5721.000000
742.449524 5751.000000
744.507019 5601.000000
746.563232 5631.000000
748.618042 5562.000000
750.671570 5665.000000
752.723694 5643.000000
754.774597 5647.000000
756.824280 5606.000000
758.872498 5617.000000
760.919495 5574.000000
762.965210 5494.000000
765.009521 5626.000000
767.052551 5556.000000
769.094360 5421.000000
771.134827 5512.000000
773.173889 5545.000000
775.211792 5503.000000
777.248352 5587.000000
779.283691 5622.000000
781.317688 5688.000000
783.350281 5662.000000
785.381714 5609.000000
787.411743 5622.000000
789.440491 5553.000000
791.468079 5724.000000
793.494324 5757.000000
795.519165 5718.000000
797.542908 5723.000000
799.565247 5683.000000
801.586365 5801.000000
803.606140 5722.000000
805.624634 5900.000000
807.641907 5985.000000
809.657776 5953.000000
811.672485 6022.000000
813.685852 5941.000000
815.697998 5671.000000
817.708923 5710.000000
819.718506 5530.000000
821.726868 5469.000000
823.733826 5559.000000
825.739563 5427.000000
827.744080 5556.000000
829.747314 5549.000000
831.749268 5291.000000
833.749939 5350.000000
835.749390 5442.000000
837.747498 5473.000000
839.744507 5509.000000
841.740112 5458.000000
843.734558 5524.000000
845.727661 5465.000000
847.719543 5343.000000
849.710083 5211.000000
851.699341 5212.000000
853.687561 5211.000000
855.674377 5119.000000
857.659973 5165.000000
859.644287 5162.000000
861.627502 5113.000000
863.609314 5118.000000
865.589905 5113.000000
867.569214 5039.000000
869.547363 5060.000000
871.524170 5082.000000
873.499695 5116.000000
875.474182 5283.000000
877.447205 5246.000000
879.419189 5365.000000
881.389832 5340.000000
883.359314 5236.000000
885.327454 5281.000000
887.294434 5213.000000
889.260071 5335.000000
891.224548 5289.000000
893.187805 5197.000000
895.149841 5122.000000
897.110596 5174.000000
899.070129 5182.000000
901.028381 5030.000000
902.985535 5073.000000
904.941528 5149.000000
906.896118 5095.000000
908.849487 5063.000000
910.801697 5020.000000
912.752686 5087.000000
914.702393 4874.000000
916.650940 4879.000000
918.598267 4843.000000
920.544312 4824.000000
922.489075 4915.000000
924.432800 4752.000000
926.375366 4766.000000
928.316650 4662.000000
930.256592 4576.000000
932.195435 4562.000000
934.132996 4471.000000
936.069336 4497.000000
938.004517 4545.000000
939.938416 4512.000000
941.871216 4592.000000
943.802795 4519.000000
945.733215 4522.000000
947.662415 4574.000000
949.590271 4449.000000
951.517090 4469.000000
953.442627 4603.000000
955.366882 4532.000000
957.290039 4652.000000
959.212036 4611.000000
961.132751 4673.000000
963.052307 4554.000000
964.970703 4800.000000
966.888062 4648.000000
968.803955 4794.000000
970.718750 4727.000000
972.632324 4728.000000
974.544739 4784.000000
976.455933 4673.000000
978.365967 4724.000000
980.274719 4698.000000
982.182434 4684.000000
984.088928 4687.000000
985.994202 4685.000000
987.898376 4628.000000
989.801331 4579.000000
991.703064 4500.000000
993.603638 4166.000000
995.503052 4649.000000
997.401245 4535.000000
999.298279 4613.000000
1001.194092 4404.000000
1003.088745 4413.000000
1004.982300 4379.000000
1006.874573 4205.000000
1008.765930 4230.000000
1010.655945 4243.000000
1012.544739 4213.000000
1014.432373 4170.000000
1016.318848 4137.000000
1018.204163 4172.000000
1020.088318 4086.000000
1021.971252 4123.000000
1023.853149 4075.000000
1025.733765 4174.000000
1027.613281 4159.000000
1029.491821 4209.000000
1031.369019 4173.000000
1033.244873 4194.000000
1035.119751 4209.000000
1036.993652 4134.000000
1038.866089 4110.000000
1040.737549 4145.000000
1042.607666 4111.000000
1044.476807 4107.000000
1046.344727 4208.000000
1048.211548 4057.000000
1050.077271 4122.000000
1051.941772 4115.000000
1053.805176 4134.000000
1055.667236 4280.000000
1057.528320 4134.000000
1059.388306 4249.000000
1061.246948 4198.000000
1063.104492 4157.000000
1064.960938 4207.000000
1066.816284 4232.000000
1068.670410 4170.000000
1070.523682 4216.000000
1072.375488 4162.000000
1074.226318 4137.000000
1076.075928 4193.000000
1077.924316 4267.000000
1079.771851 4147.000000
1081.618042 4168.000000
1083.463013 4117.000000
1085.307129 4163.000000
1087.149902 4153.000000
1088.991455 4162.000000
1090.832275 3988.000000
1092.671509 4013.000000
1094.510010 4071.000000
1096.347168 4018.000000
1098.183105 3908.000000
1100.018066 3947.000000
1101.851807 3846.000000
1103.684570 3786.000000
1105.515991 3784.000000
1107.346558 3904.000000
1109.175781 3787.000000
1111.004028 3629.000000
1112.831055 3716.000000
1114.657104 3665.000000
1116.481934 3673.000000
1118.305664 3710.000000
1120.128174 3682.000000
1121.949585 3688.000000
1123.770142 3673.000000
1125.589233 3755.000000
1127.407471 3696.000000
1129.224365 3620.000000
1131.040405 3672.000000
1132.855225 3633.000000
1134.668945 3730.000000
1136.481567 3664.000000
1138.292969 3808.000000
1140.103394 3777.000000
1141.912720 3846.000000
1143.720703 3908.000000
1145.527954 3844.000000
1147.333740 3904.000000
1149.138672 3862.000000
1150.942505 3964.000000
1152.745117 4008.000000
1154.546875 4031.000000
1156.347168 4013.000000
1158.146484 3940.000000
1159.944824 3848.000000
1161.741821 3912.000000
1163.538086 3910.000000
1165.333008 3834.000000
1167.126831 3756.000000
1168.919800 3749.000000
1170.711426 3841.000000
1172.502075 3716.000000
1174.291748 3657.000000
1176.079956 3661.000000
1177.867310 3677.000000
1179.653564 3583.000000
1181.438721 3633.000000
1183.222778 3665.000000
1185.005737 3630.000000
1186.787720 3635.000000
1188.568481 3607.000000
1190.348267 3534.000000
1192.126953 3513.000000
1193.904663 3475.000000
1195.681152 3382.000000
1197.456543 3415.000000
1199.230835 3372.000000
1201.004028 3389.000000
1202.776367 3361.000000
1204.547363 3272.000000
1206.317505 3409.000000
1208.086426 3253.000000
1209.854248 3398.000000
1211.621216 3333.000000
1213.386841 3268.000000
1215.151489 3209.000000
1216.915039 3381.000000
1218.677490 3449.000000
1220.439087 3286.000000
1222.199463 3332.000000
1223.958740 3330.000000
1225.717163 3345.000000
1227.474365 3349.000000
1229.230469 3236.000000
1230.985474 3348.000000
1232.739624 3356.000000
1234.492432 3466.000000
1236.244263 3439.000000
1237.995239 3369.000000
1239.744873 3352.000000
1241.493652 3408.000000
1243.241089 3429.000000
1244.987793 3357.000000
1246.733276 3353.000000
1248.477905 3367.000000
1250.221191 3368.000000
1251.963501 3414.000000
1253.704712 3411.000000
1255.445068 3249.000000
1257.184326 3234.000000
1258.922363 3176.000000
1260.659546 3160.000000
1262.395508 3093.000000
1264.130493 3242.000000
1265.864502 3352.000000
1267.597534 3447.000000
1269.329346 3295.000000
1271.060181 3321.000000
1272.789795 3319.000000
1274.518555 3461.000000
1276.246216 3423.000000
1277.972778 3391.000000
1279.698486 3430.000000
1281.422852 3350.000000
1283.146362 3403.000000
1284.868896 3398.000000
1286.590454 3347.000000
1288.310791 3352.000000
1290.030151 3347.000000
1291.748413 3338.000000
1293.465698 3200.000000
1295.182007 3387.000000
1296.897095 3239.000000
1298.611206 3447.000000
1300.324341 3343.000000
1302.036621 3357.000000
1303.747681 3211.000000
1305.457764 3286.000000
1307.166748 3263.000000
1308.874512 3127.000000
1310.581665 3177.000000
1312.287354 3258.000000
1313.992310 3160.000000
1315.696289 3294.000000
1317.399048 3305.000000
1319.100830 3337.000000
1320.801758 3197.000000
1322.501343 5215.000000
1324.200073 1127.000000
1325.898071 3194.000000
1327.594727 3297.000000
1329.290283 3154.000000
1330.984985 3218.000000
1332.678467 3274.000000
1334.371094 3184.000000
1336.062866 3230.000000
1337.753296 3113.000000
1339.442993 3071.000000
1341.131592 3097.000000
1342.819092 3004.000000
1344.505615 3084.000000
1346.191040 3074.000000
1347.875488 3094.000000
1349.559082 2953.000000
1351.241455 3005.000000
1352.922852 3057.000000
1354.603394 3089.000000
1356.282715 3179.000000
1357.961426 3207.000000
1359.638794 3198.000000
1361.315063 3290.000000
1362.990356 3270.000000
1364.664917 3311.000000
1366.338257 3353.000000
1368.010620 3208.000000
1369.682007 3208.000000
1371.352417 3181.000000
1373.021729 3158.000000
1374.690063 3174.000000
1376.357544 3157.000000
1378.023926 3104.000000
1379.689331 3137.000000
1381.353760 3072.000000
1383.016968 2959.000000
1384.679565 3043.000000
1386.340820 3064.000000
1388.001221 2933.000000
1389.660522 2987.000000
1391.318848 2933.000000
1392.976440 2906.000000
1394.632813 3000.000000
1396.288330 2958.000000
1397.942627 3011.000000
1399.596069 2961.000000
1401.248413 3040.000000
1402.900024 2973.000000
1404.550415 2875.000000
1406.199707 2899.000000
1407.848267 2886.000000
1409.495728 2823.000000
1411.142212 2737.000000
1412.787842 2753.000000
1414.432495 2751.000000
1416.075928 2709.000000
1417.718506 2598.000000
1419.359985 2649.000000
1421.000610 2726.000000
1422.640259 2746.000000
1424.278809 2738.000000
1425.916504 2691.000000
1427.553101 2626.000000
1429.188721 2655.000000
1430.823608 2676.000000
1432.457397 2631.000000
1434.090088 2695.000000
1435.721802 2684.000000
1437.352661 2723.000000
1438.982422 2660.000000
1440.611084 2735.000000
1442.239136 2767.000000
1443.866089 2693.000000
1445.491821 2658.000000
1447.116943 2672.000000
1448.740967 2665.000000
1450.364014 2823.000000
1451.986084 2769.000000
1453.607056 2804.000000
1455.227051 2944.000000
1456.846313 2774.000000
1458.464233 2886.000000
1460.081543 2625.000000
1461.697876 2808.000000
1463.312988 2944.000000
1464.927246 2815.000000
1466.540649 2739.000000
1468.152954 2902.000000
1469.764404 2736.000000
1471.375000 2787.000000
1472.984375 2699.000000
1474.592773 2587.000000
1476.200317 2749.000000
1477.806885 2816.000000
1479.412720 2647.000000
1481.017334 2566.000000
1482.621094 2575.000000
1484.223633 2526.000000
1485.825562 2432.000000
1487.426270 2395.000000
1489.026245 2491.000000
1490.625122 2461.000000
1492.223145 2472.000000
1493.820068 2391.000000
1495.416138 2497.000000
1497.011230 2554.000000
1498.605347 2507.000000
1500.198730 2528.000000
1501.791016 2534.000000
1503.382080 2549.000000
1504.972656 2467.000000
1506.561890 2497.000000
1508.150513 2397.000000
1509.738037 2475.000000
1511.324463 2450.000000
1512.910156 2506.000000
1514.494751 2474.000000
1516.078491 2483.000000
1517.661133 2494.000000
1519.243042 2427.000000
1520.823853 2409.000000
1522.403931 2393.000000
1523.982788 2389.000000
1525.560791 2407.000000
1527.138062 2390.000000
1528.714111 2334.000000
1530.289429 2294.000000
1531.863647 2334.000000
1533.437134 2217.000000
1535.009399 2235.000000
1536.580933 2272.000000
1538.151489 2224.000000
1539.721191 2199.000000
1541.289673 2270.000000
1542.857422 2215.000000
1544.424316 2184.000000
1545.989990 2161.000000
1547.554932 2230.000000
1549.118774 2219.000000
1550.682007 2211.000000
1552.243896 2192.000000
1553.805176 2323.000000
1555.365356 2252.000000
1556.924805 2346.000000
1558.483154 2298.000000
1560.040771 2249.000000
1561.597290 2187.000000
1563.152588 2141.000000
1564.707275 2172.000000
1566.261230 2157.000000
1567.814209 2179.000000
1569.365845 2186.000000
1570.916748 2121.000000
1572.466919 2156.000000
1574.016113 2131.000000
1575.563965 2123.000000
1577.111328 2104.000000
1578.657715 2094.000000
1580.203247 2171.000000
1581.747803 2127.000000
1583.291138 2134.000000
1584.833862 2212.000000
1586.375732 2105.000000
1587.916504 2151.000000
1589.456299 2129.000000
1590.995361 2061.000000
1592.533325 2168.000000
1594.070801 2145.000000
1595.606934 2127.000000
1597.141968 2142.000000
1598.676514 2138.000000
1600.210083 2072.000000
1601.742798 2205.000000
1603.273926 2170.000000
1604.804810 2149.000000
1606.334839 2088.000000
1607.863647 2092.000000
1609.391357 2050.000000
1610.918457 2212.000000
1612.444824 2073.000000
1613.970215 2127.000000
1615.494751 2056.000000
1617.017944 2113.000000
1618.540405 2152.000000
1620.062134 2091.000000
1621.583008 2013.000000
1623.102417 1960.000000
1624.621338 2066.000000
1626.139526 2064.000000
1627.656860 2031.000000
1629.173096 1927.000000
1630.687988 1976.000000
1632.202393 2036.000000
1633.716064 2040.000000
1635.228638 1938.000000
1636.739990 2038.000000
1638.250977 1976.000000
1639.760864 1995.000000
1641.269897 1888.000000
1642.777588 1929.000000
1644.284912 1917.000000
1645.791382 1984.000000
1647.296875 2025.000000
1648.801514 1965.000000
1650.304688 1887.000000
1651.807251 1938.000000
1653.309448 2029.000000
1654.810303 1870.000000
1656.310059 1886.000000
1657.808960 1842.000000
1659.307495 1831.000000
1660.804810 1794.000000
1662.301392 1852.000000
1663.796387 1813.000000
1665.291138 1831.000000
1666.785034 1763.000000
1668.277954 1823.000000
1669.769531 1541.000000
1671.260620 1791.000000
1672.751099 1737.000000
1674.240479 1815.000000
1675.728394 1759.000000
1677.216064 1722.000000
1678.702759 1763.000000
1680.188599 1750.000000
1681.673584 1715.000000
1683.157104 1761.000000
1684.640381 1875.000000
1686.122803 1754.000000
1687.604126 1692.000000
1689.083984 1661.000000
1690.563599 1827.000000
1692.042480 1722.000000
1693.520386 1703.000000
1694.997314 1637.000000
1696.473022 1683.000000
1697.948364 1751.000000
1699.422485 1641.000000
1700.895996 1758.000000
1702.368042 1686.000000
1703.839844 1682.000000
1705.310669 1673.000000
1706.780640 1569.000000
1708.249268 1765.000000
1709.717407 1712.000000
1711.184814 1652.000000
1712.651123 1610.000000
1714.116821 1682.000000
1715.580811 1705.000000
1717.044678 1708.000000
1718.507690 1761.000000
1719.969727 1776.000000
1721.430542 1631.000000
1722.890747 1683.000000
1724.350220 1700.000000
1725.808838 1658.000000
1727.266479 1728.000000
1728.722778 1598.000000
1730.178833 1737.000000
1731.633911 1649.000000
1733.088013 1625.000000
1734.540894 1784.000000
1735.993530 1620.000000
1737.445068 1751.000000
1738.895874 1698.000000
1740.345703 1562.000000
1741.794189 1596.000000
1743.242310 1579.000000
1744.689575 1647.000000
1746.136108 1660.000000
1747.581055 1585.000000
1749.025757 1597.000000
1750.469604 1762.000000
1751.912598 1606.000000
1753.354126 1645.000000
1754.795410 1641.000000
1756.235840 1450.000000
1757.675293 1504.000000
1759.113770 1536.000000
1760.551270 1546.000000
1761.988281 1450.000000
1763.424316 1488.000000
1764.859497 1460.000000
1766.293213 1497.000000
1767.726807 1439.000000
1769.159424 1477.000000
1770.591187 1591.000000
1772.022095 1455.000000
1773.451782 1470.000000
1774.880737 1497.000000
1776.309204 1481.000000
1777.736694 1450.000000
1779.162842 1286.000000
1780.588745 1484.000000
1782.013550 1410.000000
1783.437744 1503.000000
1784.860474 1363.000000
1786.282715 1444.000000
1787.704224 1283.000000
1789.125000 1244.000000
1790.544800 1351.000000
1791.963257 1431.000000
1793.381226 1456.000000
1794.798584 1469.000000
1796.215088 1449.000000
1797.630127 1462.000000
1799.044800 1467.000000
1800.458862 1313.000000
1801.871704 1405.000000
1803.283936 1438.000000
1804.694824 1332.000000
1806.105225 1334.000000
1807.514893 1271.000000
1808.923584 1382.000000
1810.331177 1323.000000
1811.738281 1332.000000
1813.144531 1348.000000
1814.549805 1405.000000
1815.953979 1356.000000
1817.357788 1310.000000
1818.760620 1412.000000
1820.162598 1275.000000
1821.563965 1298.000000
1822.963867 1405.000000
1824.363159 1293.000000
1825.761963 1381.000000
1827.159912 1310.000000
1828.556519 1357.000000
1829.952515 1378.000000
1831.347778 1331.000000
1832.742432 1345.000000
1834.136108 1315.000000
1835.528442 1230.000000
1836.920288 1316.000000
1838.311523 1359.000000
1839.701782 1362.000000
1841.090820 1354.000000
1842.479492 1352.000000
1843.867188 1392.000000
1845.254150 1313.000000
1846.639771 1264.000000
1848.025146 1252.000000
1849.409668 1272.000000
1850.793457 1280.000000
1852.176147 1238.000000
1853.557617 1208.000000
1854.938599 1301.000000
1856.319092 1216.000000
1857.698608 1255.000000
1859.076660 1248.000000
1860.454590 1289.000000
1861.831543 1237.000000
1863.207764 1245.000000
1864.583130 1177.000000
1865.957031 1192.000000
1867.330811 1186.000000
1868.703735 1290.000000
1870.075562 1178.000000
1871.446411 1138.000000
1872.816895 1141.000000
1874.186279 1224.000000
1875.555176 1180.000000
1876.922485 1185.000000
1878.289673 1208.000000
1879.655884 1143.000000
1881.021362 1155.000000
1882.386108 1204.000000
1883.749268 1171.000000
1885.112305 1133.000000
1886.474487 1226.000000
1887.835815 1145.000000
1889.195801 1116.000000
1890.555420 1110.000000
1891.914429 1166.000000
1893.272461 1088.000000
1894.629639 1091.000000
1895.985596 1155.000000
1897.341309 1145.000000
1898.696045 1164.000000
1900.049927 1121.000000
1901.402710 1077.000000
1902.755005 1070.000000
1904.106567 1073.000000
1905.457275 1061.000000
1906.806763 1153.000000
1908.155762 1139.000000
1909.503906 1139.000000
1910.851440 1134.000000
1912.198242 1017.000000
1913.543457 1122.000000
1914.888428 1083.000000
1916.232666 1069.000000
1917.576050 1163.000000
1918.918091 1094.000000
1920.259888 1071.000000
1921.600830 1122.000000
1922.941040 1066.000000
1924.280273 1077.000000
1925.618530 1128.000000
1926.956177 1026.000000
1928.293091 1092.000000
1929.629150 1199.000000
1930.963989 1107.000000
1932.298462 1108.000000
1933.632202 1028.000000
1934.965088 1096.000000
1936.296509 1050.000000
1937.628052 1103.000000
1938.958252 975.000000
1940.287964 1021.000000
1941.616821 1116.000000
1942.944458 1096.000000
1944.271606 1045.000000
1945.598022 965.000000
1946.923706 1110.000000
1948.248047 1008.000000
1949.572144 1104.000000
1950.895386 1043.000000
1952.217896 1106.000000
1953.539307 1059.000000
1954.859741 957.000000
1956.179565 1028.000000
1957.499023 986.000000
1958.817505 1081.000000
1960.134644 1014.000000
1961.451416 1006.000000
1962.767456 960.000000
1964.082764 1003.000000
1965.396606 1002.000000
1966.710205 984.000000
1968.023071 1037.000000
1969.335083 928.000000
1970.646484 955.000000
1971.956543 952.000000
1973.266113 1053.000000
1974.574951 879.000000
1975.883179 976.000000
1977.190063 958.000000
1978.496338 956.000000
1979.802246 978.000000
1981.106934 902.000000
1982.411133 884.000000
1983.714111 885.000000
1985.016724 924.000000
1986.318359 989.000000
1987.619385 1024.000000
1988.918823 868.000000
1990.218384 923.000000
1991.516846 889.000000
1992.814819 930.000000
1994.111206 935.000000
1995.407593 839.000000
1996.703003 811.000000
1997.997681 895.000000
1999.291504 843.000000
2000.584106 874.000000
2001.876221 831.000000
2003.167847 874.000000
2004.458740 854.000000
2005.748047 958.000000
2007.037109 831.000000
2008.325439 878.000000
2009.613037 852.000000
2010.899780 813.000000
2012.185425 884.000000
2013.470703 894.000000
2014.755005 855.000000
2016.038696 849.000000
2017.321045 830.000000
2018.603027 756.000000
2019.884521 897.000000
2021.165039 794.000000
2022.444824 753.000000
2023.723511 756.000000
2025.001465 728.000000
2026.278931 746.000000
2027.555786 743.000000
2028.830933 805.000000
2030.106201 757.000000
2031.380493 868.000000
2032.653809 827.000000
2033.926270 794.000000
2035.198364 818.000000
2036.469360 799.000000
2037.740112 784.000000
2039.009521 799.000000
2040.277832 813.000000
2041.546143 940.000000
2042.813477 838.000000
2044.080078 793.000000
2045.345459 822.000000
2046.610229 397.000000
2047.874756 776.000000
2049.138184 868.000000
2050.401123 743.000000
2051.662109 777.000000
2052.923584 794.000000
2054.183838 836.000000
2055.443359 813.000000
2056.702148 742.000000
2057.959961 790.000000
2059.217285 692.000000
2060.473877 689.000000
2061.729004 841.000000
2062.984131 748.000000
2064.238281 772.000000
2065.491699 755.000000
2066.744385 794.000000
2067.995850 765.000000
2069.247070 795.000000
2070.497559 785.000000
2071.747314 810.000000
2072.995605 749.000000
2074.243896 719.000000
2075.491211 705.000000
2076.737793 723.000000
2077.983643 736.000000
2079.228271 781.000000
2080.472412 731.000000
2081.716064 761.000000
2082.958740 726.000000
2084.200195 729.000000
2085.441406 679.000000
2086.682129 797.000000
2087.921875 609.000000
2089.160400 735.000000
2090.398438 679.000000
2091.635742 702.000000
2092.872803 738.000000
2094.108398 645.000000
2095.343262 818.000000
2096.577881 701.000000
2097.811523 779.000000
2099.044189 695.000000
2100.276123 730.000000
2101.507568 744.000000
2102.738037 591.000000
2103.967773 675.000000
2105.197266 665.000000
2106.424805 712.000000
2107.652588 708.000000
2108.879639 635.000000
2110.105713 675.000000
2111.330322 639.000000
2112.555176 696.000000
2113.778809 647.000000
2115.001953 642.000000
2116.223877 665.000000
2117.445557 670.000000
2118.666260 627.000000
2119.886230 650.000000
2121.105713 665.000000
2122.323730 655.000000
2123.541748 676.000000
2124.758789 626.000000
2125.975342 705.000000
2127.190186 729.000000
2128.405273 675.000000
2129.619385 764.000000
2130.832764 627.000000
2132.045410 665.000000
2133.256592 605.000000
2134.468018 754.000000
2135.678223 508.000000
2136.887939 639.000000
2138.096191 634.000000
2139.304443 627.000000
2140.511963 668.000000
2141.718262 359.000000
2142.923828 553.000000
2144.129150 631.000000
2145.333496 773.000000
2146.537109 596.000000
2147.740234 573.000000
2148.941895 658.000000
2150.143311 626.000000
2151.343994 554.000000
2152.543945 545.000000
2153.742676 646.000000
2154.941162 556.000000
2156.139160 632.000000
2157.336182 603.000000
2158.532471 579.000000
2159.727539 556.000000
2160.922363 652.000000
2162.116455 580.000000
2163.309570 579.000000
2164.501709 646.000000
2165.693604 576.000000
2166.884766 452.000000
2168.074951 576.000000
2169.264404 521.000000
2170.453369 532.000000
2171.641357 647.000000
2172.829102 616.000000
2174.015381 523.000000
2175.200928 526.000000
2176.386230 580.000000
2177.571045 450.000000
2178.754639 488.000000
2179.937500 490.000000
2181.119385 540.000000
2182.301025 449.000000
2183.482178 472.000000
2184.662109 572.000000
2185.841064 561.000000
2187.019531 555.000000
2188.197754 477.000000
2189.374756 531.000000
2190.550781 515.000000
2191.726563 603.000000
2192.901855 546.000000
2194.075684 427.000000
2195.249023 633.000000
2196.422119 514.000000
2197.593994 539.000000
2198.765381 552.000000
2199.936279 434.000000
2201.105469 490.000000
2202.274658 504.000000
2203.443359 563.000000
2204.611084 604.000000
2205.777832 556.000000
2206.943848 533.000000
2208.109375 528.000000
2209.274658 430.000000
2210.438477 531.000000
2211.601807 539.000000
2212.763916 474.000000
2213.926270 533.000000
2215.087402 596.000000
2216.247559 465.000000
2217.407227 538.000000
2218.566650 481.000000
2219.724854 522.000000
2220.882080 519.000000
2222.039063 521.000000
2223.195313 453.000000
2224.350830 502.000000
2225.505615 401.000000
2226.659424 498.000000
2227.812256 466.000000
2228.965576 529.000000
2230.116943 504.000000
2231.268066 562.000000
2232.418457 464.000000
2233.568359 412.000000
2234.717285 510.000000
2235.865723 455.000000
2237.012695 792.000000
2238.159912 444.000000
2239.305908 548.000000
2240.451660 405.000000
2241.595703 494.000000
2242.739990 353.000000
2243.883301 503.000000
2245.025879 435.000000
2246.167480 485.000000
2247.308838 424.000000
2248.449219 505.000000
2249.588867 478.000000
2250.728027 359.000000
2251.865967 458.000000
2253.003906 484.000000
2254.140869 378.000000
2255.277100 516.000000
2256.412354 362.000000
2257.546875 467.000000
2258.681152 380.000000
2259.814941 392.000000
2260.947266 505.000000
2262.079102 432.000000
2263.210449 434.000000
2264.340820 364.000000
2265.470947 348.000000
2266.599854 358.000000
2267.728271 440.000000
2268.856201 391.000000
2269.983154 452.000000
2271.109375 387.000000
2272.234619 440.000000
2273.359863 355.000000
2274.484375 362.000000
2275.607666 356.000000
2276.730225 394.000000
2277.852295 464.000000
2278.973877 409.000000
2280.094727 364.000000
2281.214355 472.000000
2282.333496 451.000000
2283.452393 380.000000
2284.570557 382.000000
2285.687744 332.000000
2286.803955 416.000000
2287.919922 434.000000
2289.035156 373.000000
2290.149658 344.000000
2291.262939 400.000000
2292.376221 283.000000
2293.488770 352.000000
2294.600586 482.000000
2295.711670 397.000000
2296.821533 341.000000
2297.930908 358.000000
2299.040039 396.000000
2300.148193 329.000000
2301.255371 337.000000
2302.362305 326.000000
2303.468506 431.000000
2304.574219 387.000000
2305.678467 286.000000
2306.782471 350.000000
2307.885986 405.000000
2308.989014 438.000000
2310.090820 337.000000
2311.191895 421.000000
2312.292480 368.000000
2313.392578 385.000000
2314.491943 369.000000
2315.589844 262.000000
2316.688232 342.000000
2317.785156 241.000000
2318.881836 370.000000
2319.978027 335.000000
2321.072510 315.000000
2322.166992 296.000000
2323.260742 350.000000
2324.354248 328.000000
2325.446045 374.000000
2326.537842 234.000000
2327.628906 491.000000
2328.719238 489.000000
2329.808594 524.000000
2330.897949 516.000000
2331.986084 504.000000
2333.073730 386.000000
2334.161133 322.000000
2335.246826 323.000000
2336.332275 328.000000
2337.417480 411.000000
2338.501709 256.000000
2339.584961 320.000000
2340.667969 350.000000
2341.750000 459.000000
2342.831787 282.000000
2343.912842 240.000000
2344.992676 320.000000
2346.072021 320.000000
2347.150879 317.000000
2348.229248 377.000000
2349.306152 292.000000
2350.382813 251.000000
2351.459229 351.000000
2352.534668 334.000000
2353.609131 303.000000
2354.683350 248.000000
2355.756836 241.000000
2356.829834 243.000000
2357.901611 312.000000
2358.973145 299.000000
2360.043701 307.000000
2361.114014 446.000000
2362.183350 290.000000
2363.251709 347.000000
2364.319824 229.000000
2365.387207 334.000000
2366.454102 213.000000
2367.520264 227.000000
2368.585205 249.000000
2369.650146 279.000000
2370.714355 201.000000
2371.777832 307.000000
2372.840088 157.000000
2373.902344 318.000000
2374.963623 318.000000
2376.024658 337.000000
2377.084473 299.000000
2378.143555 337.000000
2379.202637 289.000000
2380.260742 280.000000
2381.318115 249.000000
2382.374512 322.000000
2383.430664 415.000000
2384.486328 257.000000
2385.541260 359.000000
2386.594727 218.000000
2387.648438 295.000000
2388.701172 263.000000
2389.753418 219.000000
2390.804932 174.000000
2391.855469 257.000000
2392.905762 230.000000
2393.955078 253.000000
2395.004395 198.000000
2396.052246 293.000000
2397.099609 318.000000
2398.146729 311.000000
2399.192871 306.000000
2400.238281 292.000000
2401.282959 289.000000
2402.327637 225.000000
2403.370850 331.000000
2404.414063 216.000000
2405.455811 240.000000
2406.497803 203.000000
2407.539063 221.000000
2408.579346 302.000000
2409.618896 256.000000
2410.657471 192.000000
2411.696289 243.000000
2412.733887 170.000000
2413.771240 239.000000
2414.807373 172.000000
2415.843262 183.000000
2416.878418 305.000000
2417.913086 281.000000
2418.946289 253.000000
2419.979736 316.000000
2421.012207 249.000000
2422.044434 270.000000
2423.075195 230.000000
2424.105957 242.000000
2425.136230 308.000000
2426.165283 234.000000
2427.194336 231.000000
2428.221680 197.000000
2429.249512 239.000000
2430.276123 171.000000
2431.302490 197.000000
2432.327393 222.000000
2433.352539 174.000000
2434.376709 217.000000
2435.400635 238.000000
2436.423340 242.000000
2437.445313 264.000000
2438.467041 244.000000
2439.488037 273.000000
2440.508545 252.000000
2441.527832 203.000000
2442.547119 216.000000
2443.565430 235.000000
2444.583496 250.000000
2445.600098 296.000000
2446.616699 254.000000
2447.632568 268.000000
2448.648438 294.000000
2449.662842 152.000000
2450.676514 180.000000
2451.689697 236.000000
2452.702637 199.000000
2453.714844 299.000000
2454.726074 171.000000
2455.737061 256.000000
2456.747314 232.000000
2457.757080 223.000000
2458.765869 238.000000
2459.773926 195.000000
2460.781982 299.000000
2461.788818 188.000000
2462.795410 189.000000
2463.800781 195.000000
2464.805908 169.000000
2465.810791 251.000000
2466.814453 144.000000
2467.817871 285.000000
2468.820313 210.000000
2469.822510 282.000000
2470.824219 241.000000
2471.824951 240.000000
2472.824707 186.000000
2473.824463 133.000000
2474.823242 288.000000
2475.821533 234.000000
2476.818848 153.000000
2477.815918 193.000000
2478.812988 209.000000
2479.808594 192.000000
2480.804199 125.000000
2481.798096 211.000000
2482.791992 221.000000
2483.785400 119.000000
2484.778320 140.000000
2485.770264 242.000000
2486.761475 163.000000
2487.752441 125.000000
2488.742920 217.000000
2489.732422 276.000000
2490.721191 200.000000
2491.709961 197.000000
2492.697754 159.000000
2493.684326 242.000000
2494.670898 255.000000
2495.656982 244.000000
2496.642334 242.000000
2497.626709 107.000000
2498.610840 231.000000
2499.594971 222.000000
2500.577637 205.000000
2501.559814 220.000000
2502.541504 199.000000
2503.522461 174.000000
2504.502930 284.000000
2505.483154 166.000000
2506.461914 163.000000
2507.440430 257.000000
2508.418457 101.000000
2509.395996 179.000000
2510.372559 207.000000
2511.348877 170.000000
2512.324463 206.000000
2513.299561 126.000000
2514.274170 210.000000
2515.247559 126.000000
2516.220703 219.000000
2517.193604 91.000000
2518.165527 236.000000
2519.136719 144.000000
2520.107422 205.000000
2521.077881 142.000000
2522.047607 59.000000
2523.016357 240.000000
2523.984375 172.000000
2524.952393 222.000000
2525.919434 196.000000
2526.886230 207.000000
2527.851807 148.000000
2528.817383 208.000000
2529.782227 45.000000
2530.746582 109.000000
2531.709717 137.000000
2532.673096 228.000000
2533.635498 240.000000
2534.597656 122.000000
2535.558594 210.000000
2536.518799 218.000000
2537.479248 188.000000
2538.438721 172.000000
2539.397461 156.000000
2540.355225 175.000000
2541.313232 173.000000
2542.270508 176.000000
2543.226807 203.000000
2544.182861 76.000000
2545.137695 110.000000
2546.092773 102.000000
2547.047119 256.000000
2548.000732 186.000000
2548.953369 200.000000
2549.905762 140.000000
2550.857666 155.000000
2551.808838 196.000000
2552.759277 212.000000
2553.709229 148.000000
2554.658936 173.000000
2555.607910 211.000000
2556.556396 120.000000
2557.503662 163.000000
2558.450928 245.000000
2559.397461 278.000000
2560.343506 135.000000
2561.288574 209.000000
2562.233398 166.000000
2563.177734 203.000000
2564.121582 116.000000
2565.064941 127.000000
2566.006836 153.000000
2566.948975 129.000000
2567.890381 167.000000
2568.831055 161.000000
2569.770996 65.000000
2570.710938 201.000000
2571.649902 153.000000
2572.588623 115.000000
2573.526367 147.000000
2574.463867 162.000000
2575.400635 191.000000
2576.336670 237.000000
2577.272217 182.000000
2578.207031 102.000000
2579.141846 136.000000
2580.075684 70.000000
2581.009033 293.000000
2581.941650 123.000000
2582.874023 -28.000000
2583.805664 80.000000
2584.736816 132.000000
2585.667480 82.000000
2586.596924 173.000000
2587.526367 108.000000
2588.455322 159.000000
2589.384033 216.000000
2590.311035 149.000000
2591.238281 158.000000
2592.165039 153.000000
2593.091064 94.000000
2594.016846 85.000000
2594.941406 138.000000
2595.865723 191.000000
2596.789551 110.000000
2597.712891 68.000000
2598.635254 126.000000
2599.557373 127.000000
2600.479004 162.000000
2601.399902 136.000000
2602.320068 153.000000
2603.239990 148.000000
2604.159424 99.000000
2605.078613 100.000000
2605.996826 156.000000
2606.913818 45.000000
2607.831055 132.000000
2608.748047 114.000000
2609.664063 140.000000
2610.578857 112.000000
2611.494141 153.000000
2612.408691 148.000000
2613.322266 181.000000
2614.235840 -31.000000
2615.148193 81.000000
2616.060547 173.000000
2616.971924 200.000000
2617.883057 165.000000
2618.793457 382.000000
2619.703613 146.000000
2620.613037 159.000000
2621.521973 80.000000
2622.429932 73.000000
2623.338135 77.000000
2624.245361 100.000000
2625.152100 130.000000
2626.058105 93.000000
2626.963867 235.000000
2627.868896 246.000000
2628.773682 83.000000
2629.677734 124.000000
2630.580811 134.000000
2631.483887 77.000000
2632.385986 88.000000
2633.288086 70.000000
2634.189941 148.000000
2635.090088 176.000000
2635.990479 151.000000
2636.890137 97.000000
2637.789551 35.000000
2638.687500 252.000000
2639.585938 105.000000
2640.483887 90.000000
2641.381104 142.000000
2642.277100 311.000000
2643.173096 205.000000
2644.068848 94.000000
2644.963867 100.000000
2645.858643 120.000000
2646.751953 94.000000
2647.645264 162.000000
2648.538330 101.000000
2649.431152 141.000000
2650.322266 60.000000
2651.213623 96.000000
2652.104492 39.000000
2652.994629 94.000000
2653.884521 75.000000
2654.773193 93.000000
2655.662109 72.000000
2656.550537 143.000000
2657.437988 263.000000
2658.324463 115.000000
2659.211426 74.000000
2660.097656 64.000000
2660.983398 81.000000
2661.867920 79.000000
2662.752441 170.000000
2663.636719 109.000000
2664.520264 168.000000
2665.403320 143.000000
2666.285645 63.000000
2667.167480 156.000000
2668.048584 195.000000
2668.929932 101.000000
2669.809814 78.000000
2670.689941 38.000000
2671.569336 156.000000
2672.448730 146.000000
2673.327393 74.000000
2674.204346 47.000000
2675.082031 80.000000
2675.958984 139.000000
2676.835205 56.000000
2677.710938 136.000000
2678.585938 110.000000
2679.461182 85.000000
2680.335449 -23.000000
2681.209229 8.000000
2682.082275 109.000000
2682.955078 92.000000
2683.827637 133.000000
2684.699463 15.000000
2685.570557 89.000000
2686.441406 97.000000
2687.311768 120.000000
2688.181885 98.000000
2689.050293 79.000000
2689.919434 75.000000
2690.787842 171.000000
2691.656006 139.000000
2692.523438 121.000000
2693.389648 63.000000
2694.256348 63.000000
2695.122070 65.000000
2695.987793 90.000000
2696.852051 149.000000
2697.717041 126.000000
2698.580566 106.000000
2699.444336 163.000000
2700.306641 140.000000
2701.169434 11.000000
2702.031250 80.000000
2702.892578 80.000000
2703.753906 154.000000
2704.614014 48.000000
2705.474121 121.000000
2706.333740 145.000000
2707.193115 135.000000
2708.050781 8.000000
2708.908691 85.000000
2709.767090 117.000000
2710.624268 159.000000
2711.480713 14.000000
2712.336670 8.000000
2713.192627 118.000000
2714.047852 107.000000
2714.902344 -19.000000
2715.756348 59.000000
2716.610352 116.000000
2717.463379 17.000000
2718.316650 34.000000
2719.168213 26.000000
2720.020264 11.000000
2720.872070 45.000000
2721.722656 158.000000
2722.573242 128.000000
2723.423340 51.000000
2724.272705 34.000000
2725.122070 102.000000
2725.970215 61.000000
2726.817871 91.000000
2727.666016 83.000000
2728.512939 132.000000
2729.360352 99.000000
2730.206299 14.000000
2731.051514 -1.000000
2731.897217 106.000000
2732.741943 144.000000
2733.586670 161.000000
2734.430176 68.000000
2735.273926 71.000000
2736.116943 48.000000
2736.959473 67.000000
2737.801025 105.000000
2738.643066 61.000000
2739.484131 85.000000
2740.324951 81.000000
2741.165527 150.000000
2742.004883 18.000000
2742.844238 11.000000
2743.683594 42.000000
2744.521729 127.000000
2745.359375 17.000000
2746.197021 12.000000
2747.034180 50.000000
2747.871094 104.000000
2748.707520 111.000000
2749.542725 34.000000
2750.378174 73.000000
2751.213135 37.000000
2752.047363 55.000000
2752.881348 169.000000
2753.714844 161.000000
2754.548340 26.000000
2755.380859 53.000000
2756.212891 30.000000
2757.044434 30.000000
2757.875977 -22.000000
2758.706543 -25.000000
2759.537354 43.000000
2760.366943 91.000000
2761.196533 104.000000
2762.025879 109.000000
2762.854492 -29.000000
2763.682617 93.000000
2764.510254 -37.000000
2765.337891 76.000000
2766.165039 -62.000000
2766.991455 87.000000
2767.817383 -6.000000
2768.642822 82.000000
2769.468018 -12.000000
2770.293213 -20.000000
2771.117188 119.000000
2771.941162 89.000000
2772.765137 21.000000
2773.587891 24.000000
2774.410889 68.000000
2775.232666 91.000000
2776.054443 39.000000
2776.876221 74.000000
2777.697021 101.000000
2778.517090 -39.000000
2779.337402 85.000000
2780.157227 126.000000
2780.977051 72.000000
2781.794922 35.000000
2782.614014 -29.000000
2783.431885 33.000000
2784.249512 68.000000
2785.066650 36.000000
2785.883301 -31.000000
2786.699707 46.000000
2787.515625 71.000000
2788.331299 27.000000
2789.145996 32.000000
2789.961182 119.000000
2790.775635 61.000000
2791.589600 15.000000
2792.403320 94.000000
2793.215820 72.000000
2794.028564 49.000000
2794.840820 -42.000000
2795.652588 99.000000
2796.463623 124.000000
2797.275391 36.000000
2798.085938 102.000000
2798.896484 95.000000
2799.705566 13.000000
2800.515381 -4.000000
2801.324463 -27.000000
2802.133301 12.000000
2802.941650 11.000000
2803.749023 70.000000
2804.556885 36.000000
2805.364014 63.000000
2806.170898 -35.000000
2806.976563 70.000000
2807.782715 -36.000000
2808.588135 72.000000
2809.393555 94.000000
2810.198242 79.000000
2811.001953 15.000000
2811.806152 37.000000
2812.609863 -7.000000
2813.413330 -5.000000
2814.215332 10.000000
2815.018066 23.000000
2815.820068 34.000000
2816.621826 42.000000
2817.423096 3.000000
2818.223877 60.000000
2819.024170 -7.000000
2819.824707 20.000000
2820.624268 -32.000000
2821.423340 42.000000
2822.222412 52.000000
2823.021240 109.000000
2823.819580 20.000000
2824.616943 64.000000
2825.414551 -36.000000
2826.211426 -71.000000
2827.008545 54.000000
2827.804932 144.000000
2828.600586 63.000000
2829.396240 -4.000000
2830.191650 25.000000
2830.986572 80.000000
2831.780762 85.000000
2832.574951 46.000000
2833.368896 91.000000
2834.162354 -15.000000
2834.955078 -25.000000
2835.747559 79.000000
2836.540039 15.000000
2837.332275 42.000000
2838.124023 13.000000
2838.914795 34.000000
2839.705566 -66.000000
2840.496582 175.000000
2841.286621 100.000000
2842.076172 -34.000000
2842.865967 92.000000
2843.654785 140.000000
2844.443604 94.000000
2845.232422 60.000000
2846.020264 7.000000
2846.807617 76.000000
2847.595215 132.000000
2848.382324 -8.000000
2849.168701 24.000000
2849.955078 183.000000
2850.741211 68.000000
2851.526855 65.000000
2852.311523 31.000000
2853.096680 27.000000
2853.881592 62.000000
2854.665771 84.000000
2855.449951 -30.000000
2856.232910 55.000000
2857.016113 42.000000
2857.799072 21.000000
2858.581543 -15.000000
2859.363770 152.000000
2860.145508 -38.000000
2860.927002 3.000000
2861.708740 10.000000
2862.489746 66.000000
2863.270020 21.000000
2864.050049 168.000000
2864.830078 86.000000
2865.609863 92.000000
2866.388672 -80.000000
2867.167725 54.000000
2867.946289 104.000000
2868.724609 44.000000
2869.502441 101.000000
2870.280029 20.000000
2871.057373 79.000000
2871.834473 108.000000
2872.611084 73.000000
2873.387207 3.000000
2874.163330 92.000000
2874.938965 49.000000
2875.714355 16.000000
2876.489258 82.000000
2877.263916 50.000000
2878.038574 13.000000
2878.812988 50.000000
2879.586670 60.000000
2880.359619 116.000000
2881.133301 44.000000
2881.906006 42.000000
2882.678711 95.000000
2883.450684 100.000000
2884.222412 116.000000
2884.994629 105.000000
2885.765625 36.000000
2886.536133 106.000000
2887.307129 -13.000000
2888.078125 8.000000
2888.848389 13.000000
2889.617676 81.000000
2890.387207 29.000000
2891.156738 151.000000
2891.925781 24.000000
2892.694336 102.000000
2893.462891 37.000000
2894.230469 45.000000
2894.998535 90.000000
2895.766113 43.000000
2896.533691 -7.000000
2897.300049 -21.000000
2898.067383 87.000000
2898.833496 131.000000
2899.599854 45.000000
2900.364746 7.000000
2901.130127 49.000000
2901.895996 94.000000
2902.660400 141.000000
2903.424805 127.000000
2904.189453 -101.000000
2904.953125 33.000000
2905.717529 35.000000
2906.481201 2.000000
2907.244141 111.000000
2908.006836 22.000000
2908.770020 69.000000
2909.532715 22.000000
2910.294189 41.000000
2911.056152 41.000000
spectrumdark 2048
-97.174789 6161.000000
-94.547920 6161.000000
-91.922928 5997.000000
-89.299828 6440.000000
-86.678596 5866.000000
-84.059265 6228.000000
-81.441795 6038.000000
-78.826202 6379.000000
-76.212486 6180.000000
-73.600647 5880.000000
-70.990669 6084.000000
-68.382576 5941.000000
-65.776329 5978.000000
-63.171963 6004.000000
-60.569454 6085.000000
-57.968800 5640.000000
-55.370007 6162.000000
-52.773071 6905.000000
-50.177990 6493.000000
-47.584763 6502.000000
-44.993385 6252.000000
-42.403854 6732.000000
-39.816166 5911.000000
-37.230328 6063.000000
-34.646332 6472.000000
-32.064171 5676.000000
-29.483860 6293.000000
-26.905375 5678.000000
-24.328732 6147.000000
-21.753914 6200.000000
-19.180937 6421.000000
-16.609779 6434.000000
-14.040456 6788.000000
-11.472958 7694.000000
-8.907278 6281.000000
-6.343424 6451.000000
-3.781384 6028.000000
-1.221168 5764.000000
1.337240 6124.000000
3.893827 6906.000000
6.448609 6635.000000
9.001575 6001.000000
11.552739 6768.000000
14.102091 6497.000000
16.649647 6748.000000
19.195391 5979.000000
21.739342 5726.000000
24.281488 6684.000000
26.821838 6847.000000
29.360403 6861.000000
31.897171 6175.000000
34.432137 5777.000000
36.965324 7228.000000
39.496731 6223.000000
42.026344 7074.000000
44.554161 6454.000000
47.080219 7774.000000
49.604488 5681.000000
52.126987 6251.000000
54.647690 6732.000000
57.166637 6213.000000
59.683811 6444.000000
62.199207 6635.000000
64.712830 5586.000000
67.224693 5677.000000
69.734810 6515.000000
72.243134 6528.000000
74.749702 5958.000000
77.254524 6293.000000
79.757591 6419.000000
82.258881 6238.000000
84.758430 6108.000000
87.256226 6332.000000
89.752289 5738.000000
92.246574 7218.000000
94.739120 5788.000000
97.229950 6940.000000
99.719009 7149.000000
102.206322 6376.000000
104.691910 6189.000000
107.175758 6356.000000
109.657860 5681.000000
112.138237 6523.000000
114.616890 6164.000000
117.093819 6434.000000
119.568993 7229.000000
122.042458 6823.000000
124.514191 5858.000000
126.984215 6712.000000
129.452484 6221.000000
131.919083 6330.000000
134.383926 5687.000000
136.847076 6180.000000
139.308487 7216.000000
141.768204 6779.000000
144.226196 6333.000000
146.682495 5959.000000
149.137085 5788.000000
151.589951 6776.000000
154.041138 6358.000000
156.490631 6583.000000
158.938400 6027.000000
161.384460 6552.000000
163.828842 8676.000000
166.271545 6373.000000
168.712555 6811.000000
171.151855 6162.000000
173.589447 7277.000000
176.025406 6516.000000
178.459625 6951.000000
180.892166 7047.000000
183.323059 6692.000000
185.752228 7070.000000
188.179749 6708.000000
190.605591 6338.000000
193.029755 6631.000000
195.452255 7084.000000
197.873062 7345.000000
200.292206 6480.000000
202.709686 6044.000000
205.125473 7547.000000
207.539612 7016.000000
209.952118 6283.000000
212.362946 6008.000000
214.772095 6293.000000
217.179611 7355.000000
219.585419 6172.000000
221.989639 6470.000000
224.392151 6636.000000
226.793045 6962.000000
229.192291 6418.000000
231.589874 6797.000000
233.985794 7232.000000
236.380096 6493.000000
238.772736 5813.000000
241.163757 6752.000000
243.553116 6518.000000
245.940857 6248.000000
248.326950 6975.000000
250.711411 6115.000000
253.094223 7936.000000
255.475464 6596.000000
257.854980 6673.000000
260.232941 6403.000000
262.609222 7439.000000
264.983948 7565.000000
267.357025 7860.000000
269.728455 6179.000000
272.098236 6406.000000
274.466461 5882.000000
276.833038 6307.000000
279.198029 6761.000000
281.561401 6043.000000
283.923126 6220.000000
286.283264 7092.000000
288.641785 5938.000000
290.998718 6506.000000
293.354034 6347.000000
295.707764 5960.000000
298.059845 5996.000000
300.410370 6320.000000
302.759308 6365.000000
305.106598 6775.000000
307.452362 6392.000000
309.796448 6385.000000
312.139008 7316.000000
314.479950 7571.000000
316.819275 7239.000000
319.157043 6920.000000
321.493256 8071.000000
323.827820 6241.000000
326.160828 6387.000000
328.492279 5943.000000
330.822144 6584.000000
333.150421 6346.000000
335.477081 7203.000000
337.802246 6414.000000
340.125793 6230.000000
342.447784 6032.000000
344.768219 7481.000000
347.087036 7699.000000
349.404297 5953.000000
351.720032 5829.000000
354.034180 6932.000000
356.346741 6258.000000
358.657745 6378.000000
360.967224 6938.000000
363.275177 6334.000000
365.581512 5677.000000
367.886261 6388.000000
370.189545 6409.000000
372.491211 6229.000000
374.791382 6332.000000
377.089996 6210.000000
379.387054 5701.000000
381.682556 6118.000000
383.976532 5786.000000
386.268921 5229.000000
388.559814 5525.000000
390.849182 6131.000000
393.136963 6249.000000
395.423218 6504.000000
397.707977 6986.000000
399.991119 6066.000000
402.272827 6418.000000
404.553009 6126.000000
406.831604 7196.000000
409.108673 6424.000000
411.384216 6709.000000
413.658234 6421.000000
415.930817 6345.000000
418.201782 6332.000000
420.471252 6376.000000
422.739227 7035.000000
425.005646 7235.000000
427.270569 6294.000000
429.534027 6249.000000
431.795898 6532.000000
434.056305 5955.000000
436.315155 6615.000000
438.572540 6049.000000
440.828430 5642.000000
443.082825 5725.000000
445.335693 5435.000000
447.587006 6834.000000
449.836914 6103.000000
452.085236 6264.000000
454.332123 5603.000000
456.577545 6482.000000
458.821411 6513.000000
461.063782 6762.000000
463.304657 5625.000000
465.544128 6634.000000
467.782013 5356.000000
470.018463 5835.000000
472.253387 6072.000000
474.486847 7319.000000
476.718872 6660.000000
478.949371 5660.000000
481.178375 6447.000000
483.405914 6277.000000
485.631958 5938.000000
487.856567 6552.000000
490.079712 5793.000000
492.301392 6318.000000
494.521515 6630.000000
496.740234 5672.000000
498.957458 6272.000000
501.173309 5546.000000
503.387543 6101.000000
505.600464 6368.000000
507.811798 6465.000000
510.021698 6881.000000
512.230164 6477.000000
514.437256 6519.000000
516.642761 6404.000000
518.846863 6567.000000
521.049438 6174.000000
523.250610 6475.000000
525.450439 6667.000000
527.648743 6853.000000
529.845520 5303.000000
532.040955 5848.000000
534.234863 5490.000000
536.427429 7487.000000
538.618469 6726.000000
540.808105 6003.000000
542.996338 6924.000000
545.183044 7076.000000
547.368286 6762.000000
549.552246 6181.000000
551.734619 6347.000000
553.915649 6217.000000
556.095154 6052.000000
558.273376 5881.000000
560.450073 6014.000000
562.625366 6338.000000
564.799255 6427.000000
566.971680 5928.000000
569.142700 5986.000000
571.312256 6360.000000
573.480530 5232.000000
575.647278 6335.000000
577.812561 6336.000000
579.976440 6096.000000
582.139038 5725.000000
584.300110 5992.000000
586.459778 5583.000000
588.618103 5764.000000
590.774902 6148.000000
592.930359 6654.000000
595.084412 5716.000000
597.237122 6107.000000
599.388306 7249.000000
601.538147 6741.000000
603.686646 6569.000000
605.833557 5965.000000
607.979248 6503.000000
610.123535 6390.000000
612.266357 7015.000000
614.407715 6154.000000
616.547852 6387.000000
618.686462 7623.000000
620.823792 5741.000000
622.959656 6570.000000
625.094116 6880.000000
627.227112 7218.000000
629.358948 6646.000000
631.489319 6499.000000
633.618286 6721.000000
635.745789 6468.000000
637.872009 6236.000000
639.996704 7273.000000
642.120178 6355.000000
644.242310 6711.000000
646.362976 6856.000000
648.482300 6564.000000
650.600220 5603.000000
652.716797 5634.000000
654.831970 6394.000000
656.945801 6541.000000
659.058167 5808.000000
661.169312 6106.000000
663.279053 5408.000000
665.387329 6016.000000
667.494446 6211.000000
669.600098 6772.000000
671.704285 5800.000000
673.807251 5717.000000
675.908813 6925.000000
678.009033 5295.000000
680.107849 6756.000000
682.205322 6216.000000
684.301514 6991.000000
686.396240 6186.000000
688.489746 6979.000000
690.581909 6616.000000
692.672546 7916.000000
694.761963 6627.000000
696.850098 6440.000000
698.936768 6003.000000
701.022217 6660.000000
703.106140 5140.000000
705.188843 5914.000000
707.270264 5909.000000
709.350220 7546.000000
711.428955 6201.000000
713.506226 5492.000000
715.582214 6549.000000
717.656921 6058.000000
719.730347 7040.000000
721.802246 6258.000000
723.872986 7357.000000
725.942383 5794.000000
728.010376 6480.000000
730.077026 6285.000000
732.142456 6997.000000
734.206543 5731.000000
736.269287 6157.000000
738.330688 6340.000000
740.390808 6595.000000
742.449524 5994.000000
744.507019 6635.000000
746.563232 6423.000000
748.618042 6669.000000
750.671570 6339.000000
752.723694 7420.000000
754.774597 5746.000000
756.824280 6634.000000
758.872498 6362.000000
760.919495 6143.000000
762.965210 7012.000000
765.009521 5301.000000
767.052551 5717.000000
769.094360 14961.000000
771.134827 6918.000000
773.173889 6320.000000
775.211792 6103.000000
777.248352 5931.000000
779.283691 5271.000000
781.317688 5741.000000
783.350281 6837.000000
785.381714 5499.000000
787.411743 12123.000000
789.440491 6022.000000
791.468079 6263.000000
793.494324 6350.000000
795.519165 5770.000000
797.542908 5515.000000
799.565247 6308.000000
801.586365 5834.000000
803.606140 6664.000000
805.624634 4873.000000
807.641907 6631.000000
809.657776 6857.000000
811.672485 5625.000000
813.685852 6372.000000
815.697998 6299.000000
817.708923 6095.000000
819.718506 6566.000000
821.726868 5186.000000
823.733826 5616.000000
825.739563 6050.000000
827.744080 5670.000000
829.747314 5608.000000
831.749268 6528.000000
833.749939 6044.000000
835.749390 5920.000000
837.747498 6316.000000
839.744507 6917.000000
841.740112 6220.000000
843.734558 5917.000000
845.727661 6172.000000
847.719543 6812.000000
849.710083 5586.000000
851.699341 6749.000000
853.687561 5987.000000
855.674377 5708.000000
857.659973 6329.000000
859.644287 7197.000000
861.627502 6258.000000
863.609314 6354.000000
865.589905 5761.000000
867.569214 7670.000000
869.547363 7027.000000
871.524170 6144.000000
873.499695 5957.000000
875.474182 6078.000000
877.447205 6013.000000
879.419189 5366.000000
881.389832 6341.000000
883.359314 6118.000000
885.327454 5553.000000
887.294434 5262.000000
889.260071 6112.000000
891.224548 5762.000000
893.187805 5956.000000
895.149841 6467.000000
897.110596 5805.000000
899.070129 6385.000000
901.028381 6693.000000
902.985535 6309.000000
904.941528 5946.000000
906.896118 6811.000000
908.849487 6507.000000
910.801697 6395.000000
912.752686 6346.000000
914.702393 7133.000000
916.650940 6310.000000
918.598267 6170.000000
920.544312 6114.000000
922.489075 6036.000000
924.432800 6295.000000
926.375366 5912.000000
928.316650 5569.000000
930.256592 6485.000000
932.195435 5685.000000
934.132996 5515.000000
936.069336 5912.000000
938.004517 5774.000000
939.938416 6082.000000
941.871216 5819.000000
943.802795 6750.000000
945.733215 5176.000000
947.662415 6301.000000
949.590271 7064.000000
951.517090 6654.000000
953.442627 5920.000000
955.366882 5400.000000
957.290039 5906.000000
959.212036 6696.000000
961.132751 7233.000000
963.052307 6504.000000
964.970703 5257.000000
966.888062 6408.000000
968.803955 6365.000000
970.718750 6114.000000
972.632324 5924.000000
974.544739 6374.000000
976.455933 6472.000000
978.365967 5446.000000
980.274719 6220.000000
982.182434 6116.000000
984.088928 6329.000000
985.994202 5645.000000
987.898376 6693.000000
989.801331 6173.000000
991.703064 6796.000000
993.603638 6626.000000
995.503052 6539.000000
997.401245 5235.000000
999.298279 6499.000000
1001.194092 6516.000000
1003.088745 7668.000000
1004.982300 5542.000000
1006.874573 7131.000000
1008.765930 6070.000000
1010.655945 5329.000000
1012.544739 6573.000000
1014.432373 6273.000000
1016.318848 6887.000000
1018.204163 6708.000000
1020.088318 5958.000000
1021.971252 5826.000000
1023.853149 6215.000000
1025.733765 5127.000000
1027.613281 5821.000000
1029.491821 6020.000000
1031.369019 5421.000000
1033.244873 6155.000000
1035.119751 5838.000000
1036.993652 6563.000000
1038.866089 7040.000000
1040.737549 6647.000000
1042.607666 5491.000000
1044.476807 5452.000000
1046.344727 5743.000000
1048.211548 7164.000000
1050.077271 6743.000000
1051.941772 6434.000000
1053.805176 6468.000000
1055.667236 6366.000000
1057.528320 5896.000000
1059.388306 6442.000000
1061.246948 6584.000000
1063.104492 5788.000000
1064.960938 6689.000000
1066.816284 5865.000000
1068.670410 5789.000000
1070.523682 6233.000000
1072.375488 6361.000000
1074.226318 6147.000000
1076.075928 6122.000000
1077.924316 5659.000000
1079.771851 7891.000000
1081.618042 5559.000000
1083.463013 6179.000000
1085.307129 5380.000000
1087.149902 5511.000000
1088.991455 6431.000000
1090.832275 5451.000000
1092.671509 5715.000000
1094.510010 6012.000000
1096.347168 6023.000000
1098.183105 6794.000000
1100.018066 6539.000000
1101.851807 5366.000000
1103.684570 5653.000000
1105.515991 6154.000000
1107.346558 7233.000000
1109.175781 6566.000000
1111.004028 6448.000000
1112.831055 7079.000000
1114.657104 5412.000000
1116.481934 6302.000000
1118.305664 7085.000000
1120.128174 6056.000000
1121.949585 5863.000000
1123.770142 5853.000000
1125.589233 6504.000000
1127.407471 7023.000000
1129.224365 6885.000000
1131.040405 6695.000000
1132.855225 6511.000000
1134.668945 5613.000000
1136.481567 5791.000000
1138.292969 5631.000000
1140.103394 6090.000000
1141.912720 6679.000000
1143.720703 6926.000000
1145.527954 5946.000000
1147.333740 5906.000000
1149.138672 5396.000000
1150.942505 5419.000000
1152.745117 6120.000000
1154.546875 6073.000000
1156.347168 6052.000000
1158.146484 6092.000000
1159.944824 5838.000000
1161.741821 5441.000000
1163.538086 5830.000000
1165.333008 6081.000000
1167.126831 6361.000000
1168.919800 7744.000000
1170.711426 5618.000000
1172.502075 6485.000000
1174.291748 5978.000000
1176.079956 5790.000000
1177.867310 7417.000000
1179.653564 6868.000000
1181.438721 5746.000000
1183.222778 5937.000000
1185.005737 7597.000000
1186.787720 5810.000000
1188.568481 5848.000000
1190.348267 6292.000000
1192.126953 6907.000000
1193.904663 6655.000000
1195.681152 7184.000000
1197.456543 6528.000000
1199.230835 6525.000000
1201.004028 6639.000000
1202.776367 6515.000000
1204.547363 6684.000000
1206.317505 5661.000000
1208.086426 6162.000000
1209.854248 6290.000000
1211.621216 5763.000000
1213.386841 5881.000000
1215.151489 6999.000000
1216.915039 6529.000000
1218.677490 5864.000000
1220.439087 6694.000000
1222.199463 5871.000000
1223.958740 6243.000000
1225.717163 6051.000000
1227.474365 7033.000000
1229.230469 6473.000000
1230.985474 5522.000000
1232.739624 5990.000000
1234.492432 5782.000000
1236.244263 5958.000000
1237.995239 5934.000000
1239.744873 4921.000000
1241.493652 6993.000000
1243.241089 6420.000000
1244.987793 6541.000000
1246.733276 6461.000000
1248.477905 6395.000000
1250.221191 6747.000000
1251.963501 6584.000000
1253.704712 5354.000000
1255.445068 5059.000000
1257.184326 5802.000000
1258.922363 6586.000000
1260.659546 7069.000000
1262.395508 6125.000000
1264.130493 6399.000000
1265.864502 7253.000000
1267.597534 5825.000000
1269.329346 6187.000000
1271.060181 6423.000000
1272.789795 7267.000000
1274.518555 5866.000000
1276.246216 5650.000000
1277.972778 5510.000000
1279.698486 5511.000000
1281.422852 6447.000000
1283.146362 5152.000000
1284.868896 6821.000000
1286.590454 6576.000000
1288.310791 6170.000000
1290.030151 6607.000000
1291.748413 7208.000000
1293.465698 6446.000000
1295.182007 5748.000000
1296.897095 6361.000000
1298.611206 6114.000000
1300.324341 5717.000000
1302.036621 6436.000000
1303.747681 8292.000000
1305.457764 5207.000000
1307.166748 6304.000000
1308.874512 6686.000000
1310.581665 7021.000000
1312.287354 5724.000000
1313.992310 6870.000000
1315.696289 6065.000000
1317.399048 5949.000000
1319.100830 6507.000000
1320.801758 6092.000000
1322.501343 9069.000000
1324.200073 30867.000000
1325.898071 5595.000000
1327.594727 6447.000000
1329.290283 7116.000000
1330.984985 6830.000000
1332.678467 5703.000000
1334.371094 5383.000000
1336.062866 7295.000000
1337.753296 6172.000000
1339.442993 6549.000000
1341.131592 6046.000000
1342.819092 7586.000000
1344.505615 5618.000000
1346.191040 6701.000000
1347.875488 5942.000000
1349.559082 7265.000000
1351.241455 6404.000000
1352.922852 5900.000000
1354.603394 6534.000000
1356.282715 6625.000000
1357.961426 5834.000000
1359.638794 6588.000000
1361.315063 5761.000000
1362.990356 5525.000000
1364.664917 6518.000000
1366.338257 6361.000000
1368.010620 6773.000000
1369.682007 5150.000000
1371.352417 6690.000000
1373.021729 6148.000000
1374.690063 5638.000000
1376.357544 5930.000000
1378.023926 6328.000000
1379.689331 6149.000000
1381.353760 5848.000000
1383.016968 5945.000000
1384.679565 5692.000000
1386.340820 6285.000000
1388.001221 6603.000000
1389.660522 6389.000000
1391.318848 6507.000000
1392.976440 6900.000000
1394.632813 6414.000000
1396.288330 6950.000000
1397.942627 6306.000000
1399.596069 5811.000000
1401.248413 6133.000000
1402.900024 6396.000000
1404.550415 7145.000000
1406.199707 6248.000000
1407.848267 7418.000000
1409.495728 7823.000000
1411.142212 6133.000000
1412.787842 6147.000000
1414.432495 5936.000000
1416.075928 6996.000000
1417.718506 7178.000000
1419.359985 6875.000000
1421.000610 6426.000000
1422.640259 6449.000000
1424.278809 5993.000000
1425.916504 6617.000000
1427.553101 6347.000000
1429.188721 5973.000000
1430.823608 6335.000000
1432.457397 5851.000000
1434.090088 6134.000000
1435.721802 5642.000000
1437.352661 6090.000000
1438.982422 5995.000000
1440.611084 7762.000000
1442.239136 5912.000000
1443.866089 6220.000000
1445.491821 6164.000000
1447.116943 6155.000000
1448.740967 6485.000000
1450.364014 5992.000000
1451.986084 6017.000000
1453.607056 7293.000000
1455.227051 6199.000000
1456.846313 6898.000000
1458.464233 5612.000000
1460.081543 19167.000000
1461.697876 5539.000000
1463.312988 7158.000000
1464.927246 6205.000000
1466.540649 5181.000000
1468.152954 5518.000000
1469.764404 6247.000000
1471.375000 6289.000000
1472.984375 5994.000000
1474.592773 6026.000000
1476.200317 6124.000000
1477.806885 6679.000000
1479.412720 5270.000000
1481.017334 6265.000000
1482.621094 5520.000000
1484.223633 6761.000000
1485.825562 5494.000000
1487.426270 5532.000000
1489.026245 5551.000000
1490.625122 6297.000000
1492.223145 6458.000000
1493.820068 6629.000000
1495.416138 6273.000000
1497.011230 6027.000000
1498.605347 5502.000000
1500.198730 6529.000000
1501.791016 5471.000000
1503.382080 6167.000000
1504.972656 6763.000000
1506.561890 6445.000000
1508.150513 6158.000000
1509.738037 6455.000000
1511.324463 6831.000000
1512.910156 6127.000000
1514.494751 6578.000000
1516.078491 6180.000000
1517.661133 6115.000000
1519.243042 6567.000000
1520.823853 6638.000000
1522.403931 6000.000000
1523.982788 6173.000000
1525.560791 6327.000000
1527.138062 6231.000000
1528.714111 5669.000000
1530.289429 5857.000000
1531.863647 6278.000000
1533.437134 5447.000000
1535.009399 5955.000000
1536.580933 6370.000000
1538.151489 6402.000000
1539.721191 6321.000000
1541.289673 5402.000000
1542.857422 6554.000000
1544.424316 5641.000000
1545.989990 6804.000000
1547.554932 5931.000000
1549.118774 5025.000000
1550.682007 7468.000000
1552.243896 6363.000000
1553.805176 5936.000000
1555.365356 5747.000000
1556.924805 5715.000000
1558.483154 5884.000000
1560.040771 6218.000000
1561.597290 7000.000000
1563.152588 5790.000000
1564.707275 6354.000000
1566.261230 5640.000000
1567.814209 6272.000000
1569.365845 5628.000000
1570.916748 5897.000000
1572.466919 6216.000000
1574.016113 6336.000000
1575.563965 5772.000000
1577.111328 5497.000000
1578.657715 5734.000000
1580.203247 5049.000000
1581.747803 6644.000000
1583.291138 6368.000000
1584.833862 6578.000000
1586.375732 6460.000000
1587.916504 6642.000000
1589.456299 5825.000000
1590.995361 6656.000000
1592.533325 5849.000000
1594.070801 6089.000000
1595.606934 5852.000000
1597.141968 6654.000000
1598.676514 6200.000000
1600.210083 5935.000000
1601.742798 5911.000000
1603.273926 6261.000000
1604.804810 6236.000000
1606.334839 5764.000000
1607.863647 6126.000000
1609.391357 6118.000000
1610.918457 5859.000000
1612.444824 5877.000000
1613.970215 6233.000000
1615.494751 5797.000000
1617.017944 5720.000000
1618.540405 5543.000000
1620.062134 6522.000000
1621.583008 6955.000000
1623.102417 15558.000000
1624.621338 6217.000000
1626.139526 6042.000000
1627.656860 5920.000000
1629.173096 6418.000000
1630.687988 6996.000000
1632.202393 6762.000000
1633.716064 5733.000000
1635.228638 6849.000000
1636.739990 5913.000000
1638.250977 6417.000000
1639.760864 6285.000000
1641.269897 6183.000000
1642.777588 5618.000000
1644.284912 6102.000000
1645.791382 7074.000000
1647.296875 6135.000000
1648.801514 6802.000000
1650.304688 6160.000000
1651.807251 6565.000000
1653.309448 6288.000000
1654.810303 6631.000000
1656.310059 7549.000000
1657.808960 5909.000000
1659.307495 6491.000000
1660.804810 6260.000000
1662.301392 5903.000000
1663.796387 6498.000000
1665.291138 6347.000000
1666.785034 5206.000000
1668.277954 5629.000000
1669.769531 20666.000000
1671.260620 6412.000000
1672.751099 6075.000000
1674.240479 5924.000000
1675.728394 6886.000000
1677.216064 6841.000000
1678.702759 5996.000000
1680.188599 5351.000000
1681.673584 6072.000000
1683.157104 6153.000000
1684.640381 6155.000000
1686.122803 5805.000000
1687.604126 6254.000000
1689.083984 6201.000000
1690.563599 5450.000000
1692.042480 6530.000000
1693.520386 5959.000000
1694.997314 6160.000000
1696.473022 5762.000000
1697.948364 5988.000000
1699.422485 6316.000000
1700.895996 5423.000000
1702.368042 5536.000000
1703.839844 6845.000000
1705.310669 6369.000000
1706.780640 7173.000000
1708.249268 5082.000000
1709.717407 5769.000000
1711.184814 6382.000000
1712.651123 5495.000000
1714.116821 5715.000000
1715.580811 6173.000000
1717.044678 5911.000000
1718.507690 6852.000000
1719.969727 6295.000000
1721.430542 6615.000000
1722.890747 5450.000000
1724.350220 6378.000000
1725.808838 6105.000000
1727.266479 5975.000000
1728.722778 6255.000000
1730.178833 6033.000000
1731.633911 6428.000000
1733.088013 5954.000000
1734.540894 6826.000000
1735.993530 5959.000000
1737.445068 6690.000000
1738.895874 5905.000000
1740.345703 6541.000000
1741.794189 5916.000000
1743.242310 7299.000000
1744.689575 6516.000000
1746.136108 6658.000000
1747.581055 6706.000000
1749.025757 6136.000000
1750.469604 5790.000000
1751.912598 5504.000000
1753.354126 6500.000000
1754.795410 6293.000000
1756.235840 19376.000000
1757.675293 6320.000000
1759.113770 5248.000000
1760.551270 6009.000000
1761.988281 7582.000000
1763.424316 5860.000000
1764.859497 7097.000000
1766.293213 6168.000000
1767.726807 6499.000000
1769.159424 6636.000000
1770.591187 5709.000000
1772.022095 5779.000000
1773.451782 6353.000000
1774.880737 6067.000000
1776.309204 6225.000000
1777.736694 6650.000000
1779.162842 6267.000000
1780.588745 5498.000000
1782.013550 6899.000000
1783.437744 5530.000000
1784.860474 6629.000000
1786.282715 6526.000000
1787.704224 6913.000000
1789.125000 5910.000000
1790.544800 5956.000000
1791.963257 6074.000000
1793.381226 6837.000000
1794.798584 5467.000000
1796.215088 5976.000000
1797.630127 6472.000000
1799.044800 5804.000000
1800.458862 6558.000000
1801.871704 5903.000000
1803.283936 6956.000000
1804.694824 7181.000000
1806.105225 7761.000000
1807.514893 6472.000000
1808.923584 5939.000000
1810.331177 5381.000000
1811.738281 6378.000000
1813.144531 6398.000000
1814.549805 6689.000000
1815.953979 5931.000000
1817.357788 5950.000000
1818.760620 6188.000000
1820.162598 6061.000000
1821.563965 5883.000000
1822.963867 6298.000000
1824.363159 6532.000000
1825.761963 6512.000000
1827.159912 7411.000000
1828.556519 5798.000000
1829.952515 6720.000000
1831.347778 5884.000000
1832.742432 8097.000000
1834.136108 5975.000000
1835.528442 6841.000000
1836.920288 6361.000000
1838.311523 5880.000000
1839.701782 7043.000000
1841.090820 5971.000000
1842.479492 6055.000000
1843.867188 5951.000000
1845.254150 5801.000000
1846.639771 6854.000000
1848.025146 5866.000000
1849.409668 6383.000000
1850.793457 6310.000000
1852.176147 6363.000000
1853.557617 5384.000000
1854.938599 6488.000000
1856.319092 6307.000000
1857.698608 5685.000000
1859.076660 5923.000000
1860.454590 6192.000000
1861.831543 7821.000000
1863.207764 6114.000000
1864.583130 6091.000000
1865.957031 5658.000000
1867.330811 5732.000000
1868.703735 6143.000000
1870.075562 5984.000000
1871.446411 6870.000000
1872.816895 5436.000000
1874.186279 6004.000000
1875.555176 6030.000000
1876.922485 7128.000000
1878.289673 5976.000000
1879.655884 5972.000000
1881.021362 6733.000000
1882.386108 7457.000000
1883.749268 6764.000000
1885.112305 6928.000000
1886.474487 6309.000000
1887.835815 6499.000000
1889.195801 5651.000000
1890.555420 5797.000000
1891.914429 6077.000000
1893.272461 6667.000000
1894.629639 7254.000000
1895.985596 5903.000000
1897.341309 7590.000000
1898.696045 5822.000000
1900.049927 5522.000000
1901.402710 5921.000000
1902.755005 5878.000000
1904.106567 5969.000000
1905.457275 6836.000000
1906.806763 6485.000000
1908.155762 6654.000000
1909.503906 5797.000000
1910.851440 6098.000000
1912.198242 6309.000000
1913.543457 6754.000000
1914.888428 6100.000000
1916.232666 5419.000000
1917.576050 6469.000000
1918.918091 5963.000000
1920.259888 6677.000000
1921.600830 6961.000000
1922.941040 6131.000000
1924.280273 6299.000000
1925.618530 6303.000000
1926.956177 6491.000000
1928.293091 6966.000000
1929.629150 6699.000000
1930.963989 5526.000000
1932.298462 6715.000000
1933.632202 7286.000000
1934.965088 6208.000000
1936.296509 5750.000000
1937.628052 6316.000000
1938.958252 6647.000000
1940.287964 5820.000000
1941.616821 6069.000000
1942.944458 5809.000000
1944.271606 5017.000000
1945.598022 5883.000000
1946.923706 6352.000000
1948.248047 5714.000000
1949.572144 6611.000000
1950.895386 6302.000000
1952.217896 6370.000000
1953.539307 5773.000000
1954.859741 7468.000000
1956.179565 5958.000000
1957.499023 5581.000000
1958.817505 6780.000000
1960.134644 5886.000000
1961.451416 5844.000000
1962.767456 6592.000000
1964.082764 6523.000000
1965.396606 6188.000000
1966.710205 5661.000000
1968.023071 6196.000000
1969.335083 6001.000000
1970.646484 6022.000000
1971.956543 6216.000000
1973.266113 5790.000000
1974.574951 6208.000000
1975.883179 6566.000000
1977.190063 6088.000000
1978.496338 7192.000000
1979.802246 5505.000000
1981.106934 6369.000000
1982.411133 5936.000000
1983.714111 5752.000000
1985.016724 7608.000000
1986.318359 6086.000000
1987.619385 6747.000000
1988.918823 6081.000000
1990.218384 6572.000000
1991.516846 5264.000000
1992.814819 6040.000000
1994.111206 6091.000000
1995.407593 5735.000000
1996.703003 5648.000000
1997.997681 6484.000000
1999.291504 5717.000000
2000.584106 6527.000000
2001.876221 5742.000000
2003.167847 7160.000000
2004.458740 6336.000000
2005.748047 6139.000000
2007.037109 6811.000000
2008.325439 5865.000000
2009.613037 5968.000000
2010.899780 6604.000000
2012.185425 5579.000000
2013.470703 6322.000000
2014.755005 5987.000000
2016.038696 5584.000000
2017.321045 6037.000000
2018.603027 6494.000000
2019.884521 6744.000000
2021.165039 5891.000000
2022.444824 6085.000000
2023.723511 6827.000000
2025.001465 5852.000000
2026.278931 5941.000000
2027.555786 6255.000000
2028.830933 5767.000000
2030.106201 6578.000000
2031.380493 6009.000000
2032.653809 5943.000000
2033.926270 5923.000000
2035.198364 6154.000000
2036.469360 6932.000000
2037.740112 6583.000000
2039.009521 6006.000000
2040.277832 6742.000000
2041.546143 6532.000000
2042.813477 5897.000000
2044.080078 5946.000000
2045.345459 5589.000000
2046.610229 5917.000000
2047.874756 5393.000000
2049.138184 5791.000000
2050.401123 6432.000000
2051.662109 6138.000000
2052.923584 6087.000000
2054.183838 5790.000000
2055.443359 6422.000000
2056.702148 6272.000000
2057.959961 6952.000000
2059.217285 6198.000000
2060.473877 6048.000000
2061.729004 6465.000000
2062.984131 5620.000000
2064.238281 5564.000000
2065.491699 5653.000000
2066.744385 6797.000000
2067.995850 6291.000000
2069.247070 6225.000000
2070.497559 5600.000000
2071.747314 5414.000000
2072.995605 6174.000000
2074.243896 6494.000000
2075.491211 7411.000000
2076.737793 5580.000000
2077.983643 6012.000000
2079.228271 6937.000000
2080.472412 7564.000000
2081.716064 5435.000000
2082.958740 6008.000000
2084.200195 6916.000000
2085.441406 5938.000000
2086.682129 6313.000000
2087.921875 6807.000000
2089.160400 7057.000000
2090.398438 6164.000000
2091.635742 5792.000000
2092.872803 6563.000000
2094.108398 6063.000000
2095.343262 6127.000000
2096.577881 6049.000000
2097.811523 5613.000000
2099.044189 6063.000000
2100.276123 6835.000000
2101.507568 6374.000000
2102.738037 6754.000000
2103.967773 5990.000000
2105.197266 5963.000000
2106.424805 5970.000000
2107.652588 5933.000000
2108.879639 6296.000000
2110.105713 5516.000000
2111.330322 6414.000000
2112.555176 6944.000000
2113.778809 7063.000000
2115.001953 6209.000000
2116.223877 7473.000000
2117.445557 5973.000000
2118.666260 6785.000000
2119.886230 5979.000000
2121.105713 6170.000000
2122.323730 6510.000000
2123.541748 7039.000000
2124.758789 5718.000000
2125.975342 5738.000000
2127.190186 6473.000000
2128.405273 6276.000000
2129.619385 6910.000000
2130.832764 5661.000000
2132.045410 6029.000000
2133.256592 5827.000000
2134.468018 6472.000000
2135.678223 6681.000000
2136.887939 5942.000000
2138.096191 6162.000000
2139.304443 5634.000000
2140.511963 5853.000000
2141.718262 7663.000000
2142.923828 5925.000000
2144.129150 5649.000000
2145.333496 5425.000000
2146.537109 6275.000000
2147.740234 6223.000000
2148.941895 6467.000000
2150.143311 5315.000000
2151.343994 6258.000000
2152.543945 6018.000000
2153.742676 5967.000000
2154.941162 6955.000000
2156.139160 6139.000000
2157.336182 5993.000000
2158.532471 5172.000000
2159.727539 5298.000000
2160.922363 6055.000000
2162.116455 5562.000000
2163.309570 5994.000000
2164.501709 6820.000000
2165.693604 5920.000000
2166.884766 6359.000000
2168.074951 6277.000000
2169.264404 6509.000000
2170.453369 6777.000000
2171.641357 5925.000000
2172.829102 5683.000000
2174.015381 5955.000000
2175.200928 6515.000000
2176.386230 5979.000000
2177.571045 5875.000000
2178.754639 6375.000000
2179.937500 7523.000000
2181.119385 6290.000000
2182.301025 5954.000000
2183.482178 6587.000000
2184.662109 5666.000000
2185.841064 5482.000000
2187.019531 6385.000000
2188.197754 6873.000000
2189.374756 7147.000000
2190.550781 6701.000000
2191.726563 6052.000000
2192.901855 5578.000000
2194.075684 6674.000000
2195.249023 6127.000000
2196.422119 6166.000000
2197.593994 6372.000000
2198.765381 7065.000000
2199.936279 6344.000000
2201.105469 6874.000000
2202.274658 7549.000000
2203.443359 6304.000000
2204.611084 5850.000000
2205.777832 5569.000000
2206.943848 7160.000000
2208.109375 6622.000000
2209.274658 5957.000000
2210.438477 6685.000000
2211.601807 5435.000000
2212.763916 6153.000000
2213.926270 6156.000000
2215.087402 6646.000000
2216.247559 6707.000000
2217.407227 6278.000000
2218.566650 6606.000000
2219.724854 6321.000000
2220.882080 6249.000000
2222.039063 6779.000000
2223.195313 6572.000000
2224.350830 6769.000000
2225.505615 6310.000000
2226.659424 6423.000000
2227.812256 6011.000000
2228.965576 6845.000000
2230.116943 6190.000000
2231.268066 6141.000000
2232.418457 6518.000000
2233.568359 7663.000000
2234.717285 6299.000000
2235.865723 5185.000000
2237.012695 6514.000000
2238.159912 7029.000000
2239.305908 6003.000000
2240.451660 7274.000000
2241.595703 7223.000000
2242.739990 6752.000000
2243.883301 6111.000000
2245.025879 5975.000000
2246.167480 5725.000000
2247.308838 5802.000000
2248.449219 6357.000000
2249.588867 6427.000000
2250.728027 5854.000000
2251.865967 5834.000000
2253.003906 6141.000000
2254.140869 5331.000000
2255.277100 6294.000000
2256.412354 6105.000000
2257.546875 7237.000000
2258.681152 6395.000000
2259.814941 5411.000000
2260.947266 6092.000000
2262.079102 6787.000000
2263.210449 6251.000000
2264.340820 6478.000000
2265.470947 8086.000000
2266.599854 6681.000000
2267.728271 6022.000000
2268.856201 5535.000000
2269.983154 6105.000000
2271.109375 5921.000000
2272.234619 6727.000000
2273.359863 6533.000000
2274.484375 6415.000000
2275.607666 5942.000000
2276.730225 6411.000000
2277.852295 5943.000000
2278.973877 7415.000000
2280.094727 6382.000000
2281.214355 6365.000000
2282.333496 7099.000000
2283.452393 7623.000000
2284.570557 7259.000000
2285.687744 5909.000000
2286.803955 6443.000000
2287.919922 6999.000000
2289.035156 6906.000000
2290.149658 7403.000000
2291.262939 5783.000000
2292.376221 6371.000000
2293.488770 6006.000000
2294.600586 5317.000000
2295.711670 6758.000000
2296.821533 6438.000000
2297.930908 6187.000000
2299.040039 6540.000000
2300.148193 6342.000000
2301.255371 6817.000000
2302.362305 5860.000000
2303.468506 6163.000000
2304.574219 6605.000000
2305.678467 6604.000000
2306.782471 5455.000000
2307.885986 5748.000000
2308.989014 6498.000000
2310.090820 7423.000000
2311.191895 7296.000000
2312.292480 6582.000000
2313.392578 5441.000000
2314.491943 6312.000000
2315.589844 6606.000000
2316.688232 6976.000000
2317.785156 8264.000000
2318.881836 6870.000000
2319.978027 5788.000000
2321.072510 6837.000000
2322.166992 7652.000000
2323.260742 5789.000000
2324.354248 6052.000000
2325.446045 6412.000000
2326.537842 6970.000000
2327.628906 6077.000000
2328.719238 6230.000000
2329.808594 6865.000000
2330.897949 5981.000000
2331.986084 6252.000000
2333.073730 6834.000000
2334.161133 6533.000000
2335.246826 6599.000000
2336.332275 7783.000000
2337.417480 6269.000000
2338.501709 6728.000000
2339.584961 5894.000000
2340.667969 6419.000000
2341.750000 6983.000000
2342.831787 5999.000000
2343.912842 7412.000000
2344.992676 6608.000000
2346.072021 5718.000000
2347.150879 6759.000000
2348.229248 6490.000000
2349.306152 6281.000000
2350.382813 7009.000000
2351.459229 5993.000000
2352.534668 6386.000000
2353.609131 5884.000000
2354.683350 6295.000000
2355.756836 6791.000000
2356.829834 6226.000000
2357.901611 6993.000000
2358.973145 6288.000000
2360.043701 6811.000000
2361.114014 7427.000000
2362.183350 7512.000000
2363.251709 6803.000000
2364.319824 6729.000000
2365.387207 7059.000000
2366.454102 7194.000000
2367.520264 6105.000000
2368.585205 6875.000000
2369.650146 6958.000000
2370.714355 6370.000000
2371.777832 6852.000000
2372.840088 5811.000000
2373.902344 6274.000000
2374.963623 6317.000000
2376.024658 5877.000000
2377.084473 6308.000000
2378.143555 7911.000000
2379.202637 6428.000000
2380.260742 7619.000000
2381.318115 6875.000000
2382.374512 7992.000000
2383.430664 7722.000000
2384.486328 6233.000000
2385.541260 6959.000000
2386.594727 6762.000000
2387.648438 6509.000000
2388.701172 6288.000000
2389.753418 6754.000000
2390.804932 6183.000000
2391.855469 6636.000000
2392.905762 6467.000000
2393.955078 6209.000000
2395.004395 6248.000000
2396.052246 6830.000000
2397.099609 6920.000000
2398.146729 6291.000000
2399.192871 6606.000000
2400.238281 6149.000000
2401.282959 6713.000000
2402.327637 7700.000000
2403.370850 7422.000000
2404.414063 6605.000000
2405.455811 5755.000000
2406.497803 6722.000000
2407.539063 7089.000000
2408.579346 6064.000000
2409.618896 6399.000000
2410.657471 6371.000000
2411.696289 5940.000000
2412.733887 6526.000000
2413.771240 6841.000000
2414.807373 7367.000000
2415.843262 6231.000000
2416.878418 6245.000000
2417.913086 6848.000000
2418.946289 7199.000000
2419.979736 6419.000000
2421.012207 6707.000000
2422.044434 6786.000000
2423.075195 7112.000000
2424.105957 6367.000000
2425.136230 6779.000000
2426.165283 6862.000000
2427.194336 6665.000000
2428.221680 7452.000000
2429.249512 6679.000000
2430.276123 7275.000000
2431.302490 6904.000000
2432.327393 7758.000000
2433.352539 6561.000000
2434.376709 7127.000000
2435.400635 6718.000000
2436.423340 5837.000000
2437.445313 6304.000000
2438.467041 6623.000000
2439.488037 6627.000000
2440.508545 6004.000000
2441.527832 6567.000000
2442.547119 6585.000000
2443.565430 8351.000000
2444.583496 6251.000000
2445.600098 6417.000000
2446.616699 6503.000000
2447.632568 5970.000000
2448.648438 6946.000000
2449.662842 6859.000000
2450.676514 5550.000000
2451.689697 7219.000000
2452.702637 5981.000000
2453.714844 7153.000000
2454.726074 6731.000000
2455.737061 7633.000000
2456.747314 6406.000000
2457.757080 7594.000000
2458.765869 5875.000000
2459.773926 5946.000000
2460.781982 6235.000000
2461.788818 7349.000000
2462.795410 5453.000000
2463.800781 7419.000000
2464.805908 6929.000000
2465.810791 5834.000000
2466.814453 6543.000000
2467.817871 6339.000000
2468.820313 7586.000000
2469.822510 7279.000000
2470.824219 6833.000000
2471.824951 6574.000000
2472.824707 6878.000000
2473.824463 6712.000000
2474.823242 5598.000000
2475.821533 6559.000000
2476.818848 7056.000000
2477.815918 6104.000000
2478.812988 6917.000000
2479.808594 5816.000000
2480.804199 7150.000000
2481.798096 6652.000000
2482.791992 8049.000000
2483.785400 6862.000000
2484.778320 6745.000000
2485.770264 7473.000000
2486.761475 7196.000000
2487.752441 6719.000000
2488.742920 5805.000000
2489.732422 6518.000000
2490.721191 6506.000000
2491.709961 5661.000000
2492.697754 6826.000000
2493.684326 6507.000000
2494.670898 7993.000000
2495.656982 6688.000000
2496.642334 7006.000000
2497.626709 8076.000000
2498.610840 5979.000000
2499.594971 6859.000000
2500.577637 5716.000000
2501.559814 6932.000000
2502.541504 6824.000000
2503.522461 7238.000000
2504.502930 6451.000000
2505.483154 5737.000000
2506.461914 6341.000000
2507.440430 7545.000000
2508.418457 6760.000000
2509.395996 7003.000000
2510.372559 6039.000000
2511.348877 5931.000000
2512.324463 6367.000000
2513.299561 6273.000000
2514.274170 6418.000000
2515.247559 7570.000000
2516.220703 6763.000000
2517.193604 6935.000000
2518.165527 6074.000000
2519.136719 6773.000000
2520.107422 6868.000000
2521.077881 7831.000000
2522.047607 8098.000000
2523.016357 6068.000000
2523.984375 6139.000000
2524.952393 7713.000000
2525.919434 6259.000000
2526.886230 5492.000000
2527.851807 7248.000000
2528.817383 6991.000000
2529.782227 7758.000000
2530.746582 6382.000000
2531.709717 6393.000000
2532.673096 5805.000000
2533.635498 5910.000000
2534.597656 6705.000000
2535.558594 6313.000000
2536.518799 6070.000000
2537.479248 6139.000000
2538.438721 6740.000000
2539.397461 6787.000000
2540.355225 6695.000000
2541.313232 6196.000000
2542.270508 6754.000000
2543.226807 5977.000000
2544.182861 7119.000000
2545.137695 6206.000000
2546.092773 7788.000000
2547.047119 6948.000000
2548.000732 6386.000000
2548.953369 7170.000000
2549.905762 6748.000000
2550.857666 6945.000000
2551.808838 6377.000000
2552.759277 7680.000000
2553.709229 7296.000000
2554.658936 7344.000000
2555.607910 6586.000000
2556.556396 6238.000000
2557.503662 7053.000000
2558.450928 6224.000000
2559.397461 6428.000000
2560.343506 6724.000000
2561.288574 7344.000000
2562.233398 6695.000000
2563.177734 7084.000000
2564.121582 6852.000000
2565.064941 6624.000000
2566.006836 6573.000000
2566.948975 6582.000000
2567.890381 6108.000000
2568.831055 7112.000000
2569.770996 7325.000000
2570.710938 5663.000000
2571.649902 6153.000000
2572.588623 7468.000000
2573.526367 7148.000000
2574.463867 5427.000000
2575.400635 6938.000000
2576.336670 6767.000000
2577.272217 7464.000000
2578.207031 6305.000000
2579.141846 5974.000000
2580.075684 7093.000000
2581.009033 7083.000000
2581.941650 5849.000000
2582.874023 6930.000000
2583.805664 5444.000000
2584.736816 7062.000000
2585.667480 6974.000000
2586.596924 6787.000000
2587.526367 7221.000000
2588.455322 6409.000000
2589.384033 7473.000000
2590.311035 7356.000000
2591.238281 5862.000000
2592.165039 6790.000000
2593.091064 6270.000000
2594.016846 5574.000000
2594.941406 7624.000000
2595.865723 7609.000000
2596.789551 5389.000000
2597.712891 7324.000000
2598.635254 6192.000000
2599.557373 6845.000000
2600.479004 8287.000000
2601.399902 6402.000000
2602.320068 5760.000000
2603.239990 6329.000000
2604.159424 6430.000000
2605.078613 6370.000000
2605.996826 5836.000000
2606.913818 5965.000000
2607.831055 7247.000000
2608.748047 5845.000000
2609.664063 7509.000000
2610.578857 6637.000000
2611.494141 6611.000000
2612.408691 6539.000000
2613.322266 6518.000000
2614.235840 6138.000000
2615.148193 7614.000000
2616.060547 6991.000000
2616.971924 6751.000000
2617.883057 5733.000000
2618.793457 7149.000000
2619.703613 6601.000000
2620.613037 6122.000000
2621.521973 6642.000000
2622.429932 6211.000000
2623.338135 6858.000000
2624.245361 6591.000000
2625.152100 7048.000000
2626.058105 6068.000000
2626.963867 6482.000000
2627.868896 6409.000000
2628.773682 7819.000000
2629.677734 6468.000000
2630.580811 6381.000000
2631.483887 6401.000000
2632.385986 5634.000000
2633.288086 6719.000000
2634.189941 6925.000000
2635.090088 6614.000000
2635.990479 6358.000000
2636.890137 6412.000000
2637.789551 6043.000000
2638.687500 6770.000000
2639.585938 6680.000000
2640.483887 6325.000000
2641.381104 6048.000000
2642.277100 6094.000000
2643.173096 6708.000000
2644.068848 6085.000000
2644.963867 6450.000000
2645.858643 6589.000000
2646.751953 7045.000000
2647.645264 6261.000000
2648.538330 6766.000000
2649.431152 6392.000000
2650.322266 7491.000000
2651.213623 6354.000000
2652.104492 7627.000000
2652.994629 7309.000000
2653.884521 6556.000000
2654.773193 7302.000000
2655.662109 6677.000000
2656.550537 6550.000000
2657.437988 7227.000000
2658.324463 6460.000000
2659.211426 7077.000000
2660.097656 6855.000000
2660.983398 6797.000000
2661.867920 6482.000000
2662.752441 6365.000000
2663.636719 6198.000000
2664.520264 7007.000000
2665.403320 7850.000000
2666.285645 7248.000000
2667.167480 6154.000000
2668.048584 6544.000000
2668.929932 6038.000000
2669.809814 6544.000000
2670.689941 7397.000000
2671.569336 7129.000000
2672.448730 6208.000000
2673.327393 6188.000000
2674.204346 6437.000000
2675.082031 6750.000000
2675.958984 6339.000000
2676.835205 8084.000000
2677.710938 7076.000000
2678.585938 6238.000000
2679.461182 7720.000000
2680.335449 7027.000000
2681.209229 7328.000000
2682.082275 6960.000000
2682.955078 6157.000000
2683.827637 6081.000000
2684.699463 6974.000000
2685.570557 6500.000000
2686.441406 6893.000000
2687.311768 7087.000000
2688.181885 6711.000000
2689.050293 6280.000000
2689.919434 7332.000000
2690.787842 6990.000000
2691.656006 6655.000000
2692.523438 6866.000000
2693.389648 5848.000000
2694.256348 7152.000000
2695.122070 7389.000000
2695.987793 7170.000000
2696.852051 7889.000000
2697.717041 6525.000000
2698.580566 7237.000000
2699.444336 5806.000000
2700.306641 7332.000000
2701.169434 6786.000000
2702.031250 5894.000000
2702.892578 6883.000000
2703.753906 6681.000000
2704.614014 7436.000000
2705.474121 7281.000000
2706.333740 6568.000000
2707.193115 6787.000000
2708.050781 7171.000000
2708.908691 6832.000000
2709.767090 7263.000000
2710.624268 6708.000000
2711.480713 5971.000000
2712.336670 6870.000000
2713.192627 6044.000000
2714.047852 6890.000000
2714.902344 6157.000000
2715.756348 6811.000000
2716.610352 7244.000000
2717.463379 6284.000000
2718.316650 6597.000000
2719.168213 7742.000000
2720.020264 6806.000000
2720.872070 6296.000000
2721.722656 6473.000000
2722.573242 6391.000000
2723.423340 7117.000000
2724.272705 7001.000000
2725.122070 6981.000000
2725.970215 6642.000000
2726.817871 6559.000000
2727.666016 7006.000000
2728.512939 6770.000000
2729.360352 5543.000000
2730.206299 7453.000000
2731.051514 7038.000000
2731.897217 6364.000000
2732.741943 6929.000000
2733.586670 7275.000000
2734.430176 6855.000000
2735.273926 7736.000000
2736.116943 7113.000000
2736.959473 6031.000000
2737.801025 6247.000000
2738.643066 6738.000000
2739.484131 6881.000000
2740.324951 5810.000000
2741.165527 5855.000000
2742.004883 7794.000000
2742.844238 6864.000000
2743.683594 6895.000000
2744.521729 6748.000000
2745.359375 7846.000000
2746.197021 6345.000000
2747.034180 7125.000000
2747.871094 6138.000000
2748.707520 5948.000000
2749.542725 6624.000000
2750.378174 6282.000000
2751.213135 6330.000000
2752.047363 6241.000000
2752.881348 6829.000000
2753.714844 6760.000000
2754.548340 7989.000000
2755.380859 6753.000000
2756.212891 7335.000000
2757.044434 6779.000000
2757.875977 7133.000000
2758.706543 7231.000000
2759.537354 7274.000000
2760.366943 7239.000000
2761.196533 6622.000000
2762.025879 7242.000000
2762.854492 6822.000000
2763.682617 6721.000000
2764.510254 6874.000000
2765.337891 6617.000000
2766.165039 7984.000000
2766.991455 5768.000000
2767.817383 7467.000000
2768.642822 6849.000000
2769.468018 7847.000000
2770.293213 7088.000000
2771.117188 6736.000000
2771.941162 6494.000000
2772.765137 7666.000000
2773.587891 6586.000000
2774.410889 6905.000000
2775.232666 6832.000000
2776.054443 6936.000000
2776.876221 6457.000000
2777.697021 7920.000000
2778.517090 6566.000000
2779.337402 7001.000000
2780.157227 7237.000000
2780.977051 6450.000000
2781.794922 5936.000000
2782.614014 8080.000000
2783.431885 6487.000000
2784.249512 6714.000000
2785.066650 7193.000000
2785.883301 7281.000000
2786.699707 7181.000000
2787.515625 6230.000000
2788.331299 5977.000000
2789.145996 6395.000000
2789.961182 6926.000000
2790.775635 7134.000000
2791.589600 6564.000000
2792.403320 7331.000000
2793.215820 8739.000000
2794.028564 6941.000000
2794.840820 7449.000000
2795.652588 7124.000000
2796.463623 7330.000000
2797.275391 6519.000000
2798.085938 7183.000000
2798.896484 6987.000000
2799.705566 7377.000000
2800.515381 8145.000000
2801.324463 7826.000000
2802.133301 6650.000000
2802.941650 7170.000000
2803.749023 6126.000000
2804.556885 6475.000000
2805.364014 6880.000000
2806.170898 6964.000000
2806.976563 7161.000000
2807.782715 6681.000000
2808.588135 6422.000000
2809.393555 7289.000000
2810.198242 6176.000000
2811.001953 7647.000000
2811.806152 7474.000000
2812.609863 6384.000000
2813.413330 6119.000000
2814.215332 6548.000000
2815.018066 7322.000000
2815.820068 7816.000000
2816.621826 6097.000000
2817.423096 6526.000000
2818.223877 7232.000000
2819.024170 6557.000000
2819.824707 6692.000000
2820.624268 7970.000000
2821.423340 7176.000000
2822.222412 6369.000000
2823.021240 6803.000000
2823.819580 6353.000000
2824.616943 7001.000000
2825.414551 7036.000000
2826.211426 6718.000000
2827.008545 7295.000000
2827.804932 7962.000000
2828.600586 6955.000000
2829.396240 7369.000000
2830.191650 7513.000000
2830.986572 7387.000000
2831.780762 6612.000000
2832.574951 6850.000000
2833.368896 5635.000000
2834.162354 6891.000000
2834.955078 7131.000000
2835.747559 8124.000000
2836.540039 7645.000000
2837.332275 7486.000000
2838.124023 6451.000000
2838.914795 6775.000000
2839.705566 8881.000000
2840.496582 7350.000000
2841.286621 6192.000000
2842.076172 7687.000000
2842.865967 7122.000000
2843.654785 7342.000000
2844.443604 7773.000000
2845.232422 7713.000000
2846.020264 7551.000000
2846.807617 7129.000000
2847.595215 7440.000000
2848.382324 7351.000000
2849.168701 6655.000000
2849.955078 7362.000000
2850.741211 7191.000000
2851.526855 7500.000000
2852.311523 7155.000000
2853.096680 6883.000000
2853.881592 7420.000000
2854.665771 7099.000000
2855.449951 7028.000000
2856.232910 8270.000000
2857.016113 6826.000000
2857.799072 6776.000000
2858.581543 7730.000000
2859.363770 6196.000000
2860.145508 6709.000000
2860.927002 7589.000000
2861.708740 7448.000000
2862.489746 7588.000000
2863.270020 6568.000000
2864.050049 6710.000000
2864.830078 8182.000000
2865.609863 7440.000000
2866.388672 8176.000000
2867.167725 7625.000000
2867.946289 6768.000000
2868.724609 6960.000000
2869.502441 7168.000000
2870.280029 6960.000000
2871.057373 7463.000000
2871.834473 6912.000000
2872.611084 6412.000000
2873.387207 7492.000000
2874.163330 7120.000000
2874.938965 8263.000000
2875.714355 7193.000000
2876.489258 6609.000000
2877.263916 7996.000000
2878.038574 6620.000000
2878.812988 7830.000000
2879.586670 6790.000000
2880.359619 7098.000000
2881.133301 6741.000000
2881.906006 7581.000000
2882.678711 7821.000000
2883.450684 8228.000000
2884.222412 6200.000000
2884.994629 6778.000000
2885.765625 6987.000000
2886.536133 6126.000000
2887.307129 8353.000000
2888.078125 7396.000000
2888.848389 7957.000000
2889.617676 7586.000000
2890.387207 6892.000000
2891.156738 7206.000000
2891.925781 7365.000000
2892.694336 7815.000000
2893.462891 7725.000000
2894.230469 6949.000000
2894.998535 6549.000000
2895.766113 7415.000000
2896.533691 8402.000000
2897.300049 7422.000000
2898.067383 6510.000000
2898.833496 7219.000000
2899.599854 6979.000000
2900.364746 8292.000000
2901.130127 6973.000000
2901.895996 6437.000000
2902.660400 7719.000000
2903.424805 7674.000000
2904.189453 8472.000000
2904.953125 6671.000000
2905.717529 8507.000000
2906.481201 6702.000000
2907.244141 8324.000000
2908.006836 6529.000000
2908.770020 8935.000000
2909.532715 7003.000000
2910.294189 6796.000000
2911.056152 6796.000000
