scanname Analyse006
timestamp 2017-02-10 19:54:53
ccdbias 907.729492
ccdgain 3.473401
sigmaread 8.960639
laserwavenum -0.634035
wavenumcorrection -0.111071
scancount 1
totalexposurems 10000
singleexposurems 10000
measurementstate Unknown
scanmode Manual
snr 127.727051 1.689865 1.146609
replacelist 1
671 24527.000000 9290.000000
peaks 6
808.644043 0.313632 0.000000 0.339672 0.000045
878.104370 0.309902 0.000000 0.348526 0.000073
1315.309448 0.268285 0.000000 9.771379 0.001980
1334.772949 0.268010 0.000000 7.351797 0.001117
1379.017334 0.243805 0.000000 0.084150 0.000023
1454.484741 0.238671 0.000000 0.110029 0.000050
finalresult GLS_NotPositive 7
A15973	Silver azide	1.873728e-002
A6025	2-Nitrothiophene	2.567600e-003
A9370	1,2-(Methylenedioxy)-4-nitrobenzene	5.539586e-004
A3222	Potassium nitrite	2.631079e-004
A8797	6-Nitroindoline	2.167480e-004
A14252	2-Methyl-5-nitrophenol	1.522006e-004
A5797	5-Nitroindazole	1.271373e-004
spectrum 2048
-96.967422 45448.000000
-94.340553 45448.000000
-91.715561 46176.000000
-89.092461 46107.000000
-86.471230 46875.000000
-83.851898 46756.000000
-81.234428 47004.000000
-78.618835 46888.000000
-76.005119 47179.000000
-73.393280 47410.000000
-70.783302 47304.000000
-68.175209 47576.000000
-65.568962 47432.000000
-62.964588 47530.000000
-60.362080 47428.000000
-57.761425 47940.000000
-55.162632 47300.000000
-52.565697 46653.000000
-49.970615 47219.000000
-47.377388 47093.000000
-44.786011 47288.000000
-42.196480 46857.000000
-39.608791 47581.000000
-37.022953 47381.000000
-34.438957 47027.000000
-31.856800 47815.000000
-29.276487 47149.000000
-26.698002 47783.000000
-24.121359 47318.000000
-21.546541 47222.000000
-18.973564 46931.000000
-16.402407 46822.000000
-13.833082 46518.000000
-11.265584 45568.000000
-8.699904 46972.000000
-6.136051 46722.000000
-3.574010 47140.000000
-1.013794 47228.000000
1.544614 46512.000000
4.101201 45868.000000
6.655983 45952.000000
9.208948 46292.000000
11.760113 45069.000000
14.309464 44937.000000
16.857019 44281.000000
19.402763 44535.000000
21.946714 44136.000000
24.488861 41782.000000
27.029211 39502.000000
29.567776 36335.000000
32.104546 32175.000000
34.639511 21627.000000
37.172699 12712.000000
39.704105 8679.000000
42.233719 7913.000000
44.761536 7475.000000
47.287594 6831.000000
49.811863 5929.000000
52.334362 5363.000000
54.855064 5029.000000
57.374012 5151.000000
59.891186 5979.000000
62.406582 7393.000000
64.920197 8013.000000
67.432060 7495.000000
69.942177 5939.000000
72.450500 3973.000000
74.957069 3318.000000
77.461891 2822.000000
79.964958 2482.000000
82.466248 2149.000000
84.965797 2138.000000
87.463593 2120.000000
89.959656 2235.000000
92.453941 2993.000000
94.946487 3335.000000
97.437317 3068.000000
99.926376 2721.000000
102.413689 2074.000000
104.899277 1653.000000
107.383125 1470.000000
109.865227 1499.000000
112.345604 1286.000000
114.824257 1189.000000
117.301186 1090.000000
119.776360 1195.000000
122.249825 1162.000000
124.721558 1235.000000
127.191582 1130.000000
129.659851 1165.000000
132.126450 1278.000000
134.591293 1367.000000
137.054443 1455.000000
139.515854 1644.000000
141.975571 1863.000000
144.433563 2248.000000
146.889862 2614.000000
149.344452 3195.000000
151.797318 3821.000000
154.248505 4589.000000
156.697998 5480.000000
159.145767 6377.000000
161.591827 7450.000000
164.036209 8510.000000
166.478912 9554.000000
168.919922 10140.000000
171.359222 10779.000000
173.796814 11140.000000
176.232773 11627.000000
178.666992 11729.000000
181.099533 11787.000000
183.530426 11837.000000
185.959595 11932.000000
188.387115 11985.000000
190.812958 12130.000000
193.237122 12082.000000
195.659622 12366.000000
198.080429 12455.000000
200.499573 12722.000000
202.917053 13013.000000
205.332840 13425.000000
207.746979 14040.000000
210.159485 14650.000000
212.570313 15500.000000
214.979462 16513.000000
217.386978 17466.000000
219.792786 18581.000000
222.197006 19489.000000
224.599518 20452.000000
227.000412 21149.000000
229.399658 21759.000000
231.797241 22221.000000
234.193161 22105.000000
236.587463 22332.000000
238.980103 22794.000000
241.371124 22654.000000
243.760483 22741.000000
246.148224 22862.000000
248.534317 22679.000000
250.918777 23237.000000
253.301590 22208.000000
255.682831 23001.000000
258.062378 22908.000000
260.440338 23118.000000
262.816620 22718.000000
265.191345 22667.000000
267.564423 22278.000000
269.935852 22800.000000
272.305634 22603.000000
274.673859 22833.000000
277.040436 22886.000000
279.405426 22668.000000
281.768799 22876.000000
284.130524 22954.000000
286.490662 22355.000000
288.849182 22735.000000
291.206116 22503.000000
293.561432 22788.000000
295.915161 22895.000000
298.267242 22819.000000
300.617767 22710.000000
302.966705 22698.000000
305.313995 22397.000000
307.659760 22475.000000
310.003845 22387.000000
312.346405 22273.000000
314.687347 22140.000000
317.026672 22181.000000
319.364441 22305.000000
321.700653 21654.000000
324.035217 22294.000000
326.368225 22029.000000
328.699677 22250.000000
331.029541 21901.000000
333.357819 22048.000000
335.684479 21852.000000
338.009644 22059.000000
340.333191 21964.000000
342.655182 21974.000000
344.975616 21584.000000
347.294434 21451.000000
349.611694 21777.000000
351.927429 21816.000000
354.241577 21708.000000
356.554138 21772.000000
358.865143 22002.000000
361.174622 21594.000000
363.482574 21703.000000
365.788910 21905.000000
368.093658 21709.000000
370.396942 21880.000000
372.698608 21771.000000
374.998779 21810.000000
377.297394 21651.000000
379.594452 21785.000000
381.889954 21896.000000
384.183929 21966.000000
386.476318 21937.000000
388.767212 22155.000000
391.056580 22098.000000
393.344360 22197.000000
395.630615 22344.000000
397.915375 22186.000000
400.198517 22431.000000
402.480225 22288.000000
404.760406 22597.000000
407.039001 22056.000000
409.316071 22252.000000
411.591614 22185.000000
413.865631 22144.000000
416.138214 22050.000000
418.409180 22279.000000
420.678650 22163.000000
422.946625 21953.000000
425.213043 21744.000000
427.477966 21857.000000
429.741425 21874.000000
432.003296 21822.000000
434.263702 21822.000000
436.522552 21495.000000
438.779938 21770.000000
441.035828 21560.000000
443.290222 21428.000000
445.543091 21775.000000
447.794403 21198.000000
450.044312 21275.000000
452.292633 20983.000000
454.539520 21060.000000
456.784943 20906.000000
459.028809 20963.000000
461.271179 20889.000000
463.512054 21002.000000
465.751526 20757.000000
467.989410 21032.000000
470.225861 20962.000000
472.460785 20825.000000
474.694244 20491.000000
476.926270 20581.000000
479.156769 20720.000000
481.385773 20333.000000
483.613312 20654.000000
485.839355 20462.000000
488.063965 20483.000000
490.287109 20692.000000
492.508789 20537.000000
494.728912 20663.000000
496.947632 20616.000000
499.164856 20691.000000
501.380707 20848.000000
503.594940 20718.000000
505.807861 20730.000000
508.019196 20831.000000
510.229095 20778.000000
512.437561 20964.000000
514.644653 20856.000000
516.850159 20953.000000
519.054260 20774.000000
521.256836 20817.000000
523.458008 20665.000000
525.657837 20724.000000
527.856140 20406.000000
530.052917 20692.000000
532.248352 20493.000000
534.442261 20558.000000
536.634827 20115.000000
538.825867 20425.000000
541.015503 20512.000000
543.203735 20382.000000
545.390442 20267.000000
547.575684 20055.000000
549.759644 19911.000000
551.942017 19797.000000
554.123047 19764.000000
556.302551 19743.000000
558.480774 19465.000000
560.657471 19730.000000
562.832764 19418.000000
565.006653 19405.000000
567.179077 19290.000000
569.350098 19418.000000
571.519653 19400.000000
573.687927 19596.000000
575.854675 19333.000000
578.019958 19461.000000
580.183838 19448.000000
582.346436 19361.000000
584.507507 19379.000000
586.667175 19447.000000
588.825500 19545.000000
590.982300 19568.000000
593.137756 19378.000000
595.291809 19439.000000
597.444519 19566.000000
599.595703 19489.000000
601.745544 19580.000000
603.894043 19503.000000
606.040955 19566.000000
608.186646 19540.000000
610.330933 19710.000000
612.473755 19417.000000
614.615112 19726.000000
616.755249 19800.000000
618.893860 19416.000000
621.031189 19540.000000
623.167053 19498.000000
625.301514 19312.000000
627.434509 19132.000000
629.566345 19093.000000
631.696716 19045.000000
633.825684 19072.000000
635.953186 18964.000000
638.079407 18848.000000
640.204102 18603.000000
642.327576 18681.000000
644.449707 18632.000000
646.570374 18289.000000
648.689697 18496.000000
650.807617 18402.000000
652.924194 18414.000000
655.039368 18244.000000
657.153198 18105.000000
659.265564 18124.000000
661.376709 18136.000000
663.486450 18161.000000
665.594727 18277.000000
667.701843 18122.000000
669.807495 18121.000000
671.911682 18073.000000
674.014648 17942.000000
676.116211 17905.000000
678.216431 18233.000000
680.315247 18222.000000
682.412720 18394.000000
684.508911 18344.000000
686.603638 18310.000000
688.697144 18158.000000
690.789307 18204.000000
692.879944 18323.000000
694.969360 18533.000000
697.057495 18452.000000
699.144165 18660.000000
701.229614 18335.000000
703.313538 18470.000000
705.396240 18414.000000
707.477661 18361.000000
709.557617 17879.000000
711.636353 17342.000000
713.713623 17423.000000
715.789612 17516.000000
717.864319 17583.000000
719.937744 17261.000000
722.009644 18075.000000
724.080383 17826.000000
726.149780 17579.000000
728.217773 17426.000000
730.284424 17403.000000
732.349854 17163.000000
734.413940 17324.000000
736.476685 17139.000000
738.538086 17035.000000
740.598206 17098.000000
742.656921 17029.000000
744.714417 17008.000000
746.770630 16795.000000
748.825439 16821.000000
750.878967 16748.000000
752.931091 16794.000000
754.981995 16819.000000
757.031677 16810.000000
759.079895 16701.000000
761.126892 16716.000000
763.172607 16456.000000
765.216919 16490.000000
767.259949 17616.000000
769.301758 14749.000000
771.342224 16691.000000
773.381287 16605.000000
775.419189 16675.000000
777.455750 16696.000000
779.491089 16703.000000
781.525085 16782.000000
783.557678 16759.000000
785.589111 17213.000000
787.619141 16347.000000
789.647888 16786.000000
791.675476 16963.000000
793.701721 16970.000000
795.726563 16906.000000
797.750305 17034.000000
799.772644 17131.000000
801.793762 17166.000000
803.813538 17112.000000
805.832031 17312.000000
807.849304 17312.000000
809.865173 17257.000000
811.879883 17352.000000
813.893250 16988.000000
815.905396 16979.000000
817.916321 16808.000000
819.925903 16401.000000
821.934265 16384.000000
823.941223 16399.000000
825.946960 16430.000000
827.951477 16300.000000
829.954712 16210.000000
831.956665 16052.000000
833.957336 15815.000000
835.956787 15937.000000
837.954895 15917.000000
839.951904 16015.000000
841.947510 15948.000000
843.941956 15975.000000
845.935059 15851.000000
847.926941 15558.000000
849.917480 15474.000000
851.906738 15333.000000
853.894958 15206.000000
855.881775 15142.000000
857.867371 15279.000000
859.851685 15195.000000
861.834900 15162.000000
863.816711 15247.000000
865.797302 15328.000000
867.776611 15162.000000
869.754761 15146.000000
871.731567 15436.000000
873.707092 15709.000000
875.681580 15628.000000
877.654602 16108.000000
879.626587 16025.000000
881.597229 16076.000000
883.566711 16059.000000
885.534851 16076.000000
887.501831 15923.000000
889.467468 15830.000000
891.431946 15712.000000
893.395203 15806.000000
895.357239 15543.000000
897.317993 15510.000000
899.277527 15536.000000
901.235779 15448.000000
903.192932 15244.000000
905.148926 15310.000000
907.103516 15233.000000
909.056885 15285.000000
911.009094 15180.000000
912.960083 15132.000000
914.909790 14941.000000
916.858337 14754.000000
918.805664 14818.000000
920.751709 14693.000000
922.696472 14407.000000
924.640198 14238.000000
926.582764 14317.000000
928.524048 14012.000000
930.463989 13930.000000
932.402832 13850.000000
934.340393 13804.000000
936.276733 13809.000000
938.211914 13688.000000
940.145813 13808.000000
942.078613 13657.000000
944.010193 13817.000000
945.940613 13774.000000
947.869812 13605.000000
949.797668 13659.000000
951.724487 13698.000000
953.650024 13849.000000
955.574280 13776.000000
957.497437 13739.000000
959.419434 14001.000000
961.340149 13928.000000
963.259705 14018.000000
965.178101 14119.000000
967.095459 14166.000000
969.011353 14135.000000
970.926147 14200.000000
972.839722 14136.000000
974.752136 14250.000000
976.663330 14132.000000
978.573364 14142.000000
980.482117 14136.000000
982.389832 14140.000000
984.296326 14159.000000
986.201599 14060.000000
988.105774 13900.000000
990.008728 13852.000000
991.910461 13987.000000
993.811035 14230.000000
995.710449 13975.000000
997.608643 13872.000000
999.505676 13724.000000
1001.401489 13326.000000
1003.296143 13284.000000
1005.189697 13241.000000
1007.081970 13031.000000
1008.973328 13128.000000
1010.863342 12859.000000
1012.752136 12696.000000
1014.639771 12754.000000
1016.526245 12706.000000
1018.411560 12684.000000
1020.295715 12674.000000
1022.178650 12752.000000
1024.060547 12572.000000
1025.941162 12704.000000
1027.820679 12604.000000
1029.699219 12752.000000
1031.576416 12727.000000
1033.452271 12616.000000
1035.327148 12672.000000
1037.201050 12801.000000
1039.073486 12795.000000
1040.944946 12674.000000
1042.815063 12612.000000
1044.684204 12787.000000
1046.552124 12670.000000
1048.418945 12670.000000
1050.284668 12817.000000
1052.149170 12973.000000
1054.012573 12955.000000
1055.874634 12975.000000
1057.735718 12844.000000
1059.595703 12835.000000
1061.454346 12857.000000
1063.311890 12846.000000
1065.168335 12927.000000
1067.023682 12935.000000
1068.877808 12922.000000
1070.731079 12921.000000
1072.582886 12975.000000
1074.433716 12786.000000
1076.283325 12879.000000
1078.131714 12740.000000
1079.979248 12794.000000
1081.825439 12801.000000
1083.670410 12841.000000
1085.514526 12817.000000
1087.357300 12867.000000
1089.198853 12683.000000
1091.039673 12574.000000
1092.878906 12443.000000
1094.717407 12491.000000
1096.554565 12491.000000
1098.390503 12334.000000
1100.225464 12256.000000
1102.059204 11866.000000
1103.891968 11842.000000
1105.723389 11627.000000
1107.553955 12137.000000
1109.383179 11784.000000
1111.211426 11392.000000
1113.038452 11408.000000
1114.864502 11382.000000
1116.689331 11401.000000
1118.513062 11229.000000
1120.335571 11356.000000
1122.156982 11372.000000
1123.977539 11257.000000
1125.796631 11382.000000
1127.614868 11479.000000
1129.431763 11388.000000
1131.247803 11583.000000
1133.062622 11422.000000
1134.876343 11503.000000
1136.688965 11669.000000
1138.500366 11771.000000
1140.310791 11746.000000
1142.120117 11648.000000
1143.928101 11761.000000
1145.735352 11978.000000
1147.541138 11938.000000
1149.346069 11817.000000
1151.149902 11771.000000
1152.952515 11943.000000
1154.754272 11927.000000
1156.554565 11887.000000
1158.353882 11777.000000
1160.152222 11713.000000
1161.949219 11774.000000
1163.745483 11642.000000
1165.540405 11437.000000
1167.334229 11502.000000
1169.127197 11245.000000
1170.918823 11383.000000
1172.709473 11063.000000
1174.499146 10997.000000
1176.287354 11072.000000
1178.074707 10915.000000
1179.860962 10998.000000
1181.646118 11061.000000
1183.430176 10870.000000
1185.213135 10836.000000
1186.995117 10847.000000
1188.775879 10813.000000
1190.555664 11022.000000
1192.334351 10693.000000
1194.112061 10908.000000
1195.888550 10629.000000
1197.663940 10538.000000
1199.438232 10387.000000
1201.211426 10418.000000
1202.983765 10519.000000
1204.754761 10210.000000
1206.524902 10240.000000
1208.293823 10183.000000
1210.061646 10235.000000
1211.828613 10154.000000
1213.594238 10172.000000
1215.358887 10292.000000
1217.122437 10283.000000
1218.884888 10191.000000
1220.646484 10132.000000
1222.406860 10116.000000
1224.166138 10013.000000
1225.924561 10033.000000
1227.681763 10038.000000
1229.437866 10251.000000
1231.192871 10260.000000
1232.947021 10113.000000
1234.699829 10245.000000
1236.451660 10243.000000
1238.202637 10293.000000
1239.952271 10284.000000
1241.701050 10289.000000
1243.448486 10374.000000
1245.195190 10354.000000
1246.940674 10390.000000
1248.685303 10368.000000
1250.428589 10366.000000
1252.170898 10269.000000
1253.912109 10251.000000
1255.652466 10236.000000
1257.391724 9923.000000
1259.129761 9787.000000
1260.866943 9581.000000
1262.602905 9606.000000
1264.337891 9807.000000
1266.071899 9913.000000
1267.804932 10157.000000
1269.536743 10182.000000
1271.267578 10169.000000
1272.997192 10222.000000
1274.725952 10266.000000
1276.453613 10182.000000
1278.180176 10275.000000
1279.905884 10299.000000
1281.630249 10173.000000
1283.353760 10263.000000
1285.076294 10140.000000
1286.797852 10115.000000
1288.518188 10065.000000
1290.237549 10034.000000
1291.955811 10071.000000
1293.673096 9995.000000
1295.389404 10081.000000
1297.104492 10034.000000
1298.818604 10105.000000
1300.531738 10006.000000
1302.244019 9899.000000
1303.955078 9666.000000
1305.665161 9640.000000
1307.374146 9546.000000
1309.081909 9493.000000
1310.789063 9627.000000
1312.494751 9576.000000
1314.199707 9332.000000
1315.903687 9477.000000
1317.606445 9726.000000
1319.308228 9862.000000
1321.009155 9736.000000
1322.708740 6270.500000
1324.407471 2805.000000
1326.105469 9241.000000
1327.802124 9119.000000
1329.497681 9260.000000
1331.192383 9122.000000
1332.885864 9223.000000
1334.578491 9213.000000
1336.270264 8831.000000
1337.960693 8964.000000
1339.650391 8781.000000
1341.338989 8910.000000
1343.026489 8790.000000
1344.713013 8830.000000
1346.398438 8848.000000
1348.082886 8882.000000
1349.766479 8844.000000
1351.448853 8935.000000
1353.130249 9005.000000
1354.810791 9176.000000
1356.490112 9271.000000
1358.168823 9172.000000
1359.846191 9334.000000
1361.522461 9283.000000
1363.197754 9360.000000
1364.872314 9303.000000
1366.545654 9168.000000
1368.218018 9255.000000
1369.889404 9290.000000
1371.559814 9352.000000
1373.229126 9223.000000
1374.897461 9303.000000
1376.564941 9425.000000
1378.231323 9204.000000
1379.896729 9353.000000
1381.561157 9186.000000
1383.224365 9070.000000
1384.886963 8941.000000
1386.548218 8868.000000
1388.208618 8918.000000
1389.867920 8843.000000
1391.526245 8716.000000
1393.183838 8707.000000
1394.840210 8792.000000
1396.495728 8740.000000
1398.150024 8766.000000
1399.803467 8796.000000
1401.455811 8710.000000
1403.107422 8807.000000
1404.757813 8652.000000
1406.407104 8521.000000
1408.055664 8249.000000
1409.703125 8295.000000
1411.349609 8301.000000
1412.995239 8133.000000
1414.639893 8170.000000
1416.283325 8082.000000
1417.925903 8046.000000
1419.567383 7998.000000
1421.208008 8051.000000
1422.847656 8032.000000
1424.486206 7988.000000
1426.123901 7900.000000
1427.760498 7832.000000
1429.396118 7882.000000
1431.031006 7829.000000
1432.664795 7888.000000
1434.297485 7793.000000
1435.929199 7643.000000
1437.560059 7800.000000
1439.189819 7857.000000
1440.818481 7857.000000
1442.446533 7730.000000
1444.073486 7770.000000
1445.699219 7769.000000
1447.324341 7817.000000
1448.948364 8035.000000
1450.571411 8084.000000
1452.193481 8008.000000
1453.814453 8082.000000
1455.434448 8082.000000
1457.053711 8066.000000
1458.671631 8416.000000
1460.288940 7476.000000
1461.905273 7917.000000
1463.520386 7980.000000
1465.134644 7840.000000
1466.748047 7891.000000
1468.360352 7952.000000
1469.971802 8006.000000
1471.582397 7924.000000
1473.191772 7996.000000
1474.800171 7891.000000
1476.407715 7917.000000
1478.014282 7836.000000
1479.620117 7852.000000
1481.224731 7756.000000
1482.828491 7734.000000
1484.431030 7666.000000
1486.032959 7329.000000
1487.633667 7509.000000
1489.233643 7215.000000
1490.832520 7251.000000
1492.430542 7293.000000
1494.027466 7241.000000
1495.623535 7429.000000
1497.218628 7679.000000
1498.812744 7655.000000
1500.406128 7663.000000
1501.998413 7626.000000
1503.589478 7633.000000
1505.180054 7535.000000
1506.769287 7517.000000
1508.357910 7397.000000
1509.945435 7249.000000
1511.531860 7311.000000
1513.117554 7199.000000
1514.702148 7362.000000
1516.285889 7238.000000
1517.868530 7255.000000
1519.450439 7354.000000
1521.031250 7234.000000
1522.611328 7215.000000
1524.190186 7064.000000
1525.768188 7007.000000
1527.345459 7008.000000
1528.921509 6803.000000
1530.496826 6906.000000
1532.071045 6903.000000
1533.644531 6914.000000
1535.216797 6873.000000
1536.788330 6874.000000
1538.358887 6921.000000
1539.928589 6882.000000
1541.497070 6880.000000
1543.064819 6758.000000
1544.631714 6829.000000
1546.197388 6603.000000
1547.762329 6777.000000
1549.326172 6640.000000
1550.889404 6640.000000
1552.451294 6554.000000
1554.012573 6666.000000
1555.572754 6602.000000
1557.132202 6669.000000
1558.690552 6556.000000
1560.248169 6516.000000
1561.804688 6540.000000
1563.359985 6496.000000
1564.914673 6439.000000
1566.468628 6480.000000
1568.021606 6537.000000
1569.573242 6387.000000
1571.124146 6563.000000
1572.674316 6431.000000
1574.223511 6500.000000
1575.771362 6579.000000
1577.318726 6470.000000
1578.865112 6478.000000
1580.410645 6533.000000
1581.955200 6548.000000
1583.498535 6557.000000
1585.041260 6544.000000
1586.583130 6463.000000
1588.123901 6405.000000
1589.663696 6484.000000
1591.202759 6429.000000
1592.740723 6311.000000
1594.278198 6386.000000
1595.814331 6466.000000
1597.349365 6441.000000
1598.883911 6382.000000
1600.417480 6282.000000
1601.950195 6235.000000
1603.481323 6303.000000
1605.012207 6254.000000
1606.542236 6352.000000
1608.071045 6360.000000
1609.598755 6201.000000
1611.125854 6325.000000
1612.652222 6428.000000
1614.177612 6308.000000
1615.702148 6247.000000
1617.225342 6298.000000
1618.747803 6247.000000
1620.269531 6177.000000
1621.790405 6275.000000
1623.309814 5965.000000
1624.828735 6192.000000
1626.346924 6118.000000
1627.864258 6043.000000
1629.380493 6135.000000
1630.895386 6229.000000
1632.409790 6139.000000
1633.923462 6147.000000
1635.436035 5994.000000
1636.947388 6059.000000
1638.458374 6025.000000
1639.968262 6031.000000
1641.477295 6002.000000
1642.984985 5875.000000
1644.492310 5949.000000
1645.998779 5758.000000
1647.504272 5874.000000
1649.008911 5888.000000
1650.512085 5814.000000
1652.014648 5778.000000
1653.516846 5759.000000
1655.017700 5780.000000
1656.517456 5803.000000
1658.016357 5656.000000
1659.514893 5595.000000
1661.012207 5646.000000
1662.508789 5728.000000
1664.003784 5645.000000
1665.498535 5513.000000
1666.992432 5443.000000
1668.485352 5784.000000
1669.976929 5316.000000
1671.468018 5454.000000
1672.958496 5362.000000
1674.447876 5449.000000
1675.935791 5285.000000
1677.423462 5279.000000
1678.910156 5489.000000
1680.395996 5416.000000
1681.880981 5346.000000
1683.364502 5281.000000
1684.847778 5330.000000
1686.330200 5402.000000
1687.811523 5295.000000
1689.291382 5268.000000
1690.770996 5145.000000
1692.249878 5159.000000
1693.727783 5511.000000
1695.204712 5175.000000
1696.680420 5248.000000
1698.155762 5169.000000
1699.629883 5199.000000
1701.103394 5201.000000
1702.575439 5230.000000
1704.047241 5180.000000
1705.518066 5165.000000
1706.988037 5214.000000
1708.456665 5070.000000
1709.924805 5209.000000
1711.392212 5223.000000
1712.858521 5169.000000
1714.324219 5136.000000
1715.788208 5180.000000
1717.252075 5203.000000
1718.715088 5154.000000
1720.177124 5243.000000
1721.637939 5211.000000
1723.098145 5136.000000
1724.557617 5070.000000
1726.016235 5171.000000
1727.473877 5051.000000
1728.930176 5207.000000
1730.386230 5144.000000
1731.841309 5100.000000
1733.295410 5063.000000
1734.748291 5097.000000
1736.200928 5203.000000
1737.652466 4992.000000
1739.103271 5081.000000
1740.553101 5079.000000
1742.001587 4943.000000
1743.449707 4907.000000
1744.896973 4935.000000
1746.343506 5026.000000
1747.788452 4910.000000
1749.233154 4890.000000
1750.677002 4694.000000
1752.119995 4914.000000
1753.561523 4773.000000
1755.002808 4896.000000
1756.443237 4557.000000
1757.882690 4868.000000
1759.321167 4692.000000
1760.758667 4781.000000
1762.195679 4697.000000
1763.631714 4665.000000
1765.066895 4664.000000
1766.500610 4653.000000
1767.934204 4777.000000
1769.366821 4713.000000
1770.798584 4854.000000
1772.229492 4728.000000
1773.659180 4647.000000
1775.088135 4597.000000
1776.516602 4401.000000
1777.944092 4348.000000
1779.370239 4212.000000
1780.796143 4494.000000
1782.220947 4498.000000
1783.645142 4506.000000
1785.067871 4428.000000
1786.490112 4408.000000
1787.911621 4292.000000
1789.332397 4509.000000
1790.752197 4280.000000
1792.170654 4341.000000
1793.588623 4259.000000
1795.005981 4264.000000
1796.422485 4194.000000
1797.837524 4360.000000
1799.252197 4313.000000
1800.666260 4286.000000
1802.079102 4203.000000
1803.491333 4248.000000
1804.902222 4179.000000
1806.312622 4215.000000
1807.722290 4168.000000
1809.130981 4282.000000
1810.538574 4172.000000
1811.945679 4239.000000
1813.351929 4234.000000
1814.757202 4208.000000
1816.161377 4293.000000
1817.565186 4268.000000
1818.968018 4250.000000
1820.369995 4253.000000
1821.771362 4168.000000
1823.171265 4230.000000
1824.570557 4208.000000
1825.969360 4100.000000
1827.367310 4199.000000
1828.763916 4103.000000
1830.159912 4108.000000
1831.555176 4147.000000
1832.949829 4097.000000
1834.343506 4167.000000
1835.735840 4301.000000
1837.127686 4160.000000
1838.518921 4095.000000
1839.909180 4206.000000
1841.298218 4217.000000
1842.686890 4041.000000
1844.074585 4092.000000
1845.461548 4207.000000
1846.847168 3988.000000
1848.232544 4026.000000
1849.617065 3995.000000
1851.000854 4011.000000
1852.383545 3990.000000
1853.765015 4017.000000
1855.145996 3984.000000
1856.526489 3942.000000
1857.906006 3851.000000
1859.284058 3860.000000
1860.661987 3894.000000
1862.038940 3880.000000
1863.415161 3841.000000
1864.790527 3846.000000
1866.164429 3775.000000
1867.538208 3740.000000
1868.911133 3847.000000
1870.282959 3734.000000
1871.653809 3640.000000
1873.024292 3706.000000
1874.393677 3704.000000
1875.762573 3655.000000
1877.129883 3609.000000
1878.497070 3620.000000
1879.863281 3700.000000
1881.228760 3611.000000
1882.593506 3690.000000
1883.956665 3647.000000
1885.319702 3552.000000
1886.681885 3588.000000
1888.043213 3602.000000
1889.403198 3488.000000
1890.762817 3526.000000
1892.121826 3589.000000
1893.479858 3620.000000
1894.837036 3480.000000
1896.192993 3561.000000
1897.548706 3557.000000
1898.903442 3542.000000
1900.257324 3508.000000
1901.610107 3453.000000
1902.962402 3461.000000
1904.313965 3578.000000
1905.664673 3471.000000
1907.014160 3565.000000
1908.363159 3518.000000
1909.711304 3526.000000
1911.058838 3584.000000
1912.405640 3466.000000
1913.750854 3514.000000
1915.095825 3563.000000
1916.440063 3508.000000
1917.783447 3463.000000
1919.125488 3495.000000
1920.467285 3564.000000
1921.808228 3517.000000
1923.148438 3441.000000
1924.487671 3418.000000
1925.825928 3574.000000
1927.163574 3433.000000
1928.500488 3398.000000
1929.836548 3501.000000
1931.171387 3468.000000
1932.505859 3432.000000
1933.839600 3315.000000
1935.172485 3429.000000
1936.503906 3403.000000
1937.835449 3395.000000
1939.165649 3308.000000
1940.495361 3326.000000
1941.824219 3339.000000
1943.151855 3362.000000
1944.479004 3338.000000
1945.805420 3477.000000
1947.131104 3384.000000
1948.455444 3305.000000
1949.779541 3339.000000
1951.102783 3253.000000
1952.425293 3242.000000
1953.746704 3349.000000
1955.067139 3274.000000
1956.386963 3247.000000
1957.706421 3211.000000
1959.024902 3144.000000
1960.342041 3214.000000
1961.658813 3227.000000
1962.974854 3137.000000
1964.290161 3146.000000
1965.604004 3233.000000
1966.917603 3192.000000
1968.230469 3127.000000
1969.542480 3274.000000
1970.853882 3029.000000
1972.163940 3057.000000
1973.473511 3064.000000
1974.782349 3018.000000
1976.090576 3039.000000
1977.397461 3014.000000
1978.703735 2875.000000
1980.009644 3085.000000
1981.314331 2983.000000
1982.618530 3010.000000
1983.921509 2992.000000
1985.224121 3061.000000
1986.525757 2949.000000
1987.826782 2846.000000
1989.126221 2920.000000
1990.425781 2868.000000
1991.724243 2934.000000
1993.022217 2786.000000
1994.318604 2837.000000
1995.614990 2825.000000
1996.910400 2908.000000
1998.205078 2816.000000
1999.498901 2739.000000
2000.791504 2785.000000
2002.083618 2734.000000
2003.375244 2780.000000
2004.666138 2696.000000
2005.955444 2658.000000
2007.244507 2710.000000
2008.532837 2711.000000
2009.820435 2796.000000
2011.107178 2771.000000
2012.392822 2776.000000
2013.678101 2707.000000
2014.962402 2667.000000
2016.246094 2680.000000
2017.528442 2814.000000
2018.810425 2612.000000
2020.091919 2630.000000
2021.372437 2678.000000
2022.652222 2600.000000
2023.930908 2684.000000
2025.208862 2596.000000
2026.486328 2637.000000
2027.763184 2603.000000
2029.038330 2688.000000
2030.313599 2697.000000
2031.587891 2604.000000
2032.861206 2719.000000
2034.133667 2711.000000
2035.405762 2816.000000
2036.676758 2639.000000
2037.947510 2645.000000
2039.216919 2542.000000
2040.485229 2666.000000
2041.753540 2713.000000
2043.020874 2665.000000
2044.287476 2766.000000
2045.552856 2648.000000
2046.817627 2768.000000
2048.082031 2586.000000
2049.345459 2586.000000
2050.608398 2580.000000
2051.869385 2572.000000
2053.130859 2652.000000
2054.391113 2464.000000
2055.650635 2592.000000
2056.909424 2468.000000
2058.167236 2497.000000
2059.424561 2523.000000
2060.681152 2472.000000
2061.936279 2508.000000
2063.191406 2507.000000
2064.445557 2525.000000
2065.698975 2511.000000
2066.951660 2553.000000
2068.203125 2432.000000
2069.454346 2526.000000
2070.704834 2455.000000
2071.954590 2494.000000
2073.202881 2087.000000
2074.451172 2348.000000
2075.698486 2364.000000
2076.945068 2409.000000
2078.190918 2444.000000
2079.435547 2342.000000
2080.679688 2445.000000
2081.923340 2348.000000
2083.166016 2390.000000
2084.407471 2441.000000
2085.648682 2308.000000
2086.889404 2358.000000
2088.129150 2301.000000
2089.367676 2333.000000
2090.605713 2361.000000
2091.843018 2411.000000
2093.080078 2301.000000
2094.315674 2286.000000
2095.550537 2322.000000
2096.785156 2254.000000
2098.018799 2323.000000
2099.251465 2310.000000
2100.483398 2284.000000
2101.714844 2212.000000
2102.945313 2272.000000
2104.175049 2223.000000
2105.404541 2240.000000
2106.632080 2164.000000
2107.859863 2244.000000
2109.086914 2240.000000
2110.312988 2246.000000
2111.537598 2179.000000
2112.762451 2020.000000
2113.986084 2108.000000
2115.209229 2200.000000
2116.431152 2108.000000
2117.652832 2138.000000
2118.873535 2059.000000
2120.093506 2127.000000
2121.312988 2131.000000
2122.531006 2140.000000
2123.749023 2252.000000
2124.966064 2141.000000
2126.182617 2146.000000
2127.397461 2126.000000
2128.612549 2136.000000
2129.826660 2212.000000
2131.040039 2002.000000
2132.252686 1984.000000
2133.463867 2112.000000
2134.675293 2059.000000
2135.885498 1924.000000
2137.095215 2120.000000
2138.303467 2217.000000
2139.511719 2012.000000
2140.719238 2070.000000
2141.925537 1864.000000
2143.131104 2048.000000
2144.336426 2126.000000
2145.540771 1996.000000
2146.744385 2060.000000
2147.947510 2012.000000
2149.149170 2111.000000
2150.350586 2033.000000
2151.551270 2041.000000
2152.751221 1959.000000
2153.949951 2059.000000
2155.148438 2014.000000
2156.346436 2057.000000
2157.543457 2067.000000
2158.739746 2054.000000
2159.934814 1995.000000
2161.129639 1947.000000
2162.323730 1918.000000
2163.516846 1923.000000
2164.708984 1924.000000
2165.900879 1962.000000
2167.092041 1813.000000
2168.282227 1965.000000
2169.471680 1826.000000
2170.660645 1833.000000
2171.848633 1867.000000
2173.036377 1750.000000
2174.222656 1817.000000
2175.408203 1783.000000
2176.593506 1770.000000
2177.778320 1835.000000
2178.961914 1752.000000
2180.144775 1809.000000
2181.326660 1754.000000
2182.508301 1827.000000
2183.689453 1726.000000
2184.869385 1776.000000
2186.048340 1822.000000
2187.226807 1881.000000
2188.405029 1670.000000
2189.582031 1785.000000
2190.758057 1788.000000
2191.933838 1836.000000
2193.109131 1698.000000
2194.282959 1800.000000
2195.456299 1622.000000
2196.629395 1763.000000
2197.801270 1791.000000
2198.972656 1740.000000
2200.143555 1756.000000
2201.312744 1712.000000
2202.481934 1662.000000
2203.650635 1755.000000
2204.818359 1783.000000
2205.985107 1836.000000
2207.151123 1696.000000
2208.316650 1751.000000
2209.481934 1801.000000
2210.645752 1766.000000
2211.809082 1748.000000
2212.971191 1687.000000
2214.133545 1694.000000
2215.294678 1694.000000
2216.454834 1744.000000
2217.614502 1648.000000
2218.773926 1719.000000
2219.932129 1580.000000
2221.089355 1708.000000
2222.246338 1689.000000
2223.402588 1644.000000
2224.558105 1706.000000
2225.712891 1624.000000
2226.866699 1557.000000
2228.019531 1690.000000
2229.172852 1576.000000
2230.324219 1617.000000
2231.475342 1588.000000
2232.625732 1627.000000
2233.775635 1580.000000
2234.924561 1556.000000
2236.072998 1623.000000
2237.219971 1601.000000
2238.367188 1631.000000
2239.513184 1569.000000
2240.658936 1509.000000
2241.802979 1550.000000
2242.947266 1509.000000
2244.090576 1355.000000
2245.233154 1518.000000
2246.374756 1493.000000
2247.516113 1524.000000
2248.656494 1466.000000
2249.796143 1489.000000
2250.935303 1525.000000
2252.073242 1382.000000
2253.211182 1445.000000
2254.348145 1423.000000
2255.484375 1449.000000
2256.619629 1467.000000
2257.754150 1259.000000
2258.888428 1438.000000
2260.022217 1513.000000
2261.154541 1538.000000
2262.286377 1466.000000
2263.417725 1355.000000
2264.548096 1483.000000
2265.678223 1367.000000
2266.807129 1484.000000
2267.935547 1400.000000
2269.063477 1310.000000
2270.190430 1346.000000
2271.316650 1359.000000
2272.441895 1225.000000
2273.567139 1420.000000
2274.691650 1456.000000
2275.814941 1289.000000
2276.937500 1322.000000
2278.059570 1347.000000
2279.181152 1344.000000
2280.302002 1208.000000
2281.421631 1390.000000
2282.540771 1323.000000
2283.659668 1293.000000
2284.777832 1285.000000
2285.895020 1368.000000
2287.011230 1333.000000
2288.127197 1354.000000
2289.242432 1294.000000
2290.356934 1275.000000
2291.470215 1331.000000
2292.583496 1375.000000
2293.696045 1252.000000
2294.807861 1339.000000
2295.918945 1353.000000
2297.028809 1314.000000
2298.138184 1295.000000
2299.247314 1224.000000
2300.355469 1295.000000
2301.462646 1249.000000
2302.569580 1296.000000
2303.675781 1354.000000
2304.781494 1341.000000
2305.885742 1263.000000
2306.989746 1282.000000
2308.093262 1233.000000
2309.196289 1225.000000
2310.298096 1249.000000
2311.399170 1218.000000
2312.499756 1284.000000
2313.599854 1229.000000
2314.699219 1309.000000
2315.797119 1266.000000
2316.895508 1237.000000
2317.992432 1228.000000
2319.089111 1207.000000
2320.185303 1202.000000
2321.279785 1204.000000
2322.374268 1298.000000
2323.468018 1211.000000
2324.561523 1254.000000
2325.653320 1275.000000
2326.745117 1205.000000
2327.836182 1343.000000
2328.926514 1174.000000
2330.015869 1281.000000
2331.105225 1297.000000
2332.193359 1271.000000
2333.281006 1242.000000
2334.368408 1227.000000
2335.454102 1162.000000
2336.539551 1099.000000
2337.624756 1106.000000
2338.708984 1208.000000
2339.792236 1211.000000
2340.875244 1179.000000
2341.957275 1143.000000
2343.039063 1155.000000
2344.120117 1056.000000
2345.199951 1113.000000
2346.279297 1086.000000
2347.358154 1038.000000
2348.436523 1067.000000
2349.513428 1120.000000
2350.590088 1155.000000
2351.666504 1067.000000
2352.741943 1139.000000
2353.816406 1066.000000
2354.890625 1104.000000
2355.964111 1081.000000
2357.037109 1043.000000
2358.108887 1025.000000
2359.180420 1080.000000
2360.250977 1037.000000
2361.321289 1142.000000
2362.390625 974.000000
2363.458984 990.000000
2364.527100 1092.000000
2365.594482 1046.000000
2366.661377 1001.000000
2367.727539 1007.000000
2368.792480 957.000000
2369.857422 996.000000
2370.921631 985.000000
2371.985107 1054.000000
2373.047363 1082.000000
2374.109619 1005.000000
2375.170898 1023.000000
2376.231934 958.000000
2377.291748 936.000000
2378.350830 1048.000000
2379.409912 969.000000
2380.468018 970.000000
2381.525391 940.000000
2382.581787 1064.000000
2383.637939 975.000000
2384.693604 1009.000000
2385.748535 968.000000
2386.802002 928.000000
2387.855713 899.000000
2388.908447 962.000000
2389.960693 950.000000
2391.012207 991.000000
2392.062744 912.000000
2393.113037 949.000000
2394.162354 928.000000
2395.211670 905.000000
2396.259521 999.000000
2397.306885 969.000000
2398.354004 969.000000
2399.400146 897.000000
2400.445557 882.000000
2401.490234 930.000000
2402.534912 931.000000
2403.578125 974.000000
2404.621338 978.000000
2405.663086 984.000000
2406.705078 1036.000000
2407.746338 918.000000
2408.786621 1008.000000
2409.826172 921.000000
2410.864746 891.000000
2411.903564 892.000000
2412.941162 959.000000
2413.978516 832.000000
2415.014648 922.000000
2416.050537 851.000000
2417.085693 907.000000
2418.120361 966.000000
2419.153564 916.000000
2420.187012 987.000000
2421.219482 1011.000000
2422.251709 905.000000
2423.282471 864.000000
2424.313232 1008.000000
2425.343506 814.000000
2426.372559 890.000000
2427.401611 906.000000
2428.428955 947.000000
2429.456787 904.000000
2430.483398 812.000000
2431.509766 769.000000
2432.534668 772.000000
2433.559814 918.000000
2434.583984 903.000000
2435.607910 863.000000
2436.630615 795.000000
2437.652588 803.000000
2438.674316 852.000000
2439.695313 791.000000
2440.715820 825.000000
2441.735107 779.000000
2442.754395 862.000000
2443.772705 819.000000
2444.790771 801.000000
2445.807373 815.000000
2446.823975 782.000000
2447.839844 916.000000
2448.855713 905.000000
2449.870117 886.000000
2450.883789 774.000000
2451.896973 903.000000
2452.909912 784.000000
2453.922119 799.000000
2454.933350 823.000000
2455.944336 692.000000
2456.954590 778.000000
2457.964355 845.000000
2458.973145 802.000000
2459.981201 665.000000
2460.989258 756.000000
2461.996094 747.000000
2463.002686 810.000000
2464.008057 796.000000
2465.013184 730.000000
2466.018066 743.000000
2467.021729 821.000000
2468.025146 744.000000
2469.027588 856.000000
2470.029785 684.000000
2471.031494 687.000000
2472.032227 806.000000
2473.031982 696.000000
2474.031738 776.000000
2475.030518 724.000000
2476.028809 730.000000
2477.026123 849.000000
2478.023193 804.000000
2479.020264 711.000000
2480.015869 676.000000
2481.011475 792.000000
2482.005371 749.000000
2482.999268 691.000000
2483.992676 702.000000
2484.985596 676.000000
2485.977539 649.000000
2486.968750 723.000000
2487.959717 726.000000
2488.950195 739.000000
2489.939697 819.000000
2490.928467 629.000000
2491.917236 722.000000
2492.905029 747.000000
2493.891602 645.000000
2494.878174 430.000000
2495.864258 762.000000
2496.849609 721.000000
2497.833984 698.000000
2498.818115 770.000000
2499.802246 643.000000
2500.784912 704.000000
2501.767090 635.000000
2502.748779 747.000000
2503.729736 749.000000
2504.710205 645.000000
2505.690430 723.000000
2506.669189 734.000000
2507.647705 754.000000
2508.625732 731.000000
2509.603271 682.000000
2510.579834 663.000000
2511.556152 668.000000
2512.531738 700.000000
2513.506836 634.000000
2514.481445 719.000000
2515.454834 635.000000
2516.427979 588.000000
2517.400879 592.000000
2518.372803 628.000000
2519.343994 626.000000
2520.314697 666.000000
2521.285156 627.000000
2522.254883 624.000000
2523.223633 632.000000
2524.191650 664.000000
2525.159668 644.000000
2526.126709 681.000000
2527.093506 599.000000
2528.059082 617.000000
2529.024658 620.000000
2529.989502 580.000000
2530.953857 701.000000
2531.916992 550.000000
2532.880371 555.000000
2533.842773 657.000000
2534.804932 605.000000
2535.765869 715.000000
2536.726074 651.000000
2537.686523 697.000000
2538.645996 578.000000
2539.604736 614.000000
2540.562500 667.000000
2541.520508 614.000000
2542.477783 630.000000
2543.434082 575.000000
2544.390137 592.000000
2545.344971 637.000000
2546.300049 697.000000
2547.254395 544.000000
2548.208008 189.000000
2549.160645 617.000000
2550.113037 583.000000
2551.064941 586.000000
2552.016113 532.000000
2552.966553 607.000000
2553.916504 578.000000
2554.866211 629.000000
2555.815186 469.000000
2556.763672 645.000000
2557.710938 566.000000
2558.658203 620.000000
2559.604736 538.000000
2560.550781 551.000000
2561.495850 473.000000
2562.440674 604.000000
2563.385010 603.000000
2564.328857 480.000000
2565.272217 542.000000
2566.214111 561.000000
2567.156250 609.000000
2568.097656 546.000000
2569.038330 560.000000
2569.978271 572.000000
2570.918213 498.000000
2571.857178 513.000000
2572.795898 557.000000
2573.733643 571.000000
2574.671143 583.000000
2575.607910 501.000000
2576.543945 538.000000
2577.479492 501.000000
2578.414307 470.000000
2579.349121 517.000000
2580.282959 570.000000
2581.216309 536.000000
2582.148926 561.000000
2583.081299 556.000000
2584.012939 555.000000
2584.944092 536.000000
2585.874756 576.000000
2586.804199 526.000000
2587.733643 460.000000
2588.662598 514.000000
2589.591309 541.000000
2590.518311 523.000000
2591.445557 512.000000
2592.372314 445.000000
2593.298340 575.000000
2594.224121 494.000000
2595.148682 522.000000
2596.072998 464.000000
2596.996826 551.000000
2597.920166 455.000000
2598.842529 543.000000
2599.764648 419.000000
2600.686279 428.000000
2601.607178 447.000000
2602.527344 534.000000
2603.447266 554.000000
2604.366699 479.000000
2605.285889 487.000000
2606.204102 522.000000
2607.121094 556.000000
2608.038330 463.000000
2608.955322 430.000000
2609.871338 458.000000
2610.786133 441.000000
2611.701416 540.000000
2612.615967 573.000000
2613.529541 484.000000
2614.443115 544.000000
2615.355469 418.000000
2616.267822 465.000000
2617.179199 486.000000
2618.090332 436.000000
2619.000732 491.000000
2619.910889 481.000000
2620.820313 491.000000
2621.729248 520.000000
2622.637207 444.000000
2623.545410 517.000000
2624.452637 439.000000
2625.359375 498.000000
2626.265381 487.000000
2627.171143 564.000000
2628.076172 451.000000
2628.980957 455.000000
2629.885010 444.000000
2630.788086 486.000000
2631.691162 547.000000
2632.593262 494.000000
2633.495361 401.000000
2634.397217 389.000000
2635.297363 409.000000
2636.197754 391.000000
2637.097412 399.000000
2637.996826 509.000000
2638.894775 374.000000
2639.793213 413.000000
2640.691162 409.000000
2641.588379 457.000000
2642.484375 462.000000
2643.380371 256.000000
2644.276123 409.000000
2645.171143 390.000000
2646.065918 423.000000
2646.959229 384.000000
2647.852539 456.000000
2648.745605 370.000000
2649.638428 436.000000
2650.529541 421.000000
2651.420898 379.000000
2652.311768 472.000000
2653.201904 329.000000
2654.091797 388.000000
2654.980469 426.000000
2655.869385 422.000000
2656.757813 385.000000
2657.645264 375.000000
2658.531738 351.000000
2659.418701 400.000000
2660.304932 396.000000
2661.190674 437.000000
2662.075195 415.000000
2662.959717 363.000000
2663.843994 364.000000
2664.727539 295.000000
2665.610596 397.000000
2666.492920 401.000000
2667.374756 437.000000
2668.255859 400.000000
2669.137207 471.000000
2670.017090 399.000000
2670.897217 386.000000
2671.776611 453.000000
2672.656006 392.000000
2673.534668 369.000000
2674.411621 427.000000
2675.289307 379.000000
2676.166260 489.000000
2677.042480 333.000000
2677.918213 419.000000
2678.793213 386.000000
2679.668457 362.000000
2680.542725 422.000000
2681.416504 322.000000
2682.289551 342.000000
2683.162354 437.000000
2684.034912 413.000000
2684.906738 275.000000
2685.777832 409.000000
2686.648682 324.000000
2687.519043 342.000000
2688.389160 414.000000
2689.257568 383.000000
2690.126709 402.000000
2690.995117 459.000000
2691.863281 360.000000
2692.730713 288.000000
2693.596924 322.000000
2694.463623 280.000000
2695.329346 387.000000
2696.195068 357.000000
2697.059326 469.000000
2697.924316 400.000000
2698.787842 328.000000
2699.651611 410.000000
2700.513916 306.000000
2701.376709 418.000000
2702.238525 384.000000
2703.099854 392.000000
2703.961182 412.000000
2704.821289 427.000000
2705.681396 345.000000
2706.541016 409.000000
2707.400391 288.000000
2708.258057 283.000000
2709.115967 383.000000
2709.974365 382.000000
2710.831543 282.000000
2711.687988 375.000000
2712.543945 249.000000
2713.399902 302.000000
2714.255127 277.000000
2715.109619 287.000000
2715.963623 326.000000
2716.817627 358.000000
2717.670654 332.000000
2718.523926 227.000000
2719.375488 362.000000
2720.227539 308.000000
2721.079346 273.000000
2721.929932 316.000000
2722.780518 550.000000
2723.630615 355.000000
2724.479980 316.000000
2725.329346 262.000000
2726.177490 208.000000
2727.025146 279.000000
2727.873291 327.000000
2728.720215 328.000000
2729.567627 288.000000
2730.413574 260.000000
2731.258789 218.000000
2732.104492 306.000000
2732.949219 315.000000
2733.793945 225.000000
2734.637451 256.000000
2735.481201 356.000000
2736.324219 296.000000
2737.166748 298.000000
2738.008301 314.000000
2738.850342 280.000000
2739.691406 329.000000
2740.532227 348.000000
2741.372803 412.000000
2742.212158 264.000000
2743.051514 292.000000
2743.890869 278.000000
2744.729004 295.000000
2745.566650 360.000000
2746.404297 248.000000
2747.241455 275.000000
2748.078369 371.000000
2748.914795 263.000000
2749.750000 313.000000
2750.585449 315.000000
2751.420410 259.000000
2752.254639 273.000000
2753.088623 347.000000
2753.922119 358.000000
2754.755615 262.000000
2755.588135 359.000000
2756.420166 286.000000
2757.251709 266.000000
2758.083252 301.000000
2758.913818 284.000000
2759.744629 286.000000
2760.574219 324.000000
2761.403809 320.000000
2762.233154 334.000000
2763.061768 288.000000
2763.889893 160.000000
2764.717529 328.000000
2765.545166 239.000000
2766.372314 328.000000
2767.198730 356.000000
2768.024658 132.000000
2768.850098 327.000000
2769.675293 273.000000
2770.500488 357.000000
2771.324463 264.000000
2772.148438 264.000000
2772.972412 274.000000
2773.795166 259.000000
2774.618164 390.000000
2775.439941 264.000000
2776.261719 248.000000
2777.083496 240.000000
2777.904297 242.000000
2778.724365 361.000000
2779.544678 288.000000
2780.364502 288.000000
2781.184326 217.000000
2782.002197 268.000000
2782.821289 234.000000
2783.639160 225.000000
2784.456787 356.000000
2785.273926 230.000000
2786.090576 120.000000
2786.906982 232.000000
2787.722900 246.000000
2788.538574 172.000000
2789.353271 275.000000
2790.168457 261.000000
2790.982910 239.000000
2791.796875 179.000000
2792.610596 199.000000
2793.423096 251.000000
2794.235840 250.000000
2795.048096 245.000000
2795.859863 339.000000
2796.670898 202.000000
2797.482666 317.000000
2798.293213 205.000000
2799.103760 253.000000
2799.912842 187.000000
2800.722656 137.000000
2801.531738 138.000000
2802.340576 295.000000
2803.148926 225.000000
2803.956299 237.000000
2804.764160 295.000000
2805.571289 167.000000
2806.378174 243.000000
2807.183838 267.000000
2807.989990 95.000000
2808.795410 89.000000
2809.600830 178.000000
2810.405518 246.000000
2811.209229 178.000000
2812.013428 219.000000
2812.817139 221.000000
2813.620605 249.000000
2814.422607 179.000000
2815.225342 104.000000
2816.027344 170.000000
2816.829102 243.000000
2817.630371 209.000000
2818.431152 255.000000
2819.231445 236.000000
2820.031982 240.000000
2820.831543 230.000000
2821.630615 182.000000
2822.429688 117.000000
2823.228516 239.000000
2824.026855 215.000000
2824.824219 336.000000
2825.621826 160.000000
2826.418701 270.000000
2827.215820 209.000000
2828.012207 207.000000
2828.807861 161.000000
2829.603516 349.000000
2830.398926 181.000000
2831.193848 311.000000
2831.988037 218.000000
2832.782227 234.000000
2833.576172 290.000000
2834.369629 193.000000
2835.162354 198.000000
2835.954834 180.000000
2836.747314 256.000000
2837.539551 173.000000
2838.331299 259.000000
2839.122070 224.000000
2839.912842 235.000000
2840.703857 77.000000
2841.493896 186.000000
2842.283447 338.000000
2843.073242 260.000000
2843.862061 121.000000
2844.650879 174.000000
2845.439697 136.000000
2846.227539 189.000000
2847.014893 257.000000
2847.802490 205.000000
2848.589600 152.000000
2849.375977 212.000000
2850.162354 194.000000
2850.948486 199.000000
2851.734131 266.000000
2852.518799 224.000000
2853.303955 129.000000
2854.088867 251.000000
2854.873047 222.000000
2855.657227 169.000000
2856.440186 169.000000
2857.223389 177.000000
2858.006348 150.000000
2858.788818 217.000000
2859.571045 214.000000
2860.352783 163.000000
2861.134277 163.000000
2861.916016 228.000000
2862.697021 165.000000
2863.477295 188.000000
2864.257324 218.000000
2865.037354 195.000000
2865.817139 219.000000
2866.595947 145.000000
2867.375000 188.000000
2868.153564 79.000000
2868.931885 185.000000
2869.709717 206.000000
2870.487305 238.000000
2871.264648 223.000000
2872.041748 230.000000
2872.818359 193.000000
2873.594482 244.000000
2874.370605 144.000000
2875.146240 210.000000
2875.921631 165.000000
2876.696533 219.000000
2877.471191 152.000000
2878.245850 288.000000
2879.020264 265.000000
2879.793945 209.000000
2880.566895 215.000000
2881.340576 289.000000
2882.113281 228.000000
2882.885986 301.000000
2883.657959 181.000000
2884.429688 171.000000
2885.201904 258.000000
2885.972900 280.000000
2886.743408 285.000000
2887.514404 245.000000
2888.285400 233.000000
2889.055664 251.000000
2889.824951 205.000000
2890.594482 146.000000
2891.364014 265.000000
2892.133057 274.000000
2892.901611 266.000000
2893.670166 83.000000
2894.437744 268.000000
2895.205811 271.000000
2895.973389 164.000000
2896.740967 144.000000
2897.507324 187.000000
2898.274658 241.000000
2899.040771 155.000000
2899.807129 296.000000
2900.572021 216.000000
2901.337402 251.000000
2902.103271 201.000000
2902.867676 89.000000
2903.632080 144.000000
2904.396729 219.000000
2905.160400 181.000000
2905.924805 301.000000
2906.688477 214.000000
2907.451416 180.000000
2908.214111 258.000000
2908.977295 191.000000
2909.739990 206.000000
2910.501465 167.000000
2911.263428 167.000000
spectrumdark 2048
-96.967422 6217.000000
-94.340553 6217.000000
-91.715561 6021.000000
-89.092461 6464.000000
-86.471230 5927.000000
-83.851898 6247.000000
-81.234428 6159.000000
-78.618835 6346.000000
-76.005119 6200.000000
-73.393280 6047.000000
-70.783302 6186.000000
-68.175209 5955.000000
-65.568962 6096.000000
-62.964588 6016.000000
-60.362080 6127.000000
-57.761425 5656.000000
-55.162632 6278.000000
-52.565697 6956.000000
-49.970615 6405.000000
-47.377388 6490.000000
-44.786011 6264.000000
-42.196480 6752.000000
-39.608791 5993.000000
-37.022953 6147.000000
-34.438957 6504.000000
-31.856800 5745.000000
-29.276487 6345.000000
-26.698002 5694.000000
-24.121359 6174.000000
-21.546541 6209.000000
-18.973564 6442.000000
-16.402407 6558.000000
-13.833082 6836.000000
-11.265584 7741.000000
-8.699904 6298.000000
-6.136051 6497.000000
-3.574010 6029.000000
-1.013794 5837.000000
1.544614 6382.000000
4.101201 6917.000000
6.655983 6646.000000
9.208948 5991.000000
11.760113 6838.000000
14.309464 6436.000000
16.857019 6678.000000
19.402763 6057.000000
21.946714 5735.000000
24.488861 6708.000000
27.029211 6809.000000
29.567776 6920.000000
32.104546 6246.000000
34.639511 5771.000000
37.172699 7221.000000
39.704105 6335.000000
42.233719 7141.000000
44.761536 6480.000000
47.287594 7802.000000
49.811863 5674.000000
52.334362 6254.000000
54.855064 6707.000000
57.374012 6356.000000
59.891186 6488.000000
62.406582 6645.000000
64.920197 5633.000000
67.432060 5782.000000
69.942177 6568.000000
72.450500 6593.000000
74.957069 5923.000000
77.461891 6363.000000
79.964958 6336.000000
82.466248 6281.000000
84.965797 6099.000000
87.463593 6367.000000
89.959656 5799.000000
92.453941 7244.000000
94.946487 5802.000000
97.437317 6963.000000
99.926376 7170.000000
102.413689 6402.000000
104.899277 6257.000000
107.383125 6413.000000
109.865227 5847.000000
112.345604 6756.000000
114.824257 6280.000000
117.301186 6607.000000
119.776360 7163.000000
122.249825 6859.000000
124.721558 5853.000000
127.191582 6773.000000
129.659851 6310.000000
132.126450 6326.000000
134.591293 5759.000000
137.054443 6230.000000
139.515854 7326.000000
141.975571 6928.000000
144.433563 6440.000000
146.889862 6018.000000
149.344452 5812.000000
151.797318 6864.000000
154.248505 6361.000000
156.697998 6641.000000
159.145767 6096.000000
161.591827 6640.000000
164.036209 8696.000000
166.478912 6374.000000
168.919922 6782.000000
171.359222 6272.000000
173.796814 7305.000000
176.232773 6593.000000
178.666992 7004.000000
181.099533 7173.000000
183.530426 6665.000000
185.959595 7106.000000
188.387115 6679.000000
190.812958 6372.000000
193.237122 6739.000000
195.659622 7207.000000
198.080429 7373.000000
200.499573 6526.000000
202.917053 6096.000000
205.332840 7678.000000
207.746979 7123.000000
210.159485 6443.000000
212.570313 6097.000000
214.979462 6293.000000
217.386978 7409.000000
219.792786 6242.000000
222.197006 6562.000000
224.599518 6746.000000
227.000412 6971.000000
229.399658 6515.000000
231.797241 6821.000000
234.193161 7293.000000
236.587463 6557.000000
238.980103 6098.000000
241.371124 6803.000000
243.760483 6547.000000
246.148224 6395.000000
248.534317 7027.000000
250.918777 6132.000000
253.301590 7987.000000
255.682831 6615.000000
258.062378 6738.000000
260.440338 6530.000000
262.816620 7604.000000
265.191345 7567.000000
267.564423 7810.000000
269.935852 6224.000000
272.305634 6473.000000
274.673859 5900.000000
277.040436 6314.000000
279.405426 6464.000000
281.768799 6029.000000
284.130524 6171.000000
286.490662 7152.000000
288.849182 6093.000000
291.206116 6573.000000
293.561432 6378.000000
295.915161 5943.000000
298.267242 6004.000000
300.617767 6314.000000
302.966705 6375.000000
305.313995 6836.000000
307.659760 6446.000000
310.003845 6576.000000
312.346405 7396.000000
314.687347 7566.000000
317.026672 7173.000000
319.364441 6969.000000
321.700653 8141.000000
324.035217 6217.000000
326.368225 6468.000000
328.699677 6002.000000
331.029541 6691.000000
333.357819 6503.000000
335.684479 7275.000000
338.009644 6356.000000
340.333191 6257.000000
342.655182 6051.000000
344.975616 7555.000000
347.294434 7723.000000
349.611694 6017.000000
351.927429 5846.000000
354.241577 6955.000000
356.554138 6378.000000
358.865143 6283.000000
361.174622 7079.000000
363.482574 6353.000000
365.788910 5702.000000
368.093658 6564.000000
370.396942 6394.000000
372.698608 6303.000000
374.998779 6362.000000
377.297394 6352.000000
379.594452 6025.000000
381.889954 6080.000000
384.183929 5891.000000
386.476318 5276.000000
388.767212 5564.000000
391.056580 6211.000000
393.344360 6240.000000
395.630615 6467.000000
397.915375 7013.000000
400.198517 6132.000000
402.480225 6491.000000
404.760406 6197.000000
407.039001 7298.000000
409.316071 6534.000000
411.591614 6793.000000
413.865631 6579.000000
416.138214 6526.000000
418.409180 6293.000000
420.678650 6477.000000
422.946625 7115.000000
425.213043 7318.000000
427.477966 6332.000000
429.741425 6351.000000
432.003296 6471.000000
434.263702 5991.000000
436.522552 6681.000000
438.779938 6148.000000
441.035828 5671.000000
443.290222 5834.000000
445.543091 5395.000000
447.794403 6947.000000
450.044312 6101.000000
452.292633 6271.000000
454.539520 5665.000000
456.784943 6522.000000
459.028809 6419.000000
461.271179 6475.000000
463.512054 5651.000000
465.751526 6790.000000
467.989410 5453.000000
470.225861 5959.000000
472.460785 6083.000000
474.694244 7343.000000
476.926270 6673.000000
479.156769 5723.000000
481.385773 6534.000000
483.613312 6346.000000
485.839355 6043.000000
488.063965 6594.000000
490.287109 5858.000000
492.508789 6493.000000
494.728912 6693.000000
496.947632 5702.000000
499.164856 6304.000000
501.380707 5561.000000
503.594940 6198.000000
505.807861 6466.000000
508.019196 6501.000000
510.229095 6904.000000
512.437561 6515.000000
514.644653 6597.000000
516.850159 6396.000000
519.054260 6615.000000
521.256836 6216.000000
523.458008 6726.000000
525.657837 6691.000000
527.856140 6984.000000
530.052917 5342.000000
532.248352 5885.000000
534.442261 5584.000000
536.634827 7583.000000
538.825867 6676.000000
541.015503 6132.000000
543.203735 6926.000000
545.390442 7137.000000
547.575684 6882.000000
549.759644 6244.000000
551.942017 6456.000000
554.123047 6125.000000
556.302551 6006.000000
558.480774 5893.000000
560.657471 5980.000000
562.832764 6424.000000
565.006653 6442.000000
567.179077 5952.000000
569.350098 6022.000000
571.519653 6317.000000
573.687927 5296.000000
575.854675 6481.000000
578.019958 6304.000000
580.183838 6144.000000
582.346436 5790.000000
584.507507 6073.000000
586.667175 5670.000000
588.825500 5821.000000
590.982300 6201.000000
593.137756 6577.000000
595.291809 5742.000000
597.444519 6144.000000
599.595703 7291.000000
601.745544 6787.000000
603.894043 6735.000000
606.040955 5980.000000
608.186646 6489.000000
610.330933 6458.000000
612.473755 7142.000000
614.615112 6222.000000
616.755249 6505.000000
618.893860 7679.000000
621.031189 5781.000000
623.167053 6624.000000
625.301514 6913.000000
627.434509 7258.000000
629.566345 6698.000000
631.696716 6598.000000
633.825684 6817.000000
635.953186 6567.000000
638.079407 6284.000000
640.204102 7508.000000
642.327576 6429.000000
644.449707 6822.000000
646.570374 6874.000000
648.689697 6636.000000
650.807617 5717.000000
652.924194 5678.000000
655.039368 6504.000000
657.153198 6493.000000
659.265564 5881.000000
661.376709 6146.000000
663.486450 5436.000000
665.594727 6084.000000
667.701843 6299.000000
669.807495 6770.000000
671.911682 5920.000000
674.014648 5773.000000
676.116211 7057.000000
678.216431 5342.000000
680.315247 6788.000000
682.412720 6264.000000
684.508911 7031.000000
686.603638 6334.000000
688.697144 7068.000000
690.789307 6660.000000
692.879944 8033.000000
694.969360 6666.000000
697.057495 6469.000000
699.144165 6048.000000
701.229614 6805.000000
703.313538 5215.000000
705.396240 5933.000000
707.477661 5970.000000
709.557617 7621.000000
711.636353 6251.000000
713.713623 5579.000000
715.789612 6630.000000
717.864319 6072.000000
719.937744 7027.000000
722.009644 6391.000000
724.080383 7363.000000
726.149780 5853.000000
728.217773 6513.000000
730.284424 6450.000000
732.349854 7094.000000
734.413940 5798.000000
736.476685 6218.000000
738.538086 6491.000000
740.598206 6637.000000
742.656921 6069.000000
744.714417 6625.000000
746.770630 6676.000000
748.825439 6739.000000
750.878967 6390.000000
752.931091 7542.000000
754.981995 5807.000000
757.031677 6748.000000
759.079895 6363.000000
761.126892 6185.000000
763.172607 7084.000000
765.216919 5371.000000
767.259949 5772.000000
769.301758 15179.000000
771.342224 7083.000000
773.381287 6372.000000
775.419189 6111.000000
777.455750 6017.000000
779.491089 5430.000000
781.525085 5794.000000
783.557678 6908.000000
785.589111 5527.000000
787.619141 11643.000000
789.647888 6112.000000
791.675476 6321.000000
793.701721 6325.000000
795.726563 5842.000000
797.750305 5574.000000
799.772644 6405.000000
801.793762 5891.000000
803.813538 6739.000000
805.832031 4901.000000
807.849304 6668.000000
809.865173 6823.000000
811.879883 5763.000000
813.893250 6443.000000
815.905396 6279.000000
817.916321 6064.000000
819.925903 6663.000000
821.934265 5347.000000
823.941223 5759.000000
825.946960 6079.000000
827.951477 5805.000000
829.954712 5662.000000
831.956665 6498.000000
833.957336 6154.000000
835.956787 5982.000000
837.954895 6350.000000
839.951904 6993.000000
841.947510 6320.000000
843.941956 6012.000000
845.935059 6188.000000
847.926941 6821.000000
849.917480 5626.000000
851.906738 6916.000000
853.894958 6045.000000
855.881775 5796.000000
857.867371 6451.000000
859.851685 7337.000000
861.834900 6384.000000
863.816711 6423.000000
865.797302 5861.000000
867.776611 7783.000000
869.754761 7111.000000
871.731567 6257.000000
873.707092 6027.000000
875.681580 6235.000000
877.654602 6035.000000
879.626587 5494.000000
881.597229 6342.000000
883.566711 6142.000000
885.534851 5603.000000
887.501831 5187.000000
889.467468 6168.000000
891.431946 5828.000000
893.395203 5984.000000
895.357239 6515.000000
897.317993 5834.000000
899.277527 6393.000000
901.235779 6740.000000
903.192932 6420.000000
905.148926 6106.000000
907.103516 6944.000000
909.056885 6506.000000
911.009094 6501.000000
912.960083 6424.000000
914.909790 7136.000000
916.858337 6369.000000
918.805664 6148.000000
920.751709 6198.000000
922.696472 6133.000000
924.640198 6296.000000
926.582764 5926.000000
928.524048 5700.000000
930.463989 6473.000000
932.402832 5723.000000
934.340393 5548.000000
936.276733 6013.000000
938.211914 5812.000000
940.145813 6083.000000
942.078613 5938.000000
944.010193 6796.000000
945.940613 5210.000000
947.869812 6440.000000
949.797668 7111.000000
951.724487 6661.000000
953.650024 5985.000000
955.574280 5408.000000
957.497437 6084.000000
959.419434 6735.000000
961.340149 7259.000000
963.259705 6475.000000
965.178101 5385.000000
967.095459 6444.000000
969.011353 6470.000000
970.926147 6127.000000
972.839722 6015.000000
974.752136 6439.000000
976.663330 6508.000000
978.573364 5513.000000
980.482117 6275.000000
982.389832 6139.000000
984.296326 6363.000000
986.201599 5732.000000
988.105774 6895.000000
990.008728 6250.000000
991.910461 6803.000000
993.811035 6446.000000
995.710449 6605.000000
997.608643 5275.000000
999.505676 6584.000000
1001.401489 6571.000000
1003.296143 7720.000000
1005.189697 5643.000000
1007.081970 7259.000000
1008.973328 6124.000000
1010.863342 5379.000000
1012.752136 6697.000000
1014.639771 6351.000000
1016.526245 6942.000000
1018.411560 6781.000000
1020.295715 6071.000000
1022.178650 5870.000000
1024.060547 6298.000000
1025.941162 5221.000000
1027.820679 5830.000000
1029.699219 6106.000000
1031.576416 5477.000000
1033.452271 6209.000000
1035.327148 5950.000000
1037.201050 6620.000000
1039.073486 7073.000000
1040.944946 6723.000000
1042.815063 5578.000000
1044.684204 5505.000000
1046.552124 5860.000000
1048.418945 7030.000000
1050.284668 6766.000000
1052.149170 6428.000000
1054.012573 6514.000000
1055.874634 6449.000000
1057.735718 5964.000000
1059.595703 6532.000000
1061.454346 6669.000000
1063.311890 5777.000000
1065.168335 6762.000000
1067.023682 5937.000000
1068.877808 5880.000000
1070.731079 6295.000000
1072.582886 6319.000000
1074.433716 6225.000000
1076.283325 6126.000000
1078.131714 5805.000000
1079.979248 7975.000000
1081.825439 5659.000000
1083.670410 6210.000000
1085.514526 5457.000000
1087.357300 5535.000000
1089.198853 6571.000000
1091.039673 5535.000000
1092.878906 5720.000000
1094.717407 6086.000000
1096.554565 6058.000000
1098.390503 6887.000000
1100.225464 6591.000000
1102.059204 5472.000000
1103.891968 5648.000000
1105.723389 6228.000000
1107.553955 7254.000000
1109.383179 6562.000000
1111.211426 6477.000000
1113.038452 7140.000000
1114.864502 5421.000000
1116.689331 6345.000000
1118.513062 7176.000000
1120.335571 6147.000000
1122.156982 5908.000000
1123.977539 5970.000000
1125.796631 6623.000000
1127.614868 7108.000000
1129.431763 7019.000000
1131.247803 6645.000000
1133.062622 6512.000000
1134.876343 5675.000000
1136.688965 5857.000000
1138.500366 5487.000000
1140.310791 6162.000000
1142.120117 6772.000000
1143.928101 7011.000000
1145.735352 5958.000000
1147.541138 5959.000000
1149.346069 5420.000000
1151.149902 5469.000000
1152.952515 6138.000000
1154.754272 6109.000000
1156.554565 6107.000000
1158.353882 6189.000000
1160.152222 5899.000000
1161.949219 5461.000000
1163.745483 5898.000000
1165.540405 6131.000000
1167.334229 6338.000000
1169.127197 7719.000000
1170.918823 5763.000000
1172.709473 6569.000000
1174.499146 6067.000000
1176.287354 5845.000000
1178.074707 7530.000000
1179.860962 6899.000000
1181.646118 5795.000000
1183.430176 6018.000000
1185.213135 7742.000000
1186.995117 5940.000000
1188.775879 5934.000000
1190.555664 6271.000000
1192.334351 7040.000000
1194.112061 6729.000000
1195.888550 7261.000000
1197.663940 6585.000000
1199.438232 6627.000000
1201.211426 6725.000000
1202.983765 6447.000000
1204.754761 6791.000000
1206.524902 5759.000000
1208.293823 6218.000000
1210.061646 6359.000000
1211.828613 5818.000000
1213.594238 5926.000000
1215.358887 6955.000000
1217.122437 6572.000000
1218.884888 5974.000000
1220.646484 6781.000000
1222.406860 5897.000000
1224.166138 6374.000000
1225.924561 6069.000000
1227.681763 7240.000000
1229.437866 6423.000000
1231.192871 5502.000000
1232.947021 6037.000000
1234.699829 5863.000000
1236.451660 6053.000000
1238.202637 5979.000000
1239.952271 4993.000000
1241.701050 7047.000000
1243.448486 6471.000000
1245.195190 6675.000000
1246.940674 6527.000000
1248.685303 6475.000000
1250.428589 6791.000000
1252.170898 6734.000000
1253.912109 5415.000000
1255.652466 5122.000000
1257.391724 5827.000000
1259.129761 6579.000000
1260.866943 7133.000000
1262.602905 6166.000000
1264.337891 6485.000000
1266.071899 7331.000000
1267.804932 5999.000000
1269.536743 6207.000000
1271.267578 6472.000000
1272.997192 7271.000000
1274.725952 5970.000000
1276.453613 5742.000000
1278.180176 5535.000000
1279.905884 5592.000000
1281.630249 6514.000000
1283.353760 5285.000000
1285.076294 6812.000000
1286.797852 6694.000000
1288.518188 6409.000000
1290.237549 6736.000000
1291.955811 7282.000000
1293.673096 6477.000000
1295.389404 5757.000000
1297.104492 6422.000000
1298.818604 6152.000000
1300.531738 5777.000000
1302.244019 6474.000000
1303.955078 8358.000000
1305.665161 5280.000000
1307.374146 6652.000000
1309.081909 6758.000000
1310.789063 7016.000000
1312.494751 5840.000000
1314.199707 6913.000000
1315.903687 6196.000000
1317.606445 5997.000000
1319.308228 6560.000000
1321.009155 6092.000000
1322.708740 18550.500000
1324.407471 31009.000000
1326.105469 5606.000000
1327.802124 6517.000000
1329.497681 7140.000000
1331.192383 6876.000000
1332.885864 5754.000000
1334.578491 5381.000000
1336.270264 7474.000000
1337.960693 6316.000000
1339.650391 6648.000000
1341.338989 6093.000000
1343.026489 7686.000000
1344.713013 5705.000000
1346.398438 6808.000000
1348.082886 5949.000000
1349.766479 7274.000000
1351.448853 6389.000000
1353.130249 6038.000000
1354.810791 6525.000000
1356.490112 6735.000000
1358.168823 5957.000000
1359.846191 6655.000000
1361.522461 5832.000000
1363.197754 5610.000000
1364.872314 6658.000000
1366.545654 6434.000000
1368.218018 6855.000000
1369.889404 5180.000000
1371.559814 6805.000000
1373.229126 6196.000000
1374.897461 5653.000000
1376.564941 5807.000000
1378.231323 6533.000000
1379.896729 6110.000000
1381.561157 5860.000000
1383.224365 5923.000000
1384.886963 5775.000000
1386.548218 6390.000000
1388.208618 6592.000000
1389.867920 6481.000000
1391.526245 6531.000000
1393.183838 6910.000000
1394.840210 6488.000000
1396.495728 7065.000000
1398.150024 6398.000000
1399.803467 5982.000000
1401.455811 6113.000000
1403.107422 6477.000000
1404.757813 7203.000000
1406.407104 6344.000000
1408.055664 7572.000000
1409.703125 7859.000000
1411.349609 6231.000000
1412.995239 6314.000000
1414.639893 5980.000000
1416.283325 7061.000000
1417.925903 7194.000000
1419.567383 6918.000000
1421.208008 6468.000000
1422.847656 6473.000000
1424.486206 6058.000000
1426.123901 6692.000000
1427.760498 6348.000000
1429.396118 6025.000000
1431.031006 6426.000000
1432.664795 5848.000000
1434.297485 6208.000000
1435.929199 5721.000000
1437.560059 6166.000000
1439.189819 6105.000000
1440.818481 7812.000000
1442.446533 6092.000000
1444.073486 6631.000000
1445.699219 6228.000000
1447.324341 6191.000000
1448.948364 6524.000000
1450.571411 6044.000000
1452.193481 6063.000000
1453.814453 7377.000000
1455.434448 6387.000000
1457.053711 6985.000000
1458.671631 5684.000000
1460.288940 19338.000000
1461.905273 5578.000000
1463.520386 7262.000000
1465.134644 6363.000000
1466.748047 5229.000000
1468.360352 5669.000000
1469.971802 6269.000000
1471.582397 6372.000000
1473.191772 6002.000000
1474.800171 6006.000000
1476.407715 6226.000000
1478.014282 6743.000000
1479.620117 5352.000000
1481.224731 6341.000000
1482.828491 5552.000000
1484.431030 6656.000000
1486.032959 5578.000000
1487.633667 5500.000000
1489.233643 5643.000000
1490.832520 6205.000000
1492.430542 6532.000000
1494.027466 6721.000000
1495.623535 6341.000000
1497.218628 6062.000000
1498.812744 5558.000000
1500.406128 6528.000000
1501.998413 5527.000000
1503.589478 6203.000000
1505.180054 6768.000000
1506.769287 6453.000000
1508.357910 6181.000000
1509.945435 6602.000000
1511.531860 6882.000000
1513.117554 6264.000000
1514.702148 6611.000000
1516.285889 6439.000000
1517.868530 6216.000000
1519.450439 6664.000000
1521.031250 6701.000000
1522.611328 6071.000000
1524.190186 6287.000000
1525.768188 6408.000000
1527.345459 6284.000000
1528.921509 5739.000000
1530.496826 6006.000000
1532.071045 6295.000000
1533.644531 5485.000000
1535.216797 5960.000000
1536.788330 6422.000000
1538.358887 6432.000000
1539.928589 6335.000000
1541.497070 5442.000000
1543.064819 6604.000000
1544.631714 5608.000000
1546.197388 6916.000000
1547.762329 5950.000000
1549.326172 5053.000000
1550.889404 7501.000000
1552.451294 6361.000000
1554.012573 6001.000000
1555.572754 5793.000000
1557.132202 5758.000000
1558.690552 5890.000000
1560.248169 6343.000000
1561.804688 7078.000000
1563.359985 5918.000000
1564.914673 6356.000000
1566.468628 5669.000000
1568.021606 6362.000000
1569.573242 5717.000000
1571.124146 5909.000000
1572.674316 6316.000000
1574.223511 6418.000000
1575.771362 5776.000000
1577.318726 5523.000000
1578.865112 5718.000000
1580.410645 5129.000000
1581.955200 6692.000000
1583.498535 6405.000000
1585.041260 6634.000000
1586.583130 6489.000000
1588.123901 6775.000000
1589.663696 5844.000000
1591.202759 6671.000000
1592.740723 5993.000000
1594.278198 6158.000000
1595.814331 5894.000000
1597.349365 6696.000000
1598.883911 6226.000000
1600.417480 6119.000000
1601.950195 6141.000000
1603.481323 6405.000000
1605.012207 6321.000000
1606.542236 5800.000000
1608.071045 6131.000000
1609.598755 6199.000000
1611.125854 5999.000000
1612.652222 5878.000000
1614.177612 6296.000000
1615.702148 5859.000000
1617.225342 5787.000000
1618.747803 5626.000000
1620.269531 6620.000000
1621.790405 7005.000000
1623.309814 15615.000000
1624.828735 6330.000000
1626.346924 6137.000000
1627.864258 5892.000000
1629.380493 6418.000000
1630.895386 7023.000000
1632.409790 6809.000000
1633.923462 5759.000000
1635.436035 6920.000000
1636.947388 5932.000000
1638.458374 6483.000000
1639.968262 6270.000000
1641.477295 6274.000000
1642.984985 5629.000000
1644.492310 6121.000000
1645.998779 7178.000000
1647.504272 6281.000000
1649.008911 6873.000000
1650.512085 6199.000000
1652.014648 6610.000000
1653.516846 6401.000000
1655.017700 6663.000000
1656.517456 7551.000000
1658.016357 6206.000000
1659.514893 6613.000000
1661.012207 6323.000000
1662.508789 5927.000000
1664.003784 6563.000000
1665.498535 6368.000000
1666.992432 5310.000000
1668.485352 5839.000000
1669.976929 21090.000000
1671.468018 6514.000000
1672.958496 6188.000000
1674.447876 5945.000000
1675.935791 7042.000000
1677.423462 6905.000000
1678.910156 6024.000000
1680.395996 5488.000000
1681.880981 6079.000000
1683.364502 6249.000000
1684.847778 6262.000000
1686.330200 5885.000000
1687.811523 6253.000000
1689.291382 6211.000000
1690.770996 5547.000000
1692.249878 6697.000000
1693.727783 5655.000000
1695.204712 6150.000000
1696.680420 5843.000000
1698.155762 6091.000000
1699.629883 6354.000000
1701.103394 5515.000000
1702.575439 5632.000000
1704.047241 6887.000000
1705.518066 6439.000000
1706.988037 7121.000000
1708.456665 5174.000000
1709.924805 5864.000000
1711.392212 6339.000000
1712.858521 5491.000000
1714.324219 5794.000000
1715.788208 6212.000000
1717.252075 5960.000000
1718.715088 6990.000000
1720.177124 6362.000000
1721.637939 6545.000000
1723.098145 5492.000000
1724.557617 6404.000000
1726.016235 6381.000000
1727.473877 6084.000000
1728.930176 6286.000000
1730.386230 6089.000000
1731.841309 6521.000000
1733.295410 6062.000000
1734.748291 6941.000000
1736.200928 5968.000000
1737.652466 6894.000000
1739.103271 5970.000000
1740.553101 6620.000000
1742.001587 5990.000000
1743.449707 7588.000000
1744.896973 6565.000000
1746.343506 6669.000000
1747.788452 6720.000000
1749.233154 6221.000000
1750.677002 5992.000000
1752.119995 5543.000000
1753.561523 6558.000000
1755.002808 6385.000000
1756.443237 19538.000000
1757.882690 6224.000000
1759.321167 5350.000000
1760.758667 6065.000000
1762.195679 7558.000000
1763.631714 5869.000000
1765.066895 7208.000000
1766.500610 6204.000000
1767.934204 6515.000000
1769.366821 6705.000000
1770.798584 5790.000000
1772.229492 5944.000000
1773.659180 6392.000000
1775.088135 6187.000000
1776.516602 6371.000000
1777.944092 6805.000000
1779.370239 6276.000000
1780.796143 5593.000000
1782.220947 6899.000000
1783.645142 5555.000000
1785.067871 6747.000000
1786.490112 6556.000000
1787.911621 6975.000000
1789.332397 5918.000000
1790.752197 6202.000000
1792.170654 6218.000000
1793.588623 6937.000000
1795.005981 5547.000000
1796.422485 6124.000000
1797.837524 6532.000000
1799.252197 5873.000000
1800.666260 6595.000000
1802.079102 6007.000000
1803.491333 7073.000000
1804.902222 7161.000000
1806.312622 7794.000000
1807.722290 6546.000000
1809.130981 5942.000000
1810.538574 5426.000000
1811.945679 6422.000000
1813.351929 6404.000000
1814.757202 6761.000000
1816.161377 5960.000000
1817.565186 5972.000000
1818.968018 6261.000000
1820.369995 6032.000000
1821.771362 5883.000000
1823.171265 6373.000000
1824.570557 6537.000000
1825.969360 6634.000000
1827.367310 7460.000000
1828.763916 5831.000000
1830.159912 6802.000000
1831.555176 5979.000000
1832.949829 8208.000000
1834.343506 6032.000000
1835.735840 6843.000000
1837.127686 6424.000000
1838.518921 5950.000000
1839.909180 7101.000000
1841.298218 6013.000000
1842.686890 6119.000000
1844.074585 6080.000000
1845.461548 5804.000000
1846.847168 6950.000000
1848.232544 5871.000000
1849.617065 6450.000000
1851.000854 6345.000000
1852.383545 6420.000000
1853.765015 5424.000000
1855.145996 6582.000000
1856.526489 6308.000000
1857.906006 5786.000000
1859.284058 6024.000000
1860.661987 6297.000000
1862.038940 7937.000000
1863.415161 6160.000000
1864.790527 6128.000000
1866.164429 5677.000000
1867.538208 5755.000000
1868.911133 6175.000000
1870.282959 5957.000000
1871.653809 7032.000000
1873.024292 5426.000000
1874.393677 6071.000000
1875.762573 6166.000000
1877.129883 7194.000000
1878.497070 6096.000000
1879.863281 6009.000000
1881.228760 6835.000000
1882.593506 7480.000000
1883.956665 6820.000000
1885.319702 6973.000000
1886.681885 6419.000000
1888.043213 6499.000000
1889.403198 5712.000000
1890.762817 5944.000000
1892.121826 6122.000000
1893.479858 6627.000000
1894.837036 7346.000000
1896.192993 5948.000000
1897.548706 7608.000000
1898.903442 5833.000000
1900.257324 5602.000000
1901.610107 5956.000000
1902.962402 5965.000000
1904.313965 5928.000000
1905.664673 6971.000000
1907.014160 6580.000000
1908.363159 6688.000000
1909.711304 5894.000000
1911.058838 6189.000000
1912.405640 6367.000000
1913.750854 6828.000000
1915.095825 6057.000000
1916.440063 5476.000000
1917.783447 6579.000000
1919.125488 6015.000000
1920.467285 6640.000000
1921.808228 7011.000000
1923.148438 6212.000000
1924.487671 6419.000000
1925.825928 6318.000000
1927.163574 6560.000000
1928.500488 7106.000000
1929.836548 6769.000000
1931.171387 5619.000000
1932.505859 6756.000000
1933.839600 7356.000000
1935.172485 6264.000000
1936.503906 5778.000000
1937.835449 6387.000000
1939.165649 6684.000000
1940.495361 5829.000000
1941.824219 6128.000000
1943.151855 5901.000000
1944.479004 5055.000000
1945.805420 5860.000000
1947.131104 6542.000000
1948.455444 5837.000000
1949.779541 6659.000000
1951.102783 6378.000000
1952.425293 6461.000000
1953.746704 5772.000000
1955.067139 7454.000000
1956.386963 6086.000000
1957.706421 5564.000000
1959.024902 6867.000000
1960.342041 5925.000000
1961.658813 5837.000000
1962.974854 6645.000000
1964.290161 6657.000000
1965.604004 6354.000000
1966.917603 5682.000000
1968.230469 6238.000000
1969.542480 5975.000000
1970.853882 6090.000000
1972.163940 6273.000000
1973.473511 5913.000000
1974.782349 6201.000000
1976.090576 6615.000000
1977.397461 6129.000000
1978.703735 7330.000000
1980.009644 5546.000000
1981.314331 6587.000000
1982.618530 5914.000000
1983.921509 5703.000000
1985.224121 7621.000000
1986.525757 6177.000000
1987.826782 6642.000000
1989.126221 6084.000000
1990.425781 6610.000000
1991.724243 5350.000000
1993.022217 6122.000000
1994.318604 6172.000000
1995.614990 5828.000000
1996.910400 5568.000000
1998.205078 6605.000000
1999.498901 5753.000000
2000.791504 6597.000000
2002.083618 5845.000000
2003.375244 7192.000000
2004.666138 6519.000000
2005.955444 6319.000000
2007.244507 6854.000000
2008.532837 5975.000000
2009.820435 6033.000000
2011.107178 6651.000000
2012.392822 5666.000000
2013.678101 6377.000000
2014.962402 6086.000000
2016.246094 5666.000000
2017.528442 6067.000000
2018.810425 6508.000000
2020.091919 6859.000000
2021.372437 5916.000000
2022.652222 6149.000000
2023.930908 6762.000000
2025.208862 5897.000000
2026.486328 5970.000000
2027.763184 6377.000000
2029.038330 5902.000000
2030.313599 6580.000000
2031.587891 6307.000000
2032.861206 5980.000000
2034.133667 5946.000000
2035.405762 6124.000000
2036.676758 6980.000000
2037.947510 6602.000000
2039.216919 6133.000000
2040.485229 6808.000000
2041.753540 6640.000000
2043.020874 5985.000000
2044.287476 5981.000000
2045.552856 5682.000000
2046.817627 5560.000000
2048.082031 5416.000000
2049.345459 5918.000000
2050.608398 6495.000000
2051.869385 6176.000000
2053.130859 6101.000000
2054.391113 5941.000000
2055.650635 6653.000000
2056.909424 6347.000000
2058.167236 6956.000000
2059.424561 5927.000000
2060.681152 6034.000000
2061.936279 6539.000000
2063.191406 5675.000000
2064.445557 5633.000000
2065.698975 5650.000000
2066.951660 6876.000000
2068.203125 6274.000000
2069.454346 6343.000000
2070.704834 5674.000000
2071.954590 5429.000000
2073.202881 6584.000000
2074.451172 6664.000000
2075.698486 7491.000000
2076.945068 5701.000000
2078.190918 6075.000000
2079.435547 7100.000000
2080.679688 7632.000000
2081.923340 5531.000000
2083.166016 6067.000000
2084.407471 6978.000000
2085.648682 6025.000000
2086.889404 6369.000000
2088.129150 6830.000000
2089.367676 7078.000000
2090.605713 6197.000000
2091.843018 5767.000000
2093.080078 6646.000000
2094.315674 6101.000000
2095.550537 6181.000000
2096.785156 6147.000000
2098.018799 5606.000000
2099.251465 6092.000000
2100.483398 6931.000000
2101.714844 6467.000000
2102.945313 6746.000000
2104.175049 6060.000000
2105.404541 6020.000000
2106.632080 6070.000000
2107.859863 6034.000000
2109.086914 6352.000000
2110.312988 5493.000000
2111.537598 6453.000000
2112.762451 7028.000000
2113.986084 7137.000000
2115.209229 6192.000000
2116.431152 7566.000000
2117.652832 6011.000000
2118.873535 6921.000000
2120.093506 6059.000000
2121.312988 6161.000000
2122.531006 6633.000000
2123.749023 7074.000000
2124.966064 5719.000000
2126.182617 5819.000000
2127.397461 6630.000000
2128.612549 6394.000000
2129.826660 6940.000000
2131.040039 5790.000000
2132.252686 6170.000000
2133.463867 5865.000000
2134.675293 6597.000000
2135.885498 6841.000000
2137.095215 5976.000000
2138.303467 6196.000000
2139.511719 5758.000000
2140.719238 5934.000000
2141.925537 7734.000000
2143.131104 5953.000000
2144.336426 5736.000000
2145.540771 5561.000000
2146.744385 6308.000000
2147.947510 6272.000000
2149.149170 6467.000000
2150.350586 5384.000000
2151.551270 6294.000000
2152.751221 6181.000000
2153.949951 5973.000000
2155.148438 7018.000000
2156.346436 6193.000000
2157.543457 6028.000000
2158.739746 5171.000000
2159.934814 5322.000000
2161.129639 6197.000000
2162.323730 5610.000000
2163.516846 6144.000000
2164.708984 7003.000000
2165.900879 5932.000000
2167.092041 6367.000000
2168.282227 6264.000000
2169.471680 6541.000000
2170.660645 6930.000000
2171.848633 6041.000000
2173.036377 5819.000000
2174.222656 5985.000000
2175.408203 6599.000000
2176.593506 6076.000000
2177.778320 5898.000000
2178.961914 6407.000000
2180.144775 7539.000000
2181.326660 6359.000000
2182.508301 5981.000000
2183.689453 6605.000000
2184.869385 5726.000000
2186.048340 5547.000000
2187.226807 6346.000000
2188.405029 6958.000000
2189.582031 7234.000000
2190.758057 6756.000000
2191.933838 6087.000000
2193.109131 5681.000000
2194.282959 6672.000000
2195.456299 6216.000000
2196.629395 6201.000000
2197.801270 6583.000000
2198.972656 7142.000000
2200.143555 6372.000000
2201.312744 6965.000000
2202.481934 7602.000000
2203.650635 6274.000000
2204.818359 5949.000000
2205.985107 5637.000000
2207.151123 7247.000000
2208.316650 6725.000000
2209.481934 5977.000000
2210.645752 6759.000000
2211.809082 5515.000000
2212.971191 6243.000000
2214.133545 6246.000000
2215.294678 6703.000000
2216.454834 6670.000000
2217.614502 6327.000000
2218.773926 6614.000000
2219.932129 6437.000000
2221.089355 6371.000000
2222.246338 6780.000000
2223.402588 6658.000000
2224.558105 6804.000000
2225.712891 6270.000000
2226.866699 6498.000000
2228.019531 6041.000000
2229.172852 6953.000000
2230.324219 6204.000000
2231.475342 6256.000000
2232.625732 6560.000000
2233.775635 7714.000000
2234.924561 6390.000000
2236.072998 5188.000000
2237.219971 6820.000000
2238.367188 7100.000000
2239.513184 6096.000000
2240.658936 7304.000000
2241.802979 7348.000000
2242.947266 6769.000000
2244.090576 6288.000000
2245.233154 6033.000000
2246.374756 5813.000000
2247.516113 5873.000000
2248.656494 6463.000000
2249.796143 6437.000000
2250.935303 5814.000000
2252.073242 5898.000000
2253.211182 6194.000000
2254.348145 5319.000000
2255.484375 6391.000000
2256.619629 6144.000000
2257.754150 7337.000000
2258.888428 6392.000000
2260.022217 5451.000000
2261.154541 6154.000000
2262.286377 6865.000000
2263.417725 6338.000000
2264.548096 6493.000000
2265.678223 8106.000000
2266.807129 6729.000000
2267.935547 6074.000000
2269.063477 5629.000000
2270.190430 6174.000000
2271.316650 5952.000000
2272.441895 6802.000000
2273.567139 6532.000000
2274.691650 6370.000000
2275.814941 6000.000000
2276.937500 6384.000000
2278.059570 6172.000000
2279.181152 7445.000000
2280.302002 6545.000000
2281.421631 6457.000000
2282.540771 7181.000000
2283.659668 7673.000000
2284.777832 7306.000000
2285.895020 5923.000000
2287.011230 6490.000000
2288.127197 7018.000000
2289.242432 6902.000000
2290.356934 7432.000000
2291.470215 5871.000000
2292.583496 6420.000000
2293.696045 6073.000000
2294.807861 5389.000000
2295.918945 6757.000000
2297.028809 6411.000000
2298.138184 6216.000000
2299.247314 6746.000000
2300.355469 6338.000000
2301.462646 6819.000000
2302.569580 5951.000000
2303.675781 6409.000000
2304.781494 6596.000000
2305.885742 6664.000000
2306.989746 5455.000000
2308.093262 5802.000000
2309.196289 6598.000000
2310.298096 7437.000000
2311.399170 7396.000000
2312.499756 6647.000000
2313.599854 5577.000000
2314.699219 6401.000000
2315.797119 6618.000000
2316.895508 7032.000000
2317.992432 8218.000000
2319.089111 6938.000000
2320.185303 5871.000000
2321.279785 6872.000000
2322.374268 7656.000000
2323.468018 5893.000000
2324.561523 6028.000000
2325.653320 6483.000000
2326.745117 7076.000000
2327.836182 6129.000000
2328.926514 6387.000000
2330.015869 6988.000000
2331.105225 6103.000000
2332.193359 6392.000000
2333.281006 7079.000000
2334.368408 6559.000000
2335.454102 6761.000000
2336.539551 7794.000000
2337.624756 6349.000000
2338.708984 6718.000000
2339.792236 5878.000000
2340.875244 6455.000000
2341.957275 7128.000000
2343.039063 6023.000000
2344.120117 7472.000000
2345.199951 6669.000000
2346.279297 5726.000000
2347.358154 6836.000000
2348.436523 6534.000000
2349.513428 6337.000000
2350.590088 7014.000000
2351.666504 6053.000000
2352.741943 6421.000000
2353.816406 5957.000000
2354.890625 6299.000000
2355.964111 6797.000000
2357.037109 6290.000000
2358.108887 7075.000000
2359.180420 6322.000000
2360.250977 6862.000000
2361.321289 7527.000000
2362.390625 7616.000000
2363.458984 6843.000000
2364.527100 6773.000000
2365.594482 7073.000000
2366.661377 7234.000000
2367.727539 6129.000000
2368.792480 6898.000000
2369.857422 6990.000000
2370.921631 6426.000000
2371.985107 6960.000000
2373.047363 5831.000000
2374.109619 6353.000000
2375.170898 6321.000000
2376.231934 5945.000000
2377.291748 6388.000000
2378.350830 7899.000000
2379.409912 6527.000000
2380.468018 7658.000000
2381.525391 6959.000000
2382.581787 8005.000000
2383.637939 7823.000000
2384.693604 6235.000000
2385.748535 7080.000000
2386.802002 6786.000000
2387.855713 6631.000000
2388.908447 6327.000000
2389.960693 6830.000000
2391.012207 6177.000000
2392.062744 6721.000000
2393.113037 6543.000000
2394.162354 6319.000000
2395.211670 6256.000000
2396.259521 6886.000000
2397.306885 6994.000000
2398.354004 6339.000000
2399.400146 6730.000000
2400.445557 6220.000000
2401.490234 6801.000000
2402.534912 7736.000000
2403.578125 7531.000000
2404.621338 6589.000000
2405.663086 5936.000000
2406.705078 6718.000000
2407.746338 7181.000000
2408.786621 6162.000000
2409.826172 6450.000000
2410.864746 6353.000000
2411.903564 6121.000000
2412.941162 6519.000000
2413.978516 6949.000000
2415.014648 7345.000000
2416.050537 6330.000000
2417.085693 6323.000000
2418.120361 6871.000000
2419.153564 7250.000000
2420.187012 6455.000000
2421.219482 6684.000000
2422.251709 6819.000000
2423.282471 7118.000000
2424.313232 6376.000000
2425.343506 6878.000000
2426.372559 6897.000000
2427.401611 6678.000000
2428.428955 7437.000000
2429.456787 6757.000000
2430.483398 7344.000000
2431.509766 6990.000000
2432.534668 7832.000000
2433.559814 6538.000000
2434.583984 7147.000000
2435.607910 6733.000000
2436.630615 5864.000000
2437.652588 6409.000000
2438.674316 6633.000000
2439.695313 6706.000000
2440.715820 6087.000000
2441.735107 6548.000000
2442.754395 6598.000000
2443.772705 8451.000000
2444.790771 6329.000000
2445.807373 6462.000000
2446.823975 6652.000000
2447.839844 5925.000000
2448.855713 7011.000000
2449.870117 6835.000000
2450.883789 5616.000000
2451.896973 7217.000000
2452.909912 6050.000000
2453.922119 7230.000000
2454.933350 6703.000000
2455.944336 7785.000000
2456.954590 6387.000000
2457.964355 7596.000000
2458.973145 5960.000000
2459.981201 6007.000000
2460.989258 6338.000000
2461.996094 7403.000000
2463.002686 5409.000000
2464.008057 7420.000000
2465.013184 6938.000000
2466.018066 5889.000000
2467.021729 6535.000000
2468.025146 6427.000000
2469.027588 7549.000000
2470.029785 7405.000000
2471.031494 6922.000000
2472.032227 6566.000000
2473.031982 6923.000000
2474.031738 6746.000000
2475.030518 5722.000000
2476.028809 6628.000000
2477.026123 7028.000000
2478.023193 6139.000000
2479.020264 7021.000000
2480.015869 5904.000000
2481.011475 7097.000000
2482.005371 6733.000000
2482.999268 8147.000000
2483.992676 6950.000000
2484.985596 6957.000000
2485.977539 7602.000000
2486.968750 7258.000000
2487.959717 6779.000000
2488.950195 5849.000000
2489.939697 6543.000000
2490.928467 6569.000000
2491.917236 5681.000000
2492.905029 6803.000000
2493.891602 6671.000000
2494.878174 8051.000000
2495.864258 6742.000000
2496.849609 7114.000000
2497.833984 8267.000000
2498.818115 6063.000000
2499.802246 6983.000000
2500.784912 5780.000000
2501.767090 7080.000000
2502.748779 6871.000000
2503.729736 7246.000000
2504.710205 6607.000000
2505.690430 5737.000000
2506.669189 6280.000000
2507.647705 7587.000000
2508.625732 6704.000000
2509.603271 7118.000000
2510.579834 6130.000000
2511.556152 6029.000000
2512.531738 6494.000000
2513.506836 6288.000000
2514.481445 6485.000000
2515.454834 7660.000000
2516.427979 6862.000000
2517.400879 6973.000000
2518.372803 6252.000000
2519.343994 6890.000000
2520.314697 6952.000000
2521.285156 7873.000000
2522.254883 8134.000000
2523.223633 6116.000000
2524.191650 6189.000000
2525.159668 7705.000000
2526.126709 6319.000000
2527.093506 5585.000000
2528.059082 7272.000000
2529.024658 7059.000000
2529.989502 7803.000000
2530.953857 6359.000000
2531.916992 6483.000000
2532.880371 5956.000000
2533.842773 5982.000000
2534.804932 6726.000000
2535.765869 6382.000000
2536.726074 6135.000000
2537.686523 6129.000000
2538.645996 6760.000000
2539.604736 6860.000000
2540.562500 6784.000000
2541.520508 6250.000000
2542.477783 6783.000000
2543.434082 6125.000000
2544.390137 7109.000000
2545.344971 6217.000000
2546.300049 7716.000000
2547.254395 7118.000000
2548.208008 6811.000000
2549.160645 7186.000000
2550.113037 6762.000000
2551.064941 6965.000000
2552.016113 6485.000000
2552.966553 7738.000000
2553.916504 7105.000000
2554.866211 7373.000000
2555.815186 6690.000000
2556.763672 6230.000000
2557.710938 7124.000000
2558.658203 6287.000000
2559.604736 6547.000000
2560.550781 6752.000000
2561.495850 7453.000000
2562.440674 6736.000000
2563.385010 7171.000000
2564.328857 6906.000000
2565.272217 6689.000000
2566.214111 6607.000000
2567.156250 6528.000000
2568.097656 6183.000000
2569.038330 7125.000000
2569.978271 7307.000000
2570.918213 5706.000000
2571.857178 6189.000000
2572.795898 7466.000000
2573.733643 7203.000000
2574.671143 5439.000000
2575.607910 6992.000000
2576.543945 6866.000000
2577.479492 7561.000000
2578.414307 6474.000000
2579.349121 6011.000000
2580.282959 7060.000000
2581.216309 7117.000000
2582.148926 5867.000000
2583.081299 6952.000000
2584.012939 5430.000000
2584.944092 7121.000000
2585.874756 7007.000000
2586.804199 6930.000000
2587.733643 7296.000000
2588.662598 6509.000000
2589.591309 7650.000000
2590.518311 7383.000000
2591.445557 5929.000000
2592.372314 6896.000000
2593.298340 6295.000000
2594.224121 5724.000000
2595.148682 7650.000000
2596.072998 7654.000000
2596.996826 5384.000000
2597.920166 7430.000000
2598.842529 6325.000000
2599.764648 6909.000000
2600.686279 8364.000000
2601.607178 6432.000000
2602.527344 5957.000000
2603.447266 6355.000000
2604.366699 6450.000000
2605.285889 6413.000000
2606.204102 5864.000000
2607.121094 5967.000000
2608.038330 7307.000000
2608.955322 5936.000000
2609.871338 7626.000000
2610.786133 6700.000000
2611.701416 6646.000000
2612.615967 6539.000000
2613.529541 6596.000000
2614.443115 6416.000000
2615.355469 7660.000000
2616.267822 7088.000000
2617.179199 6791.000000
2618.090332 5765.000000
2619.000732 7241.000000
2619.910889 6660.000000
2620.820313 6132.000000
2621.729248 6687.000000
2622.637207 6282.000000
2623.545410 6911.000000
2624.452637 6672.000000
2625.359375 7052.000000
2626.265381 6023.000000
2627.171143 6473.000000
2628.076172 6510.000000
2628.980957 7856.000000
2629.885010 6485.000000
2630.788086 6414.000000
2631.691162 6399.000000
2632.593262 5640.000000
2633.495361 6781.000000
2634.397217 7042.000000
2635.297363 6844.000000
2636.197754 6462.000000
2637.097412 6449.000000
2637.996826 5959.000000
2638.894775 6973.000000
2639.793213 6845.000000
2640.691162 6433.000000
2641.588379 6115.000000
2642.484375 6178.000000
2643.380371 6978.000000
2644.276123 6111.000000
2645.171143 6539.000000
2646.065918 6714.000000
2646.959229 7368.000000
2647.852539 6304.000000
2648.745605 6854.000000
2649.638428 6426.000000
2650.529541 7505.000000
2651.420898 6409.000000
2652.311768 7624.000000
2653.201904 7352.000000
2654.091797 6589.000000
2654.980469 7355.000000
2655.869385 6658.000000
2656.757813 6608.000000
2657.645264 7384.000000
2658.531738 6483.000000
2659.418701 7142.000000
2660.304932 6896.000000
2661.190674 6853.000000
2662.075195 6516.000000
2662.959717 6446.000000
2663.843994 6237.000000
2664.727539 7129.000000
2665.610596 7831.000000
2666.492920 7301.000000
2667.374756 6225.000000
2668.255859 6586.000000
2669.137207 6058.000000
2670.017090 6594.000000
2670.897217 7411.000000
2671.776611 7231.000000
2672.656006 6388.000000
2673.534668 6201.000000
2674.411621 6448.000000
2675.289307 6775.000000
2676.166260 6359.000000
2677.042480 8176.000000
2677.918213 7226.000000
2678.793213 6284.000000
2679.668457 7795.000000
2680.542725 6922.000000
2681.416504 7397.000000
2682.289551 7068.000000
2683.162354 6136.000000
2684.034912 6094.000000
2684.906738 7097.000000
2685.777832 6554.000000
2686.648682 6968.000000
2687.519043 7125.000000
2688.389160 6676.000000
2689.257568 6334.000000
2690.126709 7380.000000
2690.995117 7049.000000
2691.863281 6743.000000
2692.730713 6936.000000
2693.596924 5905.000000
2694.463623 7256.000000
2695.329346 7462.000000
2696.195068 7202.000000
2697.059326 7892.000000
2697.924316 6582.000000
2698.787842 7309.000000
2699.651611 5845.000000
2700.513916 7461.000000
2701.376709 6785.000000
2702.238525 5928.000000
2703.099854 6871.000000
2703.961182 6738.000000
2704.821289 7411.000000
2705.681396 7390.000000
2706.541016 6584.000000
2707.400391 6894.000000
2708.258057 7201.000000
2709.115967 6878.000000
2709.974365 7273.000000
2710.831543 6752.000000
2711.687988 5937.000000
2712.543945 6939.000000
2713.399902 6136.000000
2714.255127 6978.000000
2715.109619 6193.000000
2715.963623 7015.000000
2716.817627 7291.000000
2717.670654 6296.000000
2718.523926 6704.000000
2719.375488 7718.000000
2720.227539 6778.000000
2721.079346 6322.000000
2721.929932 6512.000000
2722.780518 6564.000000
2723.630615 7105.000000
2724.479980 7028.000000
2725.329346 7065.000000
2726.177490 6753.000000
2727.025146 6605.000000
2727.873291 7050.000000
2728.720215 6840.000000
2729.567627 5611.000000
2730.413574 7495.000000
2731.258789 7098.000000
2732.104492 6484.000000
2732.949219 7133.000000
2733.793945 7426.000000
2734.637451 6995.000000
2735.481201 7800.000000
2736.324219 7056.000000
2737.166748 6067.000000
2738.008301 6272.000000
2738.850342 6787.000000
2739.691406 6952.000000
2740.532227 5825.000000
2741.372803 5866.000000
2742.212158 7833.000000
2743.051514 6890.000000
2743.890869 6977.000000
2744.729004 6827.000000
2745.566650 7893.000000
2746.404297 6351.000000
2747.241455 7165.000000
2748.078369 6215.000000
2748.914795 6062.000000
2749.750000 6670.000000
2750.585449 6315.000000
2751.420410 6426.000000
2752.254639 6291.000000
2753.088623 6924.000000
2753.922119 6780.000000
2754.755615 8042.000000
2755.588135 6736.000000
2756.420166 7343.000000
2757.251709 6845.000000
2758.083252 7152.000000
2758.913818 7280.000000
2759.744629 7281.000000
2760.574219 7311.000000
2761.403809 6778.000000
2762.233154 7272.000000
2763.061768 6961.000000
2763.889893 6891.000000
2764.717529 6998.000000
2765.545166 6705.000000
2766.372314 7885.000000
2767.198730 5790.000000
2768.024658 7603.000000
2768.850098 6841.000000
2769.675293 7867.000000
2770.500488 7062.000000
2771.324463 6825.000000
2772.148438 6574.000000
2772.972412 7702.000000
2773.795166 6666.000000
2774.618164 6805.000000
2775.439941 6959.000000
2776.261719 7005.000000
2777.083496 6537.000000
2777.904297 7981.000000
2778.724365 6506.000000
2779.544678 6970.000000
2780.364502 7303.000000
2781.184326 6518.000000
2782.002197 5983.000000
2782.821289 8108.000000
2783.639160 6576.000000
2784.456787 6739.000000
2785.273926 7189.000000
2786.090576 7350.000000
2786.906982 7265.000000
2787.722900 6284.000000
2788.538574 6054.000000
2789.353271 6407.000000
2790.168457 7008.000000
2790.982910 7191.000000
2791.796875 6665.000000
2792.610596 7469.000000
2793.423096 8754.000000
2794.235840 7040.000000
2795.048096 7443.000000
2795.859863 7186.000000
2796.670898 7462.000000
2797.482666 6557.000000
2798.293213 7252.000000
2799.103760 7051.000000
2799.912842 7416.000000
2800.722656 8276.000000
2801.531738 7858.000000
2802.340576 6644.000000
2803.148926 7239.000000
2803.956299 6253.000000
2804.764160 6424.000000
2805.571289 7001.000000
2806.378174 7068.000000
2807.183838 7170.000000
2807.989990 6766.000000
2808.795410 6477.000000
2809.600830 7402.000000
2810.405518 6189.000000
2811.209229 7721.000000
2812.013428 7532.000000
2812.817139 6359.000000
2813.620605 6096.000000
2814.422607 6595.000000
2815.225342 7423.000000
2816.027344 7865.000000
2816.829102 6186.000000
2817.630371 6577.000000
2818.431152 7290.000000
2819.231445 6574.000000
2820.031982 6662.000000
2820.831543 8137.000000
2821.630615 7247.000000
2822.429688 6725.000000
2823.228516 6897.000000
2824.026855 6409.000000
2824.824219 6998.000000
2825.621826 7115.000000
2826.418701 6650.000000
2827.215820 7395.000000
2828.012207 8166.000000
2828.807861 7052.000000
2829.603516 7306.000000
2830.398926 7608.000000
2831.193848 7438.000000
2831.988037 6649.000000
2832.782227 6908.000000
2833.576172 5613.000000
2834.369629 6877.000000
2835.162354 7188.000000
2835.954834 8203.000000
2836.747314 7792.000000
2837.539551 7582.000000
2838.331299 6458.000000
2839.122070 6805.000000
2839.912842 8851.000000
2840.703857 7564.000000
2841.493896 6249.000000
2842.283447 7633.000000
2843.073242 7198.000000
2843.862061 7451.000000
2844.650879 7828.000000
2845.439697 7770.000000
2846.227539 7514.000000
2847.014893 7212.000000
2847.802490 7539.000000
2848.589600 7417.000000
2849.375977 6705.000000
2850.162354 7432.000000
2850.948486 7232.000000
2851.734131 7507.000000
2852.518799 7155.000000
2853.303955 7018.000000
2854.088867 7441.000000
2854.873047 7164.000000
2855.657227 7006.000000
2856.440186 8354.000000
2857.223389 6901.000000
2858.006348 6831.000000
2858.788818 7808.000000
2859.571045 6321.000000
2860.352783 6704.000000
2861.134277 7610.000000
2861.916016 7523.000000
2862.697021 7665.000000
2863.477295 6618.000000
2864.257324 6760.000000
2865.037354 8240.000000
2865.817139 7531.000000
2866.595947 8163.000000
2867.375000 7708.000000
2868.153564 6885.000000
2868.931885 7057.000000
2869.709717 7247.000000
2870.487305 7002.000000
2871.264648 7481.000000
2872.041748 7007.000000
2872.818359 6447.000000
2873.594482 7483.000000
2874.370605 7228.000000
2875.146240 8302.000000
2875.921631 7278.000000
2876.696533 6678.000000
2877.471191 8098.000000
2878.245850 6629.000000
2879.020264 7868.000000
2879.793945 6861.000000
2880.566895 7428.000000
2881.340576 6744.000000
2882.113281 7583.000000
2882.885986 7889.000000
2883.657959 8295.000000
2884.429688 6292.000000
2885.201904 6805.000000
2885.972900 6903.000000
2886.743408 6135.000000
2887.514404 8447.000000
2888.285400 7405.000000
2889.055664 7999.000000
2889.824951 7670.000000
2890.594482 7003.000000
2891.364014 7283.000000
2892.133057 7366.000000
2892.901611 7907.000000
2893.670166 7792.000000
2894.437744 6987.000000
2895.205811 6594.000000
2895.973389 7497.000000
2896.740967 8434.000000
2897.507324 7440.000000
2898.274658 6498.000000
2899.040771 7304.000000
2899.807129 6979.000000
2900.572021 8345.000000
2901.337402 6944.000000
2902.103271 6469.000000
2902.867676 7885.000000
2903.632080 8003.000000
2904.396729 8459.000000
2905.160400 6693.000000
2905.924805 8439.000000
2906.688477 6743.000000
2907.451416 8455.000000
2908.214111 6495.000000
2908.977295 9150.000000
2909.739990 7007.000000
2910.501465 6887.000000
2911.263428 6887.000000
