scanname Analyse025
timestamp 2017-02-10 20:29:54
ccdbias 903.768555
ccdgain 3.473401
sigmaread 8.960639
laserwavenum -0.625468
wavenumcorrection -0.102504
scancount 1
totalexposurems 10000
singleexposurems 10000
measurementstate Unknown
scanmode Manual
snr 124.743599 1.749150 1.211974
replacelist 1
754 23708.000000 14406.000000
peaks 5
807.231445 0.304513 0.000000 0.082700 0.000076
839.121704 0.297994 0.000000 0.164916 0.000015
878.508423 0.294072 0.000000 0.194382 0.000060
1318.729614 0.273228 0.000000 12.306032 0.003435
1460.324219 0.225821 0.000000 0.289865 0.000128
finalresult GLS_NotPositive 95
A1519	Butyl vinyl ether	4.439090e-002
A3222	Potassium nitrite	4.373252e-002
A8360	5-Chloro-2-nitroaniline	4.353919e-002
A12040	Ethanol w/ sweetener	4.033998e-002
A8462	Ethanol	4.025694e-002
A11101	Hydrogen peroxide, 70%	3.996861e-002
A2782	Acetamide	3.988731e-002
A0273	Denatured Solvent Alcohol	3.974973e-002
A2017	Isopropylamine	3.960456e-002
A1351	Sodium propionate	3.960456e-002
A4025	2,4-Dimethylpentane	3.937596e-002
A9660	3-(4-Methoxybenzoyl)propionic acid	3.912541e-002
A3362	2-Nitro-para-xylene	3.886496e-002
A10529	1-Formylpiperazine	3.876637e-002
A7284	4-Chloro-3,5-dinitrobenzoic acid	3.856531e-002
A0113	Hydrogen peroxide	3.854800e-002
A3082	Methyl n-propyl ether	3.853401e-002
A4972	Boric acid	3.850710e-002
A3573	Ammonium tartrate dibasic	3.847959e-002
A7387	4-Hydroxypiperidine	3.835854e-002
A14069	(R)-(-)-1,2-Propanediol	3.817938e-002
A0969	Diethylene glycol monopropyl ether	3.816136e-002
A2453	Calcium chromate	3.813203e-002
A0518	Propylene glycol	3.812074e-002
A1754	N,N-Dimethylhydrazine	3.807271e-002
A5310	4-Methyl-3-nitroanisole	3.784758e-002
A9546	4-Methoxy-alpha-methylbenzyl alcohol	3.777196e-002
A9919	Sodium hydrogentartrate	3.774388e-002
A0251	Ethylamine	3.765155e-002
A14340	Titanium(IV) fluoride	3.756418e-002
A6700	4'-Methoxypropiophenone	3.752512e-002
A4543	1,4-Butanediol divinyl ether	3.752341e-002
A7633	2-Nitro-p-cymene	3.747772e-002
A0098	Roundup (weed and grass killer)	3.730399e-002
A5377	4-Methyl-2-nitroanisole	3.725227e-002
A7749	Ethyl ethoxyacetate	3.719541e-002
A2727	Acrolein diethyl acetal	3.717034e-002
A3285	4,N,N-Trimethylaniline	3.716696e-002
A1531	Ethyl formate	3.716527e-002
A2703	Acetaldehyde dimethyl acetal	3.715681e-002
A2721	Formaldehyde diethyl acetal	3.707717e-002
A5382	3-Methoxypropionic acid	3.683934e-002
A0138	Dibutyl ether	3.682822e-002
A1149	Methyl 2-aminobenzoate	3.681502e-002
A4722	1,3-Dicyclohexylurea	3.670569e-002
A6290	Bis(2,2,2-trifluoroethyl) phosphite	3.666778e-002
A1007	4-Ethylphenol	3.665471e-002
A11100	Hydrogen peroxide, 50%	3.664039e-002
A0365	Tris(2-butoxyethyl) phosphate	3.659229e-002
A1547	Isovaleric acid	3.656444e-002
A0228	Methyl p-toluate	3.649680e-002
A1676	Trifluoroacetic acid	3.648586e-002
A0400	Potassium permanganate	3.647318e-002
A2210	Calcium peroxide hydrate	3.645965e-002
A6278	6-Methylnicotinamide	3.641370e-002
A11145	1,3-Cyclopentanediol	3.635935e-002
A2313	Barium peroxide	3.633204e-002
A0369	2,4,6-Tribromophenol	3.631768e-002
A1270	Methyl DL-lactate	3.627237e-002
A8580	Sodium permanganate solution	3.627237e-002
A1550	Nitroethane	3.626184e-002
A7641	2-Piperidinemethanol	3.623253e-002
A0419	Sodium chlorite	3.621151e-002
A0544	1,4-Dioxane	3.619667e-002
A0199	Isobutyric acid	3.619340e-002
A5890	5-Nitroisoquinoline	3.618490e-002
A3574	Sodium hexanitrocobaltate(III)	3.609630e-002
A9590	Bis(2,2,2-trifluoroethyl) ether	3.609465e-002
A0007	Cyclohexane	3.607678e-002
A4995	2,4,6-Triiodophenol	3.606978e-002
A9092	p-Tolyl ether	3.603097e-002
A2435	Sodium percarbonate	3.600805e-002
A1808	(+/-)-2-Pentanol	3.598261e-002
A8054	Cyclohexyl isothiocyanate	3.592120e-002
A1871	Methyl salicylate	3.583929e-002
A5708	Methyl 3,5-dibromo-4-hydroxybenzoate	3.583767e-002
A8663	4-Methyl-3,5-dinitrobenzoic acid	3.579768e-002
A1629	Butyl methyl ether	3.578643e-002
A6272	Methyl 4-(hydroxymethyl)benzoate	3.574920e-002
A0524	Propionic acid	3.562742e-002
A4397	4-Fluorobenzonitrile	3.562579e-002
A9244	Bis(4-methoxyphenyl)phosphinic acid	3.560633e-002
A3976	2-Aminopyrimidine	3.548871e-002
A0154	Methacrylic acid	3.546268e-002
A9593	(R)-(-)-2-Amino-1-propanol	3.537603e-002
A9484	S-(+)-2-Amino-1-propanol	3.535778e-002
A6574	4-tert-Butylbenzoic acid	3.531623e-002
A2611	2-Nitroethanol	3.526337e-002
A7119	2-Deoxy-D-ribose	3.526337e-002
A6013	Glycine methyl ester hydrochloride	3.518290e-002
A1748	3,4-Dihydro-2H-pyran	3.517343e-002
A7001	Creatine	3.510058e-002
A8610	5-Methyl-2-pyrrolidinone	3.485989e-002
A7078	L-Pyroglutamic acid	3.226363e-002
A2943	Potassium binoxalate	3.205810e-002
spectrum 2048
-96.975990 45487.000000
-94.349121 45487.000000
-91.724129 46221.000000
-89.101028 46124.000000
-86.479797 47011.000000
-83.860466 46762.000000
-81.242996 47046.000000
-78.627403 46830.000000
-76.013687 47172.000000
-73.401848 47366.000000
-70.791870 47227.000000
-68.183777 47516.000000
-65.577530 47556.000000
-62.973156 47507.000000
-60.370647 47412.000000
-57.769993 47935.000000
-55.171200 47321.000000
-52.574265 46589.000000
-49.979183 47034.000000
-47.385956 46980.000000
-44.794579 47223.000000
-42.205048 46766.000000
-39.617359 47589.000000
-37.031521 47431.000000
-34.447525 47009.000000
-31.865366 47782.000000
-29.285053 47112.000000
-26.706568 47698.000000
-24.129925 47318.000000
-21.555107 47071.000000
-18.982130 46904.000000
-16.410973 46796.000000
-13.841650 46507.000000
-11.274152 45520.000000
-8.708472 46938.000000
-6.144619 46696.000000
-3.582578 47100.000000
-1.022362 47126.000000
1.536046 46543.000000
4.092633 45724.000000
6.647415 45833.000000
9.200380 46144.000000
11.751545 44991.000000
14.300897 44649.000000
16.848454 43876.000000
19.394197 44094.000000
21.938148 43447.000000
24.480295 41177.000000
27.020645 39127.000000
29.559210 36576.000000
32.095978 32523.000000
34.630943 21891.000000
37.164131 12610.000000
39.695538 8397.000000
42.225151 7800.000000
44.752968 7378.000000
47.279026 6507.000000
49.803295 5883.000000
52.325794 5114.000000
54.846497 4717.000000
57.365444 4851.000000
59.882618 5694.000000
62.398014 7135.000000
64.911629 7900.000000
67.423492 7514.000000
69.933609 6078.000000
72.441933 4044.000000
74.948502 3157.000000
77.453323 2803.000000
79.956390 2348.000000
82.457680 2001.000000
84.957230 1920.000000
87.455025 1931.000000
89.951088 2142.000000
92.445374 2784.000000
94.937920 2930.000000
97.428749 2777.000000
99.917809 2150.000000
102.405121 1813.000000
104.890709 1485.000000
107.374557 1508.000000
109.856659 1458.000000
112.337036 1144.000000
114.815689 1206.000000
117.292618 1139.000000
119.767792 1065.000000
122.241257 1084.000000
124.712990 1120.000000
127.183014 1109.000000
129.651291 1254.000000
132.117889 1162.000000
134.582733 1295.000000
137.045883 1451.000000
139.507294 1645.000000
141.967010 1921.000000
144.425003 2232.000000
146.881302 2569.000000
149.335892 3110.000000
151.788757 3814.000000
154.239944 4499.000000
156.689438 5276.000000
159.137207 6185.000000
161.583267 7323.000000
164.027649 8307.000000
166.470352 9174.000000
168.911362 9911.000000
171.350662 10665.000000
173.788254 11026.000000
176.224213 11327.000000
178.658432 11416.000000
181.090973 11595.000000
183.521866 11579.000000
185.951035 11788.000000
188.378555 11874.000000
190.804398 11829.000000
193.228561 11986.000000
195.651062 11949.000000
198.071869 12148.000000
200.491013 12501.000000
202.908493 12902.000000
205.324280 13152.000000
207.738419 13806.000000
210.150925 14552.000000
212.561752 15286.000000
214.970901 16343.000000
217.378418 17188.000000
219.784225 18309.000000
222.188446 19328.000000
224.590958 20123.000000
226.991852 20801.000000
229.391098 21411.000000
231.788681 21698.000000
234.184601 21787.000000
236.578903 22078.000000
238.971542 22534.000000
241.362564 22222.000000
243.751923 22363.000000
246.139664 22578.000000
248.525757 22336.000000
250.910217 22888.000000
253.293030 22032.000000
255.674271 22571.000000
258.053802 22448.000000
260.431763 22675.000000
262.808044 22327.000000
265.182770 22328.000000
267.555847 22019.000000
269.927277 22573.000000
272.297058 22402.000000
274.665283 22542.000000
277.031860 22541.000000
279.396851 22481.000000
281.760223 22622.000000
284.121948 22552.000000
286.482086 22124.000000
288.840607 22403.000000
291.197540 22330.000000
293.552856 22343.000000
295.906586 22363.000000
298.258667 22408.000000
300.609192 22363.000000
302.958130 22124.000000
305.305420 22046.000000
307.651184 22013.000000
309.995270 22304.000000
312.337830 21986.000000
314.678772 21708.000000
317.018097 21912.000000
319.355865 22075.000000
321.692078 21501.000000
324.026642 21708.000000
326.359650 21696.000000
328.691101 21956.000000
331.020966 21602.000000
333.349243 21738.000000
335.675903 21509.000000
338.001068 21595.000000
340.324615 21584.000000
342.646606 21847.000000
344.967041 21335.000000
347.285858 21247.000000
349.603119 21487.000000
351.918854 21464.000000
354.233002 21318.000000
356.545563 21499.000000
358.856567 21267.000000
361.166046 21314.000000
363.473999 21325.000000
365.780334 21512.000000
368.085083 21426.000000
370.388367 21417.000000
372.690033 21512.000000
374.990204 21506.000000
377.288818 21524.000000
379.585876 21545.000000
381.881378 21490.000000
384.175354 21720.000000
386.467743 21689.000000
388.758636 21832.000000
391.048004 21710.000000
393.335785 21948.000000
395.622040 21907.000000
397.906799 22094.000000
400.189941 22203.000000
402.471649 21904.000000
404.751831 22101.000000
407.030426 21774.000000
409.307495 22096.000000
411.583038 21909.000000
413.857056 21863.000000
416.129639 21631.000000
418.400604 21737.000000
420.670074 21744.000000
422.938049 21461.000000
425.204468 21479.000000
427.469391 21599.000000
429.732849 21457.000000
431.994720 21343.000000
434.255127 21329.000000
436.513977 21226.000000
438.771362 21201.000000
441.027252 21231.000000
443.281647 21017.000000
445.534515 21229.000000
447.785828 20721.000000
450.035736 20709.000000
452.284058 20602.000000
454.530945 20631.000000
456.776367 20606.000000
459.020233 20574.000000
461.262604 20370.000000
463.503479 20672.000000
465.742950 20218.000000
467.980835 20595.000000
470.217285 20765.000000
472.452209 20613.000000
474.685669 20456.000000
476.917694 20251.000000
479.148193 20442.000000
481.377197 20121.000000
483.604736 20134.000000
485.830780 20085.000000
488.055389 20122.000000
490.278534 20097.000000
492.500214 20069.000000
494.720337 20075.000000
496.939056 20322.000000
499.156281 20272.000000
501.372131 20402.000000
503.586365 20347.000000
505.799286 20389.000000
508.010620 20272.000000
510.220520 20380.000000
512.428955 20603.000000
514.636047 20426.000000
516.841553 20490.000000
519.045654 20377.000000
521.248230 20508.000000
523.449402 20425.000000
525.649231 20264.000000
527.847534 19945.000000
530.044312 20375.000000
532.239746 20295.000000
534.433655 20329.000000
536.626221 19868.000000
538.817261 19779.000000
541.006897 20058.000000
543.195129 19934.000000
545.381836 19758.000000
547.567078 19693.000000
549.751038 19363.000000
551.933411 19220.000000
554.114441 19317.000000
556.293945 19273.000000
558.472168 19135.000000
560.648865 18998.000000
562.824158 19005.000000
564.998047 18843.000000
567.170471 18863.000000
569.341492 18863.000000
571.511047 18793.000000
573.679321 18982.000000
575.846069 18863.000000
578.011353 18910.000000
580.175232 18938.000000
582.337830 19070.000000
584.498901 18951.000000
586.658569 19173.000000
588.816895 19031.000000
590.973694 19161.000000
593.129150 19016.000000
595.283203 19319.000000
597.435913 19409.000000
599.587097 19074.000000
601.736938 19202.000000
603.885437 19040.000000
606.032349 19206.000000
608.178040 19095.000000
610.322327 19143.000000
612.465149 19307.000000
614.606506 19187.000000
616.746643 19228.000000
618.885254 19022.000000
621.022583 19026.000000
623.158447 19009.000000
625.292908 18877.000000
627.425903 18716.000000
629.557739 18544.000000
631.688110 18645.000000
633.817078 18690.000000
635.944580 18418.000000
638.070801 18400.000000
640.195496 18249.000000
642.318970 18203.000000
644.441101 18075.000000
646.561768 17875.000000
648.681091 17984.000000
650.799011 17982.000000
652.915588 17903.000000
655.030762 17750.000000
657.144592 17758.000000
659.256958 17719.000000
661.368103 17661.000000
663.477844 17683.000000
665.586121 17520.000000
667.693237 17764.000000
669.798889 17609.000000
671.903076 17462.000000
674.006042 17662.000000
676.107605 17708.000000
678.207825 17645.000000
680.306641 17730.000000
682.404114 17948.000000
684.500305 17912.000000
686.595032 17784.000000
688.688538 17806.000000
690.780701 17540.000000
692.871338 17725.000000
694.960754 17997.000000
697.048889 17973.000000
699.135559 18044.000000
701.221008 18001.000000
703.304932 18179.000000
705.387634 18005.000000
707.469055 17723.000000
709.549011 17391.000000
711.627747 16874.000000
713.705017 16814.000000
715.781006 17078.000000
717.855713 17098.000000
719.929138 16766.000000
722.001038 17461.000000
724.071777 17280.000000
726.141174 17196.000000
728.209167 16993.000000
730.275818 16731.000000
732.341248 16770.000000
734.405334 16747.000000
736.468079 16603.000000
738.529480 16910.000000
740.589600 16613.000000
742.648315 16613.000000
744.705811 16451.000000
746.762024 16446.000000
748.816833 16232.000000
750.870361 16193.000000
752.922485 16085.000000
754.973389 16403.000000
757.023071 16164.000000
759.071289 16156.000000
761.118286 16150.000000
763.164001 15890.000000
765.208313 16030.000000
767.251343 17088.000000
769.293152 14624.000000
771.333618 15888.000000
773.372681 16093.000000
775.410583 16180.000000
777.447144 16164.000000
779.482483 16232.000000
781.516479 16329.000000
783.549072 16386.000000
785.580505 16543.000000
787.610535 15784.000000
789.639282 16360.000000
791.666870 16366.000000
793.693115 16547.000000
795.717957 16529.000000
797.741699 16444.000000
799.764038 16603.000000
801.785156 16580.000000
803.804932 16643.000000
805.823425 16922.000000
807.840698 16860.000000
809.856567 16677.000000
811.871277 16676.000000
813.884644 16450.000000
815.896790 16345.000000
817.907715 16172.000000
819.917297 16026.000000
821.925659 15973.000000
823.932617 15829.000000
825.938354 15718.000000
827.942871 15655.000000
829.946106 15505.000000
831.948059 15293.000000
833.948730 15603.000000
835.948181 15424.000000
837.946289 15475.000000
839.943298 15417.000000
841.938904 15370.000000
843.933350 15270.000000
845.926453 15184.000000
847.918335 14966.000000
849.908875 15063.000000
851.898132 14840.000000
853.886353 14889.000000
855.873169 14763.000000
857.858765 14788.000000
859.843079 14634.000000
861.826294 14551.000000
863.808105 14494.000000
865.788696 14665.000000
867.768005 14375.000000
869.746155 14356.000000
871.722961 14694.000000
873.698486 14756.000000
875.672974 14978.000000
877.645996 15267.000000
879.617981 15319.000000
881.588623 15205.000000
883.558105 15184.000000
885.526245 15213.000000
887.493225 15314.000000
889.458862 15237.000000
891.423340 15013.000000
893.386597 15124.000000
895.348633 14893.000000
897.309387 14939.000000
899.268921 14865.000000
901.227173 14821.000000
903.184326 14552.000000
905.140320 14798.000000
907.094910 14805.000000
909.048279 14678.000000
911.000488 14657.000000
912.951477 14463.000000
914.901184 14235.000000
916.849731 14098.000000
918.797058 14327.000000
920.743103 14127.000000
922.687866 13850.000000
924.631592 13727.000000
926.574158 13552.000000
928.515442 13575.000000
930.455383 13270.000000
932.394226 13352.000000
934.331787 13258.000000
936.268127 13200.000000
938.203308 13201.000000
940.137207 13187.000000
942.070007 13232.000000
944.001587 13212.000000
945.932007 13264.000000
947.861206 13143.000000
949.789063 13101.000000
951.715881 13240.000000
953.641418 13297.000000
955.565674 13264.000000
957.488831 13286.000000
959.410828 13414.000000
961.331543 13407.000000
963.251099 13491.000000
965.169495 13544.000000
967.086853 13592.000000
969.002747 13556.000000
970.917542 13614.000000
972.831116 13655.000000
974.743530 13724.000000
976.654724 13745.000000
978.564758 13561.000000
980.473511 13528.000000
982.381226 13571.000000
984.287720 13489.000000
986.192993 13449.000000
988.097168 13470.000000
990.000122 13351.000000
991.901855 13417.000000
993.802429 13386.000000
995.701843 13330.000000
997.600037 13244.000000
999.497070 13106.000000
1001.392883 12865.000000
1003.287537 12592.000000
1005.181091 12444.000000
1007.073364 12453.000000
1008.964722 12447.000000
1010.854736 12429.000000
1012.743530 12175.000000
1014.631165 12119.000000
1016.517639 12277.000000
1018.402954 12181.000000
1020.287109 12082.000000
1022.170044 12117.000000
1024.052002 12034.000000
1025.932617 12125.000000
1027.812134 12205.000000
1029.690674 12179.000000
1031.567871 12150.000000
1033.443726 12028.000000
1035.318604 12139.000000
1037.192505 12107.000000
1039.064941 12117.000000
1040.936401 12127.000000
1042.806519 11983.000000
1044.675659 12065.000000
1046.543579 12049.000000
1048.410400 12054.000000
1050.276123 12101.000000
1052.140625 12131.000000
1054.004028 12371.000000
1055.866089 12242.000000
1057.727173 12356.000000
1059.587158 12290.000000
1061.445801 12241.000000
1063.303345 12183.000000
1065.159790 12365.000000
1067.015137 12433.000000
1068.869263 12320.000000
1070.722534 12205.000000
1072.574341 12210.000000
1074.425171 12291.000000
1076.274780 12166.000000
1078.123169 12136.000000
1079.970703 12051.000000
1081.816895 12245.000000
1083.661865 12071.000000
1085.505981 12040.000000
1087.348755 12000.000000
1089.190308 12154.000000
1091.031128 11987.000000
1092.870361 11839.000000
1094.708862 11844.000000
1096.546021 11796.000000
1098.381958 11740.000000
1100.216919 11381.000000
1102.050659 11202.000000
1103.883423 11228.000000
1105.714844 11213.000000
1107.545410 11513.000000
1109.374634 11129.000000
1111.202881 10736.000000
1113.029907 10888.000000
1114.855957 10807.000000
1116.680786 10885.000000
1118.504517 10598.000000
1120.327026 10796.000000
1122.148438 10751.000000
1123.968994 10866.000000
1125.788086 10775.000000
1127.606323 10780.000000
1129.423218 10791.000000
1131.239258 10893.000000
1133.054077 10916.000000
1134.867798 10979.000000
1136.680420 11036.000000
1138.491821 11111.000000
1140.302246 11221.000000
1142.111572 11172.000000
1143.919556 11187.000000
1145.726807 11312.000000
1147.532593 11206.000000
1149.337524 11233.000000
1151.141357 11245.000000
1152.943970 11317.000000
1154.745728 11320.000000
1156.546021 11317.000000
1158.345337 11241.000000
1160.143677 11119.000000
1161.940674 11106.000000
1163.736938 11005.000000
1165.531860 10919.000000
1167.325684 10779.000000
1169.118652 10769.000000
1170.910278 10784.000000
1172.700928 10605.000000
1174.490601 10478.000000
1176.278809 10553.000000
1178.066162 10413.000000
1179.852417 10385.000000
1181.637573 10415.000000
1183.421631 10372.000000
1185.204590 10398.000000
1186.986572 10403.000000
1188.767334 10325.000000
1190.547119 10434.000000
1192.325806 10179.000000
1194.103516 10256.000000
1195.880005 10149.000000
1197.655396 9926.000000
1199.429688 9896.000000
1201.202881 9894.000000
1202.975220 9647.000000
1204.746216 9711.000000
1206.516357 9804.000000
1208.285278 9704.000000
1210.053101 9724.000000
1211.820068 9855.000000
1213.585693 9615.000000
1215.350342 9544.000000
1217.113892 9712.000000
1218.876343 9777.000000
1220.637939 9577.000000
1222.398315 9675.000000
1224.157593 9516.000000
1225.916016 9496.000000
1227.673218 9569.000000
1229.429321 9642.000000
1231.184326 9597.000000
1232.938477 9696.000000
1234.691284 9768.000000
1236.443115 9770.000000
1238.194092 9696.000000
1239.943726 9821.000000
1241.692505 9972.000000
1243.439941 9864.000000
1245.186646 9789.000000
1246.932129 9951.000000
1248.676758 9907.000000
1250.420044 9849.000000
1252.162354 9737.000000
1253.903564 9655.000000
1255.643921 9618.000000
1257.383179 9406.000000
1259.121216 9243.000000
1260.858398 9094.000000
1262.594360 9187.000000
1264.329346 9340.000000
1266.063354 9403.000000
1267.796387 9555.000000
1269.528198 9560.000000
1271.259033 9622.000000
1272.988647 9703.000000
1274.717407 9689.000000
1276.445068 9722.000000
1278.171631 9759.000000
1279.897339 9763.000000
1281.621704 9682.000000
1283.345215 9714.000000
1285.067749 9643.000000
1286.789307 9502.000000
1288.509644 9503.000000
1290.229004 9344.000000
1291.947266 9453.000000
1293.664551 9514.000000
1295.380859 9613.000000
1297.095947 9486.000000
1298.810059 9460.000000
1300.523193 9455.000000
1302.235474 9281.000000
1303.946533 8982.000000
1305.656616 9112.000000
1307.365601 9075.000000
1309.073364 9007.000000
1310.780518 8883.000000
1312.486206 8955.000000
1314.191162 8889.000000
1315.895142 9134.000000
1317.597900 9122.000000
1319.299683 9263.000000
1321.000610 9175.000000
1322.700195 14585.000000
1324.398926 2553.000000
1326.096924 8777.000000
1327.793579 8670.000000
1329.489136 8723.000000
1331.183838 8750.000000
1332.877319 8482.000000
1334.569946 8610.000000
1336.261719 8400.000000
1337.952148 8507.000000
1339.641846 8356.000000
1341.330444 8352.000000
1343.017944 8380.000000
1344.704468 8301.000000
1346.389893 8330.000000
1348.074341 8396.000000
1349.757935 8448.000000
1351.440308 8403.000000
1353.121704 8579.000000
1354.802246 8709.000000
1356.481567 8600.000000
1358.160278 8711.000000
1359.837646 8819.000000
1361.513916 8785.000000
1363.189209 8958.000000
1364.863770 8868.000000
1366.537109 8818.000000
1368.209473 8865.000000
1369.880859 8782.000000
1371.551270 8835.000000
1373.220581 8583.000000
1374.888916 8672.000000
1376.556396 8657.000000
1378.222778 8599.000000
1379.888184 8581.000000
1381.552612 8641.000000
1383.215820 8423.000000
1384.878418 8441.000000
1386.539673 8426.000000
1388.200073 8239.000000
1389.859375 8201.000000
1391.517700 8270.000000
1393.175293 8250.000000
1394.831665 8284.000000
1396.487183 8303.000000
1398.141479 8290.000000
1399.794922 8209.000000
1401.447266 8284.000000
1403.098877 8327.000000
1404.749268 8137.000000
1406.398560 8012.000000
1408.047119 7795.000000
1409.694580 7664.000000
1411.341064 7642.000000
1412.986694 7726.000000
1414.631348 7615.000000
1416.274780 7566.000000
1417.917358 7601.000000
1419.558838 7584.000000
1421.199463 7529.000000
1422.839111 7534.000000
1424.477661 7487.000000
1426.115356 7454.000000
1427.751953 7260.000000
1429.387573 7386.000000
1431.022461 7377.000000
1432.656250 7370.000000
1434.288940 7408.000000
1435.920654 7203.000000
1437.551514 7433.000000
1439.181274 7366.000000
1440.809937 7424.000000
1442.437988 7321.000000
1444.064941 7493.000000
1445.690674 7283.000000
1447.315796 7319.000000
1448.939819 7364.000000
1450.562866 7475.000000
1452.184937 7473.000000
1453.805908 7498.000000
1455.425903 7510.000000
1457.045166 7645.000000
1458.663086 7675.000000
1460.280396 7621.500000
1461.896729 7568.000000
1463.511841 7427.000000
1465.126099 7483.000000
1466.739502 7542.000000
1468.351807 7551.000000
1469.963257 7371.000000
1471.573853 7437.000000
1473.183228 7465.000000
1474.791626 7427.000000
1476.399170 7394.000000
1478.005737 7562.000000
1479.611572 7461.000000
1481.216187 7374.000000
1482.819946 7365.000000
1484.422485 7196.000000
1486.024414 6871.000000
1487.625122 6910.000000
1489.225098 6824.000000
1490.823975 6710.000000
1492.421997 6811.000000
1494.018921 6834.000000
1495.614990 6980.000000
1497.210083 7248.000000
1498.804199 7247.000000
1500.397583 7326.000000
1501.989868 7188.000000
1503.580933 7116.000000
1505.171509 7027.000000
1506.760742 7018.000000
1508.349365 6975.000000
1509.936890 6808.000000
1511.523315 6883.000000
1513.109009 6770.000000
1514.693604 6827.000000
1516.277344 6837.000000
1517.859985 6704.000000
1519.441895 6914.000000
1521.022705 6817.000000
1522.602783 6767.000000
1524.181641 6678.000000
1525.759644 6540.000000
1527.336914 6581.000000
1528.912964 6458.000000
1530.488281 6450.000000
1532.062500 6568.000000
1533.635986 6372.000000
1535.208252 6318.000000
1536.779785 6372.000000
1538.350342 6451.000000
1539.920044 6368.000000
1541.488525 6372.000000
1543.056274 6403.000000
1544.623169 6361.000000
1546.188843 6378.000000
1547.753784 6300.000000
1549.317627 6241.000000
1550.880859 6175.000000
1552.442749 6110.000000
1554.004028 6252.000000
1555.564209 6284.000000
1557.123657 6178.000000
1558.682007 6386.000000
1560.239624 6019.000000
1561.796143 6083.000000
1563.351440 6036.000000
1564.906128 6101.000000
1566.460083 6188.000000
1568.013062 6130.000000
1569.564697 6151.000000
1571.115601 6248.000000
1572.665771 6122.000000
1574.214966 6101.000000
1575.762817 6160.000000
1577.310181 6121.000000
1578.856567 6035.000000
1580.402100 6116.000000
1581.946655 6042.000000
1583.489990 6040.000000
1585.032715 6074.000000
1586.574585 6094.000000
1588.115356 6027.000000
1589.655151 6197.000000
1591.194214 6044.000000
1592.732178 6013.000000
1594.269653 6091.000000
1595.805786 6034.000000
1597.340820 6045.000000
1598.875366 5880.000000
1600.408936 5875.000000
1601.941650 5991.000000
1603.472778 6001.000000
1605.003662 5961.000000
1606.533691 6029.000000
1608.062500 5878.000000
1609.590210 5957.000000
1611.117310 5919.000000
1612.643677 5983.000000
1614.169067 5925.000000
1615.693604 5836.000000
1617.216797 5750.000000
1618.739258 5867.000000
1620.260986 5894.000000
1621.781860 5854.000000
1623.301270 5717.000000
1624.820190 5792.000000
1626.338379 5757.000000
1627.855713 5764.000000
1629.371948 5772.000000
1630.886841 5658.000000
1632.401245 5635.000000
1633.914917 5630.000000
1635.427490 5657.000000
1636.938843 5643.000000
1638.449829 5561.000000
1639.959717 5518.000000
1641.468750 5560.000000
1642.976440 5470.000000
1644.483765 5407.000000
1645.990234 5518.000000
1647.495728 5621.000000
1649.000366 5452.000000
1650.503540 5495.000000
1652.006104 5510.000000
1653.508301 5480.000000
1655.009155 5399.000000
1656.508911 5299.000000
1658.007813 5370.000000
1659.506348 5269.000000
1661.003662 5204.000000
1662.500244 5358.000000
1663.995239 5130.000000
1665.489990 5284.000000
1666.983887 5154.000000
1668.476807 5020.000000
1669.968384 4941.000000
1671.459473 4996.000000
1672.949951 5077.000000
1674.439331 4956.000000
1675.927246 5013.000000
1677.414917 5011.000000
1678.901611 5164.000000
1680.387451 5061.000000
1681.872437 5056.000000
1683.355957 4930.000000
1684.839233 4818.000000
1686.321655 4816.000000
1687.802979 4903.000000
1689.282837 4792.000000
1690.762451 4788.000000
1692.241333 4864.000000
1693.719238 4407.000000
1695.196167 4798.000000
1696.671875 4777.000000
1698.147217 4777.000000
1699.621338 4824.000000
1701.094849 4749.000000
1702.566895 4955.000000
1704.038696 4870.000000
1705.509521 4817.000000
1706.979492 4752.000000
1708.448120 4862.000000
1709.916260 4846.000000
1711.383667 4820.000000
1712.849976 4879.000000
1714.315674 4871.000000
1715.779663 4768.000000
1717.243530 4832.000000
1718.706543 4799.000000
1720.168579 4770.000000
1721.629395 4910.000000
1723.089600 4763.000000
1724.549072 4791.000000
1726.007690 4726.000000
1727.465332 4765.000000
1728.921631 4819.000000
1730.377686 4829.000000
1731.832764 4833.000000
1733.286865 4720.000000
1734.739746 4766.000000
1736.192383 4705.000000
1737.643921 4507.000000
1739.094727 4643.000000
1740.544556 4671.000000
1741.993042 4804.000000
1743.441162 4629.000000
1744.888428 4665.000000
1746.334961 4514.000000
1747.779907 4489.000000
1749.224609 4608.000000
1750.668457 4457.000000
1752.111450 4481.000000
1753.552979 4440.000000
1754.994263 4486.000000
1756.434692 4229.000000
1757.874146 4510.000000
1759.312622 4433.000000
1760.750122 4448.000000
1762.187134 4408.000000
1763.623169 4402.000000
1765.058350 4349.000000
1766.492065 4277.000000
1767.925659 4509.000000
1769.358276 4491.000000
1770.790039 4481.000000
1772.220947 4398.000000
1773.650635 4378.000000
1775.079590 4334.000000
1776.508057 4199.000000
1777.935547 4106.000000
1779.361694 3843.000000
1780.787598 4092.000000
1782.212402 4140.000000
1783.636597 4086.000000
1785.059326 4108.000000
1786.481567 4109.000000
1787.903076 4123.000000
1789.323853 4092.000000
1790.743652 3915.000000
1792.162109 3988.000000
1793.580078 3974.000000
1794.997437 3966.000000
1796.413940 3944.000000
1797.828979 4058.000000
1799.243652 3924.000000
1800.657715 3989.000000
1802.070557 3927.000000
1803.482788 3991.000000
1804.893677 3928.000000
1806.304077 3908.000000
1807.713745 3863.000000
1809.122437 3934.000000
1810.530029 3922.000000
1811.937134 3924.000000
1813.343384 3916.000000
1814.748657 3875.000000
1816.152832 3904.000000
1817.556641 3968.000000
1818.959473 3837.000000
1820.361450 3996.000000
1821.762817 3953.000000
1823.162720 3900.000000
1824.562012 3920.000000
1825.960815 3922.000000
1827.358765 3912.000000
1828.755371 3910.000000
1830.151367 3836.000000
1831.546631 3880.000000
1832.941284 3808.000000
1834.334961 3764.000000
1835.727295 3741.000000
1837.119141 3873.000000
1838.510376 3745.000000
1839.900635 3823.000000
1841.289673 3767.000000
1842.678345 3894.000000
1844.066040 3785.000000
1845.453003 3723.000000
1846.838623 3810.000000
1848.223999 3857.000000
1849.608521 3664.000000
1850.992310 3674.000000
1852.375000 3661.000000
1853.756470 3689.000000
1855.137451 3726.000000
1856.517944 3640.000000
1857.897461 3595.000000
1859.275513 3682.000000
1860.653442 3498.000000
1862.030396 3535.000000
1863.406616 3620.000000
1864.781982 3634.000000
1866.155884 3603.000000
1867.529663 3500.000000
1868.902588 3470.000000
1870.274414 3464.000000
1871.645264 3463.000000
1873.015747 3493.000000
1874.385132 3481.000000
1875.754028 3428.000000
1877.121338 3435.000000
1878.488525 3286.000000
1879.854736 3503.000000
1881.220215 3425.000000
1882.584961 3337.000000
1883.948120 3307.000000
1885.311157 3405.000000
1886.673340 3342.000000
1888.034668 3214.000000
1889.394653 3387.000000
1890.754272 3294.000000
1892.113281 3353.000000
1893.471313 3263.000000
1894.828491 3244.000000
1896.184448 3222.000000
1897.540161 3247.000000
1898.894897 3258.000000
1900.248779 3281.000000
1901.601563 3269.000000
1902.953857 3268.000000
1904.305420 3211.000000
1905.656128 3276.000000
1907.005615 3197.000000
1908.354614 3254.000000
1909.702759 3188.000000
1911.050293 3266.000000
1912.397095 3172.000000
1913.742310 3125.000000
1915.087280 3311.000000
1916.431519 3219.000000
1917.774902 3276.000000
1919.116943 3172.000000
1920.458740 3251.000000
1921.799683 3230.000000
1923.139893 3285.000000
1924.479126 3259.000000
1925.817383 3221.000000
1927.155029 3246.000000
1928.491943 3237.000000
1929.828003 3199.000000
1931.162842 3137.000000
1932.497314 3157.000000
1933.831055 3160.000000
1935.163940 3098.000000
1936.495361 3137.000000
1937.826904 3049.000000
1939.157104 3034.000000
1940.486816 3104.000000
1941.815674 3059.000000
1943.143311 3070.000000
1944.470459 3074.000000
1945.796875 3113.000000
1947.122559 3061.000000
1948.446899 3069.000000
1949.770996 3120.000000
1951.094238 3063.000000
1952.416748 2979.000000
1953.738159 2997.000000
1955.058594 2959.000000
1956.378418 3004.000000
1957.697876 2950.000000
1959.016357 2926.000000
1960.333496 2898.000000
1961.650269 3031.000000
1962.966309 2913.000000
1964.281616 2973.000000
1965.595459 2892.000000
1966.909058 2843.000000
1968.221924 2945.000000
1969.533936 2855.000000
1970.845337 3058.000000
1972.155396 2807.000000
1973.464966 2807.000000
1974.773804 2801.000000
1976.082031 2739.000000
1977.388916 2785.000000
1978.695190 2802.000000
1980.001099 2802.000000
1981.305786 2826.000000
1982.609985 2774.000000
1983.912964 2825.000000
1985.215576 2767.000000
1986.517212 2671.000000
1987.818237 2712.000000
1989.117676 2677.000000
1990.417236 2585.000000
1991.715698 2726.000000
1993.013672 2513.000000
1994.310059 2668.000000
1995.606445 2605.000000
1996.901855 2590.000000
1998.196533 2620.000000
1999.490356 2514.000000
2000.782959 2533.000000
2002.075073 2483.000000
2003.366699 2544.000000
2004.657593 2564.000000
2005.946899 2360.000000
2007.235962 2517.000000
2008.524292 2537.000000
2009.811890 2389.000000
2011.098633 2545.000000
2012.384277 2491.000000
2013.669556 2485.000000
2014.953857 2559.000000
2016.237549 2542.000000
2017.519897 2494.000000
2018.801880 2518.000000
2020.083374 2454.000000
2021.363892 2435.000000
2022.643677 2461.000000
2023.922363 2416.000000
2025.200317 2480.000000
2026.477783 2459.000000
2027.754639 2421.000000
2029.029785 2546.000000
2030.305054 2455.000000
2031.579346 2483.000000
2032.852661 2391.000000
2034.125122 2474.000000
2035.397217 2507.000000
2036.668213 2401.000000
2037.938965 2450.000000
2039.208374 2454.000000
2040.476685 2496.000000
2041.744995 2473.000000
2043.012329 2519.000000
2044.278931 2463.000000
2045.544312 2452.000000
2046.809082 2404.000000
2048.073486 2253.000000
2049.336914 2446.000000
2050.599854 2382.000000
2051.860840 2445.000000
2053.122314 2381.000000
2054.382568 2381.000000
2055.642090 2341.000000
2056.900879 2267.000000
2058.158691 2330.000000
2059.416016 2322.000000
2060.672607 2213.000000
2061.927734 2297.000000
2063.182861 2283.000000
2064.437012 2316.000000
2065.690430 2221.000000
2066.943115 2306.000000
2068.194580 2223.000000
2069.445801 2245.000000
2070.696289 2256.000000
2071.946045 2263.000000
2073.194336 2284.000000
2074.442627 2209.000000
2075.689941 2162.000000
2076.936523 2228.000000
2078.182373 2285.000000
2079.427002 2121.000000
2080.671143 2142.000000
2081.914795 2205.000000
2083.157471 2228.000000
2084.398926 2059.000000
2085.640137 2190.000000
2086.880859 2261.000000
2088.120605 2158.000000
2089.359131 2152.000000
2090.597168 2121.000000
2091.834473 2041.000000
2093.071533 2123.000000
2094.307129 2128.000000
2095.541992 2083.000000
2096.776611 2150.000000
2098.010254 2122.000000
2099.242920 2154.000000
2100.474854 2039.000000
2101.706299 2158.000000
2102.936768 1959.000000
2104.166504 2087.000000
2105.395996 2001.000000
2106.623535 2127.000000
2107.851318 2019.000000
2109.078369 1966.000000
2110.304443 2018.000000
2111.529053 1937.000000
2112.753906 1945.000000
2113.977539 1950.000000
2115.200684 1940.000000
2116.422607 2021.000000
2117.644287 1951.000000
2118.864990 1958.000000
2120.084961 1939.000000
2121.304443 2032.000000
2122.522461 2023.000000
2123.740479 1954.000000
2124.957520 1980.000000
2126.174072 1990.000000
2127.388916 1968.000000
2128.604004 1950.000000
2129.818115 2020.000000
2131.031494 1897.000000
2132.244141 1868.000000
2133.455322 1963.000000
2134.666748 1792.000000
2135.876953 1875.000000
2137.086670 1970.000000
2138.294922 1869.000000
2139.503174 1867.000000
2140.710693 1928.000000
2141.916992 2190.000000
2143.122559 1904.000000
2144.327881 1822.000000
2145.532227 1962.000000
2146.735840 1859.000000
2147.938965 1895.000000
2149.140625 1904.000000
2150.342041 1908.000000
2151.542725 1857.000000
2152.742676 1963.000000
2153.941406 1826.000000
2155.139893 1849.000000
2156.337891 1895.000000
2157.534912 1770.000000
2158.731201 1843.000000
2159.926270 1819.000000
2161.121094 1795.000000
2162.315186 1821.000000
2163.508301 1724.000000
2164.700439 1789.000000
2165.892334 1798.000000
2167.083496 1826.000000
2168.273682 1722.000000
2169.463135 1765.000000
2170.652100 1702.000000
2171.840088 1676.000000
2173.027832 1607.000000
2174.214111 1684.000000
2175.399658 1642.000000
2176.584961 1660.000000
2177.769775 1513.000000
2178.953369 1670.000000
2180.136230 1644.000000
2181.318115 1640.000000
2182.499756 1677.000000
2183.680908 1622.000000
2184.860840 1633.000000
2186.039795 1604.000000
2187.218262 1516.000000
2188.396484 1590.000000
2189.573486 1561.000000
2190.749512 1645.000000
2191.925293 1567.000000
2193.100586 1517.000000
2194.274414 1524.000000
2195.447754 1561.000000
2196.620850 1569.000000
2197.792725 1594.000000
2198.964111 1626.000000
2200.135010 1687.000000
2201.304199 1594.000000
2202.473389 1587.000000
2203.642090 1585.000000
2204.809814 1560.000000
2205.976563 1695.000000
2207.142578 1600.000000
2208.308105 1598.000000
2209.473389 1555.000000
2210.637207 1620.000000
2211.800537 1597.000000
2212.962646 1639.000000
2214.125000 1525.000000
2215.286133 1503.000000
2216.446289 1501.000000
2217.605957 1571.000000
2218.765381 1522.000000
2219.923584 1522.000000
2221.080811 1534.000000
2222.237793 1623.000000
2223.394043 1490.000000
2224.549561 1541.000000
2225.704346 1484.000000
2226.858154 1516.000000
2228.010986 1493.000000
2229.164307 1477.000000
2230.315674 1442.000000
2231.466797 1400.000000
2232.617188 1408.000000
2233.767090 1370.000000
2234.916016 1477.000000
2236.064453 1524.000000
2237.211426 1500.000000
2238.358643 1456.000000
2239.504639 1404.000000
2240.650391 1355.000000
2241.794434 1365.000000
2242.938721 1401.000000
2244.082031 1312.000000
2245.224609 1400.000000
2246.366211 1350.000000
2247.507568 1378.000000
2248.647949 1390.000000
2249.787598 1276.000000
2250.926758 1357.000000
2252.064697 1280.000000
2253.202637 1327.000000
2254.339600 1327.000000
2255.475830 1296.000000
2256.611084 1302.000000
2257.745605 1188.000000
2258.879883 1322.000000
2260.013672 1338.000000
2261.145996 1300.000000
2262.277832 1232.000000
2263.409180 1265.000000
2264.539551 1272.000000
2265.669678 1220.000000
2266.798584 1175.000000
2267.927002 1156.000000
2269.054932 1279.000000
2270.181885 1148.000000
2271.308105 1163.000000
2272.433350 1271.000000
2273.558594 1260.000000
2274.683105 1309.000000
2275.806396 1225.000000
2276.928955 1190.000000
2278.051025 1235.000000
2279.172607 1200.000000
2280.293457 1170.000000
2281.413086 1230.000000
2282.532227 1175.000000
2283.651123 1198.000000
2284.769287 1184.000000
2285.886475 1157.000000
2287.002686 1176.000000
2288.118652 1094.000000
2289.233887 1191.000000
2290.348389 1104.000000
2291.461670 1223.000000
2292.574951 1273.000000
2293.687500 1256.000000
2294.799316 1194.000000
2295.910400 1239.000000
2297.020264 1183.000000
2298.129639 1134.000000
2299.238770 1180.000000
2300.346924 1180.000000
2301.454102 1102.000000
2302.561035 1253.000000
2303.667236 1157.000000
2304.772949 1228.000000
2305.877197 1072.000000
2306.981201 1205.000000
2308.084717 1210.000000
2309.187744 1070.000000
2310.289551 1120.000000
2311.390625 1180.000000
2312.491211 1154.000000
2313.591309 1231.000000
2314.690674 1188.000000
2315.788574 1180.000000
2316.886963 1124.000000
2317.983887 1188.000000
2319.080566 1129.000000
2320.176758 1177.000000
2321.271240 1068.000000
2322.365723 1269.000000
2323.459473 1240.000000
2324.552979 1167.000000
2325.644775 1131.000000
2326.736572 1140.000000
2327.827637 1191.000000
2328.917969 1179.000000
2330.007324 1271.000000
2331.096680 1218.000000
2332.184814 1141.000000
2333.272461 1257.000000
2334.359863 1167.000000
2335.445557 1245.000000
2336.531006 1075.000000
2337.616211 981.000000
2338.700439 971.000000
2339.783691 1175.000000
2340.866699 1062.000000
2341.948730 1031.000000
2343.030518 1009.000000
2344.111572 938.000000
2345.191406 1003.000000
2346.270752 928.000000
2347.349609 1075.000000
2348.427979 991.000000
2349.504883 1049.000000
2350.581543 981.000000
2351.657959 996.000000
2352.733398 998.000000
2353.807861 951.000000
2354.882080 855.000000
2355.955566 937.000000
2357.028564 960.000000
2358.100342 1073.000000
2359.171875 894.000000
2360.242432 981.000000
2361.312744 894.000000
2362.382080 885.000000
2363.450439 902.000000
2364.518555 943.000000
2365.585938 898.000000
2366.652832 901.000000
2367.718994 965.000000
2368.783936 889.000000
2369.848877 878.000000
2370.913086 947.000000
2371.976563 998.000000
2373.038818 882.000000
2374.101074 874.000000
2375.162354 937.000000
2376.223389 873.000000
2377.283203 881.000000
2378.342285 889.000000
2379.401367 939.000000
2380.459473 934.000000
2381.516846 934.000000
2382.573242 822.000000
2383.629395 794.000000
2384.685059 859.000000
2385.739990 904.000000
2386.793457 871.000000
2387.847168 845.000000
2388.899902 791.000000
2389.952148 921.000000
2391.003662 860.000000
2392.054199 937.000000
2393.104492 818.000000
2394.153809 887.000000
2395.203125 922.000000
2396.250977 940.000000
2397.298340 862.000000
2398.345459 876.000000
2399.391602 850.000000
2400.437012 896.000000
2401.481689 883.000000
2402.526367 893.000000
2403.569580 801.000000
2404.612793 788.000000
2405.654541 868.000000
2406.696533 827.000000
2407.737793 854.000000
2408.778076 870.000000
2409.817627 809.000000
2410.856201 963.000000
2411.895020 786.000000
2412.932617 960.000000
2413.969971 820.000000
2415.006104 889.000000
2416.041992 891.000000
2417.077148 824.000000
2418.111816 848.000000
2419.145020 899.000000
2420.178467 791.000000
2421.210938 842.000000
2422.243164 767.000000
2423.273926 703.000000
2424.304688 894.000000
2425.334961 823.000000
2426.364014 803.000000
2427.393066 813.000000
2428.420410 874.000000
2429.448242 864.000000
2430.474854 743.000000
2431.501221 842.000000
2432.526123 805.000000
2433.551270 715.000000
2434.575439 812.000000
2435.599365 790.000000
2436.622070 776.000000
2437.644043 754.000000
2438.665771 670.000000
2439.686768 672.000000
2440.707275 855.000000
2441.726563 749.000000
2442.745850 780.000000
2443.764160 831.000000
2444.782227 736.000000
2445.798828 661.000000
2446.815430 763.000000
2447.831299 701.000000
2448.847168 722.000000
2449.861572 701.000000
2450.875244 690.000000
2451.888428 689.000000
2452.901367 662.000000
2453.913574 596.000000
2454.924805 803.000000
2455.935791 691.000000
2456.946045 618.000000
2457.955811 648.000000
2458.964600 732.000000
2459.972656 658.000000
2460.980713 750.000000
2461.987549 660.000000
2462.994141 744.000000
2463.999512 692.000000
2465.004639 700.000000
2466.009521 661.000000
2467.013184 789.000000
2468.016602 724.000000
2469.019043 668.000000
2470.021240 627.000000
2471.022949 761.000000
2472.023682 653.000000
2473.023438 700.000000
2474.023193 555.000000
2475.021973 622.000000
2476.020264 670.000000
2477.017578 642.000000
2478.014648 652.000000
2479.011719 570.000000
2480.007324 561.000000
2481.002930 599.000000
2481.996826 596.000000
2482.990723 643.000000
2483.984131 627.000000
2484.977051 562.000000
2485.968994 677.000000
2486.960205 663.000000
2487.951172 654.000000
2488.941650 673.000000
2489.931152 653.000000
2490.919922 615.000000
2491.908691 586.000000
2492.896484 597.000000
2493.883057 601.000000
2494.869629 647.000000
2495.855713 646.000000
2496.841064 716.000000
2497.825439 597.000000
2498.809570 539.000000
2499.793701 726.000000
2500.776367 645.000000
2501.758545 581.000000
2502.740234 586.000000
2503.721191 681.000000
2504.701660 552.000000
2505.681885 591.000000
2506.660645 705.000000
2507.639160 651.000000
2508.617188 610.000000
2509.594727 597.000000
2510.571289 630.000000
2511.547607 599.000000
2512.523193 679.000000
2513.498291 667.000000
2514.472900 582.000000
2515.446289 604.000000
2516.419434 631.000000
2517.392334 615.000000
2518.364258 633.000000
2519.335449 712.000000
2520.306152 607.000000
2521.276611 693.000000
2522.246338 573.000000
2523.215088 534.000000
2524.183105 629.000000
2525.151123 602.000000
2526.118164 629.000000
2527.084961 541.000000
2528.050537 489.000000
2529.016113 573.000000
2529.980957 524.000000
2530.945313 598.000000
2531.908447 562.000000
2532.871826 594.000000
2533.834229 589.000000
2534.796387 544.000000
2535.757324 557.000000
2536.717529 592.000000
2537.677979 667.000000
2538.637451 499.000000
2539.596191 520.000000
2540.553955 578.000000
2541.511963 540.000000
2542.469238 579.000000
2543.425537 586.000000
2544.381592 531.000000
2545.336426 448.000000
2546.291504 429.000000
2547.245850 507.000000
2548.199463 1035.000000
2549.152100 529.000000
2550.104492 572.000000
2551.056396 518.000000
2552.007568 522.000000
2552.958008 519.000000
2553.907959 506.000000
2554.857666 488.000000
2555.806641 489.000000
2556.755127 468.000000
2557.702393 489.000000
2558.649658 553.000000
2559.596191 499.000000
2560.542236 539.000000
2561.487305 492.000000
2562.432129 546.000000
2563.376465 453.000000
2564.320313 410.000000
2565.263672 462.000000
2566.205566 484.000000
2567.147705 476.000000
2568.089111 511.000000
2569.029785 552.000000
2569.969727 531.000000
2570.909668 484.000000
2571.848633 431.000000
2572.787354 530.000000
2573.725098 500.000000
2574.662598 469.000000
2575.599365 484.000000
2576.535400 453.000000
2577.470947 469.000000
2578.405762 500.000000
2579.340576 486.000000
2580.274414 491.000000
2581.207764 595.000000
2582.140381 533.000000
2583.072754 404.000000
2584.004395 408.000000
2584.935547 475.000000
2585.866211 402.000000
2586.795654 545.000000
2587.725098 473.000000
2588.654053 556.000000
2589.582764 671.000000
2590.509766 435.000000
2591.437012 435.000000
2592.363770 419.000000
2593.289795 432.000000
2594.215576 467.000000
2595.140137 410.000000
2596.064453 326.000000
2596.988281 401.000000
2597.911621 473.000000
2598.833984 442.000000
2599.756104 492.000000
2600.677734 368.000000
2601.598633 486.000000
2602.518799 502.000000
2603.438721 551.000000
2604.358154 413.000000
2605.277344 341.000000
2606.195557 507.000000
2607.112549 393.000000
2608.029785 466.000000
2608.946777 439.000000
2609.862793 466.000000
2610.777588 383.000000
2611.692871 395.000000
2612.607422 487.000000
2613.520996 370.000000
2614.434570 468.000000
2615.346924 434.000000
2616.259277 430.000000
2617.170654 451.000000
2618.081787 456.000000
2618.992188 436.000000
2619.902344 408.000000
2620.811768 377.000000
2621.720703 398.000000
2622.628662 372.000000
2623.536865 453.000000
2624.444092 404.000000
2625.350830 474.000000
2626.256836 492.000000
2627.162598 409.000000
2628.067627 315.000000
2628.972412 413.000000
2629.876465 384.000000
2630.779541 385.000000
2631.682617 370.000000
2632.584717 438.000000
2633.486816 394.000000
2634.388672 497.000000
2635.288818 431.000000
2636.189209 364.000000
2637.088867 337.000000
2637.988281 415.000000
2638.886230 350.000000
2639.784668 290.000000
2640.682617 323.000000
2641.579834 362.000000
2642.475830 350.000000
2643.371826 428.000000
2644.267578 376.000000
2645.162598 370.000000
2646.057373 371.000000
2646.950684 316.000000
2647.843994 348.000000
2648.737061 381.000000
2649.629883 383.000000
2650.520996 375.000000
2651.412354 388.000000
2652.303223 403.000000
2653.193359 514.000000
2654.083252 306.000000
2654.971924 451.000000
2655.860840 384.000000
2656.749268 287.000000
2657.636719 348.000000
2658.523193 284.000000
2659.410156 414.000000
2660.296387 299.000000
2661.182129 362.000000
2662.066650 288.000000
2662.951172 320.000000
2663.835449 424.000000
2664.718994 326.000000
2665.602051 236.000000
2666.484375 296.000000
2667.366211 300.000000
2668.247314 289.000000
2669.128662 328.000000
2670.008545 304.000000
2670.888672 364.000000
2671.768066 379.000000
2672.647461 445.000000
2673.526123 312.000000
2674.403076 372.000000
2675.280762 247.000000
2676.157715 322.000000
2677.033936 411.000000
2677.909668 363.000000
2678.784668 289.000000
2679.659912 367.000000
2680.534180 353.000000
2681.407959 283.000000
2682.281006 394.000000
2683.153809 325.000000
2684.026367 407.000000
2684.898193 282.000000
2685.769287 393.000000
2686.640137 311.000000
2687.510498 294.000000
2688.380615 347.000000
2689.249023 245.000000
2690.118164 279.000000
2690.986572 327.000000
2691.854736 367.000000
2692.722168 327.000000
2693.588379 334.000000
2694.455078 262.000000
2695.320801 343.000000
2696.186523 358.000000
2697.050781 249.000000
2697.915771 325.000000
2698.779297 323.000000
2699.643066 314.000000
2700.505371 344.000000
2701.368164 290.000000
2702.229980 351.000000
2703.091309 291.000000
2703.952637 340.000000
2704.812744 320.000000
2705.672852 232.000000
2706.532471 366.000000
2707.391846 419.000000
2708.249512 275.000000
2709.107422 292.000000
2709.965820 276.000000
2710.822998 308.000000
2711.679443 265.000000
2712.535400 299.000000
2713.391357 293.000000
2714.246582 248.000000
2715.101074 259.000000
2715.955078 379.000000
2716.809082 289.000000
2717.662109 311.000000
2718.515381 268.000000
2719.366943 246.000000
2720.218994 274.000000
2721.070801 270.000000
2721.921387 346.000000
2722.771973 172.000000
2723.622070 219.000000
2724.471436 351.000000
2725.320801 300.000000
2726.168945 229.000000
2727.016602 271.000000
2727.864746 314.000000
2728.711670 290.000000
2729.559082 432.000000
2730.405029 242.000000
2731.250244 330.000000
2732.095947 248.000000
2732.940674 287.000000
2733.785400 345.000000
2734.628906 251.000000
2735.472656 257.000000
2736.315674 192.000000
2737.158203 226.000000
2737.999756 266.000000
2738.841797 329.000000
2739.682861 282.000000
2740.523682 244.000000
2741.364258 225.000000
2742.203613 160.000000
2743.042969 334.000000
2743.882324 245.000000
2744.720459 241.000000
2745.558105 267.000000
2746.395752 285.000000
2747.232910 348.000000
2748.069824 278.000000
2748.906250 277.000000
2749.741455 278.000000
2750.576904 206.000000
2751.411865 263.000000
2752.246094 236.000000
2753.080078 306.000000
2753.913574 208.000000
2754.747070 297.000000
2755.579590 213.000000
2756.411621 213.000000
2757.243164 307.000000
2758.074707 173.000000
2758.905273 257.000000
2759.736084 298.000000
2760.565674 267.000000
2761.395264 301.000000
2762.224609 235.000000
2763.053223 225.000000
2763.881348 309.000000
2764.708984 174.000000
2765.536621 154.000000
2766.363770 174.000000
2767.190186 323.000000
2768.016113 222.000000
2768.841553 236.000000
2769.666748 140.000000
2770.491943 172.000000
2771.315918 222.000000
2772.139893 201.000000
2772.963867 236.000000
2773.786621 292.000000
2774.609619 453.000000
2775.431396 243.000000
2776.253174 181.000000
2777.074951 204.000000
2777.895752 112.000000
2778.715820 222.000000
2779.536133 253.000000
2780.355957 178.000000
2781.175781 247.000000
2781.993652 268.000000
2782.812744 257.000000
2783.630615 310.000000
2784.448242 197.000000
2785.265381 211.000000
2786.082031 192.000000
2786.898438 175.000000
2787.714355 216.000000
2788.530029 290.000000
2789.344727 201.000000
2790.159912 304.000000
2790.974365 126.000000
2791.788330 223.000000
2792.602051 219.000000
2793.414551 246.000000
2794.227295 247.000000
2795.039551 160.000000
2795.851318 217.000000
2796.662354 238.000000
2797.474121 164.000000
2798.284668 221.000000
2799.095215 220.000000
2799.904297 187.000000
2800.714111 247.000000
2801.523193 113.000000
2802.332031 291.000000
2803.140381 204.000000
2803.947754 215.000000
2804.755615 178.000000
2805.562744 225.000000
2806.369629 177.000000
2807.175293 177.000000
2807.981445 137.000000
2808.786865 271.000000
2809.592285 214.000000
2810.396973 171.000000
2811.200684 167.000000
2812.004883 115.000000
2812.808594 214.000000
2813.612061 221.000000
2814.414063 154.000000
2815.216797 118.000000
2816.018799 190.000000
2816.820557 228.000000
2817.621826 206.000000
2818.422607 141.000000
2819.222900 204.000000
2820.023438 87.000000
2820.822998 216.000000
2821.622070 257.000000
2822.421143 126.000000
2823.219971 144.000000
2824.018311 190.000000
2824.815674 124.000000
2825.613281 161.000000
2826.410156 175.000000
2827.207275 135.000000
2828.003662 220.000000
2828.799316 184.000000
2829.594971 215.000000
2830.390381 227.000000
2831.185303 115.000000
2831.979492 196.000000
2832.773682 203.000000
2833.567627 262.000000
2834.361084 78.000000
2835.153809 101.000000
2835.946289 116.000000
2836.738770 86.000000
2837.531006 193.000000
2838.322754 199.000000
2839.113525 186.000000
2839.904297 124.000000
2840.695313 249.000000
2841.485352 211.000000
2842.274902 94.000000
2843.064697 213.000000
2843.853516 281.000000
2844.642334 146.000000
2845.431152 134.000000
2846.218994 212.000000
2847.006348 183.000000
2847.793945 174.000000
2848.581055 100.000000
2849.367432 128.000000
2850.153809 103.000000
2850.939941 145.000000
2851.725586 124.000000
2852.510254 200.000000
2853.295410 135.000000
2854.080322 186.000000
2854.864502 145.000000
2855.648682 93.000000
2856.431641 40.000000
2857.214844 150.000000
2857.997803 56.000000
2858.780273 138.000000
2859.562500 202.000000
2860.344238 263.000000
2861.125732 179.000000
2861.907471 152.000000
2862.688477 156.000000
2863.468750 168.000000
2864.248779 194.000000
2865.028809 134.000000
2865.808594 220.000000
2866.587402 251.000000
2867.366455 232.000000
2868.145020 284.000000
2868.923340 239.000000
2869.701172 165.000000
2870.478760 227.000000
2871.256104 163.000000
2872.033203 169.000000
2872.809814 214.000000
2873.585938 227.000000
2874.362061 162.000000
2875.137695 185.000000
2875.913086 201.000000
2876.687988 124.000000
2877.462646 67.000000
2878.237305 169.000000
2879.011719 134.000000
2879.785400 114.000000
2880.558350 132.000000
2881.332031 254.000000
2882.104736 146.000000
2882.877441 80.000000
2883.649414 180.000000
2884.421143 144.000000
2885.193359 196.000000
2885.964355 109.000000
2886.734863 256.000000
2887.505859 172.000000
2888.276855 140.000000
2889.047119 139.000000
2889.816406 149.000000
2890.585938 177.000000
2891.355469 208.000000
2892.124512 169.000000
2892.893066 142.000000
2893.661621 230.000000
2894.429199 238.000000
2895.197266 163.000000
2895.964844 166.000000
2896.732422 139.000000
2897.498779 200.000000
2898.266113 212.000000
2899.032227 139.000000
2899.798584 104.000000
2900.563477 190.000000
2901.328857 201.000000
2902.094727 160.000000
2902.859131 106.000000
2903.623535 141.000000
2904.388184 164.000000
2905.151855 169.000000
2905.916260 67.000000
2906.679932 188.000000
2907.442871 139.000000
2908.205566 136.000000
2908.968750 -33.000000
2909.731445 214.000000
2910.492920 104.000000
2911.254883 104.000000
spectrumdark 2048
-96.975990 6221.000000
-94.349121 6221.000000
-91.724129 6029.000000
-89.101028 6401.000000
-86.479797 5804.000000
-83.860466 6259.000000
-81.242996 6082.000000
-78.627403 6406.000000
-76.013687 6138.000000
-73.401848 5936.000000
-70.791870 6139.000000
-68.183777 5933.000000
-65.577530 5941.000000
-62.973156 6029.000000
-60.370647 6100.000000
-57.769993 5606.000000
-55.171200 6222.000000
-52.574265 6910.000000
-49.979183 6466.000000
-47.385956 6508.000000
-44.794579 6240.000000
-42.205048 6709.000000
-39.617359 5873.000000
-37.031521 6053.000000
-34.447525 6472.000000
-31.865366 5665.000000
-29.285053 6339.000000
-26.706568 5706.000000
-24.129925 6091.000000
-21.555107 6248.000000
-18.982130 6418.000000
-16.410973 6498.000000
-13.841650 6769.000000
-11.274152 7743.000000
-8.708472 6269.000000
-6.144619 6457.000000
-3.582578 5989.000000
-1.022362 5867.000000
1.536046 6291.000000
4.092633 6942.000000
6.647415 6682.000000
9.200380 6018.000000
11.751545 6723.000000
14.300897 6443.000000
16.848454 6665.000000
19.394197 5948.000000
21.938148 5773.000000
24.480295 6707.000000
27.020645 6770.000000
29.559210 6846.000000
32.095978 6209.000000
34.630943 5786.000000
37.164131 7267.000000
39.695538 6377.000000
42.225151 7141.000000
44.752968 6474.000000
47.279026 7868.000000
49.803295 5619.000000
52.325794 6258.000000
54.846497 6726.000000
57.365444 6345.000000
59.882618 6424.000000
62.398014 6714.000000
64.911629 5621.000000
67.423492 5737.000000
69.933609 6499.000000
72.441933 6512.000000
74.948502 5933.000000
77.453323 6311.000000
79.956390 6390.000000
82.457680 6250.000000
84.957230 6145.000000
87.455025 6346.000000
89.951088 5735.000000
92.445374 7168.000000
94.937920 5844.000000
97.428749 6886.000000
99.917809 7288.000000
102.405121 6350.000000
104.890709 6236.000000
107.374557 6345.000000
109.856659 5741.000000
112.337036 6804.000000
114.815689 6168.000000
117.292618 6416.000000
119.767792 7202.000000
122.241257 6819.000000
124.712990 5845.000000
127.183014 6760.000000
129.651291 6245.000000
132.117889 6313.000000
134.582733 5703.000000
137.045883 6191.000000
139.507294 7257.000000
141.967010 6886.000000
144.425003 6346.000000
146.881302 5967.000000
149.335892 5815.000000
151.788757 6798.000000
154.239944 6380.000000
156.689438 6592.000000
159.137207 6091.000000
161.583267 6619.000000
164.027649 8653.000000
166.470352 6432.000000
168.911362 6741.000000
171.350662 6239.000000
173.788254 7239.000000
176.224213 6602.000000
178.658432 6956.000000
181.090973 7138.000000
183.521866 6634.000000
185.951035 7158.000000
188.378555 6645.000000
190.804398 6300.000000
193.228561 6700.000000
195.651062 7193.000000
198.071869 7412.000000
200.491013 6442.000000
202.908493 5972.000000
205.324280 7665.000000
207.738419 7094.000000
210.150925 6328.000000
212.561752 6032.000000
214.970901 6237.000000
217.378418 7383.000000
219.784225 6124.000000
222.188446 6549.000000
224.590958 6741.000000
226.991852 6951.000000
229.391098 6499.000000
231.788681 6889.000000
234.184601 7247.000000
236.578903 6530.000000
238.971542 6058.000000
241.362564 6826.000000
243.751923 6547.000000
246.139664 6343.000000
248.525757 6916.000000
250.910217 6136.000000
253.293030 7996.000000
255.674271 6658.000000
258.053802 6703.000000
260.431763 6477.000000
262.808044 7585.000000
265.182770 7601.000000
267.555847 7840.000000
269.927277 6150.000000
272.297058 6418.000000
274.665283 5914.000000
277.031860 6282.000000
279.396851 6429.000000
281.760223 6032.000000
284.121948 6296.000000
286.482086 7137.000000
288.840607 6084.000000
291.197540 6506.000000
293.552856 6381.000000
295.906586 6001.000000
298.258667 5947.000000
300.609192 6344.000000
302.958130 6357.000000
305.305420 6851.000000
307.651184 6487.000000
309.995270 6470.000000
312.337830 7344.000000
314.678772 7614.000000
317.018097 7154.000000
319.355865 6958.000000
321.692078 8056.000000
324.026642 6284.000000
326.359650 6521.000000
328.691101 5885.000000
331.020966 6633.000000
333.349243 6460.000000
335.675903 7264.000000
338.001068 6355.000000
340.324615 6247.000000
342.646606 6039.000000
344.967041 7593.000000
347.285858 7724.000000
349.603119 6026.000000
351.918854 5803.000000
354.233002 6922.000000
356.545563 6298.000000
358.856567 6468.000000
361.166046 7032.000000
363.473999 6382.000000
365.780334 5672.000000
368.085083 6481.000000
370.388367 6433.000000
372.690033 6265.000000
374.990204 6332.000000
377.288818 6268.000000
379.585876 5730.000000
381.881378 6187.000000
384.175354 5858.000000
386.467743 5216.000000
388.758636 5529.000000
391.048004 6249.000000
393.335785 6227.000000
395.622040 6573.000000
397.906799 6977.000000
400.189941 6031.000000
402.471649 6459.000000
404.751831 6154.000000
407.030426 7222.000000
409.307495 6447.000000
411.583038 6755.000000
413.857056 6507.000000
416.129639 6464.000000
418.400604 6268.000000
420.670074 6442.000000
422.938049 7195.000000
425.204468 7190.000000
427.469391 6252.000000
429.732849 6325.000000
431.994720 6521.000000
434.255127 6035.000000
436.513977 6668.000000
438.771362 6101.000000
441.027252 5626.000000
443.281647 5819.000000
445.534515 5463.000000
447.785828 6940.000000
450.035736 6091.000000
452.284058 6321.000000
454.530945 5666.000000
456.776367 6463.000000
459.020233 6425.000000
461.262604 6523.000000
463.503479 5594.000000
465.742950 6757.000000
467.980835 5435.000000
470.217285 5858.000000
472.452209 6066.000000
474.685669 7212.000000
476.917694 6659.000000
479.148193 5650.000000
481.377197 6429.000000
483.604736 6336.000000
485.830780 5992.000000
488.055389 6539.000000
490.278534 5876.000000
492.500214 6467.000000
494.720337 6693.000000
496.939056 5613.000000
499.156281 6283.000000
501.372131 5521.000000
503.586365 6166.000000
505.799286 6455.000000
508.010620 6479.000000
510.220520 6831.000000
512.428955 6483.000000
514.636047 6569.000000
516.841553 6395.000000
519.045654 6566.000000
521.248230 6175.000000
523.449402 6607.000000
525.649231 6663.000000
527.847534 6990.000000
530.044312 5272.000000
532.239746 5823.000000
534.433655 5547.000000
536.626221 7566.000000
538.817261 6764.000000
541.006897 6024.000000
543.195129 6886.000000
545.381836 7119.000000
547.567078 6832.000000
549.751038 6292.000000
551.933411 6493.000000
554.114441 6160.000000
556.293945 6058.000000
558.472168 5860.000000
560.648865 6080.000000
562.824158 6382.000000
564.998047 6428.000000
567.170471 5860.000000
569.341492 6032.000000
571.511047 6364.000000
573.679321 5253.000000
575.846069 6392.000000
578.011353 6352.000000
580.175232 6113.000000
582.337830 5705.000000
584.498901 6047.000000
586.658569 5545.000000
588.816895 5865.000000
590.973694 6150.000000
593.129150 6614.000000
595.283203 5742.000000
597.435913 6075.000000
599.587097 7234.000000
601.736938 6769.000000
603.885437 6732.000000
606.032349 6060.000000
608.178040 6462.000000
610.322327 6417.000000
612.465149 6991.000000
614.606506 6221.000000
616.746643 6388.000000
618.885254 7620.000000
621.022583 5702.000000
623.158447 6563.000000
625.292908 6879.000000
627.425903 7248.000000
629.557739 6672.000000
631.688110 6584.000000
633.817078 6786.000000
635.944580 6510.000000
638.070801 6224.000000
640.195496 7320.000000
642.318970 6424.000000
644.441101 6785.000000
646.561768 6921.000000
648.681091 6521.000000
650.799011 5665.000000
652.915588 5704.000000
655.030762 6483.000000
657.144592 6458.000000
659.256958 5783.000000
661.368103 6170.000000
663.477844 5404.000000
665.586121 6071.000000
667.693237 6260.000000
669.798889 6795.000000
671.903076 5940.000000
674.006042 5697.000000
676.107605 6907.000000
678.207825 5340.000000
680.306641 6758.000000
682.404114 6300.000000
684.500305 6967.000000
686.595032 6399.000000
688.688538 6997.000000
690.780701 6692.000000
692.871338 7936.000000
694.960754 6630.000000
697.048889 6538.000000
699.135559 5998.000000
701.221008 6692.000000
703.304932 5080.000000
705.387634 5909.000000
707.469055 5968.000000
709.549011 7589.000000
711.627747 6209.000000
713.705017 5581.000000
715.781006 6570.000000
717.855713 6069.000000
719.929138 6966.000000
722.001038 6330.000000
724.071777 7430.000000
726.141174 5776.000000
728.209167 6430.000000
730.275818 6441.000000
732.341248 7093.000000
734.405334 5801.000000
736.468079 6153.000000
738.529480 6205.000000
740.589600 6635.000000
742.648315 6006.000000
744.705811 6646.000000
746.762024 6582.000000
748.816833 6691.000000
750.870361 6343.000000
752.922485 7485.000000
754.973389 5744.000000
757.023071 6729.000000
759.071289 6410.000000
761.118286 6182.000000
763.164001 7023.000000
765.208313 5328.000000
767.251343 5787.000000
769.293152 15053.000000
771.333618 7213.000000
773.372681 6386.000000
775.410583 6096.000000
777.447144 6030.000000
779.482483 5359.000000
781.516479 5706.000000
783.549072 6876.000000
785.580505 5573.000000
787.610535 12084.000000
789.639282 6042.000000
791.666870 6361.000000
793.693115 6337.000000
795.717957 5775.000000
797.741699 5512.000000
799.764038 6409.000000
801.785156 5855.000000
803.804932 6694.000000
805.823425 4914.000000
807.840698 6621.000000
809.856567 6795.000000
811.871277 5739.000000
813.884644 6417.000000
815.896790 6320.000000
817.907715 6127.000000
819.917297 6539.000000
821.925659 5322.000000
823.932617 5722.000000
825.938354 6040.000000
827.942871 5783.000000
829.946106 5722.000000
831.948059 6509.000000
833.948730 6060.000000
835.948181 5896.000000
837.946289 6274.000000
839.943298 6973.000000
841.938904 6234.000000
843.933350 6128.000000
845.926453 6201.000000
847.918335 6869.000000
849.908875 5566.000000
851.898132 6857.000000
853.886353 5984.000000
855.873169 5739.000000
857.858765 6439.000000
859.843079 7232.000000
861.826294 6283.000000
863.808105 6457.000000
865.788696 5843.000000
867.768005 7775.000000
869.746155 7101.000000
871.722961 6238.000000
873.698486 6186.000000
875.672974 6218.000000
877.645996 6022.000000
879.617981 5399.000000
881.588623 6396.000000
883.558105 6121.000000
885.526245 5564.000000
887.493225 5193.000000
889.458862 6111.000000
891.423340 5869.000000
893.386597 5946.000000
895.348633 6509.000000
897.309387 5823.000000
899.268921 6427.000000
901.227173 6715.000000
903.184326 6336.000000
905.140320 6075.000000
907.094910 6895.000000
909.048279 6503.000000
911.000488 6415.000000
912.951477 6393.000000
914.901184 7107.000000
916.849731 6347.000000
918.797058 6083.000000
920.743103 6118.000000
922.687866 6058.000000
924.631592 6290.000000
926.574158 5983.000000
928.515442 5566.000000
930.455383 6465.000000
932.394226 5685.000000
934.331787 5481.000000
936.268127 5995.000000
938.203308 5825.000000
940.137207 6103.000000
942.070007 5898.000000
944.001587 6771.000000
945.932007 5263.000000
947.861206 6442.000000
949.789063 7007.000000
951.715881 6644.000000
953.641418 5946.000000
955.565674 5383.000000
957.488831 5984.000000
959.410828 6722.000000
961.331543 7245.000000
963.251099 6448.000000
965.169495 5378.000000
967.086853 6441.000000
969.002747 6473.000000
970.917542 6119.000000
972.831116 5924.000000
974.743530 6381.000000
976.654724 6450.000000
978.564758 5534.000000
980.473511 6231.000000
982.381226 6124.000000
984.287720 6338.000000
986.192993 5733.000000
988.097168 6768.000000
990.000122 6223.000000
991.901855 6789.000000
993.802429 6660.000000
995.701843 6542.000000
997.600037 5221.000000
999.497070 6499.000000
1001.392883 6495.000000
1003.287537 7689.000000
1005.181091 5588.000000
1007.073364 7214.000000
1008.964722 6079.000000
1010.854736 5323.000000
1012.743530 6647.000000
1014.631165 6349.000000
1016.517639 6873.000000
1018.402954 6735.000000
1020.287109 6034.000000
1022.170044 5819.000000
1024.052002 6250.000000
1025.932617 5199.000000
1027.812134 5803.000000
1029.690674 6037.000000
1031.567871 5426.000000
1033.443726 6217.000000
1035.318604 5918.000000
1037.192505 6614.000000
1039.064941 7071.000000
1040.936401 6693.000000
1042.806519 5495.000000
1044.675659 5509.000000
1046.543579 5773.000000
1048.410400 7115.000000
1050.276123 6731.000000
1052.140625 6482.000000
1054.004028 6458.000000
1055.866089 6499.000000
1057.727173 5858.000000
1059.587158 6502.000000
1061.445801 6653.000000
1063.303345 5752.000000
1065.159790 6702.000000
1067.015137 5924.000000
1068.869263 5800.000000
1070.722534 6279.000000
1072.574341 6280.000000
1074.425171 6140.000000
1076.274780 6137.000000
1078.123169 5809.000000
1079.970703 7986.000000
1081.816895 5512.000000
1083.661865 6200.000000
1085.505981 5406.000000
1087.348755 5498.000000
1089.190308 6532.000000
1091.031128 5488.000000
1092.870361 5724.000000
1094.708862 6044.000000
1096.546021 6012.000000
1098.381958 6837.000000
1100.216919 6625.000000
1102.050659 5448.000000
1103.883423 5696.000000
1105.714844 6140.000000
1107.545410 7230.000000
1109.374634 6575.000000
1111.202881 6469.000000
1113.029907 7105.000000
1114.855957 5400.000000
1116.680786 6337.000000
1118.504517 7166.000000
1120.327026 6151.000000
1122.148438 5891.000000
1123.968994 5872.000000
1125.788086 6554.000000
1127.606323 7048.000000
1129.423218 7043.000000
1131.239258 6691.000000
1133.054077 6517.000000
1134.867798 5624.000000
1136.680420 5792.000000
1138.491821 5630.000000
1140.302246 6127.000000
1142.111572 6763.000000
1143.919556 6980.000000
1145.726807 5937.000000
1147.532593 5980.000000
1149.337524 5431.000000
1151.141357 5358.000000
1152.943970 6045.000000
1154.745728 6111.000000
1156.546021 6132.000000
1158.345337 6175.000000
1160.143677 5908.000000
1161.940674 5510.000000
1163.736938 5922.000000
1165.531860 6116.000000
1167.325684 6362.000000
1169.118652 7789.000000
1170.910278 5745.000000
1172.700928 6525.000000
1174.490601 6005.000000
1176.278809 5853.000000
1178.066162 7459.000000
1179.852417 6914.000000
1181.637573 5786.000000
1183.421631 5962.000000
1185.204590 7662.000000
1186.986572 5922.000000
1188.767334 5917.000000
1190.547119 6296.000000
1192.325806 6985.000000
1194.103516 6701.000000
1195.880005 7257.000000
1197.655396 6639.000000
1199.429688 6561.000000
1201.202881 6702.000000
1202.975220 6527.000000
1204.746216 6710.000000
1206.516357 5727.000000
1208.285278 6122.000000
1210.053101 6353.000000
1211.820068 5830.000000
1213.585693 5952.000000
1215.350342 6935.000000
1217.113892 6512.000000
1218.876343 5894.000000
1220.637939 6741.000000
1222.398315 5888.000000
1224.157593 6287.000000
1225.916016 6028.000000
1227.673218 7225.000000
1229.429321 6474.000000
1231.184326 5585.000000
1232.938477 5947.000000
1234.691284 5813.000000
1236.443115 5995.000000
1238.194092 5993.000000
1239.943726 4927.000000
1241.692505 6955.000000
1243.439941 6475.000000
1245.186646 6614.000000
1246.932129 6435.000000
1248.676758 6466.000000
1250.420044 6734.000000
1252.162354 6694.000000
1253.903564 5356.000000
1255.643921 5075.000000
1257.383179 5817.000000
1259.121216 6564.000000
1260.858398 7084.000000
1262.594360 6124.000000
1264.329346 6462.000000
1266.063354 7303.000000
1267.796387 6024.000000
1269.528198 6229.000000
1271.259033 6453.000000
1272.988647 7305.000000
1274.717407 5963.000000
1276.445068 5697.000000
1278.171631 5595.000000
1279.897339 5547.000000
1281.621704 6451.000000
1283.345215 5175.000000
1285.067749 6863.000000
1286.789307 6627.000000
1288.509644 6294.000000
1290.229004 6675.000000
1291.947266 7270.000000
1293.664551 6419.000000
1295.380859 5686.000000
1297.095947 6349.000000
1298.810059 6211.000000
1300.523193 5736.000000
1302.235474 6450.000000
1303.946533 8320.000000
1305.656616 5259.000000
1307.365601 6275.000000
1309.073364 6632.000000
1310.780518 7064.000000
1312.486206 5781.000000
1314.191162 6866.000000
1315.895142 6142.000000
1317.597900 5981.000000
1319.299683 6536.000000
1321.000610 6082.000000
1322.700195 10105.000000
1324.398926 31460.000000
1326.096924 5594.000000
1327.793579 6541.000000
1329.489136 7140.000000
1331.183838 6811.000000
1332.877319 5761.000000
1334.569946 5389.000000
1336.261719 7455.000000
1337.952148 6252.000000
1339.641846 6595.000000
1341.330444 6103.000000
1343.017944 7643.000000
1344.704468 5666.000000
1346.389893 6800.000000
1348.074341 5943.000000
1349.757935 7206.000000
1351.440308 6335.000000
1353.121704 5916.000000
1354.802246 6548.000000
1356.481567 6714.000000
1358.160278 5913.000000
1359.837646 6546.000000
1361.513916 5805.000000
1363.189209 5564.000000
1364.863770 6596.000000
1366.537109 6446.000000
1368.209473 6769.000000
1369.880859 5158.000000
1371.551270 6793.000000
1373.220581 6205.000000
1374.888916 5680.000000
1376.556396 5947.000000
1378.222778 6517.000000
1379.888184 6215.000000
1381.552612 5859.000000
1383.215820 5945.000000
1384.878418 5695.000000
1386.539673 6366.000000
1388.200073 6646.000000
1389.859375 6411.000000
1391.517700 6495.000000
1393.175293 6886.000000
1394.831665 6468.000000
1396.487183 6972.000000
1398.141479 6323.000000
1399.794922 5882.000000
1401.447266 6101.000000
1403.098877 6441.000000
1404.749268 7173.000000
1406.398560 6170.000000
1408.047119 7572.000000
1409.694580 7939.000000
1411.341064 6247.000000
1412.986694 6234.000000
1414.631348 5989.000000
1416.274780 7028.000000
1417.917358 7146.000000
1419.558838 6871.000000
1421.199463 6444.000000
1422.839111 6506.000000
1424.477661 6029.000000
1426.115356 6712.000000
1427.751953 6411.000000
1429.387573 6016.000000
1431.022461 6316.000000
1432.656250 5907.000000
1434.288940 6145.000000
1435.920654 5671.000000
1437.551514 6096.000000
1439.181274 6049.000000
1440.809937 7734.000000
1442.437988 5946.000000
1444.064941 6163.000000
1445.690674 6200.000000
1447.315796 6123.000000
1448.939819 6568.000000
1450.562866 6048.000000
1452.184937 6003.000000
1453.805908 7421.000000
1455.425903 6318.000000
1457.045166 6884.000000
1458.663086 5668.000000
1460.280396 5589.500000
1461.896729 5511.000000
1463.511841 7261.000000
1465.126099 6348.000000
1466.739502 5224.000000
1468.351807 5633.000000
1469.963257 6351.000000
1471.573853 6379.000000
1473.183228 5973.000000
1474.791626 5933.000000
1476.399170 6227.000000
1478.005737 6682.000000
1479.611572 5299.000000
1481.216187 6262.000000
1482.819946 5495.000000
1484.422485 6691.000000
1486.024414 5585.000000
1487.625122 5539.000000
1489.225098 5576.000000
1490.823975 6362.000000
1492.421997 6539.000000
1494.018921 6642.000000
1495.614990 6351.000000
1497.210083 5988.000000
1498.804199 5513.000000
1500.397583 6526.000000
1501.989868 5536.000000
1503.580933 6219.000000
1505.171509 6781.000000
1506.760742 6463.000000
1508.349365 6209.000000
1509.936890 6561.000000
1511.523315 6887.000000
1513.109009 6167.000000
1514.693604 6607.000000
1516.277344 6391.000000
1517.859985 6202.000000
1519.441895 6615.000000
1521.022705 6670.000000
1522.602783 6038.000000
1524.181641 6199.000000
1525.759644 6428.000000
1527.336914 6258.000000
1528.912964 5688.000000
1530.488281 5901.000000
1532.062500 6258.000000
1533.635986 5449.000000
1535.208252 5977.000000
1536.779785 6393.000000
1538.350342 6483.000000
1539.920044 6360.000000
1541.488525 5422.000000
1543.056274 6555.000000
1544.623169 5574.000000
1546.188843 6790.000000
1547.753784 5925.000000
1549.317627 5044.000000
1550.880859 7434.000000
1552.442749 6317.000000
1554.004028 5972.000000
1555.564209 5678.000000
1557.123657 5796.000000
1558.682007 5884.000000
1560.239624 6279.000000
1561.796143 7121.000000
1563.351440 5872.000000
1564.906128 6404.000000
1566.460083 5652.000000
1568.013062 6363.000000
1569.564697 5666.000000
1571.115601 5865.000000
1572.665771 6233.000000
1574.214966 6324.000000
1575.762817 5771.000000
1577.310181 5529.000000
1578.856567 5699.000000
1580.402100 5058.000000
1581.946655 6701.000000
1583.489990 6418.000000
1585.032715 6655.000000
1586.574585 6439.000000
1588.115356 6741.000000
1589.655151 5790.000000
1591.194214 6697.000000
1592.732178 5938.000000
1594.269653 6135.000000
1595.805786 5918.000000
1597.340820 6713.000000
1598.875366 6279.000000
1600.408936 6008.000000
1601.941650 6174.000000
1603.472778 6324.000000
1605.003662 6291.000000
1606.533691 5782.000000
1608.062500 6141.000000
1609.590210 6149.000000
1611.117310 6044.000000
1612.643677 5974.000000
1614.169067 6305.000000
1615.693604 5854.000000
1617.216797 5842.000000
1618.739258 5628.000000
1620.260986 6512.000000
1621.781860 6955.000000
1623.301270 15564.000000
1624.820190 6240.000000
1626.338379 6025.000000
1627.855713 5937.000000
1629.371948 6422.000000
1630.886841 7028.000000
1632.401245 6833.000000
1633.914917 5815.000000
1635.427490 6834.000000
1636.938843 5989.000000
1638.449829 6448.000000
1639.959717 6279.000000
1641.468750 6222.000000
1642.976440 5616.000000
1644.483765 6118.000000
1645.990234 7144.000000
1647.495728 6234.000000
1649.000366 6869.000000
1650.503540 6157.000000
1652.006104 6576.000000
1653.508301 6320.000000
1655.009155 6656.000000
1656.508911 7595.000000
1658.007813 6127.000000
1659.506348 6560.000000
1661.003662 6276.000000
1662.500244 5924.000000
1663.995239 6534.000000
1665.489990 6302.000000
1666.983887 5237.000000
1668.476807 5697.000000
1669.968384 20216.000000
1671.459473 6501.000000
1672.949951 6072.000000
1674.439331 5978.000000
1675.927246 7022.000000
1677.414917 6832.000000
1678.901611 6031.000000
1680.387451 5461.000000
1681.872437 6033.000000
1683.355957 6188.000000
1684.839233 6228.000000
1686.321655 5931.000000
1687.802979 6250.000000
1689.282837 6267.000000
1690.762451 5572.000000
1692.241333 6617.000000
1693.719238 5991.000000
1695.196167 6116.000000
1696.671875 5818.000000
1698.147217 6064.000000
1699.621338 6367.000000
1701.094849 5535.000000
1702.566895 5545.000000
1704.038696 6845.000000
1705.509521 6389.000000
1706.979492 7122.000000
1708.448120 5187.000000
1709.916260 5882.000000
1711.383667 6363.000000
1712.849976 5474.000000
1714.315674 5721.000000
1715.779663 6247.000000
1717.243530 6032.000000
1718.706543 7003.000000
1720.168579 6380.000000
1721.629395 6543.000000
1723.089600 5503.000000
1724.549072 6373.000000
1726.007690 6159.000000
1727.465332 6064.000000
1728.921631 6259.000000
1730.377686 6039.000000
1731.832764 6447.000000
1733.286865 6030.000000
1734.739746 6872.000000
1736.192383 5995.000000
1737.643921 6910.000000
1739.094727 5958.000000
1740.544556 6573.000000
1741.993042 5924.000000
1743.441162 7607.000000
1744.888428 6573.000000
1746.334961 6617.000000
1747.779907 6763.000000
1749.224609 6200.000000
1750.668457 5927.000000
1752.111450 5571.000000
1753.552979 6563.000000
1754.994263 6355.000000
1756.434692 19544.000000
1757.874146 6247.000000
1759.312622 5267.000000
1760.750122 6070.000000
1762.187134 7563.000000
1763.623169 5828.000000
1765.058350 7154.000000
1766.492065 6251.000000
1767.925659 6456.000000
1769.358276 6679.000000
1770.790039 5776.000000
1772.220947 5952.000000
1773.650635 6394.000000
1775.079590 6093.000000
1776.508057 6274.000000
1777.935547 6713.000000
1779.361694 6269.000000
1780.787598 5644.000000
1782.212402 6887.000000
1783.636597 5577.000000
1785.059326 6639.000000
1786.481567 6543.000000
1787.903076 6885.000000
1789.323853 5927.000000
1790.743652 6123.000000
1792.162109 6154.000000
1793.580078 6923.000000
1794.997437 5503.000000
1796.413940 6075.000000
1797.828979 6483.000000
1799.243652 5872.000000
1800.657715 6586.000000
1802.070557 5963.000000
1803.482788 7011.000000
1804.893677 7198.000000
1806.304077 7760.000000
1807.713745 6512.000000
1809.122437 5963.000000
1810.530029 5438.000000
1811.937134 6449.000000
1813.343384 6397.000000
1814.748657 6708.000000
1816.152832 5966.000000
1817.556641 5941.000000
1818.959473 6318.000000
1820.361450 6034.000000
1821.762817 5845.000000
1823.162720 6312.000000
1824.562012 6538.000000
1825.960815 6557.000000
1827.358765 7413.000000
1828.755371 5762.000000
1830.151367 6809.000000
1831.546631 5917.000000
1832.941284 8166.000000
1834.334961 6074.000000
1835.727295 6896.000000
1837.119141 6406.000000
1838.510376 5926.000000
1839.900635 7101.000000
1841.289673 6053.000000
1842.678345 6077.000000
1844.066040 5989.000000
1845.453003 5860.000000
1846.838623 6903.000000
1848.223999 5831.000000
1849.608521 6399.000000
1850.992310 6322.000000
1852.375000 6425.000000
1853.756470 5378.000000
1855.137451 6495.000000
1856.517944 6319.000000
1857.897461 5749.000000
1859.275513 5942.000000
1860.653442 6341.000000
1862.030396 7871.000000
1863.406616 6131.000000
1864.781982 6071.000000
1866.155884 5673.000000
1867.529663 5734.000000
1868.902588 6206.000000
1870.274414 5922.000000
1871.645264 6955.000000
1873.015747 5427.000000
1874.385132 6064.000000
1875.754028 6121.000000
1877.121338 7181.000000
1878.488525 6118.000000
1879.854736 5934.000000
1881.220215 6749.000000
1882.584961 7562.000000
1883.948120 6826.000000
1885.311157 6880.000000
1886.673340 6372.000000
1888.034668 6531.000000
1889.394653 5620.000000
1890.754272 5776.000000
1892.113281 6113.000000
1893.471313 6637.000000
1894.828491 7322.000000
1896.184448 5917.000000
1897.540161 7641.000000
1898.894897 5870.000000
1900.248779 5543.000000
1901.601563 5916.000000
1902.953857 5875.000000
1904.305420 5974.000000
1905.656128 6896.000000
1907.005615 6579.000000
1908.354614 6705.000000
1909.702759 5846.000000
1911.050293 6129.000000
1912.397095 6344.000000
1913.742310 6851.000000
1915.087280 5995.000000
1916.431519 5441.000000
1917.774902 6506.000000
1919.116943 6016.000000
1920.458740 6738.000000
1921.799683 6994.000000
1923.139893 6163.000000
1924.479126 6285.000000
1925.817383 6364.000000
1927.155029 6477.000000
1928.491943 7036.000000
1929.828003 6766.000000
1931.162842 5631.000000
1932.497314 6701.000000
1933.831055 7294.000000
1935.163940 6248.000000
1936.495361 5785.000000
1937.826904 6363.000000
1939.157104 6667.000000
1940.486816 5837.000000
1941.815674 6089.000000
1943.143311 5810.000000
1944.470459 5015.000000
1945.796875 5818.000000
1947.122559 6518.000000
1948.446899 5767.000000
1949.770996 6648.000000
1951.094238 6327.000000
1952.416748 6460.000000
1953.738159 5817.000000
1955.058594 7486.000000
1956.378418 6032.000000
1957.697876 5527.000000
1959.016357 6861.000000
1960.333496 5954.000000
1961.650269 5812.000000
1962.966309 6632.000000
1964.281616 6574.000000
1965.595459 6282.000000
1966.909058 5697.000000
1968.221924 6265.000000
1969.533936 6048.000000
1970.845337 5989.000000
1972.155396 6333.000000
1973.464966 5826.000000
1974.773804 6195.000000
1976.082031 6600.000000
1977.388916 6094.000000
1978.695190 7218.000000
1980.001099 5573.000000
1981.305786 6374.000000
1982.609985 5889.000000
1983.912964 5721.000000
1985.215576 7609.000000
1986.517212 6143.000000
1987.818237 6820.000000
1989.117676 6050.000000
1990.417236 6715.000000
1991.715698 5318.000000
1993.013672 6135.000000
1994.310059 6100.000000
1995.606445 5817.000000
1996.901855 5594.000000
1998.196533 6469.000000
1999.490356 5763.000000
2000.782959 6572.000000
2002.075073 5866.000000
2003.366699 7161.000000
2004.657593 6414.000000
2005.946899 6355.000000
2007.235962 6757.000000
2008.524292 5973.000000
2009.811890 6078.000000
2011.098633 6824.000000
2012.384277 5671.000000
2013.669556 6387.000000
2014.953857 6018.000000
2016.237549 5553.000000
2017.519897 6065.000000
2018.801880 6446.000000
2020.083374 6802.000000
2021.363892 5932.000000
2022.643677 6126.000000
2023.922363 6831.000000
2025.200317 5824.000000
2026.477783 5937.000000
2027.754639 6329.000000
2029.029785 5689.000000
2030.305054 6651.000000
2031.579346 6061.000000
2032.852661 6018.000000
2034.125122 5938.000000
2035.397217 6187.000000
2036.668213 7019.000000
2037.938965 6570.000000
2039.208374 6041.000000
2040.476685 6717.000000
2041.744995 6587.000000
2043.012329 5922.000000
2044.278931 5989.000000
2045.544312 5603.000000
2046.809082 5639.000000
2048.073486 5491.000000
2049.336914 5853.000000
2050.599854 6410.000000
2051.860840 6126.000000
2053.122314 6142.000000
2054.382568 5851.000000
2055.642090 6578.000000
2056.900879 6301.000000
2058.158691 6917.000000
2059.416016 6212.000000
2060.672607 6075.000000
2061.927734 6497.000000
2063.182861 5682.000000
2064.437012 5582.000000
2065.690430 5692.000000
2066.943115 6882.000000
2068.194580 6254.000000
2069.445801 6417.000000
2070.696289 5648.000000
2071.946045 5444.000000
2073.194336 6509.000000
2074.442627 6489.000000
2075.689941 7478.000000
2076.936523 5613.000000
2078.182373 6021.000000
2079.427002 7074.000000
2080.671143 7663.000000
2081.914795 5512.000000
2083.157471 6023.000000
2084.398926 6978.000000
2085.640137 5976.000000
2086.880859 6306.000000
2088.120605 6756.000000
2089.359131 7102.000000
2090.597168 6177.000000
2091.834473 5840.000000
2093.071533 6644.000000
2094.307129 6064.000000
2095.541992 6197.000000
2096.776611 6083.000000
2098.010254 5609.000000
2099.242920 6084.000000
2100.474854 6933.000000
2101.706299 6378.000000
2102.936768 6831.000000
2104.166504 6023.000000
2105.395996 6044.000000
2106.623535 6002.000000
2107.851318 6021.000000
2109.078369 6414.000000
2110.304443 5483.000000
2111.529053 6425.000000
2112.753906 6973.000000
2113.977539 7071.000000
2115.200684 6236.000000
2116.422607 7474.000000
2117.644287 6038.000000
2118.864990 6835.000000
2120.084961 6067.000000
2121.304443 6128.000000
2122.522461 6584.000000
2123.740479 7060.000000
2124.957520 5727.000000
2126.174072 5730.000000
2127.388916 6556.000000
2128.604004 6393.000000
2129.818115 7001.000000
2131.031494 5730.000000
2132.244141 6148.000000
2133.455322 5805.000000
2134.666748 6582.000000
2135.876953 6711.000000
2137.086670 5944.000000
2138.294922 6196.000000
2139.503174 5682.000000
2140.710693 5884.000000
2141.916992 7454.000000
2143.122559 5900.000000
2144.327881 5740.000000
2145.532227 5537.000000
2146.735840 6357.000000
2147.938965 6197.000000
2149.140625 6457.000000
2150.342041 5329.000000
2151.542725 6334.000000
2152.742676 6106.000000
2153.941406 6014.000000
2155.139893 6986.000000
2156.337891 6191.000000
2157.534912 6061.000000
2158.731201 5184.000000
2159.926270 5305.000000
2161.121094 6192.000000
2162.315186 5547.000000
2163.508301 6127.000000
2164.700439 6953.000000
2165.892334 5911.000000
2167.083496 6288.000000
2168.273682 6314.000000
2169.463135 6506.000000
2170.652100 6811.000000
2171.840088 6039.000000
2173.027832 5777.000000
2174.214111 5948.000000
2175.399658 6617.000000
2176.584961 6027.000000
2177.769775 5898.000000
2178.953369 6335.000000
2180.136230 7497.000000
2181.318115 6339.000000
2182.499756 5926.000000
2183.680908 6564.000000
2184.860840 5746.000000
2186.039795 5554.000000
2187.218262 6410.000000
2188.396484 6917.000000
2189.573486 7184.000000
2190.749512 6729.000000
2191.925293 6153.000000
2193.100586 5644.000000
2194.274414 6727.000000
2195.447754 6193.000000
2196.620850 6179.000000
2197.792725 6582.000000
2198.964111 7080.000000
2200.135010 6323.000000
2201.304199 6878.000000
2202.473389 7574.000000
2203.642090 6256.000000
2204.809814 5948.000000
2205.976563 5638.000000
2207.142578 7113.000000
2208.308105 6692.000000
2209.473389 6048.000000
2210.637207 6733.000000
2211.800537 5453.000000
2212.962646 6195.000000
2214.125000 6236.000000
2215.286133 6676.000000
2216.446289 6686.000000
2217.605957 6326.000000
2218.765381 6571.000000
2219.923584 6356.000000
2221.080811 6328.000000
2222.237793 6736.000000
2223.394043 6640.000000
2224.549561 6754.000000
2225.704346 6308.000000
2226.858154 6401.000000
2228.010986 6049.000000
2229.164307 6916.000000
2230.315674 6240.000000
2231.466797 6212.000000
2232.617188 6527.000000
2233.767090 7723.000000
2234.916016 6341.000000
2236.064453 5137.000000
2237.211426 6760.000000
2238.358643 6994.000000
2239.504639 6095.000000
2240.650391 7302.000000
2241.794434 7398.000000
2242.938721 6732.000000
2244.082031 6201.000000
2245.224609 5951.000000
2246.366211 5765.000000
2247.507568 5841.000000
2248.647949 6372.000000
2249.787598 6450.000000
2250.926758 5782.000000
2252.064697 5879.000000
2253.202637 6211.000000
2254.339600 5297.000000
2255.475830 6341.000000
2256.611084 6153.000000
2257.745605 7374.000000
2258.879883 6426.000000
2260.013672 5434.000000
2261.145996 6186.000000
2262.277832 6878.000000
2263.409180 6280.000000
2264.539551 6536.000000
2265.669678 8113.000000
2266.798584 6733.000000
2267.927002 6120.000000
2269.054932 5560.000000
2270.181885 6160.000000
2271.308105 5999.000000
2272.433350 6762.000000
2273.558594 6516.000000
2274.683105 6441.000000
2275.806396 5960.000000
2276.928955 6371.000000
2278.051025 5972.000000
2279.172607 7377.000000
2280.293457 6423.000000
2281.413086 6424.000000
2282.532227 7135.000000
2283.651123 7725.000000
2284.769287 7262.000000
2285.886475 5906.000000
2287.002686 6512.000000
2288.118652 7119.000000
2289.233887 6907.000000
2290.348389 7449.000000
2291.461670 5868.000000
2292.574951 6300.000000
2293.687500 5987.000000
2294.799316 5370.000000
2295.910400 6763.000000
2297.020264 6420.000000
2298.129639 6229.000000
2299.238770 6711.000000
2300.346924 6305.000000
2301.454102 6866.000000
2302.561035 5829.000000
2303.667236 6258.000000
2304.772949 6590.000000
2305.877197 6682.000000
2306.981201 5448.000000
2308.084717 5726.000000
2309.187744 6621.000000
2310.289551 7512.000000
2311.390625 7272.000000
2312.491211 6596.000000
2313.591309 5505.000000
2314.690674 6383.000000
2315.788574 6560.000000
2316.886963 7029.000000
2317.983887 8241.000000
2319.080566 6915.000000
2320.176758 5810.000000
2321.271240 6957.000000
2322.365723 7506.000000
2323.459473 5818.000000
2324.552979 6054.000000
2325.644775 6484.000000
2326.736572 6994.000000
2327.827637 6104.000000
2328.917969 6285.000000
2330.007324 6960.000000
2331.096680 6089.000000
2332.184814 6336.000000
2333.272461 6813.000000
2334.359863 6494.000000
2335.445557 6609.000000
2336.531006 7807.000000
2337.616211 6329.000000
2338.700439 6774.000000
2339.783691 5852.000000
2340.866699 6415.000000
2341.948730 7118.000000
2343.030518 6007.000000
2344.111572 7493.000000
2345.191406 6644.000000
2346.270752 5715.000000
2347.349609 6736.000000
2348.427979 6610.000000
2349.504883 6310.000000
2350.581543 7013.000000
2351.657959 6091.000000
2352.733398 6469.000000
2353.807861 5924.000000
2354.882080 6380.000000
2355.955566 6807.000000
2357.028564 6243.000000
2358.100342 7018.000000
2359.171875 6280.000000
2360.242432 6789.000000
2361.312744 7535.000000
2362.382080 7574.000000
2363.450439 6861.000000
2364.518555 6773.000000
2365.585938 7119.000000
2366.652832 7210.000000
2367.718994 6085.000000
2368.783936 6954.000000
2369.848877 7030.000000
2370.913086 6339.000000
2371.976563 6909.000000
2373.038818 5818.000000
2374.101074 6308.000000
2375.162354 6296.000000
2376.223389 5939.000000
2377.283203 6282.000000
2378.342285 7980.000000
2379.401367 6453.000000
2380.459473 7605.000000
2381.516846 6887.000000
2382.573242 8057.000000
2383.629395 7933.000000
2384.685059 6250.000000
2385.739990 7054.000000
2386.793457 6775.000000
2387.847168 6562.000000
2388.899902 6343.000000
2389.952148 6757.000000
2391.003662 6136.000000
2392.054199 6603.000000
2393.104492 6576.000000
2394.153809 6278.000000
2395.203125 6170.000000
2396.250977 6881.000000
2397.298340 7030.000000
2398.345459 6340.000000
2399.391602 6736.000000
2400.437012 6161.000000
2401.481689 6723.000000
2402.526367 7692.000000
2403.569580 7516.000000
2404.612793 6612.000000
2405.654541 5770.000000
2406.696533 6722.000000
2407.737793 7092.000000
2408.778076 6128.000000
2409.817627 6432.000000
2410.856201 6273.000000
2411.895020 6121.000000
2412.932617 6476.000000
2413.969971 6916.000000
2415.006104 7345.000000
2416.041992 6214.000000
2417.077148 6283.000000
2418.111816 6649.000000
2419.145020 7173.000000
2420.178467 6510.000000
2421.210938 6676.000000
2422.243164 6831.000000
2423.273926 7151.000000
2424.304688 6391.000000
2425.334961 6904.000000
2426.364014 6881.000000
2427.393066 6711.000000
2428.420410 7339.000000
2429.448242 6662.000000
2430.474854 7348.000000
2431.501221 6954.000000
2432.526123 7759.000000
2433.551270 6635.000000
2434.575439 7125.000000
2435.599365 6704.000000
2436.622070 5849.000000
2437.644043 6359.000000
2438.665771 6703.000000
2439.686768 6722.000000
2440.707275 5973.000000
2441.726563 6546.000000
2442.745850 6550.000000
2443.764160 8375.000000
2444.782227 6252.000000
2445.798828 6515.000000
2446.815430 6556.000000
2447.831299 6020.000000
2448.847168 7015.000000
2449.861572 6836.000000
2450.875244 5583.000000
2451.888428 7265.000000
2452.901367 6032.000000
2453.913574 7259.000000
2454.924805 6620.000000
2455.935791 7751.000000
2456.946045 6378.000000
2457.955811 7668.000000
2458.964600 5935.000000
2459.972656 6020.000000
2460.980713 6279.000000
2461.987549 7365.000000
2462.994141 5400.000000
2463.999512 7423.000000
2465.004639 6920.000000
2466.009521 5838.000000
2467.013184 6482.000000
2468.016602 6373.000000
2469.019043 7642.000000
2470.021240 7341.000000
2471.022949 6881.000000
2472.023682 6605.000000
2473.023438 6922.000000
2474.023193 6801.000000
2475.021973 5698.000000
2476.020264 6598.000000
2477.017578 7023.000000
2478.014648 6173.000000
2479.011719 7014.000000
2480.007324 5852.000000
2481.002930 7129.000000
2481.996826 6719.000000
2482.990723 8055.000000
2483.984131 6929.000000
2484.977051 6756.000000
2485.968994 7519.000000
2486.960205 7199.000000
2487.951172 6815.000000
2488.941650 5847.000000
2489.931152 6556.000000
2490.919922 6526.000000
2491.908691 5714.000000
2492.896484 6870.000000
2493.883057 6627.000000
2494.869629 8140.000000
2495.855713 6760.000000
2496.841064 7057.000000
2497.825439 8245.000000
2498.809570 6094.000000
2499.793701 6848.000000
2500.776367 5752.000000
2501.758545 7034.000000
2502.740234 6906.000000
2503.721191 7221.000000
2504.701660 6565.000000
2505.681885 5776.000000
2506.660645 6281.000000
2507.639160 7613.000000
2508.617188 6750.000000
2509.594727 7138.000000
2510.571289 6113.000000
2511.547607 5942.000000
2512.523193 6414.000000
2513.498291 6241.000000
2514.472900 6521.000000
2515.446289 7555.000000
2516.419434 6796.000000
2517.392334 6952.000000
2518.364258 6139.000000
2519.335449 6727.000000
2520.306152 6935.000000
2521.276611 7817.000000
2522.246338 8117.000000
2523.215088 6094.000000
2524.183105 6118.000000
2525.151123 7698.000000
2526.118164 6291.000000
2527.084961 5515.000000
2528.050537 7304.000000
2529.016113 7001.000000
2529.980957 7812.000000
2530.945313 6366.000000
2531.908447 6407.000000
2532.871826 5865.000000
2533.834229 5963.000000
2534.796387 6725.000000
2535.757324 6384.000000
2536.717529 6122.000000
2537.677979 6111.000000
2538.637451 6774.000000
2539.596191 6802.000000
2540.553955 6708.000000
2541.511963 6209.000000
2542.469238 6818.000000
2543.425537 6100.000000
2544.381592 7093.000000
2545.336426 6268.000000
2546.291504 7742.000000
2547.245850 7012.000000
2548.199463 6357.000000
2549.152100 7247.000000
2550.104492 6700.000000
2551.056396 6953.000000
2552.007568 6400.000000
2552.958008 7662.000000
2553.907959 7142.000000
2554.857666 7341.000000
2555.806641 6626.000000
2556.755127 6284.000000
2557.702393 7149.000000
2558.649658 6264.000000
2559.596191 6567.000000
2560.542236 6748.000000
2561.487305 7420.000000
2562.432129 6694.000000
2563.376465 7209.000000
2564.320313 6927.000000
2565.263672 6652.000000
2566.205566 6596.000000
2567.147705 6592.000000
2568.089111 6170.000000
2569.029785 7119.000000
2569.969727 7265.000000
2570.909668 5713.000000
2571.848633 6213.000000
2572.787354 7473.000000
2573.725098 7194.000000
2574.662598 5479.000000
2575.599365 7010.000000
2576.535400 6819.000000
2577.470947 7550.000000
2578.405762 6320.000000
2579.340576 5958.000000
2580.274414 7049.000000
2581.207764 7126.000000
2582.140381 5817.000000
2583.072754 6905.000000
2584.004395 5493.000000
2584.935547 7046.000000
2585.866211 7068.000000
2586.795654 6855.000000
2587.725098 7246.000000
2588.654053 6467.000000
2589.582764 7472.000000
2590.509766 7401.000000
2591.437012 5918.000000
2592.363770 6832.000000
2593.289795 6283.000000
2594.215576 5604.000000
2595.140137 7658.000000
2596.064453 7713.000000
2596.988281 5421.000000
2597.911621 7402.000000
2598.833984 6292.000000
2599.756104 6889.000000
2600.677734 8335.000000
2601.598633 6435.000000
2602.518799 5776.000000
2603.438721 6337.000000
2604.358154 6406.000000
2605.277344 6530.000000
2606.195557 5835.000000
2607.112549 6052.000000
2608.029785 7283.000000
2608.946777 5872.000000
2609.862793 7576.000000
2610.777588 6650.000000
2611.692871 6652.000000
2612.607422 6539.000000
2613.520996 6596.000000
2614.434570 6153.000000
2615.346924 7664.000000
2616.259277 7072.000000
2617.170654 6786.000000
2618.081787 5713.000000
2618.992188 7250.000000
2619.902344 6680.000000
2620.811768 6188.000000
2621.720703 6633.000000
2622.628662 6278.000000
2623.536865 6900.000000
2624.444092 6613.000000
2625.350830 7009.000000
2626.256836 6202.000000
2627.162598 6624.000000
2628.067627 6604.000000
2628.972412 7910.000000
2629.876465 6455.000000
2630.779541 6436.000000
2631.682617 6445.000000
2632.584717 5664.000000
2633.486816 6797.000000
2634.388672 6910.000000
2635.288818 6752.000000
2636.189209 6450.000000
2637.088867 6464.000000
2637.988281 5991.000000
2638.886230 6893.000000
2639.784668 6845.000000
2640.682617 6413.000000
2641.579834 6124.000000
2642.475830 6206.000000
2643.371826 6790.000000
2644.267578 6074.000000
2645.162598 6431.000000
2646.057373 6661.000000
2646.950684 7280.000000
2647.843994 6329.000000
2648.737061 6764.000000
2649.629883 6455.000000
2650.520996 7426.000000
2651.412354 6397.000000
2652.303223 7623.000000
2653.193359 7241.000000
2654.083252 6631.000000
2654.971924 7248.000000
2655.860840 6663.000000
2656.749268 6610.000000
2657.636719 7311.000000
2658.523193 6486.000000
2659.410156 7085.000000
2660.296387 6911.000000
2661.182129 6844.000000
2662.066650 6543.000000
2662.951172 6421.000000
2663.835449 6163.000000
2664.718994 7098.000000
2665.602051 7900.000000
2666.484375 7358.000000
2667.366211 6222.000000
2668.247314 6654.000000
2669.128662 6089.000000
2670.008545 6624.000000
2670.888672 7365.000000
2671.768066 7221.000000
2672.647461 6249.000000
2673.526123 6151.000000
2674.403076 6489.000000
2675.280762 6835.000000
2676.157715 6399.000000
2677.033936 8070.000000
2677.909668 7179.000000
2678.784668 6322.000000
2679.659912 7750.000000
2680.534180 7018.000000
2681.407959 7308.000000
2682.281006 7002.000000
2683.153809 6225.000000
2684.026367 6060.000000
2684.898193 6980.000000
2685.769287 6505.000000
2686.640137 6905.000000
2687.510498 7127.000000
2688.380615 6708.000000
2689.249023 6344.000000
2690.118164 7418.000000
2690.986572 7130.000000
2691.854736 6683.000000
2692.722168 6908.000000
2693.588379 5872.000000
2694.455078 7185.000000
2695.320801 7412.000000
2696.186523 7158.000000
2697.050781 7937.000000
2697.915771 6620.000000
2698.779297 7239.000000
2699.643066 5841.000000
2700.505371 7437.000000
2701.368164 6826.000000
2702.229980 5940.000000
2703.091309 6902.000000
2703.952637 6687.000000
2704.812744 7414.000000
2705.672852 7345.000000
2706.532471 6568.000000
2707.391846 6804.000000
2708.249512 7179.000000
2709.107422 6880.000000
2709.965820 7339.000000
2710.822998 6756.000000
2711.679443 6013.000000
2712.535400 6878.000000
2713.391357 6072.000000
2714.246582 6938.000000
2715.101074 6161.000000
2715.955078 6718.000000
2716.809082 7365.000000
2717.662109 6224.000000
2718.515381 6592.000000
2719.366943 7754.000000
2720.218994 6804.000000
2721.070801 6354.000000
2721.921387 6468.000000
2722.771973 6757.000000
2723.622070 7141.000000
2724.471436 7053.000000
2725.320801 6985.000000
2726.168945 6756.000000
2727.016602 6555.000000
2727.864746 7014.000000
2728.711670 6835.000000
2729.559082 5447.000000
2730.405029 7505.000000
2731.250244 7011.000000
2732.095947 6428.000000
2732.940674 7103.000000
2733.785400 7318.000000
2734.628906 6855.000000
2735.472656 7786.000000
2736.315674 7136.000000
2737.158203 6106.000000
2737.999756 6260.000000
2738.841797 6763.000000
2739.682861 7609.000000
2740.523682 5837.000000
2741.364258 5940.000000
2742.203613 7808.000000
2743.042969 6854.000000
2743.882324 6966.000000
2744.720459 6826.000000
2745.558105 7864.000000
2746.395752 6332.000000
2747.232910 7073.000000
2748.069824 6196.000000
2748.906250 6021.000000
2749.741455 6673.000000
2750.576904 6368.000000
2751.411865 6327.000000
2752.246094 6305.000000
2753.080078 6895.000000
2753.913574 6867.000000
2754.747070 7996.000000
2755.579590 6743.000000
2756.411621 7294.000000
2757.243164 6775.000000
2758.074707 7098.000000
2758.905273 7217.000000
2759.736084 7219.000000
2760.565674 7320.000000
2761.395264 6711.000000
2762.224609 7312.000000
2763.053223 6855.000000
2763.881348 6782.000000
2764.708984 6897.000000
2765.536621 6682.000000
2766.363770 7953.000000
2767.190186 5782.000000
2768.016113 7488.000000
2768.841553 6866.000000
2769.666748 7888.000000
2770.491943 7122.000000
2771.315918 6797.000000
2772.139893 6536.000000
2772.963867 7708.000000
2773.786621 6605.000000
2774.609619 6724.000000
2775.431396 6899.000000
2776.253174 7041.000000
2777.074951 6525.000000
2777.895752 8059.000000
2778.715820 6580.000000
2779.536133 7035.000000
2780.355957 7311.000000
2781.175781 6447.000000
2781.993652 5943.000000
2782.812744 8052.000000
2783.630615 6475.000000
2784.448242 6774.000000
2785.265381 7186.000000
2786.082031 7290.000000
2786.898438 7232.000000
2787.714355 6251.000000
2788.530029 5909.000000
2789.344727 6393.000000
2790.159912 6948.000000
2790.974365 7204.000000
2791.788330 6571.000000
2792.602051 7447.000000
2793.414551 8727.000000
2794.227295 6953.000000
2795.039551 7472.000000
2795.851318 7175.000000
2796.662354 7367.000000
2797.474121 6574.000000
2798.284668 7207.000000
2799.095215 7056.000000
2799.904297 7422.000000
2800.714111 8167.000000
2801.523193 7848.000000
2802.332031 6642.000000
2803.140381 7188.000000
2803.947754 6224.000000
2804.755615 6475.000000
2805.562744 6933.000000
2806.369629 7025.000000
2807.175293 7160.000000
2807.981445 6693.000000
2808.786865 6459.000000
2809.592285 7346.000000
2810.396973 6282.000000
2811.200684 7724.000000
2812.004883 7554.000000
2812.808594 6298.000000
2813.612061 6100.000000
2814.414063 6628.000000
2815.216797 7377.000000
2816.018799 7852.000000
2816.820557 6168.000000
2817.621826 6508.000000
2818.422607 7312.000000
2819.222900 6523.000000
2820.023438 6725.000000
2820.822998 8060.000000
2821.622070 7172.000000
2822.421143 6520.000000
2823.219971 6883.000000
2824.018311 6383.000000
2824.815674 7092.000000
2825.613281 7461.000000
2826.410156 6729.000000
2827.207275 7399.000000
2828.003662 7939.000000
2828.799316 7069.000000
2829.594971 7378.000000
2830.390381 7538.000000
2831.185303 7522.000000
2831.979492 6675.000000
2832.773682 6835.000000
2833.567627 5721.000000
2834.361084 6896.000000
2835.153809 7197.000000
2835.946289 8146.000000
2836.738770 7739.000000
2837.531006 7746.000000
2838.322754 6505.000000
2839.113525 6815.000000
2839.904297 8888.000000
2840.695313 7442.000000
2841.485352 6220.000000
2842.274902 7759.000000
2843.064697 7106.000000
2843.853516 7324.000000
2844.642334 7864.000000
2845.431152 7776.000000
2846.218994 7526.000000
2847.006348 7248.000000
2847.793945 7536.000000
2848.581055 7372.000000
2849.367432 6681.000000
2850.153809 7453.000000
2850.939941 7257.000000
2851.725586 7533.000000
2852.510254 7173.000000
2853.295410 6935.000000
2854.080322 7466.000000
2854.864502 7131.000000
2855.648682 7010.000000
2856.431641 8386.000000
2857.214844 6846.000000
2857.997803 6828.000000
2858.780273 7778.000000
2859.562500 6273.000000
2860.344238 6721.000000
2861.125732 7601.000000
2861.907471 7501.000000
2862.688477 7628.000000
2863.468750 6582.000000
2864.248779 6742.000000
2865.028809 8199.000000
2865.808594 7487.000000
2866.587402 8065.000000
2867.366455 7696.000000
2868.145020 6752.000000
2868.923340 7019.000000
2869.701172 7266.000000
2870.478760 6950.000000
2871.256104 7505.000000
2872.033203 6952.000000
2872.809814 6418.000000
2873.585938 7448.000000
2874.362061 7180.000000
2875.137695 8331.000000
2875.913086 7261.000000
2876.687988 6685.000000
2877.462646 8124.000000
2878.237305 6700.000000
2879.011719 7975.000000
2879.785400 6914.000000
2880.558350 7330.000000
2881.332031 6745.000000
2882.104736 7673.000000
2882.877441 7983.000000
2883.649414 8240.000000
2884.421143 6269.000000
2885.193359 6859.000000
2885.964355 6962.000000
2886.734863 6106.000000
2887.505859 8356.000000
2888.276855 7398.000000
2889.047119 7983.000000
2889.816406 7621.000000
2890.585938 6980.000000
2891.355469 7232.000000
2892.124512 7360.000000
2892.893066 7943.000000
2893.661621 7695.000000
2894.429199 6992.000000
2895.197266 6653.000000
2895.964844 7485.000000
2896.732422 8419.000000
2897.498779 7326.000000
2898.266113 6517.000000
2899.032227 7278.000000
2899.798584 7027.000000
2900.563477 8323.000000
2901.328857 7004.000000
2902.094727 6467.000000
2902.859131 7836.000000
2903.623535 7734.000000
2904.388184 8467.000000
2905.151855 6637.000000
2905.916260 8555.000000
2906.679932 6688.000000
2907.442871 8472.000000
2908.205566 6567.000000
2908.968750 9218.000000
2909.731445 6967.000000
2910.492920 6896.000000
2911.254883 6896.000000
