scanname Analyse072
timestamp 2017-02-10 21:38:41
ccdbias 892.630371
ccdgain 3.473401
sigmaread 8.960639
laserwavenum -0.785925
wavenumcorrection -0.262961
scancount 1
totalexposurems 10000
singleexposurems 10000
measurementstate Unknown
scanmode Manual
snr 341.838745 10.062231 8.512362
replacelist 4
672 53967.000000 31311.000000
754 53962.000000 19104.000000
889 53971.000000 20581.000000
948 53978.000000 19397.000000
peaks 111
278.682159 0.727859 0.000000 1.465418 0.000188
285.338013 0.728087 0.000000 0.876240 0.000065
332.572113 0.750163 0.000000 0.809301 0.000140
349.734192 0.754694 0.000000 0.683740 0.000025
360.496490 0.755803 0.000000 0.310112 0.000017
386.045349 0.757844 0.000000 1.187646 0.000278
459.427307 0.774078 0.000000 0.320149 0.000045
487.595520 0.786367 0.000000 0.535895 0.000059
535.289917 0.790538 0.000000 0.549147 0.000137
559.892456 0.831588 0.000000 1.354609 0.000236
571.742126 0.839617 0.000000 0.707371 0.000166
583.044922 0.831910 0.000000 0.627533 0.000104
660.754883 0.865996 0.000000 0.965035 0.000144
673.547791 0.862078 0.000000 1.420253 0.000275
680.467102 0.863514 0.000000 0.306645 0.000041
715.982178 0.883461 0.000000 5.491082 0.001163
725.027954 0.865750 0.000000 1.288942 0.000055
742.023376 0.889054 0.000000 1.124458 0.000121
757.399658 0.915393 0.000000 5.981344 0.000690
779.430847 0.917614 0.000000 8.327565 0.001309
833.331726 0.918831 0.000000 0.346776 0.000156
843.305603 0.924183 0.000000 1.165229 0.000057
853.499573 0.949916 0.000000 1.215556 0.000305
869.304321 0.946207 0.000000 0.876356 0.000170
935.955383 1.020123 0.000000 0.751279 0.000415
954.528442 1.001611 0.000000 3.504897 0.001076
1013.878906 1.046530 0.000000 1.912064 0.000756
1020.154785 1.048658 0.000000 1.083109 0.000164
1027.266846 1.059911 0.000000 0.554760 0.000247
1044.443237 1.057307 0.000000 4.264222 0.001399
1104.861938 1.080145 0.000000 2.161455 0.000609
1117.638184 1.121364 0.000000 2.457315 0.000701
1134.720459 1.098239 0.000000 1.940576 0.000868
1150.416992 1.081290 0.000000 2.467930 0.001009
1175.015015 1.114388 0.000000 1.372488 0.000478
1187.894531 1.121156 0.000000 0.887199 0.000073
1211.047363 1.197069 0.000000 0.971709 0.000284
1222.890991 1.210645 0.000000 1.579353 0.000590
1232.362061 1.191707 0.000000 1.168666 0.000327
1260.232910 1.230812 0.000000 3.037896 0.001435
1282.456299 1.167841 0.000000 0.415052 0.000189
1314.141235 1.235919 0.000000 1.827954 0.000720
1332.121704 1.311414 0.000000 3.789065 0.001348
1348.109009 1.313797 0.000000 0.833819 0.000759
1389.971558 1.296628 0.000000 0.747676 0.000300
1415.781860 1.375049 0.000000 1.840524 0.000857
1429.527710 1.405590 0.000000 1.341804 0.000186
1434.234985 1.437088 0.000000 1.663803 0.000843
1447.487915 1.430629 0.000000 1.565248 0.000565
1460.229004 1.429265 0.000000 2.240967 0.001560
1490.157471 1.507834 0.000000 4.192919 0.002630
1518.689087 1.452740 0.000000 0.190329 0.000144
1533.245728 1.546881 0.000000 1.073846 0.001137
1548.097534 1.568699 0.000000 0.546873 0.000345
1558.473022 1.593869 0.000000 1.463435 0.000937
1578.418823 1.586396 0.000000 1.667444 0.001555
1598.924683 1.577272 0.000000 0.298127 0.000282
1617.449463 1.629578 0.000000 12.677083 0.008356
1635.684937 1.648726 0.000000 5.387104 0.001492
1655.398071 1.656971 0.000000 0.150855 0.000089
1671.692871 1.774529 0.000000 1.408490 0.001102
1686.254761 1.801802 0.000000 0.807924 0.000815
1699.465698 1.822151 0.000000 1.164732 0.001597
1710.937622 1.795524 0.000000 0.913934 0.000600
1752.103516 1.832782 0.000000 0.767716 0.000858
1762.848389 1.864246 0.000000 0.801463 0.000603
1779.141479 2.004215 0.000000 5.594999 0.005630
1796.525879 2.008326 0.000000 0.817332 0.000674
1811.052124 2.023708 0.000000 1.553770 0.001530
1856.844971 2.092317 0.000000 1.294259 0.002228
1873.468140 2.174238 0.000000 1.226435 0.000994
1890.548828 2.240569 0.000000 1.560021 0.002746
1902.394653 2.248557 0.000000 1.795298 0.002038
1913.265625 2.226764 0.000000 0.710680 0.000768
1943.821411 2.279537 0.000000 0.961577 0.000673
1979.440308 2.413109 0.000000 0.636737 0.000417
1989.278076 2.526547 0.000000 1.131742 0.002789
2014.696655 2.598937 0.000000 1.053003 0.001237
2025.283447 2.614091 0.000000 1.559941 0.002386
2047.142212 2.607302 0.000000 0.840975 0.002634
2065.137695 2.672590 0.000000 0.257486 0.001891
2095.497559 2.801069 0.000000 0.556563 0.001528
2101.550781 2.801727 0.000000 0.070975 0.000266
2109.553711 2.912778 0.000000 1.644295 0.004514
2132.446289 2.908659 0.000000 2.404243 0.005958
2143.885742 2.920148 0.000000 0.484958 0.001026
2161.489258 3.048620 0.000000 1.823989 0.005244
2175.987305 3.221381 0.000000 2.426933 0.004725
2185.564697 3.227046 0.000000 1.228055 0.004601
2193.986816 3.222138 0.000000 1.732603 0.003795
2253.621582 3.578132 0.000000 1.428400 0.005948
2270.711670 3.694349 0.000000 3.013843 0.007165
2286.858887 3.715638 0.000000 3.325461 0.011631
2294.188477 3.661504 0.000000 1.384544 0.004172
2307.139893 3.638139 0.000000 0.934208 0.003299
2325.908447 3.772960 0.000000 0.754869 0.005034
2340.288818 3.852614 0.000000 0.949207 0.005875
2356.469238 4.005830 0.000000 0.598734 0.001431
2373.782471 4.153713 0.000000 1.719708 0.006179
2389.004150 4.107641 0.000000 1.433985 0.003820
2404.982666 4.056056 0.000000 0.275375 0.000803
2449.568604 4.001570 0.000000 1.836943 0.003755
2465.032715 3.979990 0.000000 1.074589 0.003755
2475.123535 3.971728 0.000000 0.784659 0.004699
2490.329346 3.945515 0.000000 0.828880 0.003336
2506.254639 3.853349 0.000000 1.242250 0.009926
2524.686768 3.767047 0.000000 0.862336 0.003653
2535.291260 3.791119 0.000000 0.516679 0.004318
2546.362549 3.737649 0.000000 0.769341 0.001398
2559.410400 3.709713 0.000000 0.491408 0.003021
2593.563477 3.642589 0.000000 0.502602 0.001619
finalresult GLS_NoMatch 0
spectrum 2048
-96.815529 47733.000000
-94.188660 47733.000000
-91.563667 47901.000000
-88.940567 47528.000000
-86.319336 48051.000000
-83.700005 47645.000000
-81.082535 47883.000000
-78.466942 47513.000000
-75.853226 47713.000000
-73.241386 48106.000000
-70.631409 47841.000000
-68.023315 47994.000000
-65.417068 47943.000000
-62.812698 47918.000000
-60.210190 47845.000000
-57.609535 48278.000000
-55.010742 47695.000000
-52.413807 47082.000000
-49.818726 47401.000000
-47.225498 47366.000000
-44.634121 47631.000000
-42.044590 47171.000000
-39.456902 48004.000000
-36.871063 47943.000000
-34.287067 47456.000000
-31.704910 48198.000000
-29.124598 47614.000000
-26.546112 48175.000000
-23.969469 47830.000000
-21.394651 47705.000000
-18.821674 47460.000000
-16.250517 47451.000000
-13.681193 47158.000000
-11.113695 46147.000000
-8.548016 47629.000000
-5.984161 47453.000000
-3.422121 47871.000000
-0.861905 48172.000000
1.696503 47713.000000
4.253090 46954.000000
6.807872 47266.000000
9.360837 47918.000000
11.912002 47136.000000
14.461353 47389.000000
17.008909 47252.000000
19.554653 47877.000000
22.098604 48212.000000
24.640751 47256.000000
27.181101 47150.000000
29.719666 47044.000000
32.256435 47802.000000
34.791401 48160.000000
37.324589 46699.000000
39.855995 47648.000000
42.385609 46829.000000
44.913425 47413.000000
47.439484 46057.000000
49.963753 48245.000000
52.486252 47736.000000
55.006954 47182.000000
57.525902 47626.000000
60.043076 47509.000000
62.558472 47246.000000
65.072090 48237.000000
67.583954 48235.000000
70.094070 47456.000000
72.602394 47367.000000
75.108963 47965.000000
77.613785 47539.000000
80.116852 47505.000000
82.618141 47620.000000
85.117691 47817.000000
87.615486 47601.000000
90.111549 48174.000000
92.605835 46753.000000
95.098381 48187.000000
97.589211 47002.000000
100.078270 46722.000000
102.565582 47577.000000
105.051170 47727.000000
107.535019 47639.000000
110.017120 48148.000000
112.497498 47284.000000
114.976151 47721.000000
117.453079 47446.000000
119.928253 46686.000000
122.401718 47156.000000
124.873451 48040.000000
127.343475 47219.000000
129.811737 47615.000000
132.278336 47608.000000
134.743179 48248.000000
137.206329 47712.000000
139.667740 46643.000000
142.127457 47053.000000
144.585449 47576.000000
147.041748 47916.000000
149.496338 48084.000000
151.949203 47158.000000
154.400391 47579.000000
156.849884 47331.000000
159.297653 47828.000000
161.743713 47409.000000
164.188095 45208.000000
166.630798 47485.000000
169.071808 47234.000000
171.511108 47652.000000
173.948700 46651.000000
176.384659 47275.000000
178.818878 46910.000000
181.251419 46873.000000
183.682312 47279.000000
186.111481 47114.000000
188.539001 47186.000000
190.964844 47616.000000
193.389008 47282.000000
195.811508 46850.000000
198.232315 46600.000000
200.651459 47487.000000
203.068939 47891.000000
205.484726 46320.000000
207.898865 46837.000000
210.311371 47571.000000
212.722198 47866.000000
215.131348 47646.000000
217.538864 46572.000000
219.944672 47798.000000
222.348892 47367.000000
224.751404 47204.000000
227.152298 46947.000000
229.551544 47397.000000
231.949127 47048.000000
234.345047 46650.000000
236.739349 47468.000000
239.131989 48058.000000
241.523010 47049.000000
243.912369 47373.000000
246.300110 47524.000000
248.686203 46987.000000
251.070663 47773.000000
253.453476 45986.000000
255.834717 47281.000000
258.214264 47207.000000
260.592224 47433.000000
262.968506 46306.000000
265.343231 46283.000000
267.716309 46014.000000
270.087738 47757.000000
272.457520 47519.000000
274.825745 48040.000000
277.192322 47625.000000
279.557312 47189.000000
281.920685 47933.000000
284.282410 47663.000000
286.642548 46852.000000
289.001068 48034.000000
291.358002 47423.000000
293.713318 47578.000000
296.067047 47938.000000
298.419128 47849.000000
300.769653 47587.000000
303.118591 47547.000000
305.465881 47119.000000
307.811646 47516.000000
310.155731 47402.000000
312.498291 46561.000000
314.839233 46453.000000
317.178558 46765.000000
319.516327 46928.000000
321.852539 45831.000000
324.187103 47614.000000
326.520111 47370.000000
328.851563 47890.000000
331.181427 47309.000000
333.509705 47550.000000
335.836365 46695.000000
338.161530 47508.000000
340.485077 47751.000000
342.807068 47842.000000
345.127502 46380.000000
347.446320 46199.000000
349.763580 47939.000000
352.079315 48074.000000
354.393463 46957.000000
356.706024 47536.000000
359.017029 47415.000000
361.326508 46906.000000
363.634460 47533.000000
365.940796 48179.000000
368.245544 47516.000000
370.548828 47486.000000
372.850494 47664.000000
375.150665 47545.000000
377.449280 47618.000000
379.746338 47901.000000
382.041840 47867.000000
384.335815 48032.000000
386.628204 48695.000000
388.919098 48260.000000
391.208466 47662.000000
393.496246 47586.000000
395.782501 47432.000000
398.067261 46889.000000
400.350403 47848.000000
402.632111 47480.000000
404.912292 47728.000000
407.190887 46723.000000
409.467957 47522.000000
411.743500 47179.000000
414.017517 47529.000000
416.290100 47567.000000
418.561066 47757.000000
420.830536 47536.000000
423.098511 46782.000000
425.364929 46737.000000
427.629852 47622.000000
429.893311 47626.000000
432.155182 47352.000000
434.415588 47916.000000
436.674438 47287.000000
438.931824 47775.000000
441.187714 48236.000000
443.442108 48084.000000
445.694977 48409.000000
447.946289 47034.000000
450.196198 47846.000000
452.444519 47659.000000
454.691406 48239.000000
456.936829 47430.000000
459.180695 47451.000000
461.423065 47081.000000
463.663940 48211.000000
465.903412 47103.000000
468.141296 48476.000000
470.377747 48014.000000
472.612671 47830.000000
474.846130 46507.000000
477.078156 47214.000000
479.308655 48260.000000
481.537659 47392.000000
483.765198 47520.000000
485.991241 48030.000000
488.215851 47356.000000
490.438995 48076.000000
492.660675 47509.000000
494.880798 47229.000000
497.099518 48328.000000
499.316742 47709.000000
501.532593 48384.000000
503.746826 47770.000000
505.959747 47453.000000
508.171082 47463.000000
510.380981 47019.000000
512.589417 47393.000000
514.796509 47340.000000
517.002014 47534.000000
519.206116 47310.000000
521.408691 47675.000000
523.609863 47434.000000
525.809692 47212.000000
528.007996 47019.000000
530.204773 48523.000000
532.400208 48034.000000
534.594116 48319.000000
536.786682 46417.000000
538.977722 47158.000000
541.167358 47913.000000
543.355591 47015.000000
545.542297 46722.000000
547.727539 47066.000000
549.911499 47628.000000
552.093872 47506.000000
554.274902 47725.000000
556.454407 47892.000000
558.632629 48008.000000
560.809326 47948.000000
562.984619 47513.000000
565.158508 47431.000000
567.330933 48049.000000
569.501953 47897.000000
571.671509 47637.000000
573.839783 48683.000000
576.006531 47446.000000
578.171814 47597.000000
580.335693 47763.000000
582.498291 48189.000000
584.659363 47894.000000
586.819031 48273.000000
588.977356 48090.000000
591.134155 47767.000000
593.289612 47361.000000
595.443665 48127.000000
597.596375 47842.000000
599.747559 46631.000000
601.897400 47127.000000
604.045898 47218.000000
606.192810 47851.000000
608.338501 47452.000000
610.482788 47486.000000
612.625610 46875.000000
614.766968 47752.000000
616.907104 47509.000000
619.045715 46284.000000
621.183044 48195.000000
623.318909 47294.000000
625.453369 47025.000000
627.586365 46750.000000
629.718201 47268.000000
631.848572 47358.000000
633.977539 47211.000000
636.105042 47471.000000
638.231262 47616.000000
640.355957 46616.000000
642.479431 47561.000000
644.601563 47149.000000
646.722229 46991.000000
648.841553 47404.000000
650.959473 48297.000000
653.076050 48214.000000
655.191223 47493.000000
657.305054 47455.000000
659.417419 48095.000000
661.528564 47787.000000
663.638306 48523.000000
665.746582 47974.000000
667.853699 47561.000000
669.959351 47094.000000
672.063538 48030.000000
674.166504 48198.000000
676.268066 46908.000000
678.368286 48517.000000
680.467102 47136.000000
682.564575 47644.000000
684.660767 46873.000000
686.755493 47721.000000
688.848999 46887.000000
690.941162 47327.000000
693.031799 45943.000000
695.121216 47206.000000
697.209351 47426.000000
699.296021 47902.000000
701.381470 47250.000000
703.465393 48735.000000
705.548096 47980.000000
707.629517 47989.000000
709.709473 46348.000000
711.788208 47735.000000
713.865479 48330.000000
715.941467 47303.000000
718.016174 47843.000000
720.089600 46943.000000
722.161499 47645.000000
724.232239 46567.000000
726.301636 48105.000000
728.369629 47447.000000
730.436279 47570.000000
732.501709 46927.000000
734.565796 48179.000000
736.628540 47735.000000
738.689941 47398.000000
740.750061 47312.000000
742.808777 47818.000000
744.866272 47265.000000
746.922485 47390.000000
748.977295 47208.000000
751.030823 47525.000000
753.082947 46452.000000
755.133850 48073.000000
757.183533 47269.000000
759.231750 47587.000000
761.278748 47761.000000
763.324463 46864.000000
765.368774 48565.000000
767.411804 48186.000000
769.453613 38933.000000
771.494080 46970.000000
773.533142 47579.000000
775.571045 47842.000000
777.607605 47979.000000
779.642944 48502.000000
781.676941 48152.000000
783.709534 46990.000000
785.740967 48483.000000
787.770996 42347.000000
789.799744 47848.000000
791.827332 47639.000000
793.853577 47583.000000
795.878418 48135.000000
797.902161 48369.000000
799.924500 47473.000000
801.945618 48078.000000
803.965393 47207.000000
805.983887 49042.000000
808.001160 47259.000000
810.017029 47122.000000
812.031738 48197.000000
814.045105 47493.000000
816.057251 47773.000000
818.068176 47843.000000
820.077759 47388.000000
822.086121 48631.000000
824.093079 48190.000000
826.098816 47910.000000
828.103333 48250.000000
830.106567 48296.000000
832.108521 47502.000000
834.109192 47884.000000
836.108643 47959.000000
838.106750 47593.000000
840.103760 47028.000000
842.099365 47704.000000
844.093811 47912.000000
846.086914 47697.000000
848.078796 47093.000000
850.069336 48307.000000
852.058594 47151.000000
854.046814 48012.000000
856.033630 48171.000000
858.019226 47510.000000
860.003540 46642.000000
861.986755 47638.000000
863.968567 47529.000000
865.949158 48135.000000
867.928467 46209.000000
869.906616 46841.000000
871.883423 47752.000000
873.858948 48081.000000
875.833435 47823.000000
877.806458 48002.000000
879.778442 48569.000000
881.749084 47513.000000
883.718567 47782.000000
885.686707 48366.000000
887.653687 48744.000000
889.619324 47834.000000
891.583801 48126.000000
893.547058 47888.000000
895.509094 47535.000000
897.469849 48147.000000
899.429382 47545.000000
901.387634 47216.000000
903.344788 47565.000000
905.300781 47898.000000
907.255371 46982.000000
909.208740 47415.000000
911.160950 47496.000000
913.111938 47537.000000
915.061646 46808.000000
917.010193 47657.000000
918.957520 47838.000000
920.903564 47896.000000
922.848328 47906.000000
924.792053 47531.000000
926.734619 47998.000000
928.675903 48405.000000
930.615845 47460.000000
932.554688 48192.000000
934.492249 48387.000000
936.428589 47976.000000
938.363770 48034.000000
940.297668 47825.000000
942.230469 48008.000000
944.162048 47113.000000
946.092468 48684.000000
948.021667 47473.000000
949.949524 46837.000000
951.876343 47359.000000
953.801880 47979.000000
955.726135 48521.000000
957.649292 47950.000000
959.571289 47219.000000
961.492004 46682.000000
963.411560 47446.000000
965.329956 48614.000000
967.247314 47532.000000
969.163208 47522.000000
971.078003 47904.000000
972.991577 48019.000000
974.903992 47504.000000
976.815186 47531.000000
978.725220 48449.000000
980.633972 47764.000000
982.541687 47794.000000
984.448181 47559.000000
986.353455 48266.000000
988.257629 47181.000000
990.160583 47687.000000
992.062317 47131.000000
993.962891 47607.000000
995.862305 47360.000000
997.760498 48642.000000
999.657532 47346.000000
1001.553345 47445.000000
1003.447998 46187.000000
1005.341553 48336.000000
1007.233826 46840.000000
1009.125183 47811.000000
1011.015198 48562.000000
1012.903992 47250.000000
1014.791626 47619.000000
1016.678101 47044.000000
1018.563416 47162.000000
1020.447571 47988.000000
1022.330505 48008.000000
1024.212402 47689.000000
1026.093018 48753.000000
1027.972534 48052.000000
1029.851074 47841.000000
1031.728271 48528.000000
1033.604126 47738.000000
1035.479004 47974.000000
1037.352905 47357.000000
1039.225342 46885.000000
1041.096802 47187.000000
1042.966919 48451.000000
1044.836060 48463.000000
1046.703979 48155.000000
1048.570801 46822.000000
1050.436523 47214.000000
1052.301025 47487.000000
1054.164429 47486.000000
1056.026489 47479.000000
1057.887573 48079.000000
1059.747559 47428.000000
1061.606201 47282.000000
1063.463745 48139.000000
1065.320190 47146.000000
1067.175537 48014.000000
1069.029663 48147.000000
1070.882935 47735.000000
1072.734741 47509.000000
1074.585571 47751.000000
1076.435181 47828.000000
1078.283569 48139.000000
1080.131104 45913.000000
1081.977295 48334.000000
1083.822266 47726.000000
1085.666382 48520.000000
1087.509155 48405.000000
1089.350708 47465.000000
1091.191528 48531.000000
1093.030762 48192.000000
1094.869263 47883.000000
1096.706421 47983.000000
1098.542358 47125.000000
1100.377319 47263.000000
1102.211060 48580.000000
1104.043823 48278.000000
1105.875244 47755.000000
1107.705811 46742.000000
1109.535034 47485.000000
1111.363281 47569.000000
1113.190308 46868.000000
1115.016357 48638.000000
1116.841187 47588.000000
1118.664917 46825.000000
1120.487427 47865.000000
1122.308838 47948.000000
1124.129395 48012.000000
1125.948486 47300.000000
1127.766724 46862.000000
1129.583618 47078.000000
1131.399658 47280.000000
1133.214478 47503.000000
1135.028198 48421.000000
1136.840820 48111.000000
1138.652222 48221.000000
1140.462646 47848.000000
1142.271973 47254.000000
1144.079956 47018.000000
1145.887207 48061.000000
1147.692993 48038.000000
1149.497925 48552.000000
1151.301758 48532.000000
1153.104370 47896.000000
1154.906128 47775.000000
1156.706421 47895.000000
1158.505737 47828.000000
1160.304077 48101.000000
1162.101074 48537.000000
1163.897339 48137.000000
1165.692261 47850.000000
1167.486084 47645.000000
1169.279053 46179.000000
1171.070679 48206.000000
1172.861328 47435.000000
1174.651001 47915.000000
1176.439209 48082.000000
1178.226563 46634.000000
1180.012817 47128.000000
1181.797974 48231.000000
1183.582031 48069.000000
1185.364990 46292.000000
1187.146973 48123.000000
1188.927734 48109.000000
1190.707520 47593.000000
1192.486206 47067.000000
1194.263916 47263.000000
1196.040405 46863.000000
1197.815796 47311.000000
1199.590088 47438.000000
1201.363281 47326.000000
1203.135620 47499.000000
1204.906616 47269.000000
1206.676758 48253.000000
1208.445679 47832.000000
1210.213501 47637.000000
1211.980469 48214.000000
1213.746094 47989.000000
1215.510742 46997.000000
1217.274292 47435.000000
1219.036743 47918.000000
1220.798340 47225.000000
1222.558716 48075.000000
1224.317993 47850.000000
1226.076416 47938.000000
1227.833618 46860.000000
1229.589722 47578.000000
1231.344727 48425.000000
1233.098877 47987.000000
1234.851685 48145.000000
1236.603516 47924.000000
1238.354492 48008.000000
1240.104126 49030.000000
1241.852905 46969.000000
1243.600342 47450.000000
1245.347046 47364.000000
1247.092529 47472.000000
1248.837158 47557.000000
1250.580444 47151.000000
1252.322754 47240.000000
1254.063965 48564.000000
1255.804321 48951.000000
1257.543579 48153.000000
1259.281616 47337.000000
1261.018799 46856.000000
1262.754761 47875.000000
1264.489746 47550.000000
1266.223755 46647.000000
1267.956787 48003.000000
1269.688599 47828.000000
1271.419434 47545.000000
1273.149048 47111.000000
1274.877808 48011.000000
1276.605469 48286.000000
1278.332031 48400.000000
1280.057739 48481.000000
1281.782104 47418.000000
1283.505615 48798.000000
1285.228149 46972.000000
1286.949707 47400.000000
1288.670044 47734.000000
1290.389404 47288.000000
1292.107666 46699.000000
1293.824951 47561.000000
1295.541260 48196.000000
1297.256348 47531.000000
1298.970459 47812.000000
1300.683594 48175.000000
1302.395874 47514.000000
1304.106934 45636.000000
1305.817017 48698.000000
1307.526001 47652.000000
1309.233765 47325.000000
1310.940918 46907.000000
1312.646606 48172.000000
1314.351563 47084.000000
1316.055542 47736.000000
1317.758301 47963.000000
1319.460083 47418.000000
1321.161011 47860.000000
1322.860596 44132.000000
1324.559326 46243.000000
1326.257324 48354.000000
1327.953979 47504.000000
1329.649536 46792.000000
1331.344238 47156.000000
1333.037720 48168.000000
1334.730347 48533.000000
1336.422119 46485.000000
1338.112549 47700.000000
1339.802246 47384.000000
1341.490845 47831.000000
1343.178345 46361.000000
1344.864868 48326.000000
1346.550293 47217.000000
1348.234741 48061.000000
1349.918335 46762.000000
1351.600708 47562.000000
1353.282104 48048.000000
1354.962646 47382.000000
1356.641968 47242.000000
1358.320679 48088.000000
1359.998047 47337.000000
1361.674316 48232.000000
1363.349609 48420.000000
1365.024170 47427.000000
1366.697510 47512.000000
1368.369873 47218.000000
1370.041260 48801.000000
1371.711670 47212.000000
1373.380981 47738.000000
1375.049316 48341.000000
1376.716797 48013.000000
1378.383179 47559.000000
1380.048584 47859.000000
1381.713013 48099.000000
1383.376221 48062.000000
1385.038818 48262.000000
1386.700073 47575.000000
1388.360474 47457.000000
1390.019775 47547.000000
1391.678101 47481.000000
1393.335693 47141.000000
1394.992065 47505.000000
1396.647583 46927.000000
1398.301880 47649.000000
1399.955322 48095.000000
1401.607666 47850.000000
1403.259277 47483.000000
1404.909668 46767.000000
1406.558960 47765.000000
1408.207520 46441.000000
1409.854980 46057.000000
1411.501465 47794.000000
1413.147095 47729.000000
1414.791748 48011.000000
1416.435181 46989.000000
1418.077759 46850.000000
1419.719238 47068.000000
1421.359863 47478.000000
1422.999512 47483.000000
1424.638062 47946.000000
1426.275757 47396.000000
1427.912354 47672.000000
1429.547974 47981.000000
1431.182861 47591.000000
1432.816650 48161.000000
1434.449341 47776.000000
1436.081055 48340.000000
1437.711914 47714.000000
1439.341675 47925.000000
1440.970337 46025.000000
1442.598389 47932.000000
1444.225342 47728.000000
1445.851074 47740.000000
1447.476196 47857.000000
1449.100220 47455.000000
1450.723267 47983.000000
1452.345337 47941.000000
1453.966309 46632.000000
1455.586304 47698.000000
1457.205566 47094.000000
1458.823486 48290.000000
1460.440796 48371.000000
1462.057129 48452.000000
1463.672241 46725.000000
1465.286499 47716.000000
1466.899902 48768.000000
1468.512207 48341.000000
1470.123657 47801.000000
1471.734253 47577.000000
1473.343628 48000.000000
1474.952026 48025.000000
1476.559570 47823.000000
1478.166138 47210.000000
1479.771973 48714.000000
1481.376587 47684.000000
1482.980347 48458.000000
1484.582886 47202.000000
1486.184814 48372.000000
1487.785522 48431.000000
1489.385498 48329.000000
1490.984375 47771.000000
1492.582397 47464.000000
1494.179321 47311.000000
1495.775391 47607.000000
1497.370483 48010.000000
1498.964600 48417.000000
1500.557983 47371.000000
1502.150269 48442.000000
1503.741333 47822.000000
1505.331909 47195.000000
1506.921143 47518.000000
1508.509766 47809.000000
1510.097290 47420.000000
1511.683716 47151.000000
1513.269409 47761.000000
1514.854004 47283.000000
1516.437744 47754.000000
1518.020386 47767.000000
1519.602295 47399.000000
1521.183105 47334.000000
1522.763184 47905.000000
1524.342041 47521.000000
1525.920044 47574.000000
1527.497314 47674.000000
1529.073364 48284.000000
1530.648682 48121.000000
1532.222900 47866.000000
1533.796387 48503.000000
1535.368652 48100.000000
1536.940186 47636.000000
1538.510742 47514.000000
1540.080444 47633.000000
1541.648926 48550.000000
1543.216675 47404.000000
1544.783569 48420.000000
1546.349243 47196.000000
1547.914185 48051.000000
1549.478027 48908.000000
1551.041260 46503.000000
1552.603149 47688.000000
1554.164429 48067.000000
1555.724609 48275.000000
1557.284058 48225.000000
1558.842407 47954.000000
1560.400024 47745.000000
1561.956543 46946.000000
1563.511841 48109.000000
1565.066528 47627.000000
1566.620483 48320.000000
1568.173462 47669.000000
1569.725098 48272.000000
1571.276001 48078.000000
1572.826172 47802.000000
1574.375366 47564.000000
1575.923218 48166.000000
1577.470581 48468.000000
1579.016968 48241.000000
1580.562500 48876.000000
1582.107056 47404.000000
1583.650391 47583.000000
1585.193115 47328.000000
1586.734985 47565.000000
1588.275757 47271.000000
1589.815552 48105.000000
1591.354614 47287.000000
1592.892578 48024.000000
1594.430054 47898.000000
1595.966187 48046.000000
1597.501221 47286.000000
1599.035767 47695.000000
1600.569336 47980.000000
1602.102051 47957.000000
1603.633179 47692.000000
1605.164063 47692.000000
1606.694092 48246.000000
1608.222900 47876.000000
1609.750610 47810.000000
1611.277710 47956.000000
1612.804077 48156.000000
1614.329468 47720.000000
1615.854004 48172.000000
1617.377197 48139.000000
1618.899658 48276.000000
1620.421387 47380.000000
1621.942261 46988.000000
1623.461670 38380.000000
1624.980591 47801.000000
1626.498779 47907.000000
1628.016113 48007.000000
1629.532349 47536.000000
1631.047241 46959.000000
1632.561646 47201.000000
1634.075317 48210.000000
1635.587891 47123.000000
1637.099243 48016.000000
1638.610229 47570.000000
1640.120117 47666.000000
1641.629150 47788.000000
1643.136841 48322.000000
1644.644165 47788.000000
1646.150635 46816.000000
1647.656128 47704.000000
1649.160767 47060.000000
1650.663940 47784.000000
1652.166504 47392.000000
1653.668701 47600.000000
1655.169556 47289.000000
1656.669312 46344.000000
1658.168213 48012.000000
1659.666748 47477.000000
1661.164063 47736.000000
1662.660645 48075.000000
1664.155640 47536.000000
1665.650391 47675.000000
1667.144287 48777.000000
1668.637207 48277.000000
1670.128784 47891.000000
1671.619873 47505.000000
1673.110352 47850.000000
1674.599731 47982.000000
1676.087646 46995.000000
1677.575317 47128.000000
1679.062012 47994.000000
1680.547852 48605.000000
1682.032837 47960.000000
1683.516357 47778.000000
1684.999634 47749.000000
1686.482056 48172.000000
1687.963379 47786.000000
1689.443237 47711.000000
1690.922852 48432.000000
1692.401733 47369.000000
1693.879639 47997.000000
1695.356567 47852.000000
1696.832275 48238.000000
1698.307617 47969.000000
1699.781738 47701.000000
1701.255249 48482.000000
1702.727295 48440.000000
1704.199097 47092.000000
1705.669922 47631.000000
1707.139893 46974.000000
1708.608521 48829.000000
1710.076660 48133.000000
1711.544067 47664.000000
1713.010376 48502.000000
1714.476074 48217.000000
1715.940063 47774.000000
1717.403931 48031.000000
1718.866943 47035.000000
1720.328979 47604.000000
1721.789795 47402.000000
1723.250000 48577.000000
1724.709473 48274.000000
1726.168091 47901.000000
1727.625732 47977.000000
1729.082031 47773.000000
1730.538086 47874.000000
1731.993164 47463.000000
1733.447266 47945.000000
1734.900146 47069.000000
1736.352783 47986.000000
1737.804321 47227.000000
1739.255127 47987.000000
1740.704956 47434.000000
1742.153442 48106.000000
1743.601563 46591.000000
1745.048828 47491.000000
1746.495361 47277.000000
1747.940308 47319.000000
1749.385010 47813.000000
1750.828857 48146.000000
1752.271851 48525.000000
1753.713379 47482.000000
1755.154663 47663.000000
1756.595093 47661.500000
1758.034546 47660.000000
1759.473022 48634.000000
1760.910522 47913.000000
1762.347534 46449.000000
1763.783569 48167.000000
1765.218750 46836.000000
1766.652466 47769.000000
1768.086060 47550.000000
1769.518677 47357.000000
1770.950439 48266.000000
1772.381348 48212.000000
1773.811035 47658.000000
1775.239990 47887.000000
1776.668457 47774.000000
1778.095947 47324.000000
1779.522095 47780.000000
1780.947998 48403.000000
1782.372803 47159.000000
1783.796997 48419.000000
1785.219727 47396.000000
1786.641968 47427.000000
1788.063477 47058.000000
1789.484253 48190.000000
1790.904053 47838.000000
1792.322510 47815.000000
1793.740479 47158.000000
1795.157837 48504.000000
1796.574341 47836.000000
1797.989380 47421.000000
1799.404053 48165.000000
1800.818115 47364.000000
1802.230957 48060.000000
1803.643188 47141.000000
1805.054077 46863.000000
1806.464478 46242.000000
1807.874146 47567.000000
1809.282837 48057.000000
1810.690430 48599.000000
1812.097534 47571.000000
1813.503784 47715.000000
1814.909058 47339.000000
1816.313232 48034.000000
1817.717041 48014.000000
1819.119873 47834.000000
1820.521851 47974.000000
1821.923218 48147.000000
1823.323120 47644.000000
1824.722412 47432.000000
1826.121216 47463.000000
1827.519165 46509.000000
1828.915771 48230.000000
1830.311768 47225.000000
1831.707031 48091.000000
1833.101685 45879.000000
1834.495361 48034.000000
1835.887695 47181.000000
1837.279541 47559.000000
1838.670776 48181.000000
1840.061035 46918.000000
1841.450073 47991.000000
1842.838745 48018.000000
1844.226440 48091.000000
1845.613403 48174.000000
1846.999023 47149.000000
1848.384399 48110.000000
1849.768921 47607.000000
1851.152710 47645.000000
1852.535400 47680.000000
1853.916870 48619.000000
1855.297852 47435.000000
1856.678345 47739.000000
1858.057861 48297.000000
1859.435913 48021.000000
1860.813843 47794.000000
1862.190796 46146.000000
1863.567017 47867.000000
1864.942383 47909.000000
1866.316284 48383.000000
1867.690063 48296.000000
1869.062988 47781.000000
1870.434814 48094.000000
1871.805664 47107.000000
1873.176147 48630.000000
1874.545532 48060.000000
1875.914429 47974.000000
1877.281738 46800.000000
1878.648926 47955.000000
1880.015137 47988.000000
1881.380615 47095.000000
1882.745361 46467.000000
1884.108521 47195.000000
1885.471558 47094.000000
1886.833740 47679.000000
1888.195068 47562.000000
1889.555054 48349.000000
1890.914673 48230.000000
1892.273682 47813.000000
1893.631714 47382.000000
1894.988892 46768.000000
1896.344849 48093.000000
1897.700562 46339.000000
1899.055298 48125.000000
1900.409180 48512.000000
1901.761963 48147.000000
1903.114258 48138.000000
1904.465820 48030.000000
1905.816528 47162.000000
1907.166016 47448.000000
1908.515015 47298.000000
1909.863159 48272.000000
1911.210693 47956.000000
1912.557495 47683.000000
1913.902710 47224.000000
1915.247681 47957.000000
1916.591919 48500.000000
1917.935303 47523.000000
1919.277344 48027.000000
1920.619141 47279.000000
1921.960083 47031.000000
1923.300293 47904.000000
1924.639526 47779.000000
1925.977783 47686.000000
1927.315430 47610.000000
1928.652344 47047.000000
1929.988403 47259.000000
1931.323242 48433.000000
1932.657715 47320.000000
1933.991455 46793.000000
1935.324341 47742.000000
1936.655762 48254.000000
1937.987305 47713.000000
1939.317505 47420.000000
1940.647217 48214.000000
1941.976074 47933.000000
1943.303711 48144.000000
1944.630859 49042.000000
1945.957275 48148.000000
1947.282959 47516.000000
1948.607300 48209.000000
1949.931396 47368.000000
1951.254639 47753.000000
1952.577148 47556.000000
1953.898560 48273.000000
1955.218994 46594.000000
1956.538818 48060.000000
1957.858276 48502.000000
1959.176758 47184.000000
1960.493896 48110.000000
1961.810669 48121.000000
1963.126709 47435.000000
1964.442017 47423.000000
1965.755859 47775.000000
1967.069458 48344.000000
1968.382324 47785.000000
1969.694336 47969.000000
1971.005737 48019.000000
1972.315796 47671.000000
1973.625366 48155.000000
1974.934204 47782.000000
1976.242432 47421.000000
1977.549316 47871.000000
1978.855591 46766.000000
1980.161499 48427.000000
1981.466187 47648.000000
1982.770386 48158.000000
1984.073364 48258.000000
1985.375977 46456.000000
1986.677612 47895.000000
1987.978638 47184.000000
1989.278076 47984.000000
1990.577637 47393.000000
1991.876099 48792.000000
1993.174072 47974.000000
1994.470459 47868.000000
1995.766846 48223.000000
1997.062256 48425.000000
1998.356934 47491.000000
1999.650757 48217.000000
2000.943359 47476.000000
2002.235474 48226.000000
2003.527100 46802.000000
2004.817993 47451.000000
2006.107300 47705.000000
2007.396362 47100.000000
2008.684692 48076.000000
2009.972290 47964.000000
2011.259033 47326.000000
2012.544678 48329.000000
2013.829956 47648.000000
2015.114258 48016.000000
2016.397949 48383.000000
2017.680298 47928.000000
2018.962280 47469.000000
2020.243774 47263.000000
2021.524292 48088.000000
2022.804077 47938.000000
2024.082764 47247.000000
2025.360718 48226.000000
2026.638184 48182.000000
2027.915039 47660.000000
2029.190186 48287.000000
2030.465454 47423.000000
2031.739746 48009.000000
2033.013062 47991.000000
2034.285522 48089.000000
2035.557617 47831.000000
2036.828613 47118.000000
2038.099365 47446.000000
2039.368774 47963.000000
2040.637085 47178.000000
2041.905396 47374.000000
2043.172729 48139.000000
2044.439331 48011.000000
2045.704712 48394.000000
2046.969482 48489.000000
2048.234131 48608.000000
2049.497314 48066.000000
2050.760254 47582.000000
2052.021240 47855.000000
2053.282715 47910.000000
2054.542969 48100.000000
2055.802490 47504.000000
2057.061279 47692.000000
2058.319092 47066.000000
2059.576416 47932.000000
2060.833008 47999.000000
2062.088135 47467.000000
2063.343262 48321.000000
2064.597412 48408.000000
2065.850830 48380.000000
2067.103516 47174.000000
2068.354980 47702.000000
2069.606201 47710.000000
2070.856689 48441.000000
2072.106445 48580.000000
2073.354736 47904.000000
2074.603027 47436.000000
2075.850342 46545.000000
2077.096924 48430.000000
2078.342773 47951.000000
2079.587402 47037.000000
2080.831543 46384.000000
2082.075195 48543.000000
2083.317871 47988.000000
2084.559326 47014.000000
2085.800537 48035.000000
2087.041260 47620.000000
2088.281006 47194.000000
2089.519531 46847.000000
2090.757568 47772.000000
2091.994873 48249.000000
2093.231934 47376.000000
2094.467529 47931.000000
2095.702393 47749.000000
2096.937012 47828.000000
2098.170654 48365.000000
2099.403320 47897.000000
2100.635254 47094.000000
2101.866699 47562.000000
2103.097168 47147.000000
2104.326904 47946.000000
2105.556396 47978.000000
2106.783936 48008.000000
2108.011719 47948.000000
2109.238770 47753.000000
2110.464844 48567.000000
2111.689453 47624.000000
2112.914307 47048.000000
2114.137939 46945.000000
2115.361084 47762.000000
2116.583008 46429.000000
2117.804688 47935.000000
2119.025391 47136.000000
2120.245361 47974.000000
2121.464844 47757.000000
2122.682861 47383.000000
2123.900879 46918.000000
2125.117920 48116.000000
2126.334473 48220.000000
2127.549316 47350.000000
2128.764404 47607.000000
2129.978516 46923.000000
2131.191895 48276.000000
2132.404541 47847.000000
2133.615723 48108.000000
2134.827148 47362.000000
2136.037354 47137.000000
2137.247070 48024.000000
2138.455322 47802.000000
2139.663574 48360.000000
2140.871094 48161.000000
2142.077393 46310.000000
2143.282959 48064.000000
2144.488281 48176.000000
2145.692627 48428.000000
2146.896240 47719.000000
2148.099365 47747.000000
2149.301025 47332.000000
2150.502441 48585.000000
2151.703125 47644.000000
2152.903076 47945.000000
2154.101807 47907.000000
2155.300293 46980.000000
2156.498291 47679.000000
2157.695313 47855.000000
2158.891602 48771.000000
2160.086670 48574.000000
2161.281494 47807.000000
2162.475586 48210.000000
2163.668701 47878.000000
2164.860840 46891.000000
2166.052734 47989.000000
2167.243896 47542.000000
2168.434082 47525.000000
2169.623535 47393.000000
2170.812500 47011.000000
2172.000488 47793.000000
2173.188232 48111.000000
2174.374512 47871.000000
2175.560059 47237.000000
2176.745361 47854.000000
2177.930176 47950.000000
2179.113770 47435.000000
2180.296631 46353.000000
2181.478516 47498.000000
2182.660156 47872.000000
2183.841309 47288.000000
2185.021240 48130.000000
2186.200195 48249.000000
2187.378662 47493.000000
2188.556885 46857.000000
2189.733887 46625.000000
2190.909912 47084.000000
2192.085693 47765.000000
2193.260986 48177.000000
2194.434814 47097.000000
2195.608154 47614.000000
2196.781250 47703.000000
2197.953125 47326.000000
2199.124512 46649.000000
2200.295410 47454.000000
2201.464600 46877.000000
2202.633789 46214.000000
2203.802490 47475.000000
2204.970215 47866.000000
2206.136963 48056.000000
2207.302979 46587.000000
2208.468506 47003.000000
2209.633789 47863.000000
2210.797607 47025.000000
2211.960938 48277.000000
2213.123047 47549.000000
2214.285400 47607.000000
2215.446533 47098.000000
2216.606689 47046.000000
2217.766357 47402.000000
2218.925781 47105.000000
2220.083984 47338.000000
2221.241211 47395.000000
2222.398193 46900.000000
2223.554443 47103.000000
2224.709961 46871.000000
2225.864746 47395.000000
2227.018555 47195.000000
2228.171387 47592.000000
2229.324707 46759.000000
2230.476074 47446.000000
2231.627197 47370.000000
2232.777588 47098.000000
2233.927490 45876.000000
2235.076416 47286.000000
2236.224854 48335.000000
2237.371826 46757.000000
2238.519043 46441.000000
2239.665039 47464.000000
2240.810791 46256.000000
2241.954834 46150.000000
2243.099121 46705.000000
2244.242432 47278.000000
2245.385010 47464.000000
2246.526611 47687.000000
2247.667969 47661.000000
2248.808350 46990.000000
2249.947998 47000.000000
2251.087158 47545.000000
2252.225098 47609.000000
2253.363037 47207.000000
2254.500000 48124.000000
2255.636230 47080.000000
2256.771484 47289.000000
2257.906006 46133.000000
2259.040283 46994.000000
2260.174072 47865.000000
2261.306396 47213.000000
2262.438232 46470.000000
2263.569580 46983.000000
2264.699951 46856.000000
2265.830078 45191.000000
2266.958984 46578.000000
2268.087402 47204.000000
2269.215332 47707.000000
2270.342285 47112.000000
2271.468506 47181.000000
2272.593750 46527.000000
2273.718994 46736.000000
2274.843506 46782.000000
2275.966797 47272.000000
2277.089355 46946.000000
2278.211426 47226.000000
2279.333008 45699.000000
2280.453857 46793.000000
2281.573486 46717.000000
2282.692627 45981.000000
2283.811523 45479.000000
2284.929688 45974.000000
2286.046875 47214.000000
2287.163086 46715.000000
2288.279053 46105.000000
2289.394287 46169.000000
2290.508789 45713.000000
2291.622070 47308.000000
2292.735352 46759.000000
2293.847900 47098.000000
2294.959717 47766.000000
2296.070801 46327.000000
2297.180664 46725.000000
2298.290039 46914.000000
2299.399170 46416.000000
2300.507324 46788.000000
2301.614502 46294.000000
2302.721436 47086.000000
2303.827637 46744.000000
2304.933350 46340.000000
2306.037598 46392.000000
2307.141602 47463.000000
2308.245117 47165.000000
2309.348145 46379.000000
2310.449951 45408.000000
2311.551025 45500.000000
2312.651611 46227.000000
2313.751709 47334.000000
2314.851074 46409.000000
2315.948975 46212.000000
2317.047363 45739.000000
2318.144287 44554.000000
2319.240967 45908.000000
2320.337158 46942.000000
2321.431641 45872.000000
2322.526123 45186.000000
2323.619873 46791.000000
2324.713379 46491.000000
2325.805176 46152.000000
2326.896973 45573.000000
2327.988037 46421.000000
2329.078369 46314.000000
2330.167725 45665.000000
2331.257080 46477.000000
2332.345215 46158.000000
2333.432861 45551.000000
2334.520264 45876.000000
2335.605957 45627.000000
2336.691406 44550.000000
2337.776611 46028.000000
2338.860840 45569.000000
2339.944092 46243.000000
2341.027100 45606.000000
2342.109131 44992.000000
2343.190918 46093.000000
2344.271973 44629.000000
2345.351807 45330.000000
2346.431152 46289.000000
2347.510010 45161.000000
2348.588379 45382.000000
2349.665283 45569.000000
2350.741943 44828.000000
2351.818359 45769.000000
2352.893799 45275.000000
2353.968262 45799.000000
2355.042480 45374.000000
2356.115967 44941.000000
2357.188965 45314.000000
2358.260742 44581.000000
2359.332275 45287.000000
2360.402832 44705.000000
2361.473145 44035.000000
2362.542480 43912.000000
2363.610840 44597.000000
2364.678955 44587.000000
2365.746338 44265.000000
2366.813232 44178.000000
2367.879395 45193.000000
2368.944336 44257.000000
2370.009277 44139.000000
2371.073486 44722.000000
2372.136963 44113.000000
2373.199219 45230.000000
2374.261475 44733.000000
2375.322754 44627.000000
2376.383789 45015.000000
2377.443604 44579.000000
2378.502686 43004.000000
2379.561768 44422.000000
2380.619873 43262.000000
2381.677246 43946.000000
2382.733643 42637.000000
2383.789795 42824.000000
2384.845459 44311.000000
2385.900391 43348.000000
2386.953857 43651.000000
2388.007568 43878.000000
2389.060303 44108.000000
2390.112549 43550.000000
2391.164063 44211.000000
2392.214600 43703.000000
2393.264893 43740.000000
2394.314209 44032.000000
2395.363525 43932.000000
2396.411377 43299.000000
2397.458740 43094.000000
2398.505859 43707.000000
2399.552002 43289.000000
2400.597412 43751.000000
2401.642090 43190.000000
2402.686768 42176.000000
2403.729980 42362.000000
2404.773193 43174.000000
2405.814941 43978.000000
2406.856934 42988.000000
2407.898193 42504.000000
2408.938477 43475.000000
2409.978027 43112.000000
2411.016602 43163.000000
2412.055420 43417.000000
2413.093018 42809.000000
2414.130371 42375.000000
2415.166504 41819.000000
2416.202393 42879.000000
2417.237549 42642.000000
2418.272217 42234.000000
2419.305420 41503.000000
2420.338867 42034.000000
2421.371338 41666.000000
2422.403564 41324.000000
2423.434326 40964.000000
2424.465088 41465.000000
2425.495361 40809.000000
2426.524414 40663.000000
2427.553467 40573.000000
2428.580811 39739.000000
2429.608643 40263.000000
2430.635254 39415.000000
2431.661621 39581.000000
2432.686523 38539.000000
2433.711670 39543.000000
2434.735840 38690.000000
2435.759766 39021.000000
2436.782471 39750.000000
2437.804443 39167.000000
2438.826172 38722.000000
2439.847168 38527.000000
2440.867676 39174.000000
2441.886963 38455.000000
2442.906250 38347.000000
2443.924561 36512.000000
2444.942627 38550.000000
2445.959229 38089.000000
2446.975830 38010.000000
2447.991699 38518.000000
2449.007568 37333.000000
2450.021973 37519.000000
2451.035645 38729.000000
2452.048828 36844.000000
2453.061768 38136.000000
2454.073975 36882.000000
2455.085205 37193.000000
2456.096191 36197.000000
2457.106445 37315.000000
2458.116211 35868.000000
2459.125000 37404.000000
2460.133057 37157.000000
2461.141113 36779.000000
2462.147949 35746.000000
2463.154541 37452.000000
2464.159912 35363.000000
2465.165039 35905.000000
2466.169922 36930.000000
2467.173584 36260.000000
2468.177002 36500.000000
2469.179443 35278.000000
2470.181641 35566.000000
2471.183350 35835.000000
2472.184082 35848.000000
2473.183838 35468.000000
2474.183594 35500.000000
2475.182373 36535.000000
2476.180664 35637.000000
2477.177979 35244.000000
2478.175049 36021.000000
2479.172119 35231.000000
2480.167725 36437.000000
2481.163330 35242.000000
2482.157227 35652.000000
2483.151123 34319.000000
2484.144531 35478.000000
2485.137451 35477.000000
2486.129395 34664.000000
2487.120605 34900.000000
2488.111572 35287.000000
2489.102051 36027.000000
2490.091553 35325.000000
2491.080322 35497.000000
2492.069092 36279.000000
2493.056885 35215.000000
2494.043457 35431.000000
2495.030029 33991.000000
2496.016113 35166.000000
2497.001465 34687.000000
2497.985840 33355.000000
2498.969971 35346.000000
2499.954102 34258.000000
2500.936768 35292.000000
2501.918945 34106.000000
2502.900635 34173.000000
2503.881592 33581.000000
2504.862061 34159.000000
2505.842285 34877.000000
2506.821045 34253.000000
2507.799561 33126.000000
2508.777588 33747.000000
2509.755127 33246.000000
2510.731689 34042.000000
2511.708008 34231.000000
2512.683594 33555.000000
2513.658691 33771.000000
2514.633301 33392.000000
2515.606689 32324.000000
2516.579834 32750.000000
2517.552734 32609.000000
2518.524658 33165.000000
2519.495850 32467.000000
2520.466553 32393.000000
2521.437012 31276.000000
2522.406738 30790.000000
2523.375488 32303.000000
2524.343506 32178.000000
2525.311523 30654.000000
2526.278564 31841.000000
2527.245361 32491.000000
2528.210938 30899.000000
2529.176514 31032.000000
2530.141357 30132.000000
2531.105713 31230.000000
2532.068848 30914.000000
2533.032227 31341.000000
2533.994629 31268.000000
2534.956787 30608.000000
2535.917725 30960.000000
2536.877930 31101.000000
2537.838379 31029.000000
2538.797852 30428.000000
2539.756592 30159.000000
2540.714355 30013.000000
2541.672363 30253.000000
2542.629639 29490.000000
2543.585938 30132.000000
2544.541992 29082.000000
2545.496826 29918.000000
2546.451904 28266.000000
2547.406250 28959.000000
2548.359863 29480.000000
2549.312500 28568.000000
2550.264893 28916.000000
2551.216797 28649.000000
2552.167969 29243.000000
2553.118408 28004.000000
2554.068359 28227.000000
2555.018066 27949.000000
2555.967041 28542.000000
2556.915527 28702.000000
2557.862793 27843.000000
2558.810059 28526.000000
2559.756592 28214.000000
2560.702637 28036.000000
2561.647705 27353.000000
2562.592529 27846.000000
2563.536865 27321.000000
2564.480713 27384.000000
2565.424072 27529.000000
2566.365967 27503.000000
2567.308105 27492.000000
2568.249512 27873.000000
2569.190186 26935.000000
2570.130127 26798.000000
2571.070068 28110.000000
2572.009033 27717.000000
2572.947754 26550.000000
2573.885498 26774.000000
2574.822998 28236.000000
2575.759766 27063.000000
2576.695801 27426.000000
2577.631348 26703.000000
2578.566162 27500.000000
2579.500977 27748.000000
2580.434814 26793.000000
2581.368164 26485.000000
2582.300781 27530.000000
2583.233154 26501.000000
2584.164795 27907.000000
2585.095947 26595.000000
2586.026611 26797.000000
2586.956055 26796.000000
2587.885498 26391.000000
2588.814453 26986.000000
2589.743164 26045.000000
2590.670166 26033.000000
2591.597412 26897.000000
2592.524170 26002.000000
2593.450195 26421.000000
2594.375977 27207.000000
2595.300537 25783.000000
2596.224854 25745.000000
2597.148682 27363.000000
2598.072021 25799.000000
2598.994385 26774.000000
2599.916504 26327.000000
2600.838135 24862.000000
2601.759033 26074.000000
2602.679199 26293.000000
2603.599121 25849.000000
2604.518555 25785.000000
2605.437744 25491.000000
2606.355957 26004.000000
2607.272949 25910.000000
2608.190186 24982.000000
2609.107178 25781.000000
2610.023193 24606.000000
2610.937988 25031.000000
2611.853271 24997.000000
2612.767822 24793.000000
2613.681396 24678.000000
2614.594971 25220.000000
2615.507324 24327.000000
2616.419678 24467.000000
2617.331055 24351.000000
2618.242188 24720.000000
2619.152588 24088.000000
2620.062744 24234.000000
2620.972168 24247.000000
2621.881104 24082.000000
2622.789063 24187.000000
2623.697266 23867.000000
2624.604492 23820.000000
2625.511230 23558.000000
2626.417236 23824.000000
2627.322998 23557.000000
2628.228027 23637.000000
2629.132813 23108.000000
2630.036865 23279.000000
2630.939941 23213.000000
2631.843018 22967.000000
2632.745117 23091.000000
2633.647217 22848.000000
2634.549072 23082.000000
2635.449219 22838.000000
2636.349609 22898.000000
2637.249268 22646.000000
2638.148682 22733.000000
2639.046631 22435.000000
2639.945068 22365.000000
2640.843018 22305.000000
2641.740234 22173.000000
2642.636230 22185.000000
2643.532227 22046.000000
2644.427979 22013.000000
2645.322998 21982.000000
2646.217773 21753.000000
2647.111084 21481.000000
2648.004395 21536.000000
2648.897461 21423.000000
2649.790283 21484.000000
2650.681396 21297.000000
2651.572754 21745.000000
2652.463623 21139.000000
2653.353760 21094.000000
2654.243652 21152.000000
2655.132324 20938.000000
2656.021240 21002.000000
2656.909668 21050.000000
2657.797119 20888.000000
2658.683594 20724.000000
2659.570557 20708.000000
2660.456787 20695.000000
2661.342529 20581.000000
2662.227051 20719.000000
2663.111572 20964.000000
2663.995850 20972.000000
2664.879395 20954.000000
2665.762451 20706.000000
2666.644775 20885.000000
2667.526611 20884.000000
2668.407715 20869.000000
2669.289063 20988.000000
2670.168945 20868.000000
2671.049072 20698.000000
2671.928467 20680.000000
2672.807861 20557.000000
2673.686523 20531.000000
2674.563477 20587.000000
2675.441162 20509.000000
2676.318115 20453.000000
2677.194336 20231.000000
2678.070068 20307.000000
2678.945068 20425.000000
2679.820313 20137.000000
2680.694580 19977.000000
2681.568359 19891.000000
2682.441406 19898.000000
2683.314209 19874.000000
2684.186768 20046.000000
2685.058594 19818.000000
2685.929688 19666.000000
2686.800537 19472.000000
2687.670898 19300.000000
2688.541016 19341.000000
2689.409424 19340.000000
2690.278564 19129.000000
2691.146973 19201.000000
2692.015137 19044.000000
2692.882568 18855.000000
2693.748779 19009.000000
2694.615479 18839.000000
2695.481201 18894.000000
2696.346924 18816.000000
2697.211182 18662.000000
2698.076172 18633.000000
2698.939697 18593.000000
2699.803467 18665.000000
2700.665771 18336.000000
2701.528564 18472.000000
2702.390381 18446.000000
2703.251709 18491.000000
2704.113037 18214.000000
2704.973145 18136.000000
2705.833252 17903.000000
2706.692871 18084.000000
2707.552246 17938.000000
2708.409912 17917.000000
2709.267822 17868.000000
2710.126221 17725.000000
2710.983398 17687.000000
2711.839844 17783.000000
2712.695801 17658.000000
2713.551758 17597.000000
2714.406982 17486.000000
2715.261475 17653.000000
2716.115479 17178.000000
2716.969482 17216.000000
2717.822510 17287.000000
2718.675781 17072.000000
2719.527344 17025.000000
2720.379395 17016.000000
2721.231201 16893.000000
2722.081787 16949.000000
2722.932373 16968.000000
2723.782471 16689.000000
2724.631836 16660.000000
2725.481201 16778.000000
2726.329346 16541.000000
2727.177002 16613.000000
2728.025146 16674.000000
2728.872070 16461.000000
2729.719482 16484.000000
2730.565430 16466.000000
2731.410645 16354.000000
2732.256348 16379.000000
2733.101074 16407.000000
2733.945801 16340.000000
2734.789307 16212.000000
2735.633057 16255.000000
2736.476074 16289.000000
2737.318604 16446.000000
2738.160156 16179.000000
2739.002197 16104.000000
2739.843262 16114.000000
2740.684082 16222.000000
2741.524658 16168.000000
2742.364014 16069.000000
2743.203369 16087.000000
2744.042725 16192.000000
2744.880859 16096.000000
2745.718506 16097.000000
2746.556152 16258.000000
2747.393311 16069.000000
2748.230225 15984.000000
2749.066650 16016.000000
2749.901855 16002.000000
2750.737305 16060.000000
2751.572266 15894.000000
2752.406494 15812.000000
2753.240479 15623.000000
2754.073975 15659.000000
2754.907471 15568.000000
2755.739990 15605.000000
2756.572021 15440.000000
2757.403564 15389.000000
2758.235107 15641.000000
2759.065674 15491.000000
2759.896484 15275.000000
2760.726074 15301.000000
2761.555664 15369.000000
2762.385010 15227.000000
2763.213623 15118.000000
2764.041748 15026.000000
2764.869385 15017.000000
2765.697021 15018.000000
2766.524170 15095.000000
2767.350586 14811.000000
2768.176514 14705.000000
2769.001953 14751.000000
2769.827148 14515.000000
2770.652344 14557.000000
2771.476318 14451.000000
2772.300293 14551.000000
2773.124268 14369.000000
2773.947021 14310.000000
2774.770020 14306.000000
2775.591797 14345.000000
2776.413574 14301.000000
2777.235352 14066.000000
2778.056152 13824.000000
2778.876221 13820.000000
2779.696533 13927.000000
2780.516357 13747.000000
2781.336182 13681.000000
2782.154053 13924.000000
2782.973145 13640.000000
2783.791016 14045.000000
2784.608643 13926.000000
2785.425781 13853.000000
2786.242432 13613.000000
2787.058838 13459.000000
2787.874756 13330.000000
2788.690430 13284.000000
2789.505127 13294.000000
2790.320313 13393.000000
2791.134766 13193.000000
2791.948730 13015.000000
2792.762451 13188.000000
2793.574951 13008.000000
2794.387695 13231.000000
2795.199951 13110.000000
2796.011719 13233.000000
2796.822754 13148.000000
2797.634521 13012.000000
2798.445068 12925.000000
2799.255615 12872.000000
2800.064697 12785.000000
2800.874512 12888.000000
2801.683594 12823.000000
2802.492432 12951.000000
2803.300781 12912.000000
2804.108154 12666.000000
2804.916016 12783.000000
2805.723145 12799.000000
2806.530029 12763.000000
2807.335693 12640.000000
2808.141846 12513.000000
2808.947266 12603.000000
2809.752686 12578.000000
2810.557373 12478.000000
2811.361084 12536.000000
2812.165283 12491.000000
2812.968994 12438.000000
2813.772461 12348.000000
2814.574463 12164.000000
2815.377197 12408.000000
2816.179199 12259.000000
2816.980957 12320.000000
2817.782227 12260.000000
2818.583008 12228.000000
2819.383301 12132.000000
2820.183838 12111.000000
2820.983398 12024.000000
2821.782471 11959.000000
2822.581543 12036.000000
2823.380371 11712.000000
2824.178711 11841.000000
2824.976074 11927.000000
2825.773682 12013.000000
2826.570557 11884.000000
2827.367676 11839.000000
2828.164063 11834.000000
2828.959717 11913.000000
2829.755371 11739.000000
2830.550781 11544.000000
2831.345703 11603.000000
2832.139893 11640.000000
2832.934082 11506.000000
2833.728027 11677.000000
2834.521484 11520.000000
2835.314209 11494.000000
2836.106689 11340.000000
2836.899170 11420.000000
2837.691406 11370.000000
2838.483154 11304.000000
2839.273926 11232.000000
2840.064697 10999.000000
2840.855713 11252.000000
2841.645752 11185.000000
2842.435303 10955.000000
2843.225098 10916.000000
2844.013916 10934.000000
2844.802734 10752.000000
2845.591553 10835.000000
2846.379395 10742.000000
2847.166748 10715.000000
2847.954346 10811.000000
2848.741455 10655.000000
2849.527832 10610.000000
2850.314209 10667.000000
2851.100342 10598.000000
2851.885986 10682.000000
2852.670654 10593.000000
2853.455811 10629.000000
2854.240723 10454.000000
2855.024902 10571.000000
2855.809082 10603.000000
2856.592041 10478.000000
2857.375244 10267.000000
2858.158203 10423.000000
2858.940674 10334.000000
2859.722900 10278.000000
2860.504639 10387.000000
2861.286133 10277.000000
2862.067871 10159.000000
2862.848877 10169.000000
2863.629150 10201.000000
2864.409180 10315.000000
2865.189209 10190.000000
2865.968994 10179.000000
2866.747803 10238.000000
2867.526855 10221.000000
2868.305420 10198.000000
2869.083740 10328.000000
2869.861572 10290.000000
2870.639160 10352.000000
2871.416504 10286.000000
2872.193604 10303.000000
2872.970215 10401.000000
2873.746338 10212.000000
2874.522461 10352.000000
2875.298096 10324.000000
2876.073486 10414.000000
2876.848389 10475.000000
2877.623047 10273.000000
2878.397705 10244.000000
2879.172119 10079.000000
2879.945801 10116.000000
2880.718750 10111.000000
2881.492432 9930.000000
2882.265137 9851.000000
2883.037842 9842.000000
2883.809814 9787.000000
2884.581543 9813.000000
2885.353760 9777.000000
2886.124756 9651.000000
2886.895264 9692.000000
2887.666260 9565.000000
2888.437256 9335.000000
2889.207520 9522.000000
2889.976807 9429.000000
2890.746338 9555.000000
2891.515869 9453.000000
2892.284912 9458.000000
2893.053467 9451.000000
2893.822021 9453.000000
2894.589600 9510.000000
2895.357666 9365.000000
2896.125244 9352.000000
2896.892822 9331.000000
2897.659180 9267.000000
2898.426514 9125.000000
2899.192627 8917.000000
2899.958984 8912.000000
2900.723877 8809.000000
2901.489258 8942.000000
2902.255127 8798.000000
2903.019531 8902.000000
2903.783936 8843.000000
2904.548584 8791.000000
2905.312256 8749.000000
2906.076660 8799.000000
2906.840332 8744.000000
2907.603271 8518.000000
2908.365967 8605.000000
2909.129150 8391.000000
2909.891846 8413.000000
2910.653320 8376.000000
2911.415283 8376.000000
spectrumdark 2048
-96.815529 6178.000000
-94.188660 6178.000000
-91.563667 5998.000000
-88.940567 6348.000000
-86.319336 5814.000000
-83.700005 6220.000000
-81.082535 6024.000000
-78.466942 6373.000000
-75.853226 6184.000000
-73.241386 5797.000000
-70.631409 6033.000000
-68.023315 5916.000000
-65.417068 5934.000000
-62.812698 5980.000000
-60.210190 6042.000000
-57.609535 5619.000000
-55.010742 6217.000000
-52.413807 6812.000000
-49.818726 6480.000000
-47.225498 6472.000000
-44.634121 6243.000000
-42.044590 6714.000000
-39.456902 5868.000000
-36.871063 5972.000000
-34.287067 6388.000000
-31.704910 5711.000000
-29.124598 6265.000000
-26.546112 5729.000000
-23.969469 6116.000000
-21.394651 6220.000000
-18.821674 6450.000000
-16.250517 6447.000000
-13.681193 6730.000000
-11.113695 7721.000000
-8.548016 6281.000000
-5.984161 6436.000000
-3.422121 6014.000000
-0.861905 5744.000000
1.696503 6139.000000
4.253090 6943.000000
6.807872 6628.000000
9.360837 5969.000000
11.912002 6736.000000
14.461353 6499.000000
17.008909 6642.000000
19.554653 5980.000000
22.098604 5706.000000
24.640751 6677.000000
27.181101 6735.000000
29.719666 6853.000000
32.256435 6061.000000
34.791401 5773.000000
37.324589 7195.000000
39.855995 6234.000000
42.385609 7090.000000
44.913425 6454.000000
47.439484 7842.000000
49.963753 5663.000000
52.486252 6144.000000
55.006954 6728.000000
57.525902 6248.000000
60.043076 6373.000000
62.558472 6623.000000
65.072090 5620.000000
67.583954 5653.000000
70.094070 6480.000000
72.602394 6534.000000
75.108963 5930.000000
77.613785 6328.000000
80.116852 6379.000000
82.618141 6273.000000
85.117691 6093.000000
87.615486 6317.000000
90.111549 5721.000000
92.605835 7147.000000
95.098381 5727.000000
97.589211 6927.000000
100.078270 7183.000000
102.565582 6314.000000
105.051170 6210.000000
107.535019 6274.000000
110.017120 5751.000000
112.497498 6606.000000
114.976151 6149.000000
117.453079 6452.000000
119.928253 7213.000000
122.401718 6735.000000
124.873451 5892.000000
127.343475 6714.000000
129.811737 6261.000000
132.278336 6287.000000
134.743179 5651.000000
137.206329 6192.000000
139.667740 7276.000000
142.127457 6867.000000
144.585449 6350.000000
147.041748 5970.000000
149.496338 5817.000000
151.949203 6776.000000
154.400391 6322.000000
156.849884 6589.000000
159.297653 6068.000000
161.743713 6510.000000
164.188095 8684.000000
166.630798 6425.000000
169.071808 6691.000000
171.511108 6284.000000
173.948700 7244.000000
176.384659 6609.000000
178.818878 6951.000000
181.251419 7066.000000
183.682312 6637.000000
186.111481 6800.000000
188.539001 6747.000000
190.964844 6315.000000
193.389008 6656.000000
195.811508 7091.000000
198.232315 7356.000000
200.651459 6439.000000
203.068939 6027.000000
205.484726 7581.000000
207.898865 7110.000000
210.311371 6309.000000
212.722198 6030.000000
215.131348 6271.000000
217.538864 7303.000000
219.944672 6101.000000
222.348892 6534.000000
224.751404 6704.000000
227.152298 6943.000000
229.551544 6486.000000
231.949127 6887.000000
234.345047 7272.000000
236.739349 6468.000000
239.131989 5843.000000
241.523010 6849.000000
243.912369 6562.000000
246.300110 6360.000000
248.686203 6961.000000
251.070663 6122.000000
253.453476 7915.000000
255.834717 6613.000000
258.214264 6669.000000
260.592224 6455.000000
262.968506 7577.000000
265.343231 7623.000000
267.716309 7878.000000
270.087738 6143.000000
272.457520 6378.000000
274.825745 5874.000000
277.192322 6323.000000
279.557312 6720.000000
281.920685 5995.000000
284.282410 6200.000000
286.642548 7084.000000
289.001068 5906.000000
291.358002 6504.000000
293.713318 6343.000000
296.067047 5957.000000
298.419128 6036.000000
300.769653 6293.000000
303.118591 6352.000000
305.465881 6795.000000
307.811646 6383.000000
310.155731 6501.000000
312.498291 7311.000000
314.839233 7453.000000
317.178558 7139.000000
319.516327 6987.000000
321.852539 8071.000000
324.187103 6279.000000
326.520111 6502.000000
328.851563 5991.000000
331.181427 6558.000000
333.509705 6335.000000
335.836365 7239.000000
338.161530 6385.000000
340.485077 6167.000000
342.807068 6020.000000
345.127502 7498.000000
347.446320 7686.000000
349.763580 5935.000000
352.079315 5794.000000
354.393463 6888.000000
356.706024 6340.000000
359.017029 6444.000000
361.326508 7003.000000
363.634460 6364.000000
365.940796 5676.000000
368.245544 6361.000000
370.548828 6404.000000
372.850494 6254.000000
375.150665 6381.000000
377.449280 6284.000000
379.746338 6010.000000
382.041840 6077.000000
384.335815 5857.000000
386.628204 5198.000000
388.919098 5608.000000
391.208466 6217.000000
393.496246 6278.000000
395.782501 6418.000000
398.067261 7001.000000
400.350403 6045.000000
402.632111 6407.000000
404.912292 6128.000000
407.190887 7165.000000
409.467957 6378.000000
411.743500 6699.000000
414.017517 6374.000000
416.290100 6337.000000
418.561066 6147.000000
420.830536 6357.000000
423.098511 7146.000000
425.364929 7193.000000
427.629852 6270.000000
429.893311 6267.000000
432.155182 6535.000000
434.415588 5961.000000
436.674438 6622.000000
438.931824 6089.000000
441.187714 5639.000000
443.442108 5795.000000
445.694977 5454.000000
447.946289 6865.000000
450.196198 6078.000000
452.444519 6219.000000
454.691406 5639.000000
456.936829 6440.000000
459.180695 6427.000000
461.423065 6796.000000
463.663940 5658.000000
465.903412 6766.000000
468.141296 5436.000000
470.377747 5923.000000
472.612671 6080.000000
474.846130 7348.000000
477.078156 6681.000000
479.308655 5653.000000
481.537659 6490.000000
483.765198 6368.000000
485.991241 5905.000000
488.215851 6538.000000
490.438995 5834.000000
492.660675 6400.000000
494.880798 6672.000000
497.099518 5602.000000
499.316742 6224.000000
501.532593 5521.000000
503.746826 6140.000000
505.959747 6453.000000
508.171082 6437.000000
510.380981 6904.000000
512.589417 6514.000000
514.796509 6537.000000
517.002014 6379.000000
519.206116 6579.000000
521.408691 6224.000000
523.609863 6512.000000
525.809692 6675.000000
528.007996 6859.000000
530.204773 5359.000000
532.400208 5857.000000
534.594116 5537.000000
536.786682 7490.000000
538.977722 6718.000000
541.167358 6011.000000
543.355591 6903.000000
545.542297 7135.000000
547.727539 6812.000000
549.911499 6228.000000
552.093872 6374.000000
554.274902 6143.000000
556.454407 6006.000000
558.632629 5901.000000
560.809326 5957.000000
562.984619 6364.000000
565.158508 6454.000000
567.330933 5864.000000
569.501953 6014.000000
571.671509 6318.000000
573.839783 5240.000000
576.006531 6433.000000
578.171814 6305.000000
580.335693 6116.000000
582.498291 5729.000000
584.659363 6005.000000
586.819031 5614.000000
588.977356 5803.000000
591.134155 6124.000000
593.289612 6563.000000
595.443665 5787.000000
597.596375 6108.000000
599.747559 7271.000000
601.897400 6756.000000
604.045898 6659.000000
606.192810 6022.000000
608.338501 6448.000000
610.482788 6394.000000
612.625610 6996.000000
614.766968 6154.000000
616.907104 6389.000000
619.045715 7621.000000
621.183044 5693.000000
623.318909 6604.000000
625.453369 6872.000000
627.586365 7174.000000
629.718201 6662.000000
631.848572 6546.000000
633.977539 6717.000000
636.105042 6428.000000
638.231262 6256.000000
640.355957 7284.000000
642.479431 6356.000000
644.601563 6735.000000
646.722229 6912.000000
648.841553 6512.000000
650.959473 5624.000000
653.076050 5696.000000
655.191223 6391.000000
657.305054 6460.000000
659.417419 5809.000000
661.528564 6108.000000
663.638306 5393.000000
665.746582 5958.000000
667.853699 6297.000000
669.959351 6759.000000
672.063538 5900.000000
674.166504 5679.000000
676.268066 7040.000000
678.368286 5351.000000
680.467102 6762.000000
682.564575 6213.000000
684.660767 6974.000000
686.755493 6140.000000
688.848999 6998.000000
690.941162 6581.000000
693.031799 7935.000000
695.121216 6653.000000
697.209351 6445.000000
699.296021 6020.000000
701.381470 6682.000000
703.465393 5162.000000
705.548096 5907.000000
707.629517 5942.000000
709.709473 7597.000000
711.788208 6153.000000
713.865479 5573.000000
715.941467 6611.000000
718.016174 6060.000000
720.089600 6979.000000
722.161499 6271.000000
724.232239 7327.000000
726.301636 5831.000000
728.369629 6472.000000
730.436279 6351.000000
732.501709 6998.000000
734.565796 5718.000000
736.628540 6186.000000
738.689941 6501.000000
740.750061 6563.000000
742.808777 6052.000000
744.866272 6621.000000
746.922485 6521.000000
748.977295 6698.000000
751.030823 6366.000000
753.082947 7448.000000
755.133850 5811.000000
757.183533 6642.000000
759.231750 6305.000000
761.278748 6149.000000
763.324463 6992.000000
765.368774 5335.000000
767.411804 5701.000000
769.453613 14979.000000
771.494080 6943.000000
773.533142 6349.000000
775.571045 6087.000000
777.607605 5979.000000
779.642944 5406.000000
781.676941 5763.000000
783.709534 6926.000000
785.740967 5471.000000
787.770996 11578.000000
789.799744 6040.000000
791.827332 6283.000000
793.853577 6349.000000
795.878418 5782.000000
797.902161 5553.000000
799.924500 6424.000000
801.945618 5839.000000
803.965393 6694.000000
805.983887 4920.000000
808.001160 6650.000000
810.017029 6796.000000
812.031738 5702.000000
814.045105 6433.000000
816.057251 6176.000000
818.068176 6072.000000
820.077759 6545.000000
822.086121 5276.000000
824.093079 5722.000000
826.098816 6021.000000
828.103333 5708.000000
830.106567 5615.000000
832.108521 6437.000000
834.109192 6053.000000
836.108643 5975.000000
838.106750 6324.000000
840.103760 6898.000000
842.099365 6203.000000
844.093811 6006.000000
846.086914 6191.000000
848.078796 6865.000000
850.069336 5581.000000
852.058594 6799.000000
854.046814 5940.000000
856.033630 5734.000000
858.019226 6402.000000
860.003540 7271.000000
861.986755 6323.000000
863.968567 6376.000000
865.949158 5780.000000
867.928467 7736.000000
869.906616 7074.000000
871.883423 6155.000000
873.858948 5857.000000
875.833435 6108.000000
877.806458 5972.000000
879.778442 5397.000000
881.749084 6434.000000
883.718567 6150.000000
885.686707 5541.000000
887.653687 5169.000000
889.619324 6119.000000
891.583801 5813.000000
893.547058 6040.000000
895.509094 6423.000000
897.469849 5787.000000
899.429382 6414.000000
901.387634 6711.000000
903.344788 6368.000000
905.300781 6003.000000
907.255371 6978.000000
909.208740 6512.000000
911.160950 6447.000000
913.111938 6389.000000
915.061646 7115.000000
917.010193 6288.000000
918.957520 6076.000000
920.903564 6047.000000
922.848328 6018.000000
924.792053 6371.000000
926.734619 5924.000000
928.675903 5516.000000
930.615845 6442.000000
932.554688 5709.000000
934.492249 5494.000000
936.428589 5920.000000
938.363770 5897.000000
940.297668 6116.000000
942.230469 5867.000000
944.162048 6785.000000
946.092468 5192.000000
948.021667 6406.000000
949.949524 7053.000000
951.876343 6575.000000
953.801880 5942.000000
955.726135 5400.000000
957.649292 5980.000000
959.571289 6678.000000
961.492004 7234.000000
963.411560 6464.000000
965.329956 5321.000000
967.247314 6373.000000
969.163208 6416.000000
971.078003 6044.000000
972.991577 5937.000000
974.903992 6371.000000
976.815186 6403.000000
978.725220 5468.000000
980.633972 6149.000000
982.541687 6166.000000
984.448181 6375.000000
986.353455 5667.000000
988.257629 6749.000000
990.160583 6243.000000
992.062317 6785.000000
993.962891 6318.000000
995.862305 6558.000000
997.760498 5259.000000
999.657532 6590.000000
1001.553345 6475.000000
1003.447998 7724.000000
1005.341553 5573.000000
1007.233826 7102.000000
1009.125183 6117.000000
1011.015198 5346.000000
1012.903992 6652.000000
1014.791626 6327.000000
1016.678101 6877.000000
1018.563416 6727.000000
1020.447571 5977.000000
1022.330505 5861.000000
1024.212402 6179.000000
1026.093018 5150.000000
1027.972534 5871.000000
1029.851074 6078.000000
1031.728271 5442.000000
1033.604126 6183.000000
1035.479004 5936.000000
1037.352905 6546.000000
1039.225342 7021.000000
1041.096802 6697.000000
1042.966919 5447.000000
1044.836060 5457.000000
1046.703979 5764.000000
1048.570801 7099.000000
1050.436523 6710.000000
1052.301025 6442.000000
1054.164429 6442.000000
1056.026489 6432.000000
1057.887573 5847.000000
1059.747559 6497.000000
1061.606201 6632.000000
1063.463745 5785.000000
1065.320190 6785.000000
1067.175537 5934.000000
1069.029663 5779.000000
1070.882935 6229.000000
1072.734741 6367.000000
1074.585571 6159.000000
1076.435181 6104.000000
1078.283569 5746.000000
1080.131104 7979.000000
1081.977295 5583.000000
1083.822266 6207.000000
1085.666382 5441.000000
1087.509155 5529.000000
1089.350708 6467.000000
1091.191528 5415.000000
1093.030762 5766.000000
1094.869263 6039.000000
1096.706421 5994.000000
1098.542358 6803.000000
1100.377319 6658.000000
1102.211060 5385.000000
1104.043823 5663.000000
1105.875244 6200.000000
1107.705811 7226.000000
1109.535034 6477.000000
1111.363281 6374.000000
1113.190308 7095.000000
1115.016357 5357.000000
1116.841187 6376.000000
1118.664917 7143.000000
1120.487427 6061.000000
1122.308838 5983.000000
1124.129395 5906.000000
1125.948486 6569.000000
1127.766724 7059.000000
1129.583618 6826.000000
1131.399658 6667.000000
1133.214478 6409.000000
1135.028198 5550.000000
1136.840820 5823.000000
1138.652222 5700.000000
1140.462646 6098.000000
1142.271973 6730.000000
1144.079956 6924.000000
1145.887207 5883.000000
1147.692993 5900.000000
1149.497925 5384.000000
1151.301758 5408.000000
1153.104370 6045.000000
1154.906128 6154.000000
1156.706421 6045.000000
1158.505737 6097.000000
1160.304077 5816.000000
1162.101074 5442.000000
1163.897339 5817.000000
1165.692261 6082.000000
1167.486084 6310.000000
1169.279053 7776.000000
1171.070679 5716.000000
1172.861328 6546.000000
1174.651001 6025.000000
1176.439209 5892.000000
1178.226563 7356.000000
1180.012817 6844.000000
1181.797974 5716.000000
1183.582031 5907.000000
1185.364990 7673.000000
1187.146973 5841.000000
1188.927734 5852.000000
1190.707520 6353.000000
1192.486206 6894.000000
1194.263916 6679.000000
1196.040405 7082.000000
1197.815796 6596.000000
1199.590088 6510.000000
1201.363281 6644.000000
1203.135620 6414.000000
1204.906616 6669.000000
1206.676758 5677.000000
1208.445679 6128.000000
1210.213501 6308.000000
1211.980469 5740.000000
1213.746094 5971.000000
1215.510742 6943.000000
1217.274292 6537.000000
1219.036743 5993.000000
1220.798340 6740.000000
1222.558716 5894.000000
1224.317993 6130.000000
1226.076416 6043.000000
1227.833618 7098.000000
1229.589722 6408.000000
1231.344727 5509.000000
1233.098877 5961.000000
1234.851685 5798.000000
1236.603516 6020.000000
1238.354492 5953.000000
1240.104126 4927.000000
1241.852905 7003.000000
1243.600342 6476.000000
1245.347046 6592.000000
1247.092529 6470.000000
1248.837158 6390.000000
1250.580444 6782.000000
1252.322754 6709.000000
1254.063965 5337.000000
1255.804321 5017.000000
1257.543579 5781.000000
1259.281616 6613.000000
1261.018799 7099.000000
1262.754761 6083.000000
1264.489746 6378.000000
1266.223755 7266.000000
1267.956787 5954.000000
1269.688599 6146.000000
1271.419434 6407.000000
1273.149048 6821.000000
1274.877808 5928.000000
1276.605469 5645.000000
1278.332031 5528.000000
1280.057739 5483.000000
1281.782104 6463.000000
1283.505615 5188.000000
1285.228149 6999.000000
1286.949707 6572.000000
1288.670044 6195.000000
1290.389404 6702.000000
1292.107666 7273.000000
1293.824951 6390.000000
1295.541260 5768.000000
1297.256348 6371.000000
1298.970459 6132.000000
1300.683594 5758.000000
1302.395874 6465.000000
1304.106934 8312.000000
1305.817017 5266.000000
1307.526001 6324.000000
1309.233765 6673.000000
1310.940918 7063.000000
1312.646606 5785.000000
1314.351563 6857.000000
1316.055542 6197.000000
1317.758301 5982.000000
1319.460083 6559.000000
1321.161011 6062.000000
1322.860596 9822.000000
1324.559326 7697.500000
1326.257324 5573.000000
1327.953979 6458.000000
1329.649536 7160.000000
1331.344238 6785.000000
1333.037720 5751.000000
1334.730347 5382.000000
1336.422119 7440.000000
1338.112549 6228.000000
1339.802246 6582.000000
1341.490845 6139.000000
1343.178345 7593.000000
1344.864868 5612.000000
1346.550293 6740.000000
1348.234741 5888.000000
1349.918335 7171.000000
1351.600708 6386.000000
1353.282104 5896.000000
1354.962646 6573.000000
1356.641968 6692.000000
1358.320679 5866.000000
1359.998047 6644.000000
1361.674316 5728.000000
1363.349609 5535.000000
1365.024170 6557.000000
1366.697510 6456.000000
1368.369873 6729.000000
1370.041260 5136.000000
1371.711670 6751.000000
1373.380981 6215.000000
1375.049316 5612.000000
1376.716797 5974.000000
1378.383179 6404.000000
1380.048584 6111.000000
1381.713013 5859.000000
1383.376221 5884.000000
1385.038818 5701.000000
1386.700073 6400.000000
1388.360474 6499.000000
1390.019775 6406.000000
1391.678101 6448.000000
1393.335693 6830.000000
1394.992065 6449.000000
1396.647583 7054.000000
1398.301880 6321.000000
1399.955322 5840.000000
1401.607666 6109.000000
1403.259277 6478.000000
1404.909668 7140.000000
1406.558960 6207.000000
1408.207520 7505.000000
1409.854980 7878.000000
1411.501465 6180.000000
1413.147095 6233.000000
1414.791748 5938.000000
1416.435181 6995.000000
1418.077759 7100.000000
1419.719238 6881.000000
1421.359863 6471.000000
1422.999512 6492.000000
1424.638062 6030.000000
1426.275757 6549.000000
1427.912354 6303.000000
1429.547974 5986.000000
1431.182861 6392.000000
1432.816650 5808.000000
1434.449341 6139.000000
1436.081055 5634.000000
1437.711914 6225.000000
1439.341675 6033.000000
1440.970337 7913.000000
1442.598389 6035.000000
1444.225342 6228.000000
1445.851074 6222.000000
1447.476196 6135.000000
1449.100220 6502.000000
1450.723267 6011.000000
1452.345337 6000.000000
1453.966309 7360.000000
1455.586304 6282.000000
1457.205566 6868.000000
1458.823486 5691.000000
1460.440796 5607.500000
1462.057129 5524.000000
1463.672241 7228.000000
1465.286499 6241.000000
1466.899902 5218.000000
1468.512207 5632.000000
1470.123657 6168.000000
1471.734253 6385.000000
1473.343628 5963.000000
1474.952026 5932.000000
1476.559570 6144.000000
1478.166138 6757.000000
1479.771973 5278.000000
1481.376587 6278.000000
1482.980347 5509.000000
1484.582886 6717.000000
1486.184814 5567.000000
1487.785522 5505.000000
1489.385498 5624.000000
1490.984375 6187.000000
1492.582397 6486.000000
1494.179321 6667.000000
1495.775391 6338.000000
1497.370483 5973.000000
1498.964600 5543.000000
1500.557983 6617.000000
1502.150269 5478.000000
1503.741333 6132.000000
1505.331909 6755.000000
1506.921143 6439.000000
1508.509766 6155.000000
1510.097290 6528.000000
1511.683716 6805.000000
1513.269409 6207.000000
1514.854004 6647.000000
1516.437744 6198.000000
1518.020386 6177.000000
1519.602295 6590.000000
1521.183105 6631.000000
1522.763184 6091.000000
1524.342041 6428.000000
1525.920044 6359.000000
1527.497314 6229.000000
1529.073364 5667.000000
1530.648682 5843.000000
1532.222900 6120.000000
1533.796387 5451.000000
1535.368652 5914.000000
1536.940186 6346.000000
1538.510742 6455.000000
1540.080444 6308.000000
1541.648926 5415.000000
1543.216675 6540.000000
1544.783569 5572.000000
1546.349243 6763.000000
1547.914185 5936.000000
1549.478027 5043.000000
1551.041260 7425.000000
1552.603149 6276.000000
1554.164429 5907.000000
1555.724609 5660.000000
1557.284058 5738.000000
1558.842407 5978.000000
1560.400024 6244.000000
1561.956543 7034.000000
1563.511841 5869.000000
1565.066528 6312.000000
1566.620483 5624.000000
1568.173462 6281.000000
1569.725098 5684.000000
1571.276001 5887.000000
1572.826172 6173.000000
1574.375366 6373.000000
1575.923218 5750.000000
1577.470581 5465.000000
1579.016968 5718.000000
1580.562500 5062.000000
1582.107056 6574.000000
1583.650391 6349.000000
1585.193115 6626.000000
1586.734985 6405.000000
1588.275757 6693.000000
1589.815552 5828.000000
1591.354614 6662.000000
1592.892578 5945.000000
1594.430054 6035.000000
1595.966187 5899.000000
1597.501221 6680.000000
1599.035767 6244.000000
1600.569336 5966.000000
1602.102051 6026.000000
1603.633179 6251.000000
1605.164063 6261.000000
1606.694092 5692.000000
1608.222900 6072.000000
1609.750610 6157.000000
1611.277710 5970.000000
1612.804077 5778.000000
1614.329468 6224.000000
1615.854004 5796.000000
1617.377197 5799.000000
1618.899658 5649.000000
1620.421387 6533.000000
1621.942261 6949.000000
1623.461670 15544.000000
1624.980591 6119.000000
1626.498779 6019.000000
1628.016113 5891.000000
1629.532349 6414.000000
1631.047241 6961.000000
1632.561646 6779.000000
1634.075317 5770.000000
1635.587891 6814.000000
1637.099243 5932.000000
1638.610229 6359.000000
1640.120117 6255.000000
1641.629150 6172.000000
1643.136841 5633.000000
1644.644165 6140.000000
1646.150635 7135.000000
1647.656128 6247.000000
1649.160767 6845.000000
1650.663940 6134.000000
1652.166504 6544.000000
1653.668701 6350.000000
1655.169556 6658.000000
1656.669312 7586.000000
1658.168213 5968.000000
1659.666748 6492.000000
1661.164063 6209.000000
1662.660645 5876.000000
1664.155640 6424.000000
1665.650391 6305.000000
1667.144287 5229.000000
1668.637207 5678.000000
1670.128784 6073.000000
1671.619873 6468.000000
1673.110352 6095.000000
1674.599731 5994.000000
1676.087646 6940.000000
1677.575317 6811.000000
1679.062012 5997.000000
1680.547852 5350.000000
1682.032837 6024.000000
1683.516357 6169.000000
1684.999634 6186.000000
1686.482056 5814.000000
1687.963379 6176.000000
1689.443237 6245.000000
1690.922852 5535.000000
1692.401733 6585.000000
1693.879639 5972.000000
1695.356567 6116.000000
1696.832275 5738.000000
1698.307617 6046.000000
1699.781738 6307.000000
1701.255249 5517.000000
1702.727295 5544.000000
1704.199097 6869.000000
1705.669922 6356.000000
1707.139893 7014.000000
1708.608521 5146.000000
1710.076660 5800.000000
1711.544067 6319.000000
1713.010376 5461.000000
1714.476074 5748.000000
1715.940063 6205.000000
1717.403931 5912.000000
1718.866943 6935.000000
1720.328979 6351.000000
1721.789795 6601.000000
1723.250000 5414.000000
1724.709473 5688.000000
1726.168091 6059.000000
1727.625732 5990.000000
1729.082031 6214.000000
1730.538086 6072.000000
1731.993164 6493.000000
1733.447266 5991.000000
1734.900146 6893.000000
1736.352783 5985.000000
1737.804321 6733.000000
1739.255127 5922.000000
1740.704956 6539.000000
1742.153442 5854.000000
1743.601563 7363.000000
1745.048828 6510.000000
1746.495361 6685.000000
1747.940308 6671.000000
1749.385010 6156.000000
1750.828857 5846.000000
1752.271851 5481.000000
1753.713379 6519.000000
1755.154663 6302.000000
1756.595093 6295.500000
1758.034546 6289.000000
1759.473022 5351.000000
1760.910522 6046.000000
1762.347534 7537.000000
1763.783569 5818.000000
1765.218750 7147.000000
1766.652466 6210.000000
1768.086060 6432.000000
1769.518677 6631.000000
1770.950439 5728.000000
1772.381348 5746.000000
1773.811035 6325.000000
1775.239990 6105.000000
1776.668457 6222.000000
1778.095947 6688.000000
1779.522095 6245.000000
1780.947998 5575.000000
1782.372803 6834.000000
1783.796997 5581.000000
1785.219727 6604.000000
1786.641968 6511.000000
1788.063477 6875.000000
1789.484253 5760.000000
1790.904053 6118.000000
1792.322510 6221.000000
1793.740479 6854.000000
1795.157837 5486.000000
1796.574341 6092.000000
1797.989380 6552.000000
1799.404053 5839.000000
1800.818115 6632.000000
1802.230957 5913.000000
1803.643188 6848.000000
1805.054077 7108.000000
1806.464478 7738.000000
1807.874146 6457.000000
1809.282837 5938.000000
1810.690430 5368.000000
1812.097534 6412.000000
1813.503784 6297.000000
1814.909058 6686.000000
1816.313232 5944.000000
1817.717041 6008.000000
1819.119873 6136.000000
1820.521851 6007.000000
1821.923218 5820.000000
1823.323120 6384.000000
1824.722412 6520.000000
1826.121216 6517.000000
1827.519165 7454.000000
1828.915771 5741.000000
1830.311768 6728.000000
1831.707031 5885.000000
1833.101685 8114.000000
1834.495361 5988.000000
1835.887695 6798.000000
1837.279541 6440.000000
1838.670776 5819.000000
1840.061035 7081.000000
1841.450073 5989.000000
1842.838745 5965.000000
1844.226440 5928.000000
1845.613403 5802.000000
1846.999023 6834.000000
1848.384399 5870.000000
1849.768921 6375.000000
1851.152710 6317.000000
1852.535400 6337.000000
1853.916870 5376.000000
1855.297852 6537.000000
1856.678345 6242.000000
1858.057861 5739.000000
1859.435913 5970.000000
1860.813843 6216.000000
1862.190796 7878.000000
1863.567017 6128.000000
1864.942383 6059.000000
1866.316284 5624.000000
1867.690063 5717.000000
1869.062988 6200.000000
1870.434814 5929.000000
1871.805664 6914.000000
1873.176147 5404.000000
1874.545532 6003.000000
1875.914429 6052.000000
1877.281738 7158.000000
1878.648926 6024.000000
1880.015137 5981.000000
1881.380615 6887.000000
1882.745361 7505.000000
1884.108521 6789.000000
1885.471558 6869.000000
1886.833740 6343.000000
1888.195068 6422.000000
1889.555054 5639.000000
1890.914673 5770.000000
1892.273682 6174.000000
1893.631714 6602.000000
1894.988892 7233.000000
1896.344849 5891.000000
1897.700562 7649.000000
1899.055298 5841.000000
1900.409180 5488.000000
1901.761963 5867.000000
1903.114258 5878.000000
1904.465820 5990.000000
1905.816528 6850.000000
1907.166016 6585.000000
1908.515015 6710.000000
1909.863159 5749.000000
1911.210693 6052.000000
1912.557495 6285.000000
1913.902710 6787.000000
1915.247681 6020.000000
1916.591919 5463.000000
1917.935303 6429.000000
1919.277344 5966.000000
1920.619141 6683.000000
1921.960083 6944.000000
1923.300293 6094.000000
1924.639526 6226.000000
1925.977783 6309.000000
1927.315430 6423.000000
1928.652344 6944.000000
1929.988403 6733.000000
1931.323242 5585.000000
1932.657715 6674.000000
1933.991455 7246.000000
1935.324341 6249.000000
1936.655762 5747.000000
1937.987305 6267.000000
1939.317505 6592.000000
1940.647217 5785.000000
1941.976074 6078.000000
1943.303711 5838.000000
1944.630859 4958.000000
1945.957275 5824.000000
1947.282959 6474.000000
1948.607300 5749.000000
1949.931396 6636.000000
1951.254639 6248.000000
1952.577148 6424.000000
1953.898560 5736.000000
1955.218994 7399.000000
1956.538818 5953.000000
1957.858276 5505.000000
1959.176758 6821.000000
1960.493896 5893.000000
1961.810669 5882.000000
1963.126709 6579.000000
1964.442017 6527.000000
1965.755859 6255.000000
1967.069458 5634.000000
1968.382324 6209.000000
1969.694336 6011.000000
1971.005737 5970.000000
1972.315796 6298.000000
1973.625366 5833.000000
1974.934204 6187.000000
1976.242432 6579.000000
1977.549316 6116.000000
1978.855591 7224.000000
1980.161499 5582.000000
1981.466187 6358.000000
1982.770386 5879.000000
1984.073364 5745.000000
1985.375977 7521.000000
1986.677612 6092.000000
1987.978638 6801.000000
1989.278076 6031.000000
1990.577637 6618.000000
1991.876099 5219.000000
1993.174072 6013.000000
1994.470459 6123.000000
1995.766846 5775.000000
1997.062256 5561.000000
1998.356934 6503.000000
1999.650757 5758.000000
2000.943359 6531.000000
2002.235474 5739.000000
2003.527100 7207.000000
2004.817993 6506.000000
2006.107300 6277.000000
2007.396362 6871.000000
2008.684692 5970.000000
2009.972290 6042.000000
2011.259033 6664.000000
2012.544678 5639.000000
2013.829956 6319.000000
2015.114258 5984.000000
2016.397949 5625.000000
2017.680298 6073.000000
2018.962280 6511.000000
2020.243774 6727.000000
2021.524292 5917.000000
2022.804077 6086.000000
2024.082764 6735.000000
2025.360718 5747.000000
2026.638184 5838.000000
2027.915039 6303.000000
2029.190186 5705.000000
2030.465454 6570.000000
2031.739746 5986.000000
2033.013062 5969.000000
2034.285522 5926.000000
2035.557617 6166.000000
2036.828613 6856.000000
2038.099365 6520.000000
2039.368774 5994.000000
2040.637085 6817.000000
2041.905396 6613.000000
2043.172729 5865.000000
2044.439331 5985.000000
2045.704712 5605.000000
2046.969482 5526.000000
2048.234131 5415.000000
2049.497314 5919.000000
2050.760254 6390.000000
2052.021240 6131.000000
2053.282715 6037.000000
2054.542969 5835.000000
2055.802490 6467.000000
2057.061279 6285.000000
2058.319092 6926.000000
2059.576416 6067.000000
2060.833008 5959.000000
2062.088135 6499.000000
2063.343262 5686.000000
2064.597412 5569.000000
2065.850830 5610.000000
2067.103516 6775.000000
2068.354980 6282.000000
2069.606201 6269.000000
2070.856689 5586.000000
2072.106445 5428.000000
2073.354736 6087.000000
2074.603027 6508.000000
2075.850342 7442.000000
2077.096924 5585.000000
2078.342773 6037.000000
2079.587402 6946.000000
2080.831543 7597.000000
2082.075195 5456.000000
2083.317871 5970.000000
2084.559326 6935.000000
2085.800537 5928.000000
2087.041260 6334.000000
2088.281006 6729.000000
2089.519531 7093.000000
2090.757568 6174.000000
2091.994873 5729.000000
2093.231934 6601.000000
2094.467529 6039.000000
2095.702393 6187.000000
2096.937012 6140.000000
2098.170654 5615.000000
2099.403320 6038.000000
2100.635254 6822.000000
2101.866699 6378.000000
2103.097168 6769.000000
2104.326904 6014.000000
2105.556396 5985.000000
2106.783936 5964.000000
2108.011719 6008.000000
2109.238770 6239.000000
2110.464844 5413.000000
2111.689453 6346.000000
2112.914307 6904.000000
2114.137939 6976.000000
2115.361084 6182.000000
2116.583008 7519.000000
2117.804688 6009.000000
2119.025391 6840.000000
2120.245361 5989.000000
2121.464844 6168.000000
2122.682861 6566.000000
2123.900879 7043.000000
2125.117920 5804.000000
2126.334473 5718.000000
2127.549316 6576.000000
2128.764404 6324.000000
2129.978516 7011.000000
2131.191895 5665.000000
2132.404541 6089.000000
2133.615723 5841.000000
2134.827148 6560.000000
2136.037354 6807.000000
2137.247070 5958.000000
2138.455322 6171.000000
2139.663574 5623.000000
2140.871094 5792.000000
2142.077393 7630.000000
2143.282959 5852.000000
2144.488281 5731.000000
2145.692627 5515.000000
2146.896240 6192.000000
2148.099365 6153.000000
2149.301025 6580.000000
2150.502441 5314.000000
2151.703125 6250.000000
2152.903076 6001.000000
2154.101807 5986.000000
2155.300293 6889.000000
2156.498291 6180.000000
2157.695313 6025.000000
2158.891602 5074.000000
2160.086670 5248.000000
2161.281494 6035.000000
2162.475586 5604.000000
2163.668701 5970.000000
2164.860840 6932.000000
2166.052734 5888.000000
2167.243896 6295.000000
2168.434082 6288.000000
2169.623535 6440.000000
2170.812500 6804.000000
2172.000488 6017.000000
2173.188232 5695.000000
2174.374512 5940.000000
2175.560059 6557.000000
2176.745361 5972.000000
2177.930176 5830.000000
2179.113770 6370.000000
2180.296631 7461.000000
2181.478516 6303.000000
2182.660156 5936.000000
2183.841309 6504.000000
2185.021240 5693.000000
2186.200195 5547.000000
2187.378662 6322.000000
2188.556885 6920.000000
2189.733887 7172.000000
2190.909912 6690.000000
2192.085693 6023.000000
2193.260986 5609.000000
2194.434814 6681.000000
2195.608154 6124.000000
2196.781250 6121.000000
2197.953125 6410.000000
2199.124512 7103.000000
2200.295410 6318.000000
2201.464600 6884.000000
2202.633789 7563.000000
2203.802490 6289.000000
2204.970215 5878.000000
2206.136963 5660.000000
2207.302979 7160.000000
2208.468506 6707.000000
2209.633789 5842.000000
2210.797607 6724.000000
2211.960938 5448.000000
2213.123047 6169.000000
2214.285400 6122.000000
2215.446533 6608.000000
2216.606689 6644.000000
2217.766357 6277.000000
2218.925781 6595.000000
2220.083984 6337.000000
2221.241211 6289.000000
2222.398193 6773.000000
2223.554443 6539.000000
2224.709961 6750.000000
2225.864746 6215.000000
2227.018555 6438.000000
2228.171387 6006.000000
2229.324707 6882.000000
2230.476074 6165.000000
2231.627197 6182.000000
2232.777588 6492.000000
2233.927490 7676.000000
2235.076416 6293.000000
2236.224854 5187.000000
2237.371826 6772.000000
2238.519043 7040.000000
2239.665039 6024.000000
2240.810791 7223.000000
2241.954834 7294.000000
2243.099121 6705.000000
2244.242432 6164.000000
2245.385010 5957.000000
2246.526611 5731.000000
2247.667969 5756.000000
2248.808350 6419.000000
2249.947998 6417.000000
2251.087158 5826.000000
2252.225098 5791.000000
2253.363037 6200.000000
2254.500000 5310.000000
2255.636230 6290.000000
2256.771484 6101.000000
2257.906006 7219.000000
2259.040283 6360.000000
2260.174072 5428.000000
2261.306396 6092.000000
2262.438232 6795.000000
2263.569580 6262.000000
2264.699951 6396.000000
2265.830078 8080.000000
2266.958984 6637.000000
2268.087402 6023.000000
2269.215332 5496.000000
2270.342285 6096.000000
2271.468506 5989.000000
2272.593750 6671.000000
2273.718994 6478.000000
2274.843506 6409.000000
2275.966797 5932.000000
2277.089355 6266.000000
2278.211426 5979.000000
2279.333008 7449.000000
2280.453857 6362.000000
2281.573486 6400.000000
2282.692627 7092.000000
2283.811523 7619.000000
2284.929688 7114.000000
2286.046875 5864.000000
2287.163086 6376.000000
2288.279053 6977.000000
2289.394287 6887.000000
2290.508789 7392.000000
2291.622070 5776.000000
2292.735352 6324.000000
2293.847900 5995.000000
2294.959717 5306.000000
2296.070801 6724.000000
2297.180664 6348.000000
2298.290039 6125.000000
2299.399170 6654.000000
2300.507324 6268.000000
2301.614502 6700.000000
2302.721436 5912.000000
2303.827637 6187.000000
2304.933350 6585.000000
2306.037598 6528.000000
2307.141602 5453.000000
2308.245117 5716.000000
2309.348145 6479.000000
2310.449951 7426.000000
2311.551025 7368.000000
2312.651611 6594.000000
2313.751709 5481.000000
2314.851074 6387.000000
2315.948975 6552.000000
2317.047363 7005.000000
2318.144287 8216.000000
2319.240967 6835.000000
2320.337158 5830.000000
2321.431641 6816.000000
2322.526123 7454.000000
2323.619873 5821.000000
2324.713379 6071.000000
2325.805176 6420.000000
2326.896973 6976.000000
2327.988037 6104.000000
2329.078369 6203.000000
2330.167725 6819.000000
2331.257080 5960.000000
2332.345215 6253.000000
2333.432861 6836.000000
2334.520264 6470.000000
2335.605957 6682.000000
2336.691406 7736.000000
2337.776611 6247.000000
2338.860840 6633.000000
2339.944092 5921.000000
2341.027100 6505.000000
2342.109131 7085.000000
2343.190918 5978.000000
2344.271973 7427.000000
2345.351807 6638.000000
2346.431152 5678.000000
2347.510010 6770.000000
2348.588379 6497.000000
2349.665283 6271.000000
2350.741943 6972.000000
2351.818359 6021.000000
2352.893799 6472.000000
2353.968262 5915.000000
2355.042480 6282.000000
2356.115967 6720.000000
2357.188965 6307.000000
2358.260742 6949.000000
2359.332275 6274.000000
2360.402832 6804.000000
2361.473145 7460.000000
2362.542480 7535.000000
2363.610840 6787.000000
2364.678955 6764.000000
2365.746338 7053.000000
2366.813232 7105.000000
2367.879395 6030.000000
2368.944336 6879.000000
2370.009277 6964.000000
2371.073486 6330.000000
2372.136963 6902.000000
2373.199219 5749.000000
2374.261475 6255.000000
2375.322754 6340.000000
2376.383789 5885.000000
2377.443604 6324.000000
2378.502686 7906.000000
2379.561768 6438.000000
2380.619873 7552.000000
2381.677246 6811.000000
2382.733643 8065.000000
2383.789795 7788.000000
2384.845459 6249.000000
2385.900391 7112.000000
2386.953857 6783.000000
2388.007568 6510.000000
2389.060303 6244.000000
2390.112549 6791.000000
2391.164063 6097.000000
2392.214600 6614.000000
2393.264893 6517.000000
2394.314209 6168.000000
2395.363525 6210.000000
2396.411377 6826.000000
2397.458740 6985.000000
2398.505859 6319.000000
2399.552002 6680.000000
2400.597412 6177.000000
2401.642090 6728.000000
2402.686768 7714.000000
2403.729980 7454.000000
2404.773193 6557.000000
2405.814941 5735.000000
2406.856934 6689.000000
2407.898193 7161.000000
2408.938477 6105.000000
2409.978027 6398.000000
2411.016602 6283.000000
2412.055420 5990.000000
2413.093018 6518.000000
2414.130371 6866.000000
2415.166504 7357.000000
2416.202393 6202.000000
2417.237549 6252.000000
2418.272217 6588.000000
2419.305420 7228.000000
2420.338867 6515.000000
2421.371338 6665.000000
2422.403564 6853.000000
2423.434326 7093.000000
2424.465088 6357.000000
2425.495361 6806.000000
2426.524414 6807.000000
2427.553467 6642.000000
2428.580811 7339.000000
2429.608643 6646.000000
2430.635254 7276.000000
2431.661621 6871.000000
2432.686523 7728.000000
2433.711670 6562.000000
2434.735840 7149.000000
2435.759766 6705.000000
2436.782471 5782.000000
2437.804443 6272.000000
2438.826172 6624.000000
2439.847168 6683.000000
2440.867676 5954.000000
2441.886963 6537.000000
2442.906250 6584.000000
2443.924561 8373.000000
2444.942627 6206.000000
2445.959229 6512.000000
2446.975830 6499.000000
2447.991699 5924.000000
2449.007568 7030.000000
2450.021973 6793.000000
2451.035645 5477.000000
2452.048828 7246.000000
2453.061768 5932.000000
2454.073975 7085.000000
2455.085205 6735.000000
2456.096191 7619.000000
2457.106445 6357.000000
2458.116211 7560.000000
2459.125000 5862.000000
2460.133057 5939.000000
2461.141113 6286.000000
2462.147949 7303.000000
2463.154541 5436.000000
2464.159912 7449.000000
2465.165039 6883.000000
2466.169922 5821.000000
2467.173584 6499.000000
2468.177002 6392.000000
2469.179443 7595.000000
2470.181641 7306.000000
2471.183350 6827.000000
2472.184082 6619.000000
2473.183838 6865.000000
2474.183594 6718.000000
2475.182373 5605.000000
2476.180664 6535.000000
2477.177979 7019.000000
2478.175049 6162.000000
2479.172119 6941.000000
2480.167725 5771.000000
2481.163330 7066.000000
2482.157227 6691.000000
2483.151123 8052.000000
2484.144531 6847.000000
2485.137451 6719.000000
2486.129395 7485.000000
2487.120605 7203.000000
2488.111572 6656.000000
2489.102051 5847.000000
2490.091553 6623.000000
2491.080322 6454.000000
2492.069092 5647.000000
2493.056885 6748.000000
2494.043457 6554.000000
2495.030029 7974.000000
2496.016113 6684.000000
2497.001465 7058.000000
2497.985840 8368.000000
2498.969971 5993.000000
2499.954102 6892.000000
2500.936768 5760.000000
2501.918945 6973.000000
2502.900635 6837.000000
2503.881592 7270.000000
2504.862061 6545.000000
2505.842285 5676.000000
2506.821045 6318.000000
2507.799561 7558.000000
2508.777588 6700.000000
2509.755127 7038.000000
2510.731689 6060.000000
2511.708008 5788.000000
2512.683594 6433.000000
2513.658691 6168.000000
2514.633301 6404.000000
2515.606689 7464.000000
2516.579834 6792.000000
2517.552734 6811.000000
2518.524658 6089.000000
2519.495850 6745.000000
2520.466553 6804.000000
2521.437012 7812.000000
2522.406738 8070.000000
2523.375488 6118.000000
2524.343506 6091.000000
2525.311523 7721.000000
2526.278564 6332.000000
2527.245361 5481.000000
2528.210938 7192.000000
2529.176514 6990.000000
2530.141357 7714.000000
2531.105713 6265.000000
2532.068848 6371.000000
2533.032227 5849.000000
2533.994629 5956.000000
2534.956787 6676.000000
2535.917725 6326.000000
2536.877930 6110.000000
2537.838379 6107.000000
2538.797852 6701.000000
2539.756592 6845.000000
2540.714355 6652.000000
2541.672363 6153.000000
2542.629639 6775.000000
2543.585938 6082.000000
2544.541992 7074.000000
2545.496826 6180.000000
2546.451904 7783.000000
2547.406250 7023.000000
2548.359863 6284.000000
2549.312500 7177.000000
2550.264893 6704.000000
2551.216797 6962.000000
2552.167969 6346.000000
2553.118408 7621.000000
2554.068359 7315.000000
2555.018066 7388.000000
2555.967041 6565.000000
2556.915527 6209.000000
2557.862793 7051.000000
2558.810059 6274.000000
2559.756592 6568.000000
2560.702637 6726.000000
2561.647705 7366.000000
2562.592529 6758.000000
2563.536865 7116.000000
2564.480713 6869.000000
2565.424072 6580.000000
2566.365967 6532.000000
2567.308105 6488.000000
2568.249512 6113.000000
2569.190186 7159.000000
2570.130127 7252.000000
2571.070068 5637.000000
2572.009033 6124.000000
2572.947754 7494.000000
2573.885498 7174.000000
2574.822998 5489.000000
2575.759766 6931.000000
2576.695801 6712.000000
2577.631348 7413.000000
2578.566162 6332.000000
2579.500977 5930.000000
2580.434814 7043.000000
2581.368164 7240.000000
2582.300781 5831.000000
2583.233154 6920.000000
2584.164795 5393.000000
2585.095947 6994.000000
2586.026611 6913.000000
2586.956055 6870.000000
2587.885498 7232.000000
2588.814453 6470.000000
2589.743164 7445.000000
2590.670166 7255.000000
2591.597412 5868.000000
2592.524170 6813.000000
2593.450195 6264.000000
2594.375977 5638.000000
2595.300537 7550.000000
2596.224854 7517.000000
2597.148682 5347.000000
2598.072021 7280.000000
2598.994385 6233.000000
2599.916504 6808.000000
2600.838135 8374.000000
2601.759033 6386.000000
2602.679199 5769.000000
2603.599121 6334.000000
2604.518555 6301.000000
2605.437744 6461.000000
2606.355957 5789.000000
2607.272949 5991.000000
2608.190186 7236.000000
2609.107178 5855.000000
2610.023193 7534.000000
2610.937988 6595.000000
2611.853271 6570.000000
2612.767822 6524.000000
2613.681396 6607.000000
2614.594971 6137.000000
2615.507324 7558.000000
2616.419678 7040.000000
2617.331055 6796.000000
2618.242188 5719.000000
2619.152588 7170.000000
2620.062744 6664.000000
2620.972168 6120.000000
2621.881104 6580.000000
2622.789063 6195.000000
2623.697266 6889.000000
2624.604492 6665.000000
2625.511230 7013.000000
2626.417236 5948.000000
2627.322998 6611.000000
2628.228027 6503.000000
2629.132813 7754.000000
2630.036865 6435.000000
2630.939941 6364.000000
2631.843018 6426.000000
2632.745117 5654.000000
2633.647217 6748.000000
2634.549072 6891.000000
2635.449219 6685.000000
2636.349609 6372.000000
2637.249268 6377.000000
2638.148682 5956.000000
2639.046631 6899.000000
2639.945068 6718.000000
2640.843018 6384.000000
2641.740234 6142.000000
2642.636230 6205.000000
2643.532227 6695.000000
2644.427979 6081.000000
2645.322998 6393.000000
2646.217773 6641.000000
2647.111084 7007.000000
2648.004395 6211.000000
2648.897461 6750.000000
2649.790283 6387.000000
2650.681396 7423.000000
2651.572754 6367.000000
2652.463623 7539.000000
2653.353760 7276.000000
2654.243652 6522.000000
2655.132324 7262.000000
2656.021240 6575.000000
2656.909668 6602.000000
2657.797119 7236.000000
2658.683594 6512.000000
2659.570557 7084.000000
2660.456787 6827.000000
2661.342529 6808.000000
2662.227051 6521.000000
2663.111572 6376.000000
2663.995850 6137.000000
2664.879395 7007.000000
2665.762451 7804.000000
2666.644775 7263.000000
2667.526611 6157.000000
2668.407715 6574.000000
2669.289063 6091.000000
2670.168945 6521.000000
2671.049072 7383.000000
2671.928467 7191.000000
2672.807861 6229.000000
2673.686523 6043.000000
2674.563477 6407.000000
2675.441162 6734.000000
2676.318115 6342.000000
2677.194336 8078.000000
2678.070068 7106.000000
2678.945068 6207.000000
2679.820313 7737.000000
2680.694580 6961.000000
2681.568359 7268.000000
2682.441406 6925.000000
2683.314209 6174.000000
2684.186768 6062.000000
2685.058594 6958.000000
2685.929688 6516.000000
2686.800537 6874.000000
2687.670898 7109.000000
2688.541016 6648.000000
2689.409424 6252.000000
2690.278564 7376.000000
2691.146973 7088.000000
2692.015137 6682.000000
2692.882568 6904.000000
2693.748779 5812.000000
2694.615479 7076.000000
2695.481201 7392.000000
2696.346924 7180.000000
2697.211182 7909.000000
2698.076172 6589.000000
2698.939697 7201.000000
2699.803467 5868.000000
2700.665771 7421.000000
2701.528564 6783.000000
2702.390381 5890.000000
2703.251709 6842.000000
2704.113037 6765.000000
2704.973145 7411.000000
2705.833252 7351.000000
2706.692871 6564.000000
2707.552246 6864.000000
2708.409912 7110.000000
2709.267822 6854.000000
2710.126221 7295.000000
2710.983398 6749.000000
2711.839844 5941.000000
2712.695801 6860.000000
2713.551758 6068.000000
2714.406982 6974.000000
2715.261475 6083.000000
2716.115479 6831.000000
2716.969482 7245.000000
2717.822510 6204.000000
2718.675781 6417.000000
2719.527344 7767.000000
2720.379395 6766.000000
2721.231201 6314.000000
2722.081787 6441.000000
2722.932373 6362.000000
2723.782471 7099.000000
2724.631836 6952.000000
2725.481201 6948.000000
2726.329346 6595.000000
2727.177002 6540.000000
2728.025146 6983.000000
2728.872070 6788.000000
2729.719482 5501.000000
2730.565430 7454.000000
2731.410645 6972.000000
2732.256348 6399.000000
2733.101074 6924.000000
2733.945801 7259.000000
2734.789307 6832.000000
2735.633057 7709.000000
2736.476074 7035.000000
2737.318604 5992.000000
2738.160156 6203.000000
2739.002197 6756.000000
2739.843262 6906.000000
2740.684082 5767.000000
2741.524658 5849.000000
2742.364014 7747.000000
2743.203369 6825.000000
2744.042725 6932.000000
2744.880859 6823.000000
2745.718506 7826.000000
2746.556152 6255.000000
2747.393311 7067.000000
2748.230225 6177.000000
2749.066650 6039.000000
2749.901855 6648.000000
2750.737305 6215.000000
2751.572266 6282.000000
2752.406494 6227.000000
2753.240479 6879.000000
2754.073975 6801.000000
2754.907471 7951.000000
2755.739990 6780.000000
2756.572021 7295.000000
2757.403564 6791.000000
2758.235107 7043.000000
2759.065674 7215.000000
2759.896484 7264.000000
2760.726074 7270.000000
2761.555664 6687.000000
2762.385010 7306.000000
2763.213623 6754.000000
2764.041748 6793.000000
2764.869385 6857.000000
2765.697021 6622.000000
2766.524170 7872.000000
2767.350586 5797.000000
2768.176514 7506.000000
2769.001953 6842.000000
2769.827148 7825.000000
2770.652344 7005.000000
2771.476318 6806.000000
2772.300293 6500.000000
2773.124268 7649.000000
2773.947021 6626.000000
2774.770020 6890.000000
2775.591797 6873.000000
2776.413574 6913.000000
2777.235352 6474.000000
2778.056152 7949.000000
2778.876221 6557.000000
2779.696533 6950.000000
2780.516357 7314.000000
2781.336182 6444.000000
2782.154053 5882.000000
2782.973145 8059.000000
2783.791016 6493.000000
2784.608643 6736.000000
2785.425781 7093.000000
2786.242432 7220.000000
2787.058838 7203.000000
2787.874756 6283.000000
2788.690430 5933.000000
2789.505127 6394.000000
2790.320313 6925.000000
2791.134766 7139.000000
2791.948730 6595.000000
2792.762451 7366.000000
2793.574951 8741.000000
2794.387695 6926.000000
2795.199951 7451.000000
2796.011719 7043.000000
2796.822754 7268.000000
2797.634521 6502.000000
2798.445068 7189.000000
2799.255615 7046.000000
2800.064697 7411.000000
2800.874512 8164.000000
2801.683594 7789.000000
2802.492432 6622.000000
2803.300781 7152.000000
2804.108154 6159.000000
2804.916016 6473.000000
2805.723145 6886.000000
2806.530029 6976.000000
2807.335693 7125.000000
2808.141846 6590.000000
2808.947266 6446.000000
2809.752686 7252.000000
2810.557373 6196.000000
2811.361084 7586.000000
2812.165283 7496.000000
2812.968994 6321.000000
2813.772461 6072.000000
2814.574463 6629.000000
2815.377197 7341.000000
2816.179199 7816.000000
2816.980957 6054.000000
2817.782227 6548.000000
2818.583008 7182.000000
2819.383301 6503.000000
2820.183838 6672.000000
2820.983398 8005.000000
2821.782471 7157.000000
2822.581543 6481.000000
2823.380371 7022.000000
2824.178711 6293.000000
2824.976074 7039.000000
2825.773682 7347.000000
2826.570557 6702.000000
2827.367676 7349.000000
2828.164063 7918.000000
2828.959717 6915.000000
2829.755371 7350.000000
2830.550781 7549.000000
2831.345703 7422.000000
2832.139893 6637.000000
2832.934082 6859.000000
2833.728027 5625.000000
2834.521484 6859.000000
2835.314209 7097.000000
2836.106689 8114.000000
2836.899170 7622.000000
2837.691406 7450.000000
2838.483154 6455.000000
2839.273926 6798.000000
2840.064697 8865.000000
2840.855713 7401.000000
2841.645752 6180.000000
2842.435303 7663.000000
2843.225098 7168.000000
2844.013916 7314.000000
2844.802734 7827.000000
2845.591553 7696.000000
2846.379395 7567.000000
2847.166748 7213.000000
2847.954346 7477.000000
2848.741455 7323.000000
2849.527832 6696.000000
2850.314209 7447.000000
2851.100342 7210.000000
2851.885986 7482.000000
2852.670654 7159.000000
2853.455811 6892.000000
2854.240723 7406.000000
2855.024902 7105.000000
2855.809082 6909.000000
2856.592041 8263.000000
2857.375244 6804.000000
2858.158203 6765.000000
2858.940674 7734.000000
2859.722900 6234.000000
2860.504639 6719.000000
2861.286133 7581.000000
2862.067871 7486.000000
2862.848877 7656.000000
2863.629150 6612.000000
2864.409180 6806.000000
2865.189209 8143.000000
2865.968994 7476.000000
2866.747803 8092.000000
2867.526855 7625.000000
2868.305420 6800.000000
2869.083740 6983.000000
2869.861572 7213.000000
2870.639160 6985.000000
2871.416504 7466.000000
2872.193604 6977.000000
2872.970215 6422.000000
2873.746338 7523.000000
2874.522461 7123.000000
2875.298096 8232.000000
2876.073486 7103.000000
2876.848389 6592.000000
2877.623047 7998.000000
2878.397705 6646.000000
2879.172119 7801.000000
2879.945801 6798.000000
2880.718750 7136.000000
2881.492432 6756.000000
2882.265137 7585.000000
2883.037842 7815.000000
2883.809814 8217.000000
2884.581543 6101.000000
2885.353760 6684.000000
2886.124756 6850.000000
2886.895264 6179.000000
2887.666260 8267.000000
2888.437256 7426.000000
2889.207520 7929.000000
2889.976807 7653.000000
2890.746338 6939.000000
2891.515869 7235.000000
2892.284912 7336.000000
2893.053467 7875.000000
2893.822021 7703.000000
2894.589600 6935.000000
2895.357666 6607.000000
2896.125244 7368.000000
2896.892822 8246.000000
2897.659180 7306.000000
2898.426514 6450.000000
2899.192627 7215.000000
2899.958984 6993.000000
2900.723877 8301.000000
2901.489258 6961.000000
2902.255127 6493.000000
2903.019531 7779.000000
2903.783936 7659.000000
2904.548584 8478.000000
2905.312256 6530.000000
2906.076660 8459.000000
2906.840332 6634.000000
2907.603271 8331.000000
2908.365967 6469.000000
2909.129150 8940.000000
2909.891846 7015.000000
2910.653320 6841.000000
2911.415283 6841.000000
