scanname Analyse014
timestamp 2017-02-10 20:09:14
ccdbias 904.823242
ccdgain 3.473401
sigmaread 8.960639
laserwavenum -0.686992
wavenumcorrection -0.164028
scancount 1
totalexposurems 10000
singleexposurems 10000
measurementstate Unknown
scanmode Manual
snr 193.561447 3.996775 3.466031
replacelist 3
374 36476.000000 14998.000000
383 36024.000000 11640.000000
672 35913.000000 31344.000000
peaks 20
278.178009 0.557624 0.000000 1.547233 0.000176
284.194275 0.556683 0.000000 0.813097 0.000056
299.398132 0.558302 0.000000 0.430364 0.000029
333.868469 0.565263 0.000000 0.700280 0.000117
346.703796 0.564275 0.000000 0.380004 0.000016
387.817474 0.577345 0.000000 1.481212 0.000283
461.394928 0.561629 0.000000 0.234076 0.000026
497.612183 0.567237 0.000000 0.730042 0.000026
532.410339 0.570168 0.000000 1.773296 0.000357
571.495422 0.570296 0.000000 0.422892 0.000027
579.866760 0.571886 0.000000 0.398836 0.000027
670.435974 0.558795 0.000000 0.682985 0.000051
716.000854 0.555668 0.000000 3.916201 0.000739
740.142761 0.542734 0.000000 0.169685 0.000101
767.112549 0.564604 0.000000 3.208874 0.000673
785.826416 0.550109 0.000000 1.656218 0.000419
828.531860 0.526885 0.000000 0.669391 0.000077
875.517883 0.527102 0.000000 1.186762 0.000375
934.953796 0.505298 0.000000 0.319308 0.000032
1322.667358 0.543872 0.000000 17.008028 0.005057
finalresult GLS_NoMatch 0
spectrum 2048
-96.914467 45382.000000
-94.287598 45382.000000
-91.662605 46048.000000
-89.039505 46021.000000
-86.418274 46943.000000
-83.798943 46748.000000
-81.181473 46988.000000
-78.565880 46781.000000
-75.952164 47066.000000
-73.340324 47307.000000
-70.730347 47283.000000
-68.122253 47513.000000
-65.516006 47557.000000
-62.911633 47488.000000
-60.309124 47409.000000
-57.708469 47902.000000
-55.109676 47298.000000
-52.512741 46590.000000
-49.917660 47045.000000
-47.324432 47002.000000
-44.733055 47204.000000
-42.143524 46740.000000
-39.555836 47656.000000
-36.969997 47434.000000
-34.386002 47059.000000
-31.803843 47812.000000
-29.223530 47136.000000
-26.645044 47747.000000
-24.068401 47241.000000
-21.493584 47107.000000
-18.920607 46861.000000
-16.349449 46869.000000
-13.780126 46642.000000
-11.212627 45405.000000
-8.646948 46902.000000
-6.083094 46701.000000
-3.521054 47154.000000
-0.960838 47119.000000
1.597570 46605.000000
4.154157 45737.000000
6.708940 45841.000000
9.261905 46097.000000
11.813069 44811.000000
14.362421 44450.000000
16.909977 43523.000000
19.455721 43651.000000
21.999672 43066.000000
24.541819 40415.000000
27.082169 38169.000000
29.620733 34941.000000
32.157501 31023.000000
34.692467 21905.000000
37.225655 12594.000000
39.757061 8318.000000
42.286674 7650.000000
44.814491 7467.000000
47.340549 6643.000000
49.864819 5748.000000
52.387318 5104.000000
54.908020 4773.000000
57.426968 5013.000000
59.944141 5670.000000
62.459538 7096.000000
64.973152 7312.000000
67.485016 7263.000000
69.995132 5743.000000
72.503456 3877.000000
75.010025 3284.000000
77.514847 2675.000000
80.017914 2414.000000
82.519203 2115.000000
85.018753 1989.000000
87.516548 1909.000000
90.012611 2226.000000
92.506897 2720.000000
94.999443 2910.000000
97.490273 2755.000000
99.979332 2478.000000
102.466644 1892.000000
104.952232 1677.000000
107.436081 1493.000000
109.918182 1411.000000
112.398560 1321.000000
114.877213 1283.000000
117.354141 1214.000000
119.829315 1174.000000
122.302780 1241.000000
124.774513 1270.000000
127.244537 1298.000000
129.712814 1420.000000
132.179413 1479.000000
134.644257 1637.000000
137.107407 1776.000000
139.568817 2120.000000
142.028534 2443.000000
144.486526 3061.000000
146.942825 3701.000000
149.397415 4612.000000
151.850281 5543.000000
154.301468 6705.000000
156.750961 8114.000000
159.198730 9738.000000
161.644791 11455.000000
164.089172 12778.000000
166.531876 14285.000000
168.972885 15584.000000
171.412186 16515.000000
173.849777 17214.000000
176.285736 17805.000000
178.719955 18073.000000
181.152496 18292.000000
183.583389 18334.000000
186.012558 18581.000000
188.440079 18742.000000
190.865921 18866.000000
193.290085 19112.000000
195.712585 19257.000000
198.133392 19430.000000
200.552536 19976.000000
202.970016 21456.000000
205.385803 22805.000000
207.799942 24951.000000
210.212448 27056.000000
212.623276 28624.000000
215.032425 29976.000000
217.439941 30382.000000
219.845749 32886.000000
222.249969 33809.000000
224.652481 34540.000000
227.053375 34823.000000
229.452621 35671.000000
231.850204 35555.000000
234.246124 35379.000000
236.640427 36372.000000
239.033066 36698.000000
241.424088 36063.000000
243.813446 36366.000000
246.201187 36603.000000
248.587280 36043.000000
250.971741 36972.000000
253.354553 35141.000000
255.735794 36464.000000
258.115326 36354.000000
260.493286 36627.000000
262.869568 35540.000000
265.244293 35413.000000
267.617371 35072.000000
269.988800 36632.000000
272.358582 36283.000000
274.726807 36800.000000
277.093384 36430.000000
279.458374 36209.000000
281.821747 36639.000000
284.183472 36506.000000
286.543610 35612.000000
288.902130 36788.000000
291.259064 36127.000000
293.614380 36337.000000
295.968109 36708.000000
298.320190 36677.000000
300.670715 36448.000000
303.019653 36338.000000
305.366943 35826.000000
307.712708 36265.000000
310.056793 36166.000000
312.399353 35247.000000
314.740295 35107.000000
317.079620 35360.000000
319.417389 35466.000000
321.753601 34291.000000
324.088165 35989.000000
326.421173 35594.000000
328.752625 36083.000000
331.082489 35552.000000
333.410767 35762.000000
335.737427 34895.000000
338.062592 35675.000000
340.386139 35781.000000
342.708130 35919.000000
345.028564 34537.000000
347.347382 34397.000000
349.664642 35858.000000
351.980377 35974.000000
354.294525 34919.000000
356.607086 35677.000000
358.918091 35538.000000
361.227570 34891.000000
363.535522 35527.000000
365.841858 36163.000000
368.146606 35443.000000
370.449890 35572.000000
372.751556 35738.000000
375.051727 35663.000000
377.350342 35754.000000
379.647400 36363.000000
381.942902 36032.000000
384.236877 36436.000000
386.529266 37106.000000
388.820160 36852.000000
391.109528 36382.000000
393.397308 36515.000000
395.683563 36291.000000
397.968323 35823.000000
400.251465 36804.000000
402.533173 36284.000000
404.813354 36622.000000
407.091949 35434.000000
409.369019 36278.000000
411.644562 35753.000000
413.918579 35993.000000
416.191162 35956.000000
418.462128 35824.000000
420.731598 35824.000000
422.999573 35039.000000
425.265991 34805.000000
427.530914 35700.000000
429.794373 35431.000000
432.056244 35092.000000
434.316650 35446.000000
436.575500 34722.000000
438.832886 35156.000000
441.088776 35426.000000
443.343170 35212.000000
445.596039 35476.000000
447.847351 34028.000000
450.097260 34799.000000
452.345581 34415.000000
454.592468 34947.000000
456.837891 34251.000000
459.081757 34165.000000
461.324127 34245.000000
463.565002 34959.000000
465.804474 33947.000000
468.042358 35186.000000
470.278809 34654.000000
472.513733 34603.000000
474.747192 33326.000000
476.979218 33866.000000
479.209717 34628.000000
481.438721 33867.000000
483.666260 34034.000000
485.892303 34491.000000
488.116913 33997.000000
490.340057 34636.000000
492.561737 34183.000000
494.781860 33885.000000
497.000580 34978.000000
499.217804 34455.000000
501.433655 35249.000000
503.647888 34790.000000
505.860809 34566.000000
508.072144 34588.000000
510.282043 34241.000000
512.490479 34543.000000
514.697571 34487.000000
516.903076 34544.000000
519.107178 34404.000000
521.309753 34574.000000
523.510925 34178.000000
525.710754 33870.000000
527.909058 33527.000000
530.105835 34968.000000
532.301270 34532.000000
534.495178 34887.000000
536.687744 33049.000000
538.878784 33762.000000
541.068420 34212.000000
543.256653 33228.000000
545.443359 32806.000000
547.628601 32743.000000
549.812561 32973.000000
551.994934 32608.000000
554.175964 32756.000000
556.355469 32664.000000
558.533691 32786.000000
560.710388 32754.000000
562.885681 32252.000000
565.059570 32233.000000
567.231995 32619.000000
569.403015 32573.000000
571.572571 32377.000000
573.740845 33367.000000
575.907593 32437.000000
578.072876 32541.000000
580.236755 32649.000000
582.399353 33006.000000
584.560425 32811.000000
586.720093 33263.000000
588.878418 33225.000000
591.035217 33010.000000
593.190674 32727.000000
595.344727 33553.000000
597.497437 33342.000000
599.648621 32371.000000
601.798462 32796.000000
603.946960 32715.000000
606.093872 33285.000000
608.239563 32840.000000
610.383850 33155.000000
612.526672 32469.000000
614.668030 33286.000000
616.808167 32973.000000
618.946777 31676.000000
621.084106 33381.000000
623.219971 32554.000000
625.354431 32181.000000
627.487427 31662.000000
629.619263 31977.000000
631.749634 31926.000000
633.878601 31583.000000
636.006104 31671.000000
638.132324 31803.000000
640.257019 30670.000000
642.380493 31420.000000
644.502625 30657.000000
646.623291 30539.000000
648.742615 30607.000000
650.860535 31323.000000
652.977112 31288.000000
655.092285 30497.000000
657.206116 30418.000000
659.318481 30869.000000
661.429626 30575.000000
663.539368 31343.000000
665.647644 30842.000000
667.754761 30705.000000
669.860413 30178.000000
671.964600 31070.000000
674.067566 31322.000000
676.169128 30264.000000
678.269348 32005.000000
680.368164 30804.000000
682.465637 31443.000000
684.561829 30765.000000
686.656555 31389.000000
688.750061 30726.000000
690.842224 31156.000000
692.932861 29973.000000
695.022278 31142.000000
697.110413 31063.000000
699.197083 31288.000000
701.282532 30437.000000
703.366455 31774.000000
705.449158 30904.000000
707.530579 30666.000000
709.610535 28956.000000
711.689270 30115.000000
713.766541 30483.000000
715.842529 29607.000000
717.917236 30183.000000
719.990662 29384.000000
722.062561 30121.000000
724.133301 28919.000000
726.202698 30262.000000
728.270691 29279.000000
730.337341 29324.000000
732.402771 28582.000000
734.466858 29718.000000
736.529602 29227.000000
738.591003 29061.000000
740.651123 28816.000000
742.709839 29253.000000
744.767334 28688.000000
746.823547 28618.000000
748.878357 28506.000000
750.931885 28760.000000
752.984009 27727.000000
755.034912 29300.000000
757.084595 28344.000000
759.132813 28935.000000
761.179810 28968.000000
763.225525 28295.000000
765.269836 30132.000000
767.312866 30093.000000
769.354675 29530.500000
771.395142 28968.000000
773.434204 28598.000000
775.472107 28815.000000
777.508667 28982.000000
779.544006 29671.000000
781.578003 29521.000000
783.610596 28660.000000
785.642029 30175.000000
787.672058 29918.000000
789.700806 29661.000000
791.728394 28799.000000
793.754639 28819.000000
795.779480 29273.000000
797.803223 29573.000000
799.825562 28769.000000
801.846680 29307.000000
803.866455 28490.000000
805.884949 30231.000000
807.902222 28399.000000
809.918091 28293.000000
811.932800 29121.000000
813.946167 28312.000000
815.958313 28169.000000
817.969238 28110.000000
819.978821 27446.000000
821.987183 28399.000000
823.994141 27932.000000
825.999878 27603.000000
828.004395 27803.000000
830.007629 27803.000000
832.009583 26934.000000
834.010254 27415.000000
836.009705 27462.000000
838.007813 27114.000000
840.004822 26342.000000
842.000427 26971.000000
843.994873 26991.000000
845.987976 26611.000000
847.979858 25984.000000
849.970398 26884.000000
851.959656 25642.000000
853.947876 26362.000000
855.934692 26605.000000
857.920288 26135.000000
859.904602 25433.000000
861.887817 26184.000000
863.869629 26219.000000
865.850220 26830.000000
867.829529 25086.000000
869.807678 25587.000000
871.784485 26387.000000
873.760010 26650.000000
875.734497 26672.000000
877.707520 26792.000000
879.679504 27431.000000
881.650146 26594.000000
883.619629 26763.000000
885.587769 27199.000000
887.554749 27460.000000
889.520386 26637.000000
891.484863 27028.000000
893.448120 26709.000000
895.410156 26274.000000
897.370911 26868.000000
899.330444 26427.000000
901.288696 26036.000000
903.245850 26362.000000
905.201843 26616.000000
907.156433 25909.000000
909.109802 26215.000000
911.062012 26184.000000
913.013000 25948.000000
914.962708 25111.000000
916.911255 25478.000000
918.858582 25497.000000
920.804626 25164.000000
922.749390 24980.000000
924.693115 24493.000000
926.635681 24380.000000
928.576965 24469.000000
930.516907 23795.000000
932.455750 23943.000000
934.393311 23966.000000
936.329651 23685.000000
938.264832 23798.000000
940.198730 23714.000000
942.131531 23930.000000
944.063110 23452.000000
945.993530 24314.000000
947.922729 23879.000000
949.850586 23588.000000
951.777405 23648.000000
953.702942 24037.000000
955.627197 24343.000000
957.550354 24473.000000
959.472351 24219.000000
961.393066 23829.000000
963.312622 24230.000000
965.231018 24909.000000
967.148376 24502.000000
969.064270 24498.000000
970.979065 24595.000000
972.892639 24781.000000
974.805054 24502.000000
976.716248 24356.000000
978.626282 24884.000000
980.535034 24485.000000
982.442749 24534.000000
984.349243 24275.000000
986.254517 24651.000000
988.158691 24068.000000
990.061646 24523.000000
991.963379 24031.000000
993.863953 24042.000000
995.763367 23802.000000
997.661560 24393.000000
999.558594 23734.000000
1001.454407 23497.000000
1003.349060 22620.000000
1005.242615 23177.000000
1007.134888 22306.000000
1009.026245 22611.000000
1010.916260 22759.000000
1012.805054 22155.000000
1014.692688 22223.000000
1016.579163 22065.000000
1018.464478 21926.000000
1020.348633 22190.000000
1022.231567 22143.000000
1024.113525 21922.000000
1025.994141 22226.000000
1027.873657 22040.000000
1029.752197 22116.000000
1031.629395 22115.000000
1033.505249 22065.000000
1035.380127 22096.000000
1037.254028 21992.000000
1039.126465 21924.000000
1040.997925 21754.000000
1042.868042 21790.000000
1044.737183 22111.000000
1046.605103 22184.000000
1048.471924 21921.000000
1050.337646 22137.000000
1052.202148 22291.000000
1054.065552 22499.000000
1055.927612 22524.000000
1057.788696 22482.000000
1059.648682 22302.000000
1061.507324 22265.000000
1063.364868 22537.000000
1065.221313 22136.000000
1067.076660 22539.000000
1068.930786 22572.000000
1070.784058 22442.000000
1072.635864 22247.000000
1074.486694 22348.000000
1076.336304 22378.000000
1078.184692 22624.000000
1080.032227 21685.000000
1081.878418 22422.000000
1083.723389 22040.000000
1085.567505 22155.000000
1087.410278 22292.000000
1089.251831 21986.000000
1091.092651 21932.000000
1092.931885 21604.000000
1094.770386 21737.000000
1096.607544 21721.000000
1098.443481 21299.000000
1100.278442 21092.000000
1102.112183 20727.000000
1103.944946 20611.000000
1105.776367 20698.000000
1107.606934 20950.000000
1109.436157 20604.000000
1111.264404 19970.000000
1113.091431 19761.000000
1114.917480 19968.000000
1116.742310 19844.000000
1118.566040 19780.000000
1120.388550 19920.000000
1122.209961 19842.000000
1124.030518 19804.000000
1125.849609 19805.000000
1127.667847 19900.000000
1129.484741 19932.000000
1131.300781 19984.000000
1133.115601 20076.000000
1134.929321 20114.000000
1136.741943 20352.000000
1138.553345 20488.000000
1140.363770 20659.000000
1142.173096 20563.000000
1143.981079 20441.000000
1145.788330 20877.000000
1147.594116 20612.000000
1149.399048 20666.000000
1151.202881 20783.000000
1153.005493 20622.000000
1154.807251 20758.000000
1156.607544 20613.000000
1158.406860 20663.000000
1160.205200 20578.000000
1162.002197 20469.000000
1163.798462 20401.000000
1165.593384 20142.000000
1167.387207 20137.000000
1169.180176 19599.000000
1170.971802 19789.000000
1172.762451 19533.000000
1174.552124 19469.000000
1176.340332 19607.000000
1178.127686 19311.000000
1179.913940 19323.000000
1181.699097 19413.000000
1183.483154 19325.000000
1185.266113 19142.000000
1187.048096 19398.000000
1188.828857 19150.000000
1190.608643 19293.000000
1192.387329 19018.000000
1194.165039 18948.000000
1195.941528 18932.000000
1197.716919 18564.000000
1199.491211 18382.000000
1201.264404 18071.000000
1203.036743 18059.000000
1204.807739 18076.000000
1206.577881 18116.000000
1208.346802 17908.000000
1210.114624 17906.000000
1211.881592 18019.000000
1213.647217 17989.000000
1215.411865 17855.000000
1217.175415 17968.000000
1218.937866 17952.000000
1220.699463 17762.000000
1222.459839 17805.000000
1224.219116 17647.000000
1225.977539 17525.000000
1227.734741 17672.000000
1229.490845 17851.000000
1231.245850 17971.000000
1233.000000 17978.000000
1234.752808 17942.000000
1236.504639 18025.000000
1238.255615 18130.000000
1240.005249 18182.000000
1241.754028 18265.000000
1243.501465 18244.000000
1245.248169 18023.000000
1246.993652 18312.000000
1248.738281 18272.000000
1250.481567 18149.000000
1252.223877 18352.000000
1253.965088 18002.000000
1255.705444 18036.000000
1257.444702 17573.000000
1259.182739 17063.000000
1260.919922 16840.000000
1262.655884 17053.000000
1264.390869 17311.000000
1266.124878 17385.000000
1267.857910 17706.000000
1269.589722 17912.000000
1271.320557 17793.000000
1273.050171 17933.000000
1274.778931 18077.000000
1276.506592 18113.000000
1278.233154 18023.000000
1279.958862 18166.000000
1281.683228 17899.000000
1283.406738 17803.000000
1285.129272 17649.000000
1286.850830 17731.000000
1288.571167 17736.000000
1290.290527 17655.000000
1292.008789 17605.000000
1293.726074 17625.000000
1295.442383 17515.000000
1297.157471 17657.000000
1298.871582 17903.000000
1300.584717 17402.000000
1302.296997 17226.000000
1304.008057 16859.000000
1305.718140 17115.000000
1307.427124 16889.000000
1309.134888 16708.000000
1310.842041 16669.000000
1312.547729 16631.000000
1314.252686 16663.000000
1315.956665 16790.000000
1317.659424 17084.000000
1319.361206 17310.000000
1321.062134 21259.000000
1322.761719 22434.000000
1324.460449 19213.000000
1326.158447 15992.000000
1327.855103 15963.000000
1329.550659 16010.000000
1331.245361 15856.000000
1332.938843 15954.000000
1334.631470 15795.000000
1336.323242 15665.000000
1338.013672 15559.000000
1339.703369 15572.000000
1341.391968 15648.000000
1343.079468 15445.000000
1344.765991 15598.000000
1346.451416 15357.000000
1348.135864 15468.000000
1349.819458 15353.000000
1351.501831 15711.000000
1353.183228 15735.000000
1354.863770 15822.000000
1356.543091 16048.000000
1358.221802 16111.000000
1359.899170 16310.000000
1361.575439 16250.000000
1363.250732 16400.000000
1364.925293 16176.000000
1366.598633 16211.000000
1368.270996 16380.000000
1369.942383 16209.000000
1371.612793 16233.000000
1373.282104 16128.000000
1374.950439 16117.000000
1376.617920 16224.000000
1378.284302 15969.000000
1379.949707 16166.000000
1381.614136 15876.000000
1383.277344 15731.000000
1384.939941 15859.000000
1386.601196 15670.000000
1388.261597 15580.000000
1389.920898 15433.000000
1391.579224 15353.000000
1393.236816 15353.000000
1394.893188 15388.000000
1396.548706 15403.000000
1398.203003 15425.000000
1399.856445 15377.000000
1401.508789 15511.000000
1403.160400 15439.000000
1404.810791 15141.000000
1406.460083 14853.000000
1408.108643 14538.000000
1409.756104 14301.000000
1411.402588 14450.000000
1413.048218 14353.000000
1414.692871 14293.000000
1416.336304 14225.000000
1417.978882 14091.000000
1419.620361 14104.000000
1421.260986 14179.000000
1422.900635 14175.000000
1424.539185 14031.000000
1426.176880 13998.000000
1427.813477 13875.000000
1429.449097 13865.000000
1431.083984 13805.000000
1432.717773 13742.000000
1434.350464 13760.000000
1435.982178 13635.000000
1437.613037 13665.000000
1439.242798 13741.000000
1440.871460 13696.000000
1442.499512 13740.000000
1444.126465 13794.000000
1445.752197 13599.000000
1447.377319 13695.000000
1449.001343 13768.000000
1450.624390 13900.000000
1452.246460 13747.000000
1453.867432 14035.000000
1455.487427 14043.000000
1457.106689 13968.000000
1458.724609 15036.000000
1460.341919 12575.000000
1461.958252 13841.000000
1463.573364 13703.000000
1465.187622 13856.000000
1466.801025 13857.000000
1468.413330 13986.000000
1470.024780 14033.000000
1471.635376 13914.000000
1473.244751 14004.000000
1474.853149 13925.000000
1476.460693 13923.000000
1478.067261 14079.000000
1479.673096 14052.000000
1481.277710 13785.000000
1482.881470 13725.000000
1484.484009 13458.000000
1486.085938 13018.000000
1487.686646 13060.000000
1489.286621 13050.000000
1490.885498 12750.000000
1492.483521 12949.000000
1494.080444 12743.000000
1495.676514 13147.000000
1497.271606 13723.000000
1498.865723 13579.000000
1500.459106 13662.000000
1502.051392 13414.000000
1503.642456 13314.000000
1505.233032 13242.000000
1506.822266 13243.000000
1508.410889 13156.000000
1509.998413 13029.000000
1511.584839 13011.000000
1513.170532 13012.000000
1514.755127 12886.000000
1516.338867 12940.000000
1517.921509 12885.000000
1519.503418 12842.000000
1521.084229 12885.000000
1522.664307 12860.000000
1524.243164 12532.000000
1525.821167 12487.000000
1527.398438 12480.000000
1528.974487 12366.000000
1530.549805 12411.000000
1532.124023 12095.000000
1533.697510 12269.000000
1535.269775 12184.000000
1536.841309 12224.000000
1538.411865 12202.000000
1539.981567 12098.000000
1541.550049 12130.000000
1543.117798 12108.000000
1544.684692 12028.000000
1546.250366 11949.000000
1547.815308 11924.000000
1549.379150 11929.000000
1550.942383 11904.000000
1552.504272 11792.000000
1554.065552 11713.000000
1555.625732 11916.000000
1557.185181 11821.000000
1558.743530 11721.000000
1560.301147 11683.000000
1561.857666 11669.000000
1563.412964 11639.000000
1564.967651 11702.000000
1566.521606 11759.000000
1568.074585 11481.000000
1569.626221 11603.000000
1571.177124 11686.000000
1572.727295 11564.000000
1574.276489 11727.000000
1575.824341 11706.000000
1577.371704 11642.000000
1578.918091 11631.000000
1580.463623 11676.000000
1582.008179 11710.000000
1583.551514 11639.000000
1585.094238 11543.000000
1586.636108 11590.000000
1588.176880 11608.000000
1589.716675 11693.000000
1591.255737 11466.000000
1592.793701 11463.000000
1594.331177 11515.000000
1595.867310 11535.000000
1597.402344 11514.000000
1598.936890 11328.000000
1600.470459 11322.000000
1602.003174 11381.000000
1603.534302 11390.000000
1605.065186 11477.000000
1606.595215 11464.000000
1608.124023 11199.000000
1609.651733 11249.000000
1611.178833 11224.000000
1612.705200 11322.000000
1614.230591 11337.000000
1615.755127 11266.000000
1617.278320 11299.000000
1618.800781 11255.000000
1620.322510 11220.000000
1621.843384 11278.000000
1623.362793 10540.000000
1624.881714 11114.000000
1626.399902 11098.000000
1627.917236 10989.000000
1629.433472 10988.000000
1630.948364 10841.000000
1632.462769 10788.000000
1633.976440 10873.000000
1635.489014 10795.000000
1637.000366 10724.000000
1638.511353 10683.000000
1640.021240 10656.000000
1641.530273 10678.000000
1643.037964 10630.000000
1644.545288 10596.000000
1646.051758 10577.000000
1647.557251 10451.000000
1649.061890 10440.000000
1650.565063 10377.000000
1652.067627 10400.000000
1653.569824 10342.000000
1655.070679 10406.000000
1656.570435 10009.000000
1658.069336 10118.000000
1659.567871 9980.000000
1661.065186 10205.000000
1662.561768 9972.000000
1664.056763 10126.000000
1665.551514 10060.000000
1667.045410 9780.000000
1668.538330 10781.000000
1670.029907 8544.000000
1671.520996 9837.000000
1673.011475 9612.000000
1674.500854 9576.000000
1675.988770 9442.000000
1677.476440 9620.000000
1678.963135 9798.000000
1680.448975 9792.000000
1681.933960 9640.000000
1683.417480 9339.000000
1684.900757 9423.000000
1686.383179 9388.000000
1687.864502 9452.000000
1689.344360 9233.000000
1690.823975 9302.000000
1692.302856 9274.000000
1693.780762 9708.000000
1695.257690 9340.000000
1696.733398 9422.000000
1698.208740 9257.000000
1699.682861 9268.000000
1701.156372 9340.000000
1702.628418 9345.000000
1704.100220 9396.000000
1705.571045 9315.000000
1707.041016 9235.000000
1708.509644 9289.000000
1709.977783 9397.000000
1711.445190 9291.000000
1712.911499 9275.000000
1714.377197 9337.000000
1715.841187 9361.000000
1717.305054 9387.000000
1718.768066 9279.000000
1720.230103 9318.000000
1721.690918 9114.000000
1723.151123 9179.000000
1724.610596 9382.000000
1726.069214 9493.000000
1727.526855 9359.000000
1728.983154 9268.000000
1730.439209 9313.000000
1731.894287 9277.000000
1733.348389 9282.000000
1734.801270 9274.000000
1736.253906 9205.000000
1737.705444 9270.000000
1739.156250 9121.000000
1740.606079 9105.000000
1742.054565 9095.000000
1743.502686 8978.000000
1744.949951 9032.000000
1746.396484 8806.000000
1747.841431 8813.000000
1749.286133 8943.000000
1750.729980 8819.000000
1752.172974 8892.000000
1753.614502 8700.000000
1755.055786 9114.000000
1756.496216 7962.000000
1757.935669 8614.000000
1759.374146 8683.000000
1760.811646 8764.000000
1762.248657 8533.000000
1763.684692 8452.000000
1765.119873 8472.000000
1766.553589 8538.000000
1767.987183 8605.000000
1769.419800 8466.000000
1770.851563 8460.000000
1772.282471 8652.000000
1773.712158 8444.000000
1775.141113 8285.000000
1776.569580 8241.000000
1777.997070 7867.000000
1779.423218 7523.000000
1780.849121 8073.000000
1782.273926 8121.000000
1783.698120 8086.000000
1785.120850 8098.000000
1786.543091 8122.000000
1787.964600 7818.000000
1789.385376 7958.000000
1790.805176 7912.000000
1792.223633 7796.000000
1793.641602 7712.000000
1795.058960 7725.000000
1796.475464 7792.000000
1797.890503 7767.000000
1799.305176 7649.000000
1800.719238 7760.000000
1802.132080 7771.000000
1803.544312 7696.000000
1804.955200 7726.000000
1806.365601 7687.000000
1807.775269 7616.000000
1809.183960 7630.000000
1810.591553 7728.000000
1811.998657 7537.000000
1813.404907 7635.000000
1814.810181 7769.000000
1816.214355 7748.000000
1817.618164 7588.000000
1819.020996 7703.000000
1820.422974 7686.000000
1821.824341 7670.000000
1823.224243 7697.000000
1824.623535 7592.000000
1826.022339 7674.000000
1827.420288 7545.000000
1828.816895 7744.000000
1830.212891 7623.000000
1831.608154 7447.000000
1833.002808 7521.000000
1834.396484 7630.000000
1835.788818 7539.000000
1837.180664 7550.000000
1838.571899 7446.000000
1839.962158 7391.000000
1841.351196 7409.000000
1842.739868 7458.000000
1844.127563 7475.000000
1845.514526 7455.000000
1846.900146 7307.000000
1848.285522 7378.000000
1849.670044 7456.000000
1851.053833 7319.000000
1852.436523 7322.000000
1853.817993 7377.000000
1855.198975 7141.000000
1856.579468 7172.000000
1857.958984 7238.000000
1859.337036 7133.000000
1860.714966 7122.000000
1862.091919 6989.000000
1863.468140 6967.000000
1864.843506 7083.000000
1866.217407 6902.000000
1867.591187 6988.000000
1868.964111 6869.000000
1870.335938 6909.000000
1871.706787 6834.000000
1873.077271 6763.000000
1874.446655 6784.000000
1875.815552 6749.000000
1877.182861 6693.000000
1878.550049 6581.000000
1879.916260 6650.000000
1881.281738 6624.000000
1882.646484 6449.000000
1884.009644 6666.000000
1885.372681 6561.000000
1886.734863 6499.000000
1888.096191 6549.000000
1889.456177 6506.000000
1890.815796 6501.000000
1892.174805 6505.000000
1893.532837 6401.000000
1894.890015 6361.000000
1896.245972 6396.000000
1897.601685 6346.000000
1898.956421 6390.000000
1900.310303 6526.000000
1901.663086 6374.000000
1903.015381 6307.000000
1904.366943 6327.000000
1905.717651 6404.000000
1907.067139 6472.000000
1908.416138 6401.000000
1909.764282 6365.000000
1911.111816 6437.000000
1912.458618 6212.000000
1913.803833 6475.000000
1915.148804 6375.000000
1916.493042 6465.000000
1917.836426 6319.000000
1919.178467 6380.000000
1920.520264 6318.000000
1921.861206 6318.000000
1923.201416 6414.000000
1924.540649 6387.000000
1925.878906 6379.000000
1927.216553 6319.000000
1928.553467 6380.000000
1929.889526 6359.000000
1931.224365 6273.000000
1932.558838 6258.000000
1933.892578 6117.000000
1935.225464 6193.000000
1936.556885 6199.000000
1937.888428 5990.000000
1939.218628 6145.000000
1940.548340 6099.000000
1941.877197 6247.000000
1943.204834 6242.000000
1944.531982 6172.000000
1945.858398 6063.000000
1947.184082 6095.000000
1948.508423 6121.000000
1949.832520 6040.000000
1951.155762 6016.000000
1952.478271 5795.000000
1953.799683 5902.000000
1955.120117 5838.000000
1956.439941 5893.000000
1957.759399 5855.000000
1959.077881 5785.000000
1960.395020 5820.000000
1961.711792 5813.000000
1963.027832 5730.000000
1964.343140 5723.000000
1965.656982 5741.000000
1966.970581 5751.000000
1968.283447 5690.000000
1969.595459 5680.000000
1970.906860 5741.000000
1972.216919 5687.000000
1973.526489 5537.000000
1974.835327 5532.000000
1976.143555 5511.000000
1977.450439 5547.000000
1978.756714 5477.000000
1980.062622 5474.000000
1981.367310 5632.000000
1982.671509 5587.000000
1983.974487 5382.000000
1985.277100 5541.000000
1986.578735 5475.000000
1987.879761 5216.000000
1989.179199 5302.000000
1990.478760 5236.000000
1991.777222 5283.000000
1993.075195 5210.000000
1994.371582 5281.000000
1995.667969 5137.000000
1996.963379 5189.000000
1998.258057 5106.000000
1999.551880 5132.000000
2000.844482 5151.000000
2002.136597 5026.000000
2003.428223 5107.000000
2004.719116 5132.000000
2006.008423 4911.000000
2007.297485 4909.000000
2008.585815 5087.000000
2009.873413 5038.000000
2011.160156 5016.000000
2012.445801 4955.000000
2013.731079 4934.000000
2015.015381 4879.000000
2016.299072 4963.000000
2017.581421 4875.000000
2018.863403 4806.000000
2020.144897 4805.000000
2021.425415 4927.000000
2022.705200 4850.000000
2023.983887 4914.000000
2025.261841 4913.000000
2026.539307 4957.000000
2027.816162 4959.000000
2029.091309 4932.000000
2030.366577 4861.000000
2031.640869 4781.000000
2032.914185 4959.000000
2034.186646 5007.000000
2035.458740 4996.000000
2036.729736 4971.000000
2038.000488 4830.000000
2039.269897 4891.000000
2040.538208 4846.000000
2041.806519 5000.000000
2043.073853 4779.000000
2044.340454 4895.000000
2045.605835 4842.000000
2046.870605 5056.000000
2048.135010 4772.000000
2049.398438 4849.000000
2050.661377 4842.000000
2051.922363 4677.000000
2053.183838 4632.000000
2054.444092 4680.000000
2055.703613 4739.000000
2056.962402 4647.000000
2058.220215 4717.000000
2059.477539 4600.000000
2060.734131 4563.000000
2061.989258 4574.000000
2063.244385 4665.000000
2064.498535 4670.000000
2065.751953 4663.000000
2067.004639 4647.000000
2068.256104 4587.000000
2069.507324 4567.000000
2070.757813 4580.000000
2072.007568 4539.000000
2073.255859 4227.000000
2074.504150 4467.000000
2075.751465 4562.000000
2076.998047 4489.000000
2078.243896 4411.000000
2079.488525 4266.000000
2080.732666 4422.000000
2081.976318 4431.000000
2083.218994 4321.000000
2084.460449 4342.000000
2085.701660 4259.000000
2086.942383 4364.000000
2088.182129 4449.000000
2089.420654 4274.000000
2090.658691 4140.000000
2091.895996 4138.000000
2093.133057 4148.000000
2094.368652 4175.000000
2095.603516 4248.000000
2096.838135 4213.000000
2098.071777 4248.000000
2099.304443 4245.000000
2100.536377 4042.000000
2101.767822 4104.000000
2102.998291 4214.000000
2104.228027 4105.000000
2105.457520 4075.000000
2106.685059 3976.000000
2107.912842 4184.000000
2109.139893 3996.000000
2110.365967 3998.000000
2111.590576 4002.000000
2112.815430 3935.000000
2114.039063 3851.000000
2115.262207 4008.000000
2116.484131 3876.000000
2117.705811 3921.000000
2118.926514 3871.000000
2120.146484 3962.000000
2121.365967 3943.000000
2122.583984 4009.000000
2123.802002 3866.000000
2125.019043 3874.000000
2126.235596 3907.000000
2127.450439 3929.000000
2128.665527 3854.000000
2129.879639 3924.000000
2131.093018 3815.000000
2132.305664 3874.000000
2133.516846 3934.000000
2134.728271 3824.000000
2135.938477 4007.000000
2137.148193 3922.000000
2138.356445 3940.000000
2139.564697 3915.000000
2140.772217 3836.000000
2141.978516 3954.000000
2143.184082 3848.000000
2144.389404 3823.000000
2145.593750 3794.000000
2146.797363 3844.000000
2148.000488 3792.000000
2149.202148 3827.000000
2150.403564 3850.000000
2151.604248 3773.000000
2152.804199 3840.000000
2154.002930 3784.000000
2155.201416 3749.000000
2156.399414 3761.000000
2157.596436 3803.000000
2158.792725 3733.000000
2159.987793 3583.000000
2161.182617 3594.000000
2162.376709 3629.000000
2163.569824 3539.000000
2164.761963 3562.000000
2165.953857 3574.000000
2167.145020 3549.000000
2168.335205 3434.000000
2169.524658 3517.000000
2170.713623 3385.000000
2171.901611 3376.000000
2173.089355 3389.000000
2174.275635 3272.000000
2175.461182 3270.000000
2176.646484 3305.000000
2177.831299 3256.000000
2179.014893 3277.000000
2180.197754 3295.000000
2181.379639 3213.000000
2182.561279 3275.000000
2183.742432 3301.000000
2184.922363 3306.000000
2186.101318 3170.000000
2187.279785 3202.000000
2188.458008 3281.000000
2189.635010 3301.000000
2190.811035 3148.000000
2191.986816 3196.000000
2193.162109 3232.000000
2194.335938 3078.000000
2195.509277 3206.000000
2196.682373 3179.000000
2197.854248 3228.000000
2199.025635 3163.000000
2200.196533 3220.000000
2201.365723 3176.000000
2202.534912 3326.000000
2203.703613 3220.000000
2204.871338 3210.000000
2206.038086 3271.000000
2207.204102 3064.000000
2208.369629 3205.000000
2209.534912 3208.000000
2210.698730 3249.000000
2211.862061 3150.000000
2213.024170 3069.000000
2214.186523 3081.000000
2215.347656 3008.000000
2216.507813 3151.000000
2217.667480 3020.000000
2218.826904 3057.000000
2219.985107 3077.000000
2221.142334 3064.000000
2222.299316 3043.000000
2223.455566 3045.000000
2224.611084 2986.000000
2225.765869 3026.000000
2226.919678 3021.000000
2228.072510 3017.000000
2229.225830 3010.000000
2230.377197 2911.000000
2231.528320 2967.000000
2232.678711 2882.000000
2233.828613 2935.000000
2234.977539 2912.000000
2236.125977 2974.000000
2237.272949 2778.000000
2238.420166 2908.000000
2239.566162 2847.000000
2240.711914 2800.000000
2241.855957 2849.000000
2243.000244 2732.000000
2244.143555 2800.000000
2245.286133 2790.000000
2246.427734 2712.000000
2247.569092 2769.000000
2248.709473 2739.000000
2249.849121 2632.000000
2250.988281 2740.000000
2252.126221 2656.000000
2253.264160 2630.000000
2254.401123 2642.000000
2255.537354 2619.000000
2256.672607 2637.000000
2257.807129 2588.000000
2258.941406 2532.000000
2260.075195 2720.000000
2261.207520 2750.000000
2262.339355 2659.000000
2263.470703 2604.000000
2264.601074 2480.000000
2265.731201 2517.000000
2266.860107 2436.000000
2267.988525 2455.000000
2269.116455 2509.000000
2270.243408 2487.000000
2271.369629 2421.000000
2272.494873 2501.000000
2273.620117 2493.000000
2274.744629 2603.000000
2275.867920 2526.000000
2276.990479 2486.000000
2278.112549 2477.000000
2279.234131 2386.000000
2280.354980 2402.000000
2281.474609 2501.000000
2282.593750 2468.000000
2283.712646 2367.000000
2284.830811 2332.000000
2285.947998 2308.000000
2287.064209 2347.000000
2288.180176 2320.000000
2289.295410 2434.000000
2290.409912 2408.000000
2291.523193 2384.000000
2292.636475 2406.000000
2293.749023 2305.000000
2294.860840 2496.000000
2295.971924 2377.000000
2297.081787 2420.000000
2298.191162 2385.000000
2299.300293 2330.000000
2300.408447 2389.000000
2301.515625 2378.000000
2302.622559 2451.000000
2303.728760 2465.000000
2304.834473 2468.000000
2305.938721 2418.000000
2307.042725 2347.000000
2308.146240 2390.000000
2309.249268 2295.000000
2310.351074 2403.000000
2311.452148 2193.000000
2312.552734 2355.000000
2313.652832 2283.000000
2314.752197 2190.000000
2315.850098 2297.000000
2316.948486 2269.000000
2318.045410 2282.000000
2319.142090 2325.000000
2320.238281 2247.000000
2321.332764 2223.000000
2322.427246 2347.000000
2323.520996 2208.000000
2324.614502 2195.000000
2325.706299 2326.000000
2326.798096 2230.000000
2327.889160 2362.000000
2328.979492 2392.000000
2330.068848 2289.000000
2331.158203 2235.000000
2332.246338 2316.000000
2333.333984 2167.000000
2334.421387 2208.000000
2335.507080 2282.000000
2336.592529 2182.000000
2337.677734 2211.000000
2338.761963 2095.000000
2339.845215 2127.000000
2340.928223 2000.000000
2342.010254 2321.000000
2343.092041 2134.000000
2344.173096 2113.000000
2345.252930 2007.000000
2346.332275 2123.000000
2347.411133 1986.000000
2348.489502 1924.000000
2349.566406 2010.000000
2350.643066 2090.000000
2351.719482 2043.000000
2352.794922 2012.000000
2353.869385 1992.000000
2354.943604 1925.000000
2356.017090 1964.000000
2357.090088 1911.000000
2358.161865 1980.000000
2359.233398 1932.000000
2360.303955 1970.000000
2361.374268 1864.000000
2362.443604 1766.000000
2363.511963 1896.000000
2364.580078 1885.000000
2365.647461 1837.000000
2366.714355 1863.000000
2367.780518 1841.000000
2368.845459 1968.000000
2369.910400 1749.000000
2370.974609 1846.000000
2372.038086 1843.000000
2373.100342 1858.000000
2374.162598 1768.000000
2375.223877 1827.000000
2376.284912 1744.000000
2377.344727 1782.000000
2378.403809 1764.000000
2379.462891 1804.000000
2380.520996 1746.000000
2381.578369 1737.000000
2382.634766 1716.000000
2383.690918 1799.000000
2384.746582 1775.000000
2385.801514 1816.000000
2386.854980 1775.000000
2387.908691 1653.000000
2388.961426 1690.000000
2390.013672 1819.000000
2391.065186 1804.000000
2392.115723 1707.000000
2393.166016 1770.000000
2394.215332 1721.000000
2395.264648 1879.000000
2396.312500 1757.000000
2397.359863 1793.000000
2398.406982 1684.000000
2399.453125 1759.000000
2400.498535 1651.000000
2401.543213 1659.000000
2402.587891 1757.000000
2403.631104 1773.000000
2404.674316 1695.000000
2405.716064 1665.000000
2406.758057 1693.000000
2407.799316 1718.000000
2408.839600 1753.000000
2409.879150 1694.000000
2410.917725 1689.000000
2411.956543 1681.000000
2412.994141 1637.000000
2414.031494 1650.000000
2415.067627 1627.000000
2416.103516 1742.000000
2417.138672 1674.000000
2418.173340 1710.000000
2419.206543 1640.000000
2420.239990 1705.000000
2421.272461 1731.000000
2422.304688 1643.000000
2423.335449 1640.000000
2424.366211 1603.000000
2425.396484 1510.000000
2426.425537 1667.000000
2427.454590 1682.000000
2428.481934 1697.000000
2429.509766 1634.000000
2430.536377 1619.000000
2431.562744 1662.000000
2432.587646 1559.000000
2433.612793 1501.000000
2434.636963 1549.000000
2435.660889 1697.000000
2436.683594 1568.000000
2437.705566 1514.000000
2438.727295 1518.000000
2439.748291 1618.000000
2440.768799 1543.000000
2441.788086 1416.000000
2442.807373 1520.000000
2443.825684 1503.000000
2444.843750 1496.000000
2445.860352 1521.000000
2446.876953 1496.000000
2447.892822 1567.000000
2448.908691 1497.000000
2449.923096 1439.000000
2450.936768 1447.000000
2451.949951 1460.000000
2452.962891 1471.000000
2453.975098 1382.000000
2454.986328 1430.000000
2455.997314 1442.000000
2457.007568 1440.000000
2458.017334 1483.000000
2459.026123 1477.000000
2460.034180 1335.000000
2461.042236 1436.000000
2462.049072 1421.000000
2463.055664 1435.000000
2464.061035 1494.000000
2465.066162 1397.000000
2466.071045 1424.000000
2467.074707 1434.000000
2468.078125 1365.000000
2469.080566 1499.000000
2470.082764 1370.000000
2471.084473 1380.000000
2472.085205 1299.000000
2473.084961 1247.000000
2474.084717 1385.000000
2475.083496 1356.000000
2476.081787 1248.000000
2477.079102 1343.000000
2478.076172 1367.000000
2479.073242 1394.000000
2480.068848 1327.000000
2481.064453 1323.000000
2482.058350 1378.000000
2483.052246 1290.000000
2484.045654 1260.000000
2485.038574 1263.000000
2486.030518 1314.000000
2487.021729 1395.000000
2488.012695 1260.000000
2489.003174 1300.000000
2489.992676 1354.000000
2490.981445 1356.000000
2491.970215 1334.000000
2492.958008 1271.000000
2493.944580 1267.000000
2494.931152 1352.000000
2495.917236 1359.000000
2496.902588 1284.000000
2497.886963 1279.000000
2498.871094 1250.000000
2499.855225 1276.000000
2500.837891 1339.000000
2501.820068 1269.000000
2502.801758 1247.000000
2503.782715 1305.000000
2504.763184 1332.000000
2505.743408 1318.000000
2506.722168 1261.000000
2507.700684 1262.000000
2508.678711 1302.000000
2509.656250 1184.000000
2510.632813 1172.000000
2511.609131 1301.000000
2512.584717 1232.000000
2513.559814 1276.000000
2514.534424 1295.000000
2515.507813 1172.000000
2516.480957 1294.000000
2517.453857 1248.000000
2518.425781 1313.000000
2519.396973 1234.000000
2520.367676 1259.000000
2521.338135 1221.000000
2522.307861 1227.000000
2523.276611 1197.000000
2524.244629 1225.000000
2525.212646 1246.000000
2526.179688 1114.000000
2527.146484 1218.000000
2528.112061 1145.000000
2529.077637 1126.000000
2530.042480 1240.000000
2531.006836 1144.000000
2531.969971 1052.000000
2532.933350 1158.000000
2533.895752 1228.000000
2534.857910 1116.000000
2535.818848 1189.000000
2536.779053 1244.000000
2537.739502 1212.000000
2538.698975 1080.000000
2539.657715 1140.000000
2540.615479 1178.000000
2541.573486 1152.000000
2542.530762 1087.000000
2543.487061 1188.000000
2544.443115 1045.000000
2545.397949 1056.000000
2546.353027 1079.000000
2547.307373 1122.000000
2548.260986 1171.000000
2549.213623 1107.000000
2550.166016 1036.000000
2551.117920 1053.000000
2552.069092 1036.000000
2553.019531 1014.000000
2553.969482 1071.000000
2554.919189 948.000000
2555.868164 1094.000000
2556.816650 1111.000000
2557.763916 992.000000
2558.711182 994.000000
2559.657715 976.000000
2560.603760 1032.000000
2561.548828 954.000000
2562.493652 1008.000000
2563.437988 928.000000
2564.381836 1020.000000
2565.325195 1016.000000
2566.267090 961.000000
2567.209229 852.000000
2568.150635 1007.000000
2569.091309 967.000000
2570.031250 977.000000
2570.971191 967.000000
2571.910156 972.000000
2572.848877 918.000000
2573.786621 1083.000000
2574.724121 953.000000
2575.660889 982.000000
2576.596924 969.000000
2577.532471 1004.000000
2578.467285 1002.000000
2579.402100 1067.000000
2580.335938 1109.000000
2581.269287 1042.000000
2582.201904 901.000000
2583.134277 955.000000
2584.065918 974.000000
2584.997070 999.000000
2585.927734 1007.000000
2586.857178 994.000000
2587.786621 1001.000000
2588.715576 1085.000000
2589.644287 933.000000
2590.571289 879.000000
2591.498535 908.000000
2592.425293 858.000000
2593.351318 906.000000
2594.277100 985.000000
2595.201660 998.000000
2596.125977 924.000000
2597.049805 996.000000
2597.973145 1031.000000
2598.895508 926.000000
2599.817627 971.000000
2600.739258 969.000000
2601.660156 920.000000
2602.580322 890.000000
2603.500244 964.000000
2604.419678 986.000000
2605.338867 997.000000
2606.257080 883.000000
2607.174072 944.000000
2608.091309 940.000000
2609.008301 940.000000
2609.924316 886.000000
2610.839111 935.000000
2611.754395 785.000000
2612.668945 847.000000
2613.582520 968.000000
2614.496094 839.000000
2615.408447 793.000000
2616.320801 810.000000
2617.232178 898.000000
2618.143311 907.000000
2619.053711 582.000000
2619.963867 902.000000
2620.873291 916.000000
2621.782227 900.000000
2622.690186 867.000000
2623.598389 857.000000
2624.505615 860.000000
2625.412354 779.000000
2626.318359 913.000000
2627.224121 938.000000
2628.129150 986.000000
2629.033936 764.000000
2629.937988 906.000000
2630.841064 850.000000
2631.744141 776.000000
2632.646240 856.000000
2633.548340 815.000000
2634.450195 795.000000
2635.350342 823.000000
2636.250732 795.000000
2637.150391 820.000000
2638.049805 822.000000
2638.947754 857.000000
2639.846191 802.000000
2640.744141 657.000000
2641.641357 787.000000
2642.537354 764.000000
2643.433350 829.000000
2644.329102 821.000000
2645.224121 821.000000
2646.118896 782.000000
2647.012207 773.000000
2647.905518 834.000000
2648.798584 761.000000
2649.691406 765.000000
2650.582520 848.000000
2651.473877 751.000000
2652.364746 583.000000
2653.254883 782.000000
2654.144775 729.000000
2655.033447 771.000000
2655.922363 727.000000
2656.810791 798.000000
2657.698242 828.000000
2658.584717 778.000000
2659.471680 666.000000
2660.357910 754.000000
2661.243652 709.000000
2662.128174 744.000000
2663.012695 711.000000
2663.896973 780.000000
2664.780518 708.000000
2665.663574 670.000000
2666.545898 623.000000
2667.427734 727.000000
2668.308838 664.000000
2669.190186 712.000000
2670.070068 761.000000
2670.950195 671.000000
2671.829590 711.000000
2672.708984 669.000000
2673.587646 752.000000
2674.464600 762.000000
2675.342285 629.000000
2676.219238 773.000000
2677.095459 707.000000
2677.971191 732.000000
2678.846191 739.000000
2679.721436 711.000000
2680.595703 682.000000
2681.469482 717.000000
2682.342529 625.000000
2683.215332 671.000000
2684.087891 785.000000
2684.959717 716.000000
2685.830811 645.000000
2686.701660 683.000000
2687.572021 738.000000
2688.442139 670.000000
2689.310547 704.000000
2690.179688 654.000000
2691.048096 718.000000
2691.916260 697.000000
2692.783691 629.000000
2693.649902 659.000000
2694.516602 672.000000
2695.382324 689.000000
2696.248047 671.000000
2697.112305 589.000000
2697.977295 598.000000
2698.840820 580.000000
2699.704590 639.000000
2700.566895 679.000000
2701.429688 699.000000
2702.291504 565.000000
2703.152832 636.000000
2704.014160 710.000000
2704.874268 606.000000
2705.734375 683.000000
2706.593994 622.000000
2707.453369 583.000000
2708.311035 576.000000
2709.168945 620.000000
2710.027344 577.000000
2710.884521 680.000000
2711.740967 706.000000
2712.596924 657.000000
2713.452881 561.000000
2714.308105 555.000000
2715.162598 564.000000
2716.016602 561.000000
2716.870605 590.000000
2717.723633 613.000000
2718.576904 614.000000
2719.428467 632.000000
2720.280518 581.000000
2721.132324 603.000000
2721.982910 621.000000
2722.833496 632.000000
2723.683594 564.000000
2724.532959 547.000000
2725.382324 602.000000
2726.230469 558.000000
2727.078125 528.000000
2727.926270 516.000000
2728.773193 535.000000
2729.620605 568.000000
2730.466553 484.000000
2731.311768 656.000000
2732.157471 612.000000
2733.002197 582.000000
2733.846924 579.000000
2734.690430 501.000000
2735.534180 509.000000
2736.377197 749.000000
2737.219727 584.000000
2738.061279 563.000000
2738.903320 522.000000
2739.744385 498.000000
2740.585205 525.000000
2741.425781 625.000000
2742.265137 559.000000
2743.104492 584.000000
2743.943848 627.000000
2744.781982 533.000000
2745.619629 539.000000
2746.457275 535.000000
2747.294434 497.000000
2748.131348 539.000000
2748.967773 539.000000
2749.802979 482.000000
2750.638428 555.000000
2751.473389 587.000000
2752.307617 530.000000
2753.141602 555.000000
2753.975098 657.000000
2754.808594 523.000000
2755.641113 494.000000
2756.473145 448.000000
2757.304688 478.000000
2758.136230 530.000000
2758.966797 499.000000
2759.797607 536.000000
2760.627197 480.000000
2761.456787 568.000000
2762.286133 479.000000
2763.114746 501.000000
2763.942871 524.000000
2764.770508 548.000000
2765.598145 580.000000
2766.425293 537.000000
2767.251709 539.000000
2768.077637 545.000000
2768.903076 524.000000
2769.728271 440.000000
2770.553467 515.000000
2771.377441 533.000000
2772.201416 555.000000
2773.025391 395.000000
2773.848145 448.000000
2774.671143 510.000000
2775.492920 450.000000
2776.314697 550.000000
2777.136475 482.000000
2777.957275 516.000000
2778.777344 496.000000
2779.597656 485.000000
2780.417480 492.000000
2781.237305 500.000000
2782.055176 367.000000
2782.874268 463.000000
2783.692139 441.000000
2784.509766 437.000000
2785.326904 435.000000
2786.143555 405.000000
2786.959961 430.000000
2787.775879 450.000000
2788.591553 442.000000
2789.406250 474.000000
2790.221436 458.000000
2791.035889 463.000000
2791.849854 515.000000
2792.663574 443.000000
2793.476074 332.000000
2794.288818 409.000000
2795.101074 505.000000
2795.912842 450.000000
2796.723877 357.000000
2797.535645 411.000000
2798.346191 434.000000
2799.156738 387.000000
2799.965820 448.000000
2800.775635 390.000000
2801.584717 415.000000
2802.393555 385.000000
2803.201904 481.000000
2804.009277 372.000000
2804.817139 540.000000
2805.624268 366.000000
2806.431152 431.000000
2807.236816 510.000000
2808.042969 396.000000
2808.848389 407.000000
2809.653809 444.000000
2810.458496 466.000000
2811.262207 380.000000
2812.066406 453.000000
2812.870117 409.000000
2813.673584 404.000000
2814.475586 464.000000
2815.278320 376.000000
2816.080322 510.000000
2816.882080 453.000000
2817.683350 371.000000
2818.484131 460.000000
2819.284424 396.000000
2820.084961 545.000000
2820.884521 322.000000
2821.683594 521.000000
2822.482666 376.000000
2823.281494 437.000000
2824.079834 411.000000
2824.877197 448.000000
2825.674805 407.000000
2826.471680 356.000000
2827.268799 442.000000
2828.065186 377.000000
2828.860840 423.000000
2829.656494 374.000000
2830.451904 211.000000
2831.246826 411.000000
2832.041016 343.000000
2832.835205 402.000000
2833.629150 315.000000
2834.422607 363.000000
2835.215332 346.000000
2836.007813 319.000000
2836.800293 380.000000
2837.592529 373.000000
2838.384277 473.000000
2839.175049 356.000000
2839.965820 362.000000
2840.756836 321.000000
2841.546875 369.000000
2842.336426 366.000000
2843.126221 352.000000
2843.915039 436.000000
2844.703857 358.000000
2845.492676 343.000000
2846.280518 352.000000
2847.067871 408.000000
2847.855469 296.000000
2848.642578 389.000000
2849.428955 362.000000
2850.215332 425.000000
2851.001465 340.000000
2851.787109 409.000000
2852.571777 435.000000
2853.356934 389.000000
2854.141846 354.000000
2854.926025 337.000000
2855.710205 338.000000
2856.493164 314.000000
2857.276367 342.000000
2858.059326 319.000000
2858.841797 370.000000
2859.624023 328.000000
2860.405762 368.000000
2861.187256 397.000000
2861.968994 326.000000
2862.750000 348.000000
2863.530273 367.000000
2864.310303 352.000000
2865.090332 233.000000
2865.870117 449.000000
2866.648926 228.000000
2867.427979 371.000000
2868.206543 304.000000
2868.984863 382.000000
2869.762695 390.000000
2870.540283 412.000000
2871.317627 331.000000
2872.094727 413.000000
2872.871338 343.000000
2873.647461 209.000000
2874.423584 328.000000
2875.199219 293.000000
2875.974609 293.000000
2876.749512 386.000000
2877.524170 362.000000
2878.298828 409.000000
2879.073242 278.000000
2879.846924 266.000000
2880.619873 304.000000
2881.393555 288.000000
2882.166260 370.000000
2882.938965 351.000000
2883.710938 404.000000
2884.482666 399.000000
2885.254883 300.000000
2886.025879 292.000000
2886.796387 362.000000
2887.567383 296.000000
2888.338379 350.000000
2889.108643 424.000000
2889.877930 300.000000
2890.647461 289.000000
2891.416992 379.000000
2892.186035 327.000000
2892.954590 372.000000
2893.723145 259.000000
2894.490723 286.000000
2895.258789 253.000000
2896.026367 315.000000
2896.793945 316.000000
2897.560303 302.000000
2898.327637 267.000000
2899.093750 334.000000
2899.860107 298.000000
2900.625000 339.000000
2901.390381 304.000000
2902.156250 411.000000
2902.920654 375.000000
2903.685059 281.000000
2904.449707 273.000000
2905.213379 307.000000
2905.977783 277.000000
2906.741455 347.000000
2907.504395 353.000000
2908.267090 319.000000
2909.030273 347.000000
2909.792969 378.000000
2910.554443 342.000000
2911.316406 342.000000
spectrumdark 2048
-96.914467 6191.000000
-94.287598 6191.000000
-91.662605 6035.000000
-89.039505 6454.000000
-86.418274 5808.000000
-83.798943 6202.000000
-81.181473 6119.000000
-78.565880 6422.000000
-75.952164 6176.000000
-73.340324 6060.000000
-70.730347 6125.000000
-68.122253 5934.000000
-65.516006 5929.000000
-62.911633 6041.000000
-60.309124 6145.000000
-57.708469 5643.000000
-55.109676 6260.000000
-52.512741 6947.000000
-49.917660 6490.000000
-47.324432 6507.000000
-44.733055 6295.000000
-42.143524 6776.000000
-39.555836 5883.000000
-36.969997 6085.000000
-34.386002 6443.000000
-31.803843 5683.000000
-29.223530 6325.000000
-26.645044 5679.000000
-24.068401 6178.000000
-21.493584 6242.000000
-18.920607 6494.000000
-16.349449 6458.000000
-13.780126 6695.000000
-11.212627 7865.000000
-8.646948 6329.000000
-6.083094 6453.000000
-3.521054 5952.000000
-0.960838 5867.000000
1.597570 6247.000000
4.154157 6930.000000
6.708940 6627.000000
9.261905 5972.000000
11.813069 6730.000000
14.362421 6450.000000
16.909977 6708.000000
19.455721 5990.000000
21.999672 5709.000000
24.541819 6680.000000
27.082169 6764.000000
29.620733 6877.000000
32.157501 6168.000000
34.692467 5774.000000
37.225655 7193.000000
39.757061 6305.000000
42.286674 7087.000000
44.814491 6452.000000
47.340549 7856.000000
49.864819 5659.000000
52.387318 6162.000000
54.908020 6730.000000
57.426968 6229.000000
59.944141 6437.000000
62.459538 6606.000000
64.973152 5665.000000
67.485016 5680.000000
69.995132 6574.000000
72.503456 6546.000000
75.010025 5933.000000
77.514847 6435.000000
80.017914 6389.000000
82.519203 6328.000000
85.018753 6157.000000
87.516548 6390.000000
90.012611 5747.000000
92.506897 7267.000000
94.999443 5765.000000
97.490273 6902.000000
99.979332 7189.000000
102.466644 6443.000000
104.952232 6146.000000
107.436081 6390.000000
109.918182 5812.000000
112.398560 6738.000000
114.877213 6259.000000
117.354141 6545.000000
119.829315 7260.000000
122.302780 6837.000000
124.774513 5832.000000
127.244537 6730.000000
129.712814 6246.000000
132.179413 6321.000000
134.644257 5739.000000
137.107407 6184.000000
139.568817 7321.000000
142.028534 7001.000000
144.486526 6343.000000
146.942825 5995.000000
149.397415 5788.000000
151.850281 6851.000000
154.301468 6379.000000
156.750961 6614.000000
159.198730 6086.000000
161.644791 6649.000000
164.089172 8678.000000
166.531876 6479.000000
168.972885 6708.000000
171.412186 6249.000000
173.849777 7250.000000
176.285736 6604.000000
178.719955 6967.000000
181.152496 7133.000000
183.583389 6706.000000
186.012558 6748.000000
188.440079 6672.000000
190.865921 6315.000000
193.290085 6682.000000
195.712585 7192.000000
198.133392 7356.000000
200.552536 6516.000000
202.970016 6018.000000
205.385803 7560.000000
207.799942 7140.000000
210.212448 6357.000000
212.623276 6108.000000
215.032425 6276.000000
217.439941 7380.000000
219.845749 6201.000000
222.249969 6550.000000
224.652481 6729.000000
227.053375 6989.000000
229.452621 6473.000000
231.850204 6883.000000
234.246124 7228.000000
236.640427 6314.000000
239.033066 6079.000000
241.424088 6858.000000
243.813446 6635.000000
246.201187 6400.000000
248.587280 6997.000000
250.971741 6079.000000
253.354553 7933.000000
255.735794 6670.000000
258.115326 6688.000000
260.493286 6426.000000
262.869568 7527.000000
265.244293 7611.000000
267.617371 7873.000000
269.988800 6209.000000
272.358582 6416.000000
274.726807 5930.000000
277.093384 6322.000000
279.458374 6514.000000
281.821747 6051.000000
284.183472 6200.000000
286.543610 7108.000000
288.902130 5905.000000
291.259064 6532.000000
293.614380 6379.000000
295.968109 5984.000000
298.320190 5996.000000
300.670715 6230.000000
303.019653 6400.000000
305.366943 6887.000000
307.712708 6456.000000
310.056793 6492.000000
312.399353 7405.000000
314.740295 7573.000000
317.079620 7207.000000
319.417389 6968.000000
321.753601 8073.000000
324.088165 6271.000000
326.421173 6510.000000
328.752625 6055.000000
331.082489 6600.000000
333.410767 6395.000000
335.737427 7242.000000
338.062592 6441.000000
340.386139 6215.000000
342.708130 6073.000000
345.028564 7510.000000
347.347382 7653.000000
349.664642 6058.000000
351.980377 5838.000000
354.294525 7006.000000
356.607086 6297.000000
358.918091 6403.000000
361.227570 7077.000000
363.535522 6413.000000
365.841858 5688.000000
368.146606 6494.000000
370.449890 6447.000000
372.751556 6282.000000
375.051727 6390.000000
377.350342 6320.000000
379.647400 5752.000000
381.942902 6158.000000
384.236877 5829.000000
386.529266 5264.000000
388.820160 5613.000000
391.109528 6225.000000
393.397308 6261.000000
395.683563 6503.000000
397.968323 7009.000000
400.251465 6015.000000
402.533173 6458.000000
404.813354 6111.000000
407.091949 7270.000000
409.369019 6371.000000
411.644562 6738.000000
413.918579 6444.000000
416.191162 6363.000000
418.462128 6456.000000
420.731598 6438.000000
422.999573 7128.000000
425.265991 7245.000000
427.530914 6178.000000
429.794373 6245.000000
432.056244 6484.000000
434.316650 6025.000000
436.575500 6682.000000
438.832886 6141.000000
441.088776 5675.000000
443.343170 5805.000000
445.596039 5531.000000
447.847351 6985.000000
450.097260 6075.000000
452.345581 6327.000000
454.592468 5727.000000
456.837891 6487.000000
459.081757 6550.000000
461.324127 6407.000000
463.565002 5650.000000
465.804474 6710.000000
468.042358 5434.000000
470.278809 5957.000000
472.513733 6078.000000
474.747192 7365.000000
476.979218 6704.000000
479.209717 5753.000000
481.438721 6531.000000
483.666260 6397.000000
485.892303 5943.000000
488.116913 6496.000000
490.340057 5895.000000
492.561737 6434.000000
494.781860 6786.000000
497.000580 5671.000000
499.217804 6284.000000
501.433655 5538.000000
503.647888 6125.000000
505.860809 6464.000000
508.072144 6490.000000
510.282043 6905.000000
512.490479 6572.000000
514.697571 6567.000000
516.903076 6437.000000
519.107178 6469.000000
521.309753 6198.000000
523.510925 6544.000000
525.710754 6759.000000
527.909058 6971.000000
530.105835 5342.000000
532.301270 5840.000000
534.495178 5537.000000
536.687744 7518.000000
538.878784 6686.000000
541.068420 6021.000000
543.256653 6901.000000
545.443359 7134.000000
547.628601 6828.000000
549.812561 6252.000000
551.994934 6442.000000
554.175964 6163.000000
556.355469 6109.000000
558.533691 5904.000000
560.710388 5932.000000
562.885681 6452.000000
565.059570 6430.000000
567.231995 5931.000000
569.403015 6004.000000
571.572571 6300.000000
573.740845 5273.000000
575.907593 6385.000000
578.072876 6287.000000
580.236755 6169.000000
582.399353 5809.000000
584.560425 6026.000000
586.720093 5670.000000
588.878418 5839.000000
591.035217 6167.000000
593.190674 6587.000000
595.344727 5765.000000
597.497437 6141.000000
599.648621 7254.000000
601.798462 6762.000000
603.946960 6710.000000
606.093872 6071.000000
608.239563 6574.000000
610.383850 6368.000000
612.526672 7064.000000
614.668030 6153.000000
616.808167 6467.000000
618.946777 7689.000000
621.084106 5741.000000
623.219971 6568.000000
625.354431 6874.000000
627.487427 7231.000000
629.619263 6658.000000
631.749634 6582.000000
633.878601 6817.000000
636.006104 6500.000000
638.132324 6199.000000
640.257019 7300.000000
642.380493 6368.000000
644.502625 6871.000000
646.623291 6844.000000
648.742615 6586.000000
650.860535 5637.000000
652.977112 5645.000000
655.092285 6435.000000
657.206116 6448.000000
659.318481 5885.000000
661.429626 6146.000000
663.539368 5415.000000
665.647644 6006.000000
667.754761 6260.000000
669.860413 6895.000000
671.964600 5908.000000
674.067566 5762.000000
676.169128 7052.000000
678.269348 5353.000000
680.368164 6774.000000
682.465637 6273.000000
684.561829 6992.000000
686.656555 6312.000000
688.750061 7050.000000
690.842224 6692.000000
692.932861 7939.000000
695.022278 6617.000000
697.110413 6476.000000
699.197083 6052.000000
701.282532 6720.000000
703.366455 5126.000000
705.449158 5874.000000
707.530579 5992.000000
709.610535 7601.000000
711.689270 6156.000000
713.766541 5557.000000
715.842529 6581.000000
717.917236 6085.000000
719.990662 7030.000000
722.062561 6321.000000
724.133301 7406.000000
726.202698 5795.000000
728.270691 6518.000000
730.337341 6460.000000
732.402771 7094.000000
734.466858 5788.000000
736.529602 6191.000000
738.591003 6357.000000
740.651123 6589.000000
742.709839 6060.000000
744.767334 6609.000000
746.823547 6631.000000
748.878357 6723.000000
750.931885 6410.000000
752.984009 7472.000000
755.034912 5798.000000
757.084595 6751.000000
759.132813 6247.000000
761.179810 6224.000000
763.225525 7068.000000
765.269836 5357.000000
767.312866 5738.000000
769.354675 6391.000000
771.395142 7044.000000
773.434204 6348.000000
775.472107 6051.000000
777.508667 5940.000000
779.544006 5357.000000
781.578003 5792.000000
783.610596 6937.000000
785.642029 5570.000000
787.672058 5816.500000
789.700806 6063.000000
791.728394 6408.000000
793.754639 6387.000000
795.779480 5869.000000
797.803223 5544.000000
799.825562 6403.000000
801.846680 5880.000000
803.866455 6683.000000
805.884949 4894.000000
807.902222 6712.000000
809.918091 6867.000000
811.932800 5729.000000
813.946167 6351.000000
815.958313 6281.000000
817.969238 6160.000000
819.978821 6610.000000
821.987183 5378.000000
823.994141 5751.000000
825.999878 6046.000000
828.004395 5773.000000
830.007629 5661.000000
832.009583 6525.000000
834.010254 6051.000000
836.009705 5956.000000
838.007813 6318.000000
840.004822 7103.000000
842.000427 6243.000000
843.994873 5986.000000
845.987976 6229.000000
847.979858 6800.000000
849.970398 5606.000000
851.959656 6882.000000
853.947876 6036.000000
855.934692 5715.000000
857.920288 6421.000000
859.904602 7292.000000
861.887817 6341.000000
863.869629 6321.000000
865.850220 5798.000000
867.829529 7766.000000
869.807678 7184.000000
871.784485 6199.000000
873.760010 5998.000000
875.734497 6141.000000
877.707520 6089.000000
879.679504 5484.000000
881.650146 6399.000000
883.619629 6133.000000
885.587769 5535.000000
887.554749 5246.000000
889.520386 6137.000000
891.484863 5799.000000
893.448120 6071.000000
895.410156 6551.000000
897.370911 5852.000000
899.330444 6390.000000
901.288696 6778.000000
903.245850 6351.000000
905.201843 6046.000000
907.156433 6860.000000
909.109802 6508.000000
911.062012 6396.000000
913.013000 6450.000000
914.962708 7149.000000
916.911255 6329.000000
918.858582 6141.000000
920.804626 6125.000000
922.749390 6016.000000
924.693115 6323.000000
926.635681 6067.000000
928.576965 5639.000000
930.516907 6491.000000
932.455750 5729.000000
934.393311 5523.000000
936.329651 5998.000000
938.264832 5835.000000
940.198730 6119.000000
942.131531 5882.000000
944.063110 6759.000000
945.993530 5200.000000
947.922729 6395.000000
949.850586 7010.000000
951.777405 6720.000000
953.702942 5958.000000
955.627197 5429.000000
957.550354 5995.000000
959.472351 6729.000000
961.393066 7316.000000
963.312622 6517.000000
965.231018 5371.000000
967.148376 6414.000000
969.064270 6451.000000
970.979065 6156.000000
972.892639 5990.000000
974.805054 6359.000000
976.716248 6480.000000
978.626282 5462.000000
980.535034 6229.000000
982.442749 6120.000000
984.349243 6363.000000
986.254517 5765.000000
988.158691 6784.000000
990.061646 6206.000000
991.963379 6841.000000
993.863953 6627.000000
995.763367 6626.000000
997.661560 5296.000000
999.558594 6628.000000
1001.454407 6499.000000
1003.349060 7674.000000
1005.242615 5632.000000
1007.134888 7229.000000
1009.026245 6161.000000
1010.916260 5302.000000
1012.805054 6665.000000
1014.692688 6340.000000
1016.579163 6942.000000
1018.464478 6738.000000
1020.348633 5937.000000
1022.231567 5922.000000
1024.113525 6257.000000
1025.994141 5224.000000
1027.873657 5852.000000
1029.752197 6082.000000
1031.629395 5488.000000
1033.505249 6210.000000
1035.380127 5953.000000
1037.254028 6649.000000
1039.126465 7036.000000
1040.997925 6733.000000
1042.868042 5540.000000
1044.737183 5491.000000
1046.605103 5814.000000
1048.471924 7200.000000
1050.337646 6766.000000
1052.202148 6497.000000
1054.065552 6494.000000
1055.927612 6488.000000
1057.788696 5892.000000
1059.648682 6484.000000
1061.507324 6623.000000
1063.364868 5845.000000
1065.221313 6813.000000
1067.076660 5969.000000
1068.930786 5792.000000
1070.784058 6243.000000
1072.635864 6474.000000
1074.486694 6135.000000
1076.336304 6166.000000
1078.184692 5765.000000
1080.032227 8022.000000
1081.878418 5580.000000
1083.723389 6203.000000
1085.567505 5433.000000
1087.410278 5550.000000
1089.251831 6548.000000
1091.092651 5497.000000
1092.931885 5795.000000
1094.770386 6071.000000
1096.607544 6036.000000
1098.443481 6817.000000
1100.278442 6534.000000
1102.112183 5455.000000
1103.944946 5658.000000
1105.776367 6221.000000
1107.606934 7243.000000
1109.436157 6548.000000
1111.264404 6443.000000
1113.091431 7149.000000
1114.917480 5427.000000
1116.742310 6331.000000
1118.566040 7180.000000
1120.388550 6095.000000
1122.209961 5870.000000
1124.030518 5926.000000
1125.849609 6598.000000
1127.667847 7117.000000
1129.484741 6970.000000
1131.300781 6728.000000
1133.115601 6480.000000
1134.929321 5645.000000
1136.741943 5842.000000
1138.553345 5684.000000
1140.363770 6201.000000
1142.173096 6741.000000
1143.981079 7010.000000
1145.788330 5944.000000
1147.594116 5969.000000
1149.399048 5451.000000
1151.202881 5350.000000
1153.005493 6141.000000
1154.807251 6172.000000
1156.607544 6086.000000
1158.406860 6103.000000
1160.205200 5852.000000
1162.002197 5470.000000
1163.798462 5924.000000
1165.593384 6140.000000
1167.387207 6319.000000
1169.180176 7769.000000
1170.971802 5741.000000
1172.762451 6497.000000
1174.552124 6008.000000
1176.340332 5846.000000
1178.127686 7514.000000
1179.913940 6926.000000
1181.699097 5747.000000
1183.483154 5981.000000
1185.266113 7644.000000
1187.048096 5877.000000
1188.828857 5896.000000
1190.608643 6311.000000
1192.387329 6979.000000
1194.165039 6744.000000
1195.941528 7198.000000
1197.716919 6593.000000
1199.491211 6591.000000
1201.264404 6807.000000
1203.036743 6601.000000
1204.807739 6772.000000
1206.577881 5694.000000
1208.346802 6194.000000
1210.114624 6311.000000
1211.881592 5810.000000
1213.647217 5944.000000
1215.411865 7013.000000
1217.175415 6588.000000
1218.937866 5943.000000
1220.699463 6748.000000
1222.459839 5893.000000
1224.219116 6370.000000
1225.977539 6100.000000
1227.734741 7191.000000
1229.490845 6473.000000
1231.245850 5594.000000
1233.000000 6036.000000
1234.752808 5853.000000
1236.504639 6030.000000
1238.255615 6043.000000
1240.005249 5012.000000
1241.754028 6996.000000
1243.501465 6503.000000
1245.248169 6668.000000
1246.993652 6474.000000
1248.738281 6476.000000
1250.481567 6801.000000
1252.223877 6651.000000
1253.965088 5424.000000
1255.705444 5096.000000
1257.444702 5784.000000
1259.182739 6546.000000
1260.919922 7131.000000
1262.655884 6096.000000
1264.390869 6361.000000
1266.124878 7305.000000
1267.857910 6029.000000
1269.589722 6166.000000
1271.320557 6465.000000
1273.050171 7299.000000
1274.778931 5915.000000
1276.506592 5690.000000
1278.233154 5549.000000
1279.958862 5558.000000
1281.683228 6470.000000
1283.406738 5234.000000
1285.129272 6985.000000
1286.850830 6646.000000
1288.571167 6337.000000
1290.290527 6684.000000
1292.008789 7245.000000
1293.726074 6479.000000
1295.442383 5832.000000
1297.157471 6434.000000
1298.871582 6072.000000
1300.584717 5795.000000
1302.296997 6463.000000
1304.008057 8412.000000
1305.718140 5212.000000
1307.427124 6581.000000
1309.134888 6706.000000
1310.842041 7010.000000
1312.547729 5844.000000
1314.252686 6872.000000
1315.956665 6118.000000
1317.659424 6012.000000
1319.361206 6605.000000
1321.062134 6084.000000
1322.761719 9941.000000
1324.460449 7773.000000
1326.158447 5605.000000
1327.855103 6563.000000
1329.550659 7117.000000
1331.245361 6895.000000
1332.938843 5712.000000
1334.631470 5423.000000
1336.323242 7323.000000
1338.013672 6335.000000
1339.703369 6562.000000
1341.391968 6096.000000
1343.079468 7611.000000
1344.765991 5594.000000
1346.451416 6871.000000
1348.135864 5984.000000
1349.819458 7316.000000
1351.501831 6334.000000
1353.183228 5977.000000
1354.863770 6599.000000
1356.543091 6741.000000
1358.221802 5900.000000
1359.899170 6636.000000
1361.575439 5815.000000
1363.250732 5591.000000
1364.925293 6634.000000
1366.598633 6508.000000
1368.270996 6761.000000
1369.942383 5186.000000
1371.612793 6806.000000
1373.282104 6193.000000
1374.950439 5681.000000
1376.617920 5994.000000
1378.284302 6517.000000
1379.949707 6125.000000
1381.614136 5935.000000
1383.277344 5930.000000
1384.939941 5721.000000
1386.601196 6362.000000
1388.261597 6558.000000
1389.920898 6446.000000
1391.579224 6493.000000
1393.236816 6859.000000
1394.893188 6436.000000
1396.548706 7065.000000
1398.203003 6357.000000
1399.856445 5859.000000
1401.508789 6146.000000
1403.160400 6517.000000
1404.810791 7203.000000
1406.460083 6259.000000
1408.108643 7578.000000
1409.756104 7961.000000
1411.402588 6214.000000
1413.048218 6315.000000
1414.692871 6027.000000
1416.336304 7000.000000
1417.978882 7166.000000
1419.620361 6901.000000
1421.260986 6474.000000
1422.900635 6542.000000
1424.539185 6048.000000
1426.176880 6628.000000
1427.813477 6343.000000
1429.449097 6041.000000
1431.083984 6417.000000
1432.717773 5949.000000
1434.350464 6157.000000
1435.982178 5670.000000
1437.613037 6127.000000
1439.242798 6071.000000
1440.871460 7778.000000
1442.499512 5986.000000
1444.126465 6469.000000
1445.752197 6158.000000
1447.377319 6134.000000
1449.001343 6512.000000
1450.624390 5972.000000
1452.246460 6027.000000
1453.867432 7284.000000
1455.487427 6288.000000
1457.106689 6924.000000
1458.724609 5645.000000
1460.341919 17138.000000
1461.958252 5581.000000
1463.573364 7320.000000
1465.187622 6377.000000
1466.801025 5230.000000
1468.413330 5596.000000
1470.024780 6267.000000
1471.635376 6352.000000
1473.244751 6042.000000
1474.853149 6029.000000
1476.460693 6213.000000
1478.067261 6698.000000
1479.673096 5305.000000
1481.277710 6328.000000
1482.881470 5507.000000
1484.484009 6751.000000
1486.085938 5593.000000
1487.686646 5538.000000
1489.286621 5616.000000
1490.885498 6262.000000
1492.483521 6486.000000
1494.080444 6715.000000
1495.676514 6373.000000
1497.271606 6017.000000
1498.865723 5529.000000
1500.459106 6564.000000
1502.051392 5575.000000
1503.642456 6258.000000
1505.233032 6818.000000
1506.822266 6550.000000
1508.410889 6173.000000
1509.998413 6538.000000
1511.584839 6889.000000
1513.170532 6192.000000
1514.755127 6652.000000
1516.338867 6359.000000
1517.921509 6197.000000
1519.503418 6646.000000
1521.084229 6684.000000
1522.664307 6081.000000
1524.243164 6250.000000
1525.821167 6390.000000
1527.398438 6312.000000
1528.974487 5709.000000
1530.549805 5927.000000
1532.124023 6401.000000
1533.697510 5481.000000
1535.269775 6017.000000
1536.841309 6383.000000
1538.411865 6471.000000
1539.981567 6358.000000
1541.550049 5479.000000
1543.117798 6546.000000
1544.684692 5707.000000
1546.250366 6742.000000
1547.815308 5928.000000
1549.379150 5054.000000
1550.942383 7420.000000
1552.504272 6355.000000
1554.065552 6001.000000
1555.625732 5712.000000
1557.185181 5793.000000
1558.743530 5892.000000
1560.301147 6295.000000
1561.857666 7015.000000
1563.412964 5869.000000
1564.967651 6378.000000
1566.521606 5604.000000
1568.074585 6399.000000
1569.626221 5718.000000
1571.177124 5862.000000
1572.727295 6265.000000
1574.276489 6360.000000
1575.824341 5766.000000
1577.371704 5477.000000
1578.918091 5673.000000
1580.463623 5122.000000
1582.008179 6704.000000
1583.551514 6389.000000
1585.094238 6695.000000
1586.636108 6439.000000
1588.176880 6648.000000
1589.716675 5760.000000
1591.255737 6723.000000
1592.793701 5950.000000
1594.331177 6111.000000
1595.867310 5901.000000
1597.402344 6673.000000
1598.936890 6259.000000
1600.470459 6001.000000
1602.003174 6135.000000
1603.534302 6254.000000
1605.065186 6302.000000
1606.595215 5747.000000
1608.124023 6175.000000
1609.651733 6195.000000
1611.178833 6097.000000
1612.705200 5932.000000
1614.230591 6254.000000
1615.755127 5811.000000
1617.278320 5774.000000
1618.800781 5655.000000
1620.322510 6612.000000
1621.843384 6956.000000
1623.362793 15607.000000
1624.881714 6220.000000
1626.399902 6075.000000
1627.917236 5852.000000
1629.433472 6424.000000
1630.948364 7038.000000
1632.462769 6828.000000
1633.976440 5778.000000
1635.489014 6864.000000
1637.000366 5996.000000
1638.511353 6484.000000
1640.021240 6324.000000
1641.530273 6221.000000
1643.037964 5617.000000
1644.545288 6132.000000
1646.051758 7141.000000
1647.557251 6269.000000
1649.061890 6958.000000
1650.565063 6226.000000
1652.067627 6636.000000
1653.569824 6366.000000
1655.070679 6635.000000
1656.570435 7648.000000
1658.069336 6177.000000
1659.567871 6584.000000
1661.065186 6224.000000
1662.561768 5942.000000
1664.056763 6436.000000
1665.551514 6363.000000
1667.045410 5269.000000
1668.538330 5621.000000
1670.029907 20776.000000
1671.520996 6444.000000
1673.011475 6142.000000
1674.500854 5995.000000
1675.988770 7035.000000
1677.476440 6873.000000
1678.963135 6057.000000
1680.448975 5441.000000
1681.933960 6102.000000
1683.417480 6239.000000
1684.900757 6251.000000
1686.383179 5887.000000
1687.864502 6250.000000
1689.344360 6232.000000
1690.823975 5502.000000
1692.302856 6570.000000
1693.780762 5603.000000
1695.257690 6136.000000
1696.733398 5753.000000
1698.208740 6052.000000
1699.682861 6313.000000
1701.156372 5490.000000
1702.628418 5616.000000
1704.100220 6903.000000
1705.571045 6424.000000
1707.041016 7331.000000
1708.509644 5180.000000
1709.977783 5849.000000
1711.445190 6359.000000
1712.911499 5528.000000
1714.377197 5807.000000
1715.841187 6217.000000
1717.305054 5966.000000
1718.768066 7038.000000
1720.230103 6377.000000
1721.690918 6678.000000
1723.151123 5538.000000
1724.610596 6332.000000
1726.069214 6161.000000
1727.526855 5987.000000
1728.983154 6241.000000
1730.439209 6085.000000
1731.894287 6448.000000
1733.348389 6003.000000
1734.801270 6882.000000
1736.253906 6038.000000
1737.705444 6938.000000
1739.156250 6013.000000
1740.606079 6618.000000
1742.054565 5921.000000
1743.502686 7517.000000
1744.949951 6585.000000
1746.396484 6739.000000
1747.841431 6785.000000
1749.286133 6114.000000
1750.729980 5867.000000
1752.172974 5459.000000
1753.614502 6571.000000
1755.055786 6414.000000
1756.496216 19585.000000
1757.935669 6278.000000
1759.374146 5227.000000
1760.811646 6026.000000
1762.248657 7552.000000
1763.684692 5871.000000
1765.119873 7168.000000
1766.553589 6210.000000
1767.987183 6496.000000
1769.419800 6716.000000
1770.851563 5863.000000
1772.282471 5917.000000
1773.712158 6417.000000
1775.141113 6201.000000
1776.569580 6284.000000
1777.997070 6759.000000
1779.423218 6287.000000
1780.849121 5642.000000
1782.273926 6927.000000
1783.698120 5585.000000
1785.120850 6631.000000
1786.543091 6515.000000
1787.964600 6981.000000
1789.385376 5919.000000
1790.805176 6034.000000
1792.223633 6203.000000
1793.641602 6910.000000
1795.058960 5546.000000
1796.475464 6098.000000
1797.890503 6573.000000
1799.305176 5890.000000
1800.719238 6597.000000
1802.132080 6012.000000
1803.544312 6949.000000
1804.955200 7130.000000
1806.365601 7764.000000
1807.775269 6503.000000
1809.183960 5944.000000
1810.591553 5414.000000
1811.998657 6480.000000
1813.404907 6332.000000
1814.810181 6778.000000
1816.214355 5981.000000
1817.618164 6020.000000
1819.020996 6256.000000
1820.422974 6069.000000
1821.824341 5900.000000
1823.224243 6334.000000
1824.623535 6497.000000
1826.022339 6581.000000
1827.420288 7486.000000
1828.816895 5724.000000
1830.212891 6812.000000
1831.608154 6015.000000
1833.002808 8086.000000
1834.396484 6057.000000
1835.788818 6861.000000
1837.180664 6425.000000
1838.571899 5943.000000
1839.962158 7096.000000
1841.351196 6086.000000
1842.739868 6115.000000
1844.127563 5999.000000
1845.514526 5883.000000
1846.900146 6952.000000
1848.285522 5860.000000
1849.670044 6326.000000
1851.053833 6322.000000
1852.436523 6335.000000
1853.817993 5345.000000
1855.198975 6624.000000
1856.579468 6340.000000
1857.958984 5712.000000
1859.337036 5994.000000
1860.714966 6270.000000
1862.091919 7913.000000
1863.468140 6173.000000
1864.843506 6053.000000
1866.217407 5689.000000
1867.591187 5672.000000
1868.964111 6215.000000
1870.335938 5991.000000
1871.706787 6950.000000
1873.077271 5511.000000
1874.446655 6104.000000
1875.815552 6143.000000
1877.182861 7183.000000
1878.550049 6112.000000
1879.916260 6047.000000
1881.281738 6812.000000
1882.646484 7547.000000
1884.009644 6810.000000
1885.372681 6973.000000
1886.734863 6415.000000
1888.096191 6456.000000
1889.456177 5638.000000
1890.815796 5836.000000
1892.174805 6111.000000
1893.532837 6671.000000
1894.890015 7349.000000
1896.245972 5993.000000
1897.601685 7661.000000
1898.956421 5883.000000
1900.310303 5543.000000
1901.663086 5946.000000
1903.015381 5931.000000
1904.366943 5975.000000
1905.717651 6891.000000
1907.067139 6595.000000
1908.416138 6748.000000
1909.764282 5883.000000
1911.111816 6179.000000
1912.458618 6371.000000
1913.803833 6819.000000
1915.148804 6096.000000
1916.493042 5451.000000
1917.836426 6566.000000
1919.178467 6022.000000
1920.520264 6691.000000
1921.861206 7033.000000
1923.201416 6239.000000
1924.540649 6376.000000
1925.878906 6325.000000
1927.216553 6495.000000
1928.553467 7038.000000
1929.889526 6763.000000
1931.224365 5613.000000
1932.558838 6646.000000
1933.892578 7323.000000
1935.225464 6284.000000
1936.556885 5702.000000
1937.888428 6431.000000
1939.218628 6680.000000
1940.548340 5814.000000
1941.877197 6104.000000
1943.204834 5844.000000
1944.531982 5018.000000
1945.858398 5900.000000
1947.184082 6556.000000
1948.508423 5761.000000
1949.832520 6684.000000
1951.155762 6329.000000
1952.478271 6532.000000
1953.799683 5816.000000
1955.120117 7523.000000
1956.439941 6072.000000
1957.759399 5571.000000
1959.077881 6853.000000
1960.395020 5920.000000
1961.711792 5858.000000
1963.027832 6601.000000
1964.343140 6622.000000
1965.656982 6311.000000
1966.970581 5693.000000
1968.283447 6241.000000
1969.595459 6050.000000
1970.906860 6069.000000
1972.216919 6266.000000
1973.526489 5819.000000
1974.835327 6198.000000
1976.143555 6589.000000
1977.450439 6074.000000
1978.756714 7217.000000
1980.062622 5578.000000
1981.367310 6432.000000
1982.671509 5886.000000
1983.974487 5744.000000
1985.277100 7591.000000
1986.578735 6117.000000
1987.879761 6860.000000
1989.179199 6132.000000
1990.478760 6709.000000
1991.777222 5358.000000
1993.075195 6135.000000
1994.371582 6108.000000
1995.667969 5840.000000
1996.963379 5634.000000
1998.258057 6576.000000
1999.551880 5778.000000
2000.844482 6568.000000
2002.136597 5785.000000
2003.428223 7156.000000
2004.719116 6485.000000
2006.008423 6377.000000
2007.297485 6853.000000
2008.585815 5939.000000
2009.873413 6016.000000
2011.160156 6699.000000
2012.445801 5730.000000
2013.731079 6391.000000
2015.015381 6030.000000
2016.299072 5629.000000
2017.581421 6147.000000
2018.863403 6576.000000
2020.144897 6870.000000
2021.425415 5896.000000
2022.705200 6126.000000
2023.983887 6783.000000
2025.261841 5872.000000
2026.539307 5897.000000
2027.816162 6268.000000
2029.091309 5869.000000
2030.366577 6662.000000
2031.640869 6353.000000
2032.914185 5990.000000
2034.186646 5984.000000
2035.458740 6198.000000
2036.729736 6976.000000
2038.000488 6698.000000
2039.269897 6024.000000
2040.538208 6824.000000
2041.806519 6621.000000
2043.073853 6020.000000
2044.340454 5985.000000
2045.605835 5621.000000
2046.870605 5489.000000
2048.135010 5459.000000
2049.398438 5857.000000
2050.661377 6402.000000
2051.922363 6206.000000
2053.183838 6110.000000
2054.444092 5907.000000
2055.703613 6482.000000
2056.962402 6229.000000
2058.220215 6953.000000
2059.477539 5929.000000
2060.734131 6051.000000
2061.989258 6564.000000
2063.244385 5675.000000
2064.498535 5602.000000
2065.751953 5575.000000
2067.004639 6818.000000
2068.256104 6265.000000
2069.507324 6366.000000
2070.757813 5633.000000
2072.007568 5426.000000
2073.255859 6440.000000
2074.504150 6554.000000
2075.751465 7368.000000
2076.998047 5614.000000
2078.243896 6064.000000
2079.488525 7056.000000
2080.732666 7616.000000
2081.976318 5509.000000
2083.218994 6053.000000
2084.460449 7005.000000
2085.701660 6017.000000
2086.942383 6308.000000
2088.182129 6707.000000
2089.420654 7167.000000
2090.658691 6258.000000
2091.895996 5827.000000
2093.133057 6628.000000
2094.368652 6142.000000
2095.603516 6206.000000
2096.838135 6144.000000
2098.071777 5675.000000
2099.304443 6092.000000
2100.536377 7029.000000
2101.767822 6453.000000
2102.998291 6789.000000
2104.228027 5978.000000
2105.457520 5980.000000
2106.685059 6062.000000
2107.912842 5931.000000
2109.139893 6423.000000
2110.365967 5529.000000
2111.590576 6372.000000
2112.815430 6969.000000
2114.039063 7099.000000
2115.262207 6234.000000
2116.484131 7559.000000
2117.705811 6048.000000
2118.926514 6886.000000
2120.146484 6011.000000
2121.365967 6189.000000
2122.583984 6562.000000
2123.802002 7084.000000
2125.019043 5760.000000
2126.235596 5863.000000
2127.450439 6587.000000
2128.665527 6432.000000
2129.879639 6968.000000
2131.093018 5745.000000
2132.305664 6126.000000
2133.516846 5814.000000
2134.728271 6632.000000
2135.938477 6657.000000
2137.148193 5955.000000
2138.356445 6364.000000
2139.564697 5637.000000
2140.772217 5937.000000
2141.978516 7531.000000
2143.184082 5907.000000
2144.389404 5689.000000
2145.593750 5570.000000
2146.797363 6299.000000
2148.000488 6222.000000
2149.202148 6487.000000
2150.403564 5291.000000
2151.604248 6308.000000
2152.804199 6158.000000
2154.002930 5988.000000
2155.201416 6955.000000
2156.399414 6222.000000
2157.596436 6004.000000
2158.792725 5168.000000
2159.987793 5337.000000
2161.182617 6166.000000
2162.376709 5565.000000
2163.569824 6096.000000
2164.761963 6929.000000
2165.953857 5951.000000
2167.145020 6304.000000
2168.335205 6354.000000
2169.524658 6493.000000
2170.713623 6806.000000
2171.901611 6262.000000
2173.089355 5717.000000
2174.275635 5980.000000
2175.461182 6599.000000
2176.646484 6021.000000
2177.831299 5873.000000
2179.014893 6387.000000
2180.197754 7469.000000
2181.379639 6362.000000
2182.561279 5970.000000
2183.742432 6590.000000
2184.922363 5682.000000
2186.101318 5571.000000
2187.279785 6357.000000
2188.458008 6901.000000
2189.635010 7189.000000
2190.811035 6752.000000
2191.986816 6195.000000
2193.162109 5614.000000
2194.335938 6754.000000
2195.509277 6187.000000
2196.682373 6197.000000
2197.854248 6571.000000
2199.025635 7185.000000
2200.196533 6332.000000
2201.365723 6886.000000
2202.534912 7539.000000
2203.703613 6355.000000
2204.871338 5946.000000
2206.038086 5697.000000
2207.204102 7249.000000
2208.369629 6674.000000
2209.534912 5963.000000
2210.698730 6728.000000
2211.862061 5459.000000
2213.024170 6218.000000
2214.186523 6201.000000
2215.347656 6767.000000
2216.507813 6680.000000
2217.667480 6367.000000
2218.826904 6617.000000
2219.985107 6363.000000
2221.142334 6323.000000
2222.299316 6820.000000
2223.455566 6590.000000
2224.611084 6831.000000
2225.765869 6306.000000
2226.919678 6482.000000
2228.072510 6053.000000
2229.225830 6913.000000
2230.377197 6267.000000
2231.528320 6197.000000
2232.678711 6593.000000
2233.828613 7730.000000
2234.977539 6367.000000
2236.125977 5211.000000
2237.272949 6883.000000
2238.420166 6995.000000
2239.566162 6108.000000
2240.711914 7303.000000
2241.855957 7350.000000
2243.000244 6778.000000
2244.143555 6171.000000
2245.286133 5957.000000
2246.427734 5826.000000
2247.569092 5873.000000
2248.709473 6441.000000
2249.849121 6474.000000
2250.988281 5810.000000
2252.126221 5856.000000
2253.264160 6210.000000
2254.401123 5363.000000
2255.537354 6357.000000
2256.672607 6160.000000
2257.807129 7277.000000
2258.941406 6457.000000
2260.075195 5454.000000
2261.207520 6091.000000
2262.339355 6804.000000
2263.470703 6290.000000
2264.601074 6587.000000
2265.731201 8108.000000
2266.860107 6762.000000
2267.988525 6088.000000
2269.116455 5564.000000
2270.243408 6139.000000
2271.369629 6001.000000
2272.494873 6780.000000
2273.620117 6537.000000
2274.744629 6364.000000
2275.867920 5906.000000
2276.990479 6335.000000
2278.112549 6229.000000
2279.234131 7371.000000
2280.354980 6404.000000
2281.474609 6396.000000
2282.593750 7115.000000
2283.712646 7738.000000
2284.830811 7251.000000
2285.947998 5957.000000
2287.064209 6544.000000
2288.180176 7074.000000
2289.295410 6865.000000
2290.409912 7415.000000
2291.523193 5875.000000
2292.636475 6381.000000
2293.749023 6092.000000
2294.860840 5358.000000
2295.971924 6794.000000
2297.081787 6391.000000
2298.191162 6182.000000
2299.300293 6724.000000
2300.408447 6352.000000
2301.515625 6800.000000
2302.622559 5887.000000
2303.728760 6361.000000
2304.834473 6540.000000
2305.938721 6637.000000
2307.042725 5469.000000
2308.146240 5759.000000
2309.249268 6554.000000
2310.351074 7477.000000
2311.452148 7402.000000
2312.552734 6642.000000
2313.652832 5571.000000
2314.752197 6453.000000
2315.850098 6619.000000
2316.948486 7025.000000
2318.045410 8225.000000
2319.142090 6895.000000
2320.238281 5847.000000
2321.332764 6870.000000
2322.427246 7470.000000
2323.520996 5862.000000
2324.614502 6078.000000
2325.706299 6463.000000
2326.798096 7069.000000
2327.889160 6105.000000
2328.979492 6248.000000
2330.068848 6985.000000
2331.158203 6099.000000
2332.246338 6355.000000
2333.333984 6867.000000
2334.421387 6533.000000
2335.507080 6611.000000
2336.592529 7762.000000
2337.677734 6355.000000
2338.761963 6802.000000
2339.845215 5899.000000
2340.928223 6499.000000
2342.010254 7088.000000
2343.092041 5999.000000
2344.173096 7457.000000
2345.252930 6706.000000
2346.332275 5695.000000
2347.411133 6789.000000
2348.489502 6651.000000
2349.566406 6318.000000
2350.643066 6956.000000
2351.719482 6074.000000
2352.794922 6430.000000
2353.869385 5902.000000
2354.943604 6368.000000
2356.017090 6781.000000
2357.090088 6300.000000
2358.161865 7056.000000
2359.233398 6329.000000
2360.303955 6744.000000
2361.374268 7546.000000
2362.443604 7617.000000
2363.511963 6805.000000
2364.580078 6818.000000
2365.647461 7140.000000
2366.714355 7149.000000
2367.780518 6066.000000
2368.845459 6815.000000
2369.910400 7037.000000
2370.974609 6320.000000
2372.038086 6938.000000
2373.100342 5789.000000
2374.162598 6322.000000
2375.223877 6358.000000
2376.284912 5936.000000
2377.344727 6329.000000
2378.403809 7927.000000
2379.462891 6473.000000
2380.520996 7584.000000
2381.578369 6964.000000
2382.634766 8095.000000
2383.690918 7823.000000
2384.746582 6251.000000
2385.801514 7069.000000
2386.854980 6780.000000
2387.908691 6570.000000
2388.961426 6379.000000
2390.013672 6730.000000
2391.065186 6127.000000
2392.115723 6648.000000
2393.166016 6484.000000
2394.215332 6346.000000
2395.264648 6180.000000
2396.312500 6886.000000
2397.359863 6957.000000
2398.406982 6357.000000
2399.453125 6684.000000
2400.498535 6236.000000
2401.543213 6792.000000
2402.587891 7775.000000
2403.631104 7478.000000
2404.674316 6572.000000
2405.716064 5957.000000
2406.758057 6773.000000
2407.799316 7111.000000
2408.839600 6085.000000
2409.879150 6445.000000
2410.917725 6391.000000
2411.956543 6127.000000
2412.994141 6590.000000
2414.031494 6902.000000
2415.067627 7435.000000
2416.103516 6203.000000
2417.138672 6270.000000
2418.173340 6904.000000
2419.206543 7232.000000
2420.239990 6479.000000
2421.272461 6687.000000
2422.304688 6873.000000
2423.335449 7137.000000
2424.366211 6489.000000
2425.396484 6910.000000
2426.425537 6874.000000
2427.454590 6622.000000
2428.481934 7390.000000
2429.509766 6679.000000
2430.536377 7285.000000
2431.562744 6952.000000
2432.587646 7845.000000
2433.612793 6657.000000
2434.636963 7138.000000
2435.660889 6643.000000
2436.683594 5877.000000
2437.705566 6346.000000
2438.727295 6650.000000
2439.748291 6676.000000
2440.768799 6030.000000
2441.788086 6594.000000
2442.807373 6569.000000
2443.825684 8509.000000
2444.843750 6293.000000
2445.860352 6445.000000
2446.876953 6577.000000
2447.892822 5983.000000
2448.908691 6967.000000
2449.923096 6883.000000
2450.936768 5582.000000
2451.949951 7242.000000
2452.962891 6018.000000
2453.975098 7267.000000
2454.986328 6642.000000
2455.997314 7628.000000
2457.007568 6368.000000
2458.017334 7612.000000
2459.026123 5910.000000
2460.034180 5941.000000
2461.042236 6312.000000
2462.049072 7340.000000
2463.055664 5444.000000
2464.061035 7429.000000
2465.066162 6947.000000
2466.071045 5885.000000
2467.074707 6552.000000
2468.078125 6417.000000
2469.080566 7603.000000
2470.082764 7354.000000
2471.084473 6871.000000
2472.085205 6637.000000
2473.084961 7054.000000
2474.084717 6751.000000
2475.083496 5697.000000
2476.081787 6639.000000
2477.079102 7038.000000
2478.076172 6096.000000
2479.073242 6991.000000
2480.068848 5831.000000
2481.064453 7119.000000
2482.058350 6732.000000
2483.052246 8116.000000
2484.045654 6930.000000
2485.038574 6746.000000
2486.030518 7503.000000
2487.021729 7181.000000
2488.012695 6801.000000
2489.003174 5857.000000
2489.992676 6581.000000
2490.981445 6467.000000
2491.970215 5614.000000
2492.958008 6843.000000
2493.944580 6611.000000
2494.931152 8047.000000
2495.917236 6779.000000
2496.902588 7065.000000
2497.886963 8298.000000
2498.871094 6019.000000
2499.855225 6927.000000
2500.837891 5782.000000
2501.820068 7010.000000
2502.801758 6892.000000
2503.782715 7286.000000
2504.763184 6506.000000
2505.743408 5760.000000
2506.722168 6377.000000
2507.700684 7613.000000
2508.678711 6749.000000
2509.656250 7140.000000
2510.632813 6145.000000
2511.609131 5927.000000
2512.584717 6442.000000
2513.559814 6219.000000
2514.534424 6453.000000
2515.507813 7678.000000
2516.480957 6750.000000
2517.453857 6949.000000
2518.425781 6134.000000
2519.396973 6790.000000
2520.367676 6929.000000
2521.338135 7828.000000
2522.307861 8107.000000
2523.276611 6081.000000
2524.244629 6148.000000
2525.212646 7658.000000
2526.179688 6380.000000
2527.146484 5507.000000
2528.112061 7271.000000
2529.077637 6997.000000
2530.042480 7740.000000
2531.006836 6309.000000
2531.969971 6423.000000
2532.933350 5890.000000
2533.895752 5934.000000
2534.857910 6709.000000
2535.818848 6398.000000
2536.779053 6103.000000
2537.739502 6113.000000
2538.698975 6720.000000
2539.657715 6830.000000
2540.615479 6636.000000
2541.573486 6230.000000
2542.530762 6783.000000
2543.487061 6069.000000
2544.443115 7112.000000
2545.397949 6284.000000
2546.353027 7769.000000
2547.307373 7042.000000
2548.260986 6899.000000
2549.213623 7224.000000
2550.166016 6797.000000
2551.117920 6991.000000
2552.069092 6452.000000
2553.019531 7695.000000
2553.969482 7092.000000
2554.919189 7394.000000
2555.868164 6587.000000
2556.816650 6269.000000
2557.763916 7167.000000
2558.711182 6349.000000
2559.657715 6564.000000
2560.603760 6771.000000
2561.548828 7603.000000
2562.493652 6767.000000
2563.437988 7302.000000
2564.381836 6832.000000
2565.325195 6666.000000
2566.267090 6606.000000
2567.209229 6642.000000
2568.150635 6193.000000
2569.091309 7189.000000
2570.031250 7308.000000
2570.971191 5680.000000
2571.910156 6153.000000
2572.848877 7575.000000
2573.786621 7182.000000
2574.724121 5501.000000
2575.660889 7024.000000
2576.596924 6778.000000
2577.532471 7498.000000
2578.467285 6365.000000
2579.402100 5950.000000
2580.335938 6980.000000
2581.269287 7137.000000
2582.201904 5892.000000
2583.134277 7003.000000
2584.065918 5417.000000
2584.997070 7004.000000
2585.927734 6971.000000
2586.857178 6884.000000
2587.786621 7251.000000
2588.715576 6442.000000
2589.644287 7633.000000
2590.571289 7390.000000
2591.498535 5940.000000
2592.425293 6843.000000
2593.351318 6321.000000
2594.277100 5623.000000
2595.201660 7573.000000
2596.125977 7681.000000
2597.049805 5358.000000
2597.973145 7343.000000
2598.895508 6302.000000
2599.817627 6879.000000
2600.739258 8322.000000
2601.660156 6432.000000
2602.580322 5826.000000
2603.500244 6325.000000
2604.419678 6414.000000
2605.338867 6465.000000
2606.257080 5873.000000
2607.174072 5968.000000
2608.091309 7226.000000
2609.008301 5885.000000
2609.924316 7619.000000
2610.839111 6630.000000
2611.754395 6688.000000
2612.668945 6593.000000
2613.582520 6551.000000
2614.496094 6427.000000
2615.408447 7653.000000
2616.320801 7117.000000
2617.232178 6827.000000
2618.143311 5723.000000
2619.053711 7499.000000
2619.963867 6686.000000
2620.873291 6175.000000
2621.782227 6698.000000
2622.690186 6234.000000
2623.598389 6958.000000
2624.505615 6633.000000
2625.412354 7115.000000
2626.318359 5952.000000
2627.224121 6592.000000
2628.129150 6421.000000
2629.033936 7890.000000
2629.937988 6447.000000
2630.841064 6376.000000
2631.744141 6488.000000
2632.646240 5659.000000
2633.548340 6765.000000
2634.450195 7007.000000
2635.350342 6845.000000
2636.250732 6429.000000
2637.150391 6479.000000
2638.049805 5995.000000
2638.947754 6863.000000
2639.846191 6839.000000
2640.744141 6467.000000
2641.641357 6103.000000
2642.537354 6218.000000
2643.433350 6871.000000
2644.329102 6078.000000
2645.224121 6459.000000
2646.118896 6642.000000
2647.012207 7284.000000
2647.905518 6279.000000
2648.798584 6801.000000
2649.691406 6475.000000
2650.582520 7433.000000
2651.473877 6400.000000
2652.364746 7711.000000
2653.254883 7342.000000
2654.144775 6599.000000
2655.033447 7311.000000
2655.922363 6652.000000
2656.810791 6543.000000
2657.698242 7337.000000
2658.584717 6502.000000
2659.471680 7135.000000
2660.357910 6857.000000
2661.243652 6874.000000
2662.128174 6575.000000
2663.012695 6433.000000
2663.896973 6162.000000
2664.780518 7174.000000
2665.663574 7873.000000
2666.545898 7387.000000
2667.427734 6230.000000
2668.308838 6680.000000
2669.190186 6120.000000
2670.070068 6526.000000
2670.950195 7454.000000
2671.829590 7248.000000
2672.708984 6372.000000
2673.587646 6145.000000
2674.464600 6424.000000
2675.342285 6825.000000
2676.219238 6345.000000
2677.095459 8140.000000
2677.971191 7194.000000
2678.846191 6269.000000
2679.721436 7730.000000
2680.595703 6935.000000
2681.469482 7317.000000
2682.342529 7064.000000
2683.215332 6210.000000
2684.087891 6125.000000
2684.959717 7026.000000
2685.830811 6571.000000
2686.701660 6948.000000
2687.572021 7096.000000
2688.442139 6683.000000
2689.310547 6297.000000
2690.179688 7447.000000
2691.048096 7084.000000
2691.916260 6676.000000
2692.783691 6982.000000
2693.649902 5887.000000
2694.516602 7199.000000
2695.382324 7404.000000
2696.248047 7168.000000
2697.112305 7973.000000
2697.977295 6650.000000
2698.840820 7263.000000
2699.704590 5872.000000
2700.566895 7432.000000
2701.429688 6798.000000
2702.291504 6000.000000
2703.152832 6898.000000
2704.014160 6685.000000
2704.874268 7489.000000
2705.734375 7304.000000
2706.593994 6608.000000
2707.453369 6889.000000
2708.311035 7227.000000
2709.168945 6883.000000
2710.027344 7373.000000
2710.884521 6705.000000
2711.740967 5939.000000
2712.596924 6902.000000
2713.452881 6150.000000
2714.308105 6974.000000
2715.162598 6166.000000
2716.016602 6854.000000
2716.870605 7309.000000
2717.723633 6265.000000
2718.576904 6588.000000
2719.428467 7720.000000
2720.280518 6797.000000
2721.132324 6351.000000
2721.982910 6519.000000
2722.833496 6444.000000
2723.683594 7160.000000
2724.532959 7098.000000
2725.382324 6990.000000
2726.230469 6698.000000
2727.078125 6613.000000
2727.926270 7033.000000
2728.773193 6940.000000
2729.620605 5617.000000
2730.466553 7553.000000
2731.311768 6958.000000
2732.157471 6431.000000
2733.002197 7133.000000
2733.846924 7363.000000
2734.690430 6946.000000
2735.534180 7820.000000
2736.377197 7046.000000
2737.219727 6083.000000
2738.061279 6298.000000
2738.903320 6812.000000
2739.744385 6948.000000
2740.585205 5805.000000
2741.425781 5902.000000
2742.265137 7804.000000
2743.104492 6833.000000
2743.943848 6913.000000
2744.781982 6859.000000
2745.619629 7868.000000
2746.457275 6336.000000
2747.294434 7206.000000
2748.131348 6270.000000
2748.967773 6050.000000
2749.802979 6697.000000
2750.638428 6340.000000
2751.473389 6368.000000
2752.307617 6272.000000
2753.141602 6872.000000
2753.975098 6774.000000
2754.808594 8016.000000
2755.641113 6813.000000
2756.473145 7353.000000
2757.304688 6841.000000
2758.136230 7149.000000
2758.966797 7264.000000
2759.797607 7230.000000
2760.627197 7294.000000
2761.456787 6810.000000
2762.286133 7331.000000
2763.114746 6873.000000
2763.942871 6776.000000
2764.770508 6793.000000
2765.598145 6629.000000
2766.425293 7951.000000
2767.251709 5802.000000
2768.077637 7484.000000
2768.903076 6894.000000
2769.728271 7863.000000
2770.553467 7070.000000
2771.377441 6757.000000
2772.201416 6516.000000
2773.025391 7661.000000
2773.848145 6710.000000
2774.671143 6961.000000
2775.492920 6978.000000
2776.314697 6948.000000
2777.136475 6495.000000
2777.957275 7996.000000
2778.777344 6590.000000
2779.597656 7008.000000
2780.417480 7265.000000
2781.237305 6455.000000
2782.055176 6021.000000
2782.874268 8105.000000
2783.692139 6545.000000
2784.509766 6814.000000
2785.326904 7159.000000
2786.143555 7315.000000
2786.959961 7234.000000
2787.775879 6318.000000
2788.591553 5980.000000
2789.406250 6407.000000
2790.221436 6942.000000
2791.035889 7169.000000
2791.849854 6545.000000
2792.663574 7453.000000
2793.476074 8811.000000
2794.288818 7020.000000
2795.101074 7463.000000
2795.912842 7206.000000
2796.723877 7427.000000
2797.535645 6591.000000
2798.346191 7249.000000
2799.156738 7114.000000
2799.965820 7368.000000
2800.775635 8215.000000
2801.584717 7858.000000
2802.393555 6686.000000
2803.201904 7205.000000
2804.009277 6220.000000
2804.817139 6463.000000
2805.624268 6961.000000
2806.431152 7048.000000
2807.236816 7070.000000
2808.042969 6652.000000
2808.848389 6503.000000
2809.653809 7298.000000
2810.458496 6205.000000
2811.262207 7649.000000
2812.066406 7500.000000
2812.870117 6351.000000
2813.673584 6133.000000
2814.475586 6575.000000
2815.278320 7351.000000
2816.080322 7824.000000
2816.882080 6123.000000
2817.683350 6579.000000
2818.484131 7298.000000
2819.284424 6550.000000
2820.084961 6628.000000
2820.884521 8178.000000
2821.683594 7127.000000
2822.482666 6637.000000
2823.281494 6848.000000
2824.079834 6388.000000
2824.877197 7041.000000
2825.674805 7070.000000
2826.471680 6695.000000
2827.268799 7384.000000
2828.065186 8005.000000
2828.860840 6995.000000
2829.656494 7385.000000
2830.451904 7851.000000
2831.246826 7469.000000
2832.041016 6614.000000
2832.835205 6883.000000
2833.629150 5691.000000
2834.422607 6906.000000
2835.215332 7151.000000
2836.007813 8204.000000
2836.800293 7698.000000
2837.592529 7531.000000
2838.384277 6461.000000
2839.175049 6831.000000
2839.965820 8904.000000
2840.756836 7524.000000
2841.546875 6299.000000
2842.336426 7674.000000
2843.126221 7179.000000
2843.915039 7320.000000
2844.703857 7836.000000
2845.492676 7766.000000
2846.280518 7580.000000
2847.067871 7191.000000
2847.855469 7504.000000
2848.642578 7308.000000
2849.428955 6629.000000
2850.215332 7424.000000
2851.001465 7238.000000
2851.787109 7484.000000
2852.571777 7184.000000
2853.356934 6954.000000
2854.141846 7489.000000
2854.926025 7200.000000
2855.710205 6961.000000
2856.493164 8312.000000
2857.276367 6804.000000
2858.059326 6827.000000
2858.841797 7784.000000
2859.624023 6275.000000
2860.405762 6644.000000
2861.187256 7580.000000
2861.968994 7502.000000
2862.750000 7676.000000
2863.530273 6579.000000
2864.310303 6761.000000
2865.090332 8241.000000
2865.870117 7440.000000
2866.648926 8165.000000
2867.427979 7654.000000
2868.206543 6823.000000
2868.984863 7059.000000
2869.762695 7201.000000
2870.540283 6970.000000
2871.317627 7528.000000
2872.094727 6950.000000
2872.871338 6503.000000
2873.647461 7570.000000
2874.423584 7217.000000
2875.199219 8401.000000
2875.974609 7309.000000
2876.749512 6654.000000
2877.524170 8045.000000
2878.298828 6614.000000
2879.073242 7978.000000
2879.846924 6918.000000
2880.619873 7249.000000
2881.393555 6807.000000
2882.166260 7669.000000
2882.938965 7909.000000
2883.710938 8205.000000
2884.482666 6231.000000
2885.254883 6866.000000
2886.025879 6935.000000
2886.796387 6110.000000
2887.567383 8382.000000
2888.338379 7367.000000
2889.108643 7992.000000
2889.877930 7691.000000
2890.647461 6984.000000
2891.416992 7209.000000
2892.186035 7343.000000
2892.954590 7905.000000
2893.723145 7787.000000
2894.490723 7001.000000
2895.258789 6679.000000
2896.026367 7454.000000
2896.793945 8399.000000
2897.560303 7390.000000
2898.327637 6543.000000
2899.093750 7226.000000
2899.860107 6968.000000
2900.625000 8267.000000
2901.390381 7012.000000
2902.156250 6442.000000
2902.920654 7745.000000
2903.685059 7928.000000
2904.449707 8455.000000
2905.213379 6649.000000
2905.977783 8513.000000
2906.741455 6698.000000
2907.504395 8353.000000
2908.267090 6538.000000
2909.030273 9094.000000
2909.792969 6942.000000
2910.554443 6788.000000
2911.316406 6788.000000
