scanname Analyse066
timestamp 2017-02-10 21:29:49
ccdbias 892.604980
ccdgain 3.473401
sigmaread 8.960639
laserwavenum -0.894866
wavenumcorrection -0.371902
scancount 1
totalexposurems 10000
singleexposurems 10000
measurementstate Unknown
scanmode Manual
snr 242.052002 7.004201 6.046383
replacelist 4
374 46042.000000 14976.000000
383 45849.000000 12101.000000
672 37683.000000 31253.000000
948 27082.000000 7457.000000
peaks 47
278.281067 0.690040 0.000000 1.453023 0.000183
292.324188 0.689765 0.000000 0.540404 0.000026
301.953613 0.690460 0.000000 0.203584 0.000024
330.421417 0.704240 0.000000 0.787193 0.000134
343.270294 0.707113 0.000000 0.612738 0.000029
350.253418 0.710296 0.000000 0.580065 0.000022
361.167053 0.711673 0.000000 0.281472 0.000016
386.668365 0.716106 0.000000 1.234550 0.000277
463.512390 0.724545 0.000000 0.436536 0.000027
486.815338 0.732196 0.000000 0.509928 0.000056
494.619202 0.729558 0.000000 0.294347 0.000045
533.673889 0.726201 0.000000 0.661434 0.000145
559.576172 0.753636 0.000000 1.172287 0.000207
574.002319 0.759341 0.000000 0.284574 0.000071
581.962402 0.754742 0.000000 0.774726 0.000078
660.703491 0.755239 0.000000 0.990935 0.000097
674.374329 0.755777 0.000000 1.354133 0.000253
715.937561 0.746821 0.000000 4.966166 0.001002
741.995178 0.738696 0.000000 1.213475 0.000088
753.550171 0.740640 0.000000 0.487563 0.000029
766.883240 0.757136 0.000000 1.409764 0.000432
778.855835 0.745123 0.000000 0.728402 0.000126
826.207764 0.735798 0.000000 0.384178 0.000027
831.878052 0.731060 0.000000 0.232420 0.000127
854.794678 0.757490 0.000000 0.745372 0.000211
860.970032 0.760363 0.000000 0.579574 0.000085
874.600037 0.772109 0.000000 1.819540 0.000555
939.427368 0.718116 0.000000 1.136348 0.000194
955.512268 0.712854 0.000000 3.064674 0.000850
980.028931 0.696715 0.000000 0.279830 0.000097
1031.875122 0.714472 0.000000 0.994259 0.000288
1045.264160 0.729372 0.000000 3.764134 0.001094
1087.700806 0.705632 0.000000 2.109265 0.000341
1105.960815 0.688109 0.000000 0.902070 0.000289
1120.321777 0.693825 0.000000 0.807447 0.000187
1136.033569 0.690480 0.000000 1.790214 0.000686
1150.298340 0.680466 0.000000 1.936258 0.000712
1172.198608 0.661718 0.000000 0.596716 0.000246
1210.751343 0.656310 0.000000 0.587629 0.000086
1236.528442 0.661082 0.000000 1.027245 0.000239
1264.323242 0.662801 0.000000 0.462619 0.000159
1278.984375 0.659574 0.000000 0.450382 0.000404
1320.824097 0.717969 0.000000 3.664460 0.001460
1455.082397 0.716321 0.000000 10.893594 0.004459
1614.591064 0.596847 0.000000 1.100313 0.000395
1663.232666 0.598104 0.000000 3.977251 0.001697
2069.968750 0.426975 0.000000 0.130719 0.000116
finalresult GLS_NoMatch 0
spectrum 2048
-96.706589 45603.000000
-94.079720 45603.000000
-91.454727 46212.000000
-88.831627 46185.000000
-86.210396 47029.000000
-83.591064 46768.000000
-80.973595 47030.000000
-78.358002 46785.000000
-75.744286 47003.000000
-73.132446 47467.000000
-70.522469 47244.000000
-67.914375 47405.000000
-65.308128 47462.000000
-62.703758 47494.000000
-60.101250 47410.000000
-57.500595 47817.000000
-54.901802 47227.000000
-52.304867 46624.000000
-49.709785 46997.000000
-47.116558 46935.000000
-44.525181 47195.000000
-41.935650 46722.000000
-39.347961 47599.000000
-36.762123 47381.000000
-34.178127 46985.000000
-31.595968 47743.000000
-29.015656 47092.000000
-26.437170 47673.000000
-23.860527 47234.000000
-21.285709 47079.000000
-18.712732 46803.000000
-16.141575 46812.000000
-13.572251 46470.000000
-11.004753 45492.000000
-8.439074 46899.000000
-5.875220 46678.000000
-3.313179 47113.000000
-0.752963 47211.000000
1.805445 46680.000000
4.362031 45855.000000
6.916814 46124.000000
9.469779 46585.000000
12.020944 45687.000000
14.570295 45739.000000
17.117851 45030.000000
19.663595 45128.000000
22.207546 44563.000000
24.749693 42169.000000
27.290043 39781.000000
29.828608 36428.000000
32.365376 32608.000000
34.900341 25923.000000
37.433529 15555.000000
39.964935 9306.000000
42.494549 8464.000000
45.022366 8072.000000
47.548424 7122.000000
50.072693 6058.000000
52.595192 5452.000000
55.115894 5071.000000
57.634842 5440.000000
60.152016 6665.000000
62.667412 8232.000000
65.181030 9076.000000
67.692894 9434.000000
70.203011 7556.000000
72.711334 4865.000000
75.217903 3945.000000
77.722725 3205.000000
80.225792 2519.000000
82.727081 2297.000000
85.226631 2226.000000
87.724426 2102.000000
90.220490 2270.000000
92.714775 2974.000000
95.207321 3498.000000
97.698151 3395.000000
100.187210 3111.000000
102.674522 2472.000000
105.160110 1935.000000
107.643959 1679.000000
110.126060 1638.000000
112.606438 1425.000000
115.085091 1371.000000
117.562019 1291.000000
120.037193 1419.000000
122.510658 1376.000000
124.982391 1483.000000
127.452415 1611.000000
129.920685 1702.000000
132.387283 2057.000000
134.852127 2320.000000
137.315277 2641.000000
139.776688 3106.000000
142.236404 3889.000000
144.694397 4914.000000
147.150696 6140.000000
149.605286 7835.000000
152.058151 9492.000000
154.509338 11602.000000
156.958832 15263.000000
159.406601 23471.000000
161.852661 26873.000000
164.297043 27411.000000
166.739746 31856.000000
169.180756 34018.000000
171.620056 35635.000000
174.057648 35585.000000
176.493607 36977.000000
178.927826 37136.000000
181.360367 37380.000000
183.791260 38403.000000
186.220428 38547.000000
188.647949 39569.000000
191.073792 40663.000000
193.497955 41184.000000
195.920456 41423.000000
198.341263 41678.000000
200.760406 42858.000000
203.177887 43746.000000
205.593674 42544.000000
208.007813 43414.000000
210.420319 44365.000000
212.831146 44864.000000
215.240295 44964.000000
217.647812 43864.000000
220.053619 45297.000000
222.457840 45035.000000
224.860352 44945.000000
227.261246 44837.000000
229.660492 45397.000000
232.058075 45010.000000
234.453995 44582.000000
236.848297 45250.000000
239.240936 45990.000000
241.631958 45014.000000
244.021317 45263.000000
246.409058 45461.000000
248.795151 44811.000000
251.179611 45612.000000
253.562424 43931.000000
255.943665 45102.000000
258.323181 44998.000000
260.701141 45217.000000
263.077423 44120.000000
265.452148 44062.000000
267.825226 43753.000000
270.196655 45323.000000
272.566437 45070.000000
274.934662 45635.000000
277.301239 45129.000000
279.666229 44707.000000
282.029602 45434.000000
284.391327 45148.000000
286.751465 44254.000000
289.109985 45321.000000
291.466919 44818.000000
293.822235 44860.000000
296.175964 45321.000000
298.528046 45332.000000
300.878571 45022.000000
303.227509 44968.000000
305.574799 44529.000000
307.920563 44859.000000
310.264648 44836.000000
312.607208 43944.000000
314.948151 43683.000000
317.287476 44050.000000
319.625244 44195.000000
321.961456 43089.000000
324.296021 44888.000000
326.629028 44706.000000
328.960480 45132.000000
331.290344 44462.000000
333.618622 44721.000000
335.945282 43939.000000
338.270447 44769.000000
340.593994 44893.000000
342.915985 45107.000000
345.236420 43583.000000
347.555237 43434.000000
349.872498 45149.000000
352.188232 45261.000000
354.502380 44121.000000
356.814941 44801.000000
359.125946 44681.000000
361.435425 44155.000000
363.743378 44766.000000
366.049713 45498.000000
368.354462 44709.000000
370.657745 44678.000000
372.959412 44905.000000
375.259583 44773.000000
377.558197 44853.000000
379.855255 45486.000000
382.150757 45145.000000
384.444733 45339.000000
386.737122 46010.000000
389.028015 45679.000000
391.317383 45040.000000
393.605164 45101.000000
395.891418 44886.000000
398.176178 44335.000000
400.459320 45322.000000
402.741028 44893.000000
405.021210 45123.000000
407.299805 44023.000000
409.576874 44774.000000
411.852417 44444.000000
414.126434 44734.000000
416.399017 44765.000000
418.669983 44701.000000
420.939453 44660.000000
423.207428 44011.000000
425.473846 43824.000000
427.738770 44838.000000
430.002228 44754.000000
432.264099 44425.000000
434.524506 45017.000000
436.783356 44288.000000
439.040741 44792.000000
441.296631 45252.000000
443.551025 45074.000000
445.803894 45391.000000
448.055206 43868.000000
450.305115 44633.000000
452.553436 44521.000000
454.800323 45123.000000
457.045746 44203.000000
459.289612 44268.000000
461.531982 44006.000000
463.772858 45098.000000
466.012329 44030.000000
468.250214 45182.000000
470.486664 44832.000000
472.721588 44581.000000
474.955048 43423.000000
477.187073 43956.000000
479.417572 44988.000000
481.646576 44211.000000
483.874115 44334.000000
486.100159 44686.000000
488.324768 44016.000000
490.547913 44669.000000
492.769592 44274.000000
494.989716 43944.000000
497.208435 44967.000000
499.425659 44308.000000
501.641510 45085.000000
503.855743 44455.000000
506.068665 44127.000000
508.279999 44146.000000
510.489899 43704.000000
512.698364 43922.000000
514.905457 43938.000000
517.110962 43962.000000
519.315063 43816.000000
521.517639 44120.000000
523.718811 43716.000000
525.918640 43580.000000
528.116943 43165.000000
530.313721 44777.000000
532.509155 44208.000000
534.703064 44483.000000
536.895630 42400.000000
539.086670 43174.000000
541.276306 43803.000000
543.464539 42852.000000
545.651245 42539.000000
547.836487 42901.000000
550.020447 43332.000000
552.202820 43098.000000
554.383850 43279.000000
556.563354 43483.000000
558.741577 43543.000000
560.918274 43416.000000
563.093567 43035.000000
565.267456 42987.000000
567.439880 43478.000000
569.610901 43391.000000
571.780457 43115.000000
573.948730 44114.000000
576.115479 43107.000000
578.280762 43173.000000
580.444641 43318.000000
582.607239 43690.000000
584.768311 43440.000000
586.927979 43862.000000
589.086304 43649.000000
591.243103 43304.000000
593.398560 42940.000000
595.552612 43660.000000
597.705322 43380.000000
599.856506 42161.000000
602.006348 42635.000000
604.154846 42736.000000
606.301758 43213.000000
608.447449 42748.000000
610.591736 42859.000000
612.734558 42142.000000
614.875916 43008.000000
617.016052 42626.000000
619.154663 41417.000000
621.291992 43266.000000
623.427856 42307.000000
625.562317 42032.000000
627.695313 41600.000000
629.827148 42114.000000
631.957520 42079.000000
634.086487 41802.000000
636.213989 42052.000000
638.340210 42179.000000
640.464905 40988.000000
642.588379 41831.000000
644.710510 41261.000000
646.831177 41272.000000
648.950500 41481.000000
651.068420 42271.000000
653.184998 42169.000000
655.300171 41406.000000
657.414001 41359.000000
659.526367 42002.000000
661.637512 41742.000000
663.747253 42390.000000
665.855530 41812.000000
667.962646 41630.000000
670.068298 41096.000000
672.172485 42087.000000
674.275452 42264.000000
676.377014 41055.000000
678.477234 42737.000000
680.576050 41440.000000
682.673523 41919.000000
684.769714 41184.000000
686.864441 41726.000000
688.957947 41005.000000
691.050110 41293.000000
693.140747 39942.000000
695.230164 41136.000000
697.318298 41140.000000
699.404968 41550.000000
701.490417 40659.000000
703.574341 42087.000000
705.657043 41171.000000
707.738464 41001.000000
709.818420 39204.000000
711.897156 40443.000000
713.974426 40947.000000
716.050415 39894.000000
718.125122 40493.000000
720.198547 39477.000000
722.270447 40186.000000
724.341187 38974.000000
726.410583 40403.000000
728.478577 39571.000000
730.545227 39719.000000
732.610657 38937.000000
734.674744 40128.000000
736.737488 39645.000000
738.798889 39277.000000
740.859009 39265.000000
742.917725 39790.000000
744.975220 39199.000000
747.031433 39291.000000
749.086243 39070.000000
751.139771 39361.000000
753.191895 38288.000000
755.242798 40015.000000
757.292480 39030.000000
759.340698 39405.000000
761.387695 39619.000000
763.433411 38741.000000
765.477722 40586.000000
767.520752 40151.000000
769.562561 39653.000000
771.603027 39155.000000
773.642090 39299.000000
775.679993 39516.000000
777.716553 39646.000000
779.751892 40284.000000
781.785889 39937.000000
783.818481 38997.000000
785.849915 40364.000000
787.879944 40108.000000
789.908691 39852.000000
791.936279 39233.000000
793.962524 39162.000000
795.987366 39627.000000
798.011108 39888.000000
800.033447 39008.000000
802.054565 39478.000000
804.074341 38628.000000
806.092834 40271.000000
808.110107 38400.000000
810.125977 38271.000000
812.140686 39160.000000
814.154053 38309.000000
816.166199 38349.000000
818.177124 38367.000000
820.186707 37809.000000
822.195068 39028.000000
824.202026 38566.000000
826.207764 38139.000000
828.212280 38466.000000
830.215515 38558.000000
832.217468 37712.000000
834.218140 38107.000000
836.217590 38194.000000
838.215698 37892.000000
840.212708 37203.000000
842.208313 37997.000000
844.202759 38154.000000
846.195862 37928.000000
848.187744 37323.000000
850.178284 38538.000000
852.167542 37378.000000
854.155762 38341.000000
856.142578 38605.000000
858.128174 38066.000000
860.112488 37316.000000
862.095703 38293.000000
864.077515 38367.000000
866.058105 38979.000000
868.037415 37244.000000
870.015564 38008.000000
871.992371 38865.000000
873.967896 39186.000000
875.942383 38985.000000
877.915405 39055.000000
879.887390 39552.000000
881.858032 38387.000000
883.827515 38416.000000
885.795654 38622.000000
887.762634 38693.000000
889.728271 37619.000000
891.692749 37803.000000
893.656006 37403.000000
895.618042 36767.000000
897.578796 37342.000000
899.538330 36613.000000
901.496582 36213.000000
903.453735 36529.000000
905.409729 36678.000000
907.364319 35703.000000
909.317688 36015.000000
911.269897 35893.000000
913.220886 35682.000000
915.170593 34808.000000
917.119141 35255.000000
919.066467 35110.000000
921.012512 34865.000000
922.957275 34581.000000
924.901001 34103.000000
926.843567 34198.000000
928.784851 34303.000000
930.724792 33274.000000
932.663635 33822.000000
934.601196 34017.000000
936.537537 33661.000000
938.472717 33813.000000
940.406616 33612.000000
942.339417 33840.000000
944.270996 33058.000000
946.201416 34542.000000
948.130615 33491.000000
950.058472 33035.000000
951.985291 33267.000000
953.910828 33983.000000
955.835083 34640.000000
957.758240 34366.000000
959.680237 33914.000000
961.600952 33406.000000
963.520508 34158.000000
965.438904 35297.000000
967.356262 34300.000000
969.272156 34437.000000
971.186951 34656.000000
973.100525 34761.000000
975.012939 34451.000000
976.924133 34223.000000
978.834167 35125.000000
980.742920 34417.000000
982.650635 34538.000000
984.557129 34190.000000
986.462402 34694.000000
988.366577 33618.000000
990.269531 33982.000000
992.171265 33388.000000
994.071838 33496.000000
995.971252 33149.000000
997.869446 34189.000000
999.766479 32825.000000
1001.662292 32676.000000
1003.556946 31193.000000
1005.450500 32873.000000
1007.342773 31178.000000
1009.234131 32081.000000
1011.124146 32621.000000
1013.012939 31425.000000
1014.900574 31799.000000
1016.787048 31068.000000
1018.672363 31181.000000
1020.556519 31850.000000
1022.439453 31855.000000
1024.321411 31570.000000
1026.202026 32567.000000
1028.081543 32154.000000
1029.960083 32100.000000
1031.837280 32823.000000
1033.713135 32288.000000
1035.588013 32750.000000
1037.461914 32277.000000
1039.334351 31904.000000
1041.205811 32034.000000
1043.075928 33272.000000
1044.945068 33417.000000
1046.812988 33487.000000
1048.679810 32440.000000
1050.545532 32720.000000
1052.410034 32944.000000
1054.273438 32822.000000
1056.135498 32825.000000
1057.996582 33327.000000
1059.856567 32619.000000
1061.715210 32516.000000
1063.572754 33387.000000
1065.429199 32534.000000
1067.284546 33258.000000
1069.138672 33418.000000
1070.991943 33064.000000
1072.843750 33023.000000
1074.694580 33244.000000
1076.544189 33240.000000
1078.392578 33588.000000
1080.240112 31504.000000
1082.086304 33582.000000
1083.931274 32733.000000
1085.775391 33432.000000
1087.618164 33120.000000
1089.459717 32025.000000
1091.300537 32777.000000
1093.139771 32077.000000
1094.978271 31647.000000
1096.815430 31549.000000
1098.651367 30411.000000
1100.486328 30297.000000
1102.320068 31106.000000
1104.152832 30734.000000
1105.984253 30378.000000
1107.814819 29414.000000
1109.644043 29827.000000
1111.472290 29528.000000
1113.299316 28808.000000
1115.125366 30339.000000
1116.950195 29508.000000
1118.773926 28709.000000
1120.596436 29613.000000
1122.417847 29840.000000
1124.238403 29973.000000
1126.057495 29389.000000
1127.875732 29102.000000
1129.692627 29406.000000
1131.508667 29461.000000
1133.323486 29598.000000
1135.137207 30397.000000
1136.949829 30248.000000
1138.761230 30619.000000
1140.571655 30306.000000
1142.380981 29789.000000
1144.188965 29506.000000
1145.996216 30335.000000
1147.802002 30149.000000
1149.606934 30564.000000
1151.410767 30637.000000
1153.213379 29947.000000
1155.015137 29975.000000
1156.815430 29833.000000
1158.614746 29565.000000
1160.413086 29666.000000
1162.210083 30069.000000
1164.006348 29370.000000
1165.801270 29161.000000
1167.595093 28809.000000
1169.388062 27325.000000
1171.179688 29102.000000
1172.970337 28057.000000
1174.760010 28489.000000
1176.548218 28601.000000
1178.335571 27207.000000
1180.121826 27648.000000
1181.906982 28509.000000
1183.691040 28238.000000
1185.473999 26598.000000
1187.255981 28246.000000
1189.036743 27972.000000
1190.816528 27657.000000
1192.595215 27097.000000
1194.372925 27240.000000
1196.149414 26468.000000
1197.924805 26732.000000
1199.699097 26567.000000
1201.472290 26229.000000
1203.244629 26187.000000
1205.015625 25955.000000
1206.785767 26656.000000
1208.554688 26195.000000
1210.322510 26034.000000
1212.089478 26437.000000
1213.855103 26438.000000
1215.619751 25536.000000
1217.383301 25898.000000
1219.145752 26247.000000
1220.907349 25507.000000
1222.667725 26179.000000
1224.427002 25851.000000
1226.185425 26196.000000
1227.942627 25471.000000
1229.698730 25989.000000
1231.453735 26742.000000
1233.207886 26415.000000
1234.960693 26576.000000
1236.712524 26667.000000
1238.463501 26799.000000
1240.213135 27940.000000
1241.961914 26257.000000
1243.709351 26840.000000
1245.456055 26653.000000
1247.201538 26738.000000
1248.946167 26695.000000
1250.689453 26285.000000
1252.431763 25937.000000
1254.172974 26701.000000
1255.913330 26656.000000
1257.652588 26087.000000
1259.390625 25351.000000
1261.127808 24974.000000
1262.863770 25998.000000
1264.598755 26180.000000
1266.332764 25723.000000
1268.065796 26995.000000
1269.797607 26872.000000
1271.528442 26780.000000
1273.258057 26032.000000
1274.986816 27078.000000
1276.714478 27119.000000
1278.441040 27284.000000
1280.166748 27315.000000
1281.891113 26456.000000
1283.614624 27620.000000
1285.337158 25998.000000
1287.058716 26240.000000
1288.779053 26643.000000
1290.498413 26136.000000
1292.216675 25587.000000
1293.933960 26100.000000
1295.650269 26533.000000
1297.365356 26090.000000
1299.079468 26068.000000
1300.792603 26162.000000
1302.504883 25629.000000
1304.215942 23898.000000
1305.926025 25760.000000
1307.635010 25009.000000
1309.342773 24953.000000
1311.049927 24757.000000
1312.755615 25839.000000
1314.460571 25453.000000
1316.164551 26667.000000
1317.867310 27487.000000
1319.569092 27694.000000
1321.270020 28985.000000
1322.969604 26474.000000
1324.668335 25706.500000
1326.366333 24939.000000
1328.062988 24096.000000
1329.758545 23706.000000
1331.453247 23700.000000
1333.146729 24044.000000
1334.839355 24309.000000
1336.531128 23060.000000
1338.221558 23659.000000
1339.911255 23387.000000
1341.599854 23896.000000
1343.287354 22901.000000
1344.973877 23660.000000
1346.659302 23162.000000
1348.343750 23735.000000
1350.027344 23243.000000
1351.709717 23547.000000
1353.391113 23988.000000
1355.071655 23828.000000
1356.750977 23818.000000
1358.429688 24509.000000
1360.107056 24291.000000
1361.783325 24708.000000
1363.458618 25024.000000
1365.133179 24451.000000
1366.806519 24534.000000
1368.478882 24131.000000
1370.150269 24973.000000
1371.820679 24136.000000
1373.489990 24471.000000
1375.158325 24595.000000
1376.825806 24493.000000
1378.492188 24089.000000
1380.157593 24220.000000
1381.822021 24170.000000
1383.485229 23853.000000
1385.147827 23857.000000
1386.809082 23558.000000
1388.469482 23383.000000
1390.128784 23540.000000
1391.787109 23375.000000
1393.444702 23166.000000
1395.101074 23360.000000
1396.756592 23003.000000
1398.410889 23152.000000
1400.064331 23441.000000
1401.716675 23496.000000
1403.368286 23464.000000
1405.018677 22901.000000
1406.667969 23063.000000
1408.316528 22082.000000
1409.963989 21652.000000
1411.610474 22048.000000
1413.256104 21754.000000
1414.900757 21801.000000
1416.544189 21513.000000
1418.186768 21533.000000
1419.828247 21424.000000
1421.468872 21485.000000
1423.108521 21663.000000
1424.747070 21509.000000
1426.384766 21286.000000
1428.021362 21143.000000
1429.656982 21402.000000
1431.291870 21070.000000
1432.925659 21074.000000
1434.558350 21016.000000
1436.190063 21070.000000
1437.820923 21139.000000
1439.450684 21328.000000
1441.079346 20755.000000
1442.707397 21247.000000
1444.334351 21252.000000
1445.960083 21386.000000
1447.585205 21552.000000
1449.209229 21810.000000
1450.832275 22390.000000
1452.454346 22828.000000
1454.075317 22448.000000
1455.695313 23401.000000
1457.314575 23871.000000
1458.932495 26139.000000
1460.549805 17045.000000
1462.166138 22556.000000
1463.781250 21690.000000
1465.395508 21662.000000
1467.008911 21838.000000
1468.621216 21971.000000
1470.232666 21868.000000
1471.843262 21444.000000
1473.452637 21567.000000
1475.061035 21640.000000
1476.668579 21630.000000
1478.275146 21352.000000
1479.880981 21756.000000
1481.485596 21325.000000
1483.089355 21287.000000
1484.691895 20708.000000
1486.293823 20047.000000
1487.894531 20039.000000
1489.494507 19810.000000
1491.093384 19547.000000
1492.691406 19665.000000
1494.288330 19610.000000
1495.884399 20338.000000
1497.479492 20944.000000
1499.073608 20977.000000
1500.666992 20643.000000
1502.259277 20608.000000
1503.850342 20413.000000
1505.440918 20255.000000
1507.030151 20090.000000
1508.618774 19942.000000
1510.206299 19817.000000
1511.792725 19562.000000
1513.378418 19653.000000
1514.963013 19493.000000
1516.546753 19588.000000
1518.129395 19577.000000
1519.711304 19557.000000
1521.292114 19609.000000
1522.872192 19410.000000
1524.451050 19087.000000
1526.029053 18814.000000
1527.606323 18761.000000
1529.182373 18907.000000
1530.757690 18605.000000
1532.331909 18694.000000
1533.905396 18633.000000
1535.477661 18707.000000
1537.049194 18458.000000
1538.619751 18422.000000
1540.189453 18444.000000
1541.757935 18418.000000
1543.325684 18157.000000
1544.892578 18279.000000
1546.458252 18104.000000
1548.023193 18187.000000
1549.587036 18160.000000
1551.150269 17914.000000
1552.712158 17990.000000
1554.273438 18155.000000
1555.833618 17982.000000
1557.393066 17835.000000
1558.951416 18116.000000
1560.509033 17807.000000
1562.065552 17741.000000
1563.620850 17833.000000
1565.175537 17733.000000
1566.729492 17856.000000
1568.282471 17946.000000
1569.834106 17914.000000
1571.385010 18018.000000
1572.935181 17935.000000
1574.484375 17987.000000
1576.032227 18168.000000
1577.579590 17991.000000
1579.125977 18095.000000
1580.671509 18078.000000
1582.216064 18066.000000
1583.759399 18064.000000
1585.302124 18006.000000
1586.843994 18017.000000
1588.384766 18012.000000
1589.924561 18140.000000
1591.463623 17787.000000
1593.001587 17981.000000
1594.539063 17886.000000
1596.075195 18124.000000
1597.610229 17807.000000
1599.144775 17587.000000
1600.678345 17693.000000
1602.211060 17716.000000
1603.742188 17876.000000
1605.273071 17893.000000
1606.803101 17822.000000
1608.331909 17802.000000
1609.859619 17733.000000
1611.386719 17663.000000
1612.913086 18093.000000
1614.438477 17835.000000
1615.963013 17844.000000
1617.486206 17786.000000
1619.008667 17799.000000
1620.530396 17882.000000
1622.051270 19426.000000
1623.570679 15483.000000
1625.089600 17695.000000
1626.607788 17718.000000
1628.125122 17609.000000
1629.641357 17640.000000
1631.156250 17325.000000
1632.670654 17289.000000
1634.184326 17324.000000
1635.696899 17102.000000
1637.208252 17264.000000
1638.719238 17085.000000
1640.229126 17294.000000
1641.738159 17196.000000
1643.245850 17012.000000
1644.753174 16976.000000
1646.259644 16838.000000
1647.765137 16829.000000
1649.269775 16831.000000
1650.772949 16731.000000
1652.275513 16560.000000
1653.777710 16487.000000
1655.278564 16513.000000
1656.778320 16157.000000
1658.277222 16261.000000
1659.775757 16143.000000
1661.273071 16198.000000
1662.769653 16158.000000
1664.264648 15931.000000
1665.759399 15879.000000
1667.253296 15778.000000
1668.746216 18880.000000
1670.237793 11284.000000
1671.728882 15346.000000
1673.219360 15246.000000
1674.708740 15280.000000
1676.196655 15103.000000
1677.684326 15256.000000
1679.171021 15612.000000
1680.656860 15347.000000
1682.141846 15248.000000
1683.625366 14938.000000
1685.108643 14936.000000
1686.591064 14767.000000
1688.072388 14857.000000
1689.552246 14716.000000
1691.031860 14824.000000
1692.510742 14824.000000
1693.988647 14777.000000
1695.465576 14705.000000
1696.941284 14807.000000
1698.416626 14591.000000
1699.890747 14575.000000
1701.364258 14530.000000
1702.836304 14618.000000
1704.308105 14677.000000
1705.778931 14542.000000
1707.248901 14378.000000
1708.717529 14695.000000
1710.185669 14616.000000
1711.653076 14538.000000
1713.119385 14600.000000
1714.585083 14536.000000
1716.049072 14538.000000
1717.512939 14547.000000
1718.975952 14320.000000
1720.437988 14532.000000
1721.898804 14457.000000
1723.359009 14509.000000
1724.818481 14501.000000
1726.277100 14485.000000
1727.734741 14453.000000
1729.191040 14469.000000
1730.647095 14534.000000
1732.102173 14162.000000
1733.556274 14262.000000
1735.009155 14247.000000
1736.461792 14199.000000
1737.913330 13948.000000
1739.364136 14151.000000
1740.813965 14124.000000
1742.262451 14014.000000
1743.710571 13845.000000
1745.157837 13933.000000
1746.604370 13714.000000
1748.049316 13751.000000
1749.494019 13825.000000
1750.937866 13770.000000
1752.380859 13841.000000
1753.822388 13556.000000
1755.263672 13666.000000
1756.704102 13550.500000
1758.143555 13435.000000
1759.582031 13475.000000
1761.019531 13356.000000
1762.456543 13164.000000
1763.892578 13214.000000
1765.327759 13181.000000
1766.761475 13238.000000
1768.195068 13340.000000
1769.627686 13239.000000
1771.059448 13377.000000
1772.490356 13249.000000
1773.920044 13081.000000
1775.348999 12932.000000
1776.777466 12623.000000
1778.204956 12253.000000
1779.631104 11759.000000
1781.057007 12570.000000
1782.481812 12411.000000
1783.906006 12406.000000
1785.328735 12347.000000
1786.750977 12335.000000
1788.172485 12345.000000
1789.593262 12413.000000
1791.013062 12249.000000
1792.431519 12218.000000
1793.849487 11926.000000
1795.266846 12118.000000
1796.683350 12174.000000
1798.098389 12090.000000
1799.513062 12000.000000
1800.927124 11929.000000
1802.339966 12104.000000
1803.752197 12068.000000
1805.163086 12108.000000
1806.573486 11763.000000
1807.983154 11927.000000
1809.391846 11815.000000
1810.799438 11913.000000
1812.206543 11936.000000
1813.612793 11974.000000
1815.018066 11982.000000
1816.422241 12014.000000
1817.826050 12033.000000
1819.228882 11880.000000
1820.630859 11893.000000
1822.032227 11956.000000
1823.432129 11951.000000
1824.831421 11826.000000
1826.230225 11863.000000
1827.628174 11815.000000
1829.024780 11948.000000
1830.420776 11893.000000
1831.816040 12007.000000
1833.210693 11674.000000
1834.604370 11817.000000
1835.996704 11884.000000
1837.388550 11778.000000
1838.779785 11767.000000
1840.170044 11652.000000
1841.559082 11615.000000
1842.947754 11640.000000
1844.335449 11715.000000
1845.722412 11674.000000
1847.108032 11396.000000
1848.493408 11589.000000
1849.877930 11404.000000
1851.261719 11354.000000
1852.644409 11432.000000
1854.025879 11312.000000
1855.406860 11143.000000
1856.787354 11140.000000
1858.166870 11185.000000
1859.544922 11119.000000
1860.922852 11033.000000
1862.299805 10902.000000
1863.676025 10957.000000
1865.051392 10966.000000
1866.425293 10857.000000
1867.799072 10691.000000
1869.171997 10621.000000
1870.543823 10575.000000
1871.914673 10655.000000
1873.285156 10570.000000
1874.654541 10615.000000
1876.023438 10518.000000
1877.390747 10454.000000
1878.757935 10450.000000
1880.124146 10428.000000
1881.489624 10358.000000
1882.854370 10281.000000
1884.217529 10420.000000
1885.580566 10308.000000
1886.942749 10233.000000
1888.304077 10176.000000
1889.664063 10195.000000
1891.023682 10235.000000
1892.382690 10153.000000
1893.740723 10026.000000
1895.097900 9972.000000
1896.453857 9983.000000
1897.809570 9929.000000
1899.164307 10058.000000
1900.518188 9984.000000
1901.870972 10004.000000
1903.223267 10111.000000
1904.574829 10069.000000
1905.925537 10089.000000
1907.275024 10205.000000
1908.624023 10180.000000
1909.972168 10077.000000
1911.319702 10027.000000
1912.666504 9974.000000
1914.011719 9987.000000
1915.356689 10033.000000
1916.700928 10219.000000
1918.044312 10137.000000
1919.386353 10097.000000
1920.728149 10030.000000
1922.069092 9985.000000
1923.409302 10138.000000
1924.748535 10021.000000
1926.086792 9998.000000
1927.424438 9956.000000
1928.761353 9975.000000
1930.097412 9907.000000
1931.432251 9943.000000
1932.766724 10013.000000
1934.100464 9901.000000
1935.433350 9921.000000
1936.764771 9898.000000
1938.096313 9794.000000
1939.426514 9750.000000
1940.756226 9723.000000
1942.085083 9726.000000
1943.412720 9641.000000
1944.739868 9752.000000
1946.066284 9668.000000
1947.391968 9798.000000
1948.716309 9701.000000
1950.040405 9459.000000
1951.363647 9451.000000
1952.686157 9524.000000
1954.007568 9573.000000
1955.328003 9382.000000
1956.647827 9546.000000
1957.967285 9422.000000
1959.285767 9292.000000
1960.602905 9322.000000
1961.919678 9207.000000
1963.235718 9217.000000
1964.551025 9211.000000
1965.864868 9208.000000
1967.178467 9176.000000
1968.491333 9142.000000
1969.803345 9206.000000
1971.114746 9150.000000
1972.424805 9108.000000
1973.734375 8871.000000
1975.043213 8916.000000
1976.351440 9011.000000
1977.658325 8887.000000
1978.964600 8820.000000
1980.270508 8829.000000
1981.575195 8912.000000
1982.879395 8809.000000
1984.182373 8810.000000
1985.484985 8832.000000
1986.786621 8742.000000
1988.087646 8488.000000
1989.387085 8470.000000
1990.686646 8592.000000
1991.985107 8596.000000
1993.283081 8408.000000
1994.579468 8475.000000
1995.875854 8359.000000
1997.171265 8303.000000
1998.465942 8245.000000
1999.759766 8283.000000
2001.052368 8153.000000
2002.344482 8125.000000
2003.636108 8163.000000
2004.927002 8171.000000
2006.216309 8270.000000
2007.505371 8061.000000
2008.793701 8166.000000
2010.081299 8145.000000
2011.368042 8179.000000
2012.653687 8137.000000
2013.938965 8067.000000
2015.223267 8076.000000
2016.506958 8087.000000
2017.789307 8017.000000
2019.071289 7990.000000
2020.352783 7947.000000
2021.633301 7993.000000
2022.913086 8018.000000
2024.191772 7997.000000
2025.469727 7925.000000
2026.747192 7865.000000
2028.024048 7930.000000
2029.299194 8092.000000
2030.574463 8178.000000
2031.848755 8117.000000
2033.122070 8075.000000
2034.394531 8101.000000
2035.666626 8076.000000
2036.937622 8188.000000
2038.208374 8051.000000
2039.477783 8043.000000
2040.746094 7974.000000
2042.014404 8016.000000
2043.281738 7920.000000
2044.548340 7965.000000
2045.813721 8113.000000
2047.078491 7864.000000
2048.343018 7852.000000
2049.606201 7900.000000
2050.869141 7954.000000
2052.130127 7953.000000
2053.391602 7665.000000
2054.651855 7680.000000
2055.911377 7652.000000
2057.170166 7668.000000
2058.427979 7751.000000
2059.685303 7662.000000
2060.941895 7608.000000
2062.197021 7563.000000
2063.452148 7627.000000
2064.706299 7729.000000
2065.959717 7612.000000
2067.212402 7541.000000
2068.463867 7577.000000
2069.715088 7613.000000
2070.965576 7582.000000
2072.215332 7761.000000
2073.463623 7835.000000
2074.711914 7506.000000
2075.959229 7374.000000
2077.205811 7444.000000
2078.451660 7318.000000
2079.696289 7342.000000
2080.940430 7204.000000
2082.184082 7288.000000
2083.426758 7079.000000
2084.668213 7147.000000
2085.909424 7256.000000
2087.150146 7135.000000
2088.389893 7135.000000
2089.628418 7061.000000
2090.866455 7221.000000
2092.103760 7077.000000
2093.340820 7022.000000
2094.576416 6994.000000
2095.811279 6978.000000
2097.045898 6998.000000
2098.279541 7067.000000
2099.512207 7033.000000
2100.744141 6821.000000
2101.975586 6881.000000
2103.206055 6912.000000
2104.435791 6934.000000
2105.665283 6847.000000
2106.892822 6770.000000
2108.120605 6658.000000
2109.347656 6667.000000
2110.573730 6640.000000
2111.798340 6590.000000
2113.023193 6627.000000
2114.246826 6625.000000
2115.469971 6741.000000
2116.691895 6517.000000
2117.913574 6740.000000
2119.134277 6634.000000
2120.354248 6846.000000
2121.573730 6815.000000
2122.791748 6771.000000
2124.009766 6612.000000
2125.226807 6681.000000
2126.443359 6795.000000
2127.658203 6794.000000
2128.873291 6710.000000
2130.087402 6640.000000
2131.300781 6723.000000
2132.513428 6595.000000
2133.724609 6552.000000
2134.936035 6593.000000
2136.146240 6768.000000
2137.355957 6590.000000
2138.564209 6693.000000
2139.772461 6543.000000
2140.979980 6506.000000
2142.186279 6263.000000
2143.391846 6688.000000
2144.597168 6469.000000
2145.801514 6494.000000
2147.005127 6593.000000
2148.208252 6467.000000
2149.409912 6584.000000
2150.611328 6613.000000
2151.812012 6400.000000
2153.011963 6451.000000
2154.210693 6471.000000
2155.409180 6421.000000
2156.607178 6450.000000
2157.804199 6313.000000
2159.000488 6303.000000
2160.195557 6266.000000
2161.390381 6042.000000
2162.584473 6224.000000
2163.777588 6106.000000
2164.969727 6059.000000
2166.161621 6060.000000
2167.352783 5972.000000
2168.542969 6076.000000
2169.732422 5915.000000
2170.921387 5862.000000
2172.109375 5817.000000
2173.297119 5743.000000
2174.483398 5743.000000
2175.668945 5635.000000
2176.854248 5772.000000
2178.039063 5678.000000
2179.222656 5651.000000
2180.405518 5695.000000
2181.587402 5590.000000
2182.769043 5644.000000
2183.950195 5660.000000
2185.130127 5673.000000
2186.309082 5638.000000
2187.487549 5601.000000
2188.665771 5488.000000
2189.842773 5588.000000
2191.018799 5511.000000
2192.194580 5560.000000
2193.369873 5554.000000
2194.543701 5664.000000
2195.717041 5600.000000
2196.890137 5614.000000
2198.062012 5520.000000
2199.233398 5581.000000
2200.404297 5692.000000
2201.573486 5635.000000
2202.742676 5488.000000
2203.911377 5581.000000
2205.079102 5534.000000
2206.245850 5608.000000
2207.411865 5605.000000
2208.577393 5423.000000
2209.742676 5555.000000
2210.906494 5521.000000
2212.069824 5519.000000
2213.231934 5523.000000
2214.394287 5502.000000
2215.555420 5359.000000
2216.715576 5510.000000
2217.875244 5466.000000
2219.034668 5397.000000
2220.192871 5425.000000
2221.350098 5398.000000
2222.507080 5463.000000
2223.663330 5345.000000
2224.818848 5254.000000
2225.973633 5283.000000
2227.127441 5303.000000
2228.280273 5211.000000
2229.433594 5225.000000
2230.584961 5228.000000
2231.736084 5213.000000
2232.886475 5138.000000
2234.036377 5086.000000
2235.185303 5097.000000
2236.333740 5137.000000
2237.480713 5087.000000
2238.627930 5144.000000
2239.773926 5048.000000
2240.919678 4970.000000
2242.063721 4897.000000
2243.208008 4962.000000
2244.351318 4883.000000
2245.493896 4915.000000
2246.635498 4932.000000
2247.776855 4786.000000
2248.917236 4808.000000
2250.056885 4766.000000
2251.196045 4781.000000
2252.333984 4675.000000
2253.471924 4764.000000
2254.608887 4712.000000
2255.745117 4736.000000
2256.880371 4743.000000
2258.014893 4691.000000
2259.149170 4676.000000
2260.282959 4724.000000
2261.415283 4779.000000
2262.547119 4694.000000
2263.678467 4539.000000
2264.808838 4556.000000
2265.938965 4535.000000
2267.067871 4525.000000
2268.196289 4388.000000
2269.324219 4379.000000
2270.451172 4452.000000
2271.577393 4394.000000
2272.702637 4418.000000
2273.827881 4499.000000
2274.952393 4538.000000
2276.075684 4536.000000
2277.198242 4505.000000
2278.320313 4464.000000
2279.441895 4407.000000
2280.562744 4412.000000
2281.682373 4320.000000
2282.801514 4425.000000
2283.920410 4276.000000
2285.038574 4293.000000
2286.155762 4280.000000
2287.271973 4372.000000
2288.387939 4259.000000
2289.503174 4373.000000
2290.617676 4314.000000
2291.730957 4444.000000
2292.844238 4315.000000
2293.956787 4353.000000
2295.068604 4417.000000
2296.179688 4377.000000
2297.289551 4392.000000
2298.398926 4445.000000
2299.508057 4415.000000
2300.616211 4406.000000
2301.723389 4426.000000
2302.830322 4407.000000
2303.936523 4294.000000
2305.042236 4279.000000
2306.146484 4285.000000
2307.250488 4295.000000
2308.354004 4317.000000
2309.457031 4255.000000
2310.558838 4222.000000
2311.659912 4239.000000
2312.760498 4058.000000
2313.860596 4142.000000
2314.959961 4217.000000
2316.057861 4233.000000
2317.156250 4097.000000
2318.253174 3711.000000
2319.349854 4149.000000
2320.446045 4146.000000
2321.540527 4110.000000
2322.635010 4030.000000
2323.728760 4071.000000
2324.822266 4042.000000
2325.914063 4085.000000
2327.005859 4232.000000
2328.096924 4136.000000
2329.187256 4071.000000
2330.276611 4059.000000
2331.365967 4118.000000
2332.454102 4108.000000
2333.541748 4100.000000
2334.629150 3897.000000
2335.714844 3933.000000
2336.800293 3893.000000
2337.885498 3903.000000
2338.969727 3828.000000
2340.052979 3867.000000
2341.135986 3755.000000
2342.218018 4183.000000
2343.299805 3754.000000
2344.380859 3736.000000
2345.460693 3654.000000
2346.540039 3647.000000
2347.618896 3582.000000
2348.697266 3648.000000
2349.774170 3623.000000
2350.850830 3675.000000
2351.927246 3614.000000
2353.002686 3612.000000
2354.077148 3695.000000
2355.151367 3578.000000
2356.224854 3565.000000
2357.297852 3616.000000
2358.369629 3624.000000
2359.441162 3581.000000
2360.511719 3484.000000
2361.582031 3403.000000
2362.651367 3468.000000
2363.719727 3447.000000
2364.787842 3450.000000
2365.855225 3484.000000
2366.922119 3494.000000
2367.988281 3495.000000
2369.053223 3413.000000
2370.118164 3424.000000
2371.182373 3385.000000
2372.245850 3305.000000
2373.308105 3329.000000
2374.370361 3333.000000
2375.431641 3235.000000
2376.492676 3170.000000
2377.552490 3434.000000
2378.611572 3429.000000
2379.670654 3382.000000
2380.728760 3353.000000
2381.786133 3277.000000
2382.842529 3289.000000
2383.898682 3229.000000
2384.954346 3331.000000
2386.009277 3282.000000
2387.062744 3271.000000
2388.116455 3222.000000
2389.169189 3282.000000
2390.221436 3198.000000
2391.272949 3300.000000
2392.323486 3374.000000
2393.373779 3176.000000
2394.423096 3327.000000
2395.472412 3223.000000
2396.520264 3188.000000
2397.567627 3124.000000
2398.614746 3228.000000
2399.660889 3359.000000
2400.706299 3259.000000
2401.750977 3245.000000
2402.795654 3261.000000
2403.838867 3133.000000
2404.882080 3174.000000
2405.923828 3229.000000
2406.965820 3270.000000
2408.007080 3169.000000
2409.047363 3178.000000
2410.086914 3249.000000
2411.125488 3158.000000
2412.164307 3168.000000
2413.201904 3210.000000
2414.239258 3204.000000
2415.275391 3150.000000
2416.311279 3060.000000
2417.346436 3164.000000
2418.381104 3184.000000
2419.414307 3124.000000
2420.447754 3173.000000
2421.480225 3037.000000
2422.512451 3120.000000
2423.543213 3031.000000
2424.573975 3139.000000
2425.604248 3095.000000
2426.633301 3210.000000
2427.662354 3056.000000
2428.689697 3018.000000
2429.717529 3041.000000
2430.744141 2962.000000
2431.770508 2963.000000
2432.795410 2961.000000
2433.820557 2935.000000
2434.844727 2947.000000
2435.868652 2920.000000
2436.891357 2821.000000
2437.913330 2975.000000
2438.935059 2834.000000
2439.956055 2799.000000
2440.976563 2891.000000
2441.995850 2774.000000
2443.015137 2729.000000
2444.033447 2709.000000
2445.051514 2882.000000
2446.068115 2722.000000
2447.084717 2776.000000
2448.100586 2766.000000
2449.116455 2703.000000
2450.130859 2799.000000
2451.144531 2805.000000
2452.157715 2763.000000
2453.170654 2769.000000
2454.182861 2663.000000
2455.194092 2738.000000
2456.205078 2711.000000
2457.215332 2758.000000
2458.225098 2731.000000
2459.233887 2626.000000
2460.241943 2623.000000
2461.250000 2667.000000
2462.256836 2637.000000
2463.263428 2626.000000
2464.268799 2605.000000
2465.273926 2566.000000
2466.278809 2631.000000
2467.282471 2481.000000
2468.285889 2531.000000
2469.288330 2554.000000
2470.290527 2611.000000
2471.292236 2659.000000
2472.292969 2554.000000
2473.292725 2433.000000
2474.292480 2640.000000
2475.291260 2489.000000
2476.289551 2570.000000
2477.286865 2543.000000
2478.283936 2586.000000
2479.281006 2483.000000
2480.276611 2597.000000
2481.272217 2463.000000
2482.266113 2499.000000
2483.260010 2496.000000
2484.253418 2463.000000
2485.246338 2510.000000
2486.238281 2357.000000
2487.229492 2534.000000
2488.220459 2440.000000
2489.210938 2522.000000
2490.200439 2500.000000
2491.189209 2463.000000
2492.177979 2545.000000
2493.165771 2447.000000
2494.152344 2489.000000
2495.138916 2424.000000
2496.125000 2486.000000
2497.110352 2463.000000
2498.094727 2399.000000
2499.078857 2506.000000
2500.062988 2432.000000
2501.045654 2459.000000
2502.027832 2415.000000
2503.009521 2486.000000
2503.990479 2412.000000
2504.970947 2412.000000
2505.951172 2293.000000
2506.929932 2343.000000
2507.908447 2432.000000
2508.886475 2392.000000
2509.864014 2339.000000
2510.840576 2413.000000
2511.816895 2390.000000
2512.792480 2303.000000
2513.767578 2397.000000
2514.742188 2386.000000
2515.715576 2438.000000
2516.688721 2268.000000
2517.661621 2343.000000
2518.633545 2305.000000
2519.604736 2388.000000
2520.575439 2231.000000
2521.545898 2272.000000
2522.515625 2297.000000
2523.484375 2123.000000
2524.452393 2280.000000
2525.420410 2278.000000
2526.387451 2212.000000
2527.354248 2294.000000
2528.319824 2190.000000
2529.285400 2136.000000
2530.250244 2119.000000
2531.214600 2177.000000
2532.177734 2248.000000
2533.141113 2161.000000
2534.103516 2124.000000
2535.065674 2203.000000
2536.026611 2153.000000
2536.986816 2213.000000
2537.947266 2194.000000
2538.906738 2277.000000
2539.865479 2237.000000
2540.823242 2150.000000
2541.781250 2186.000000
2542.738525 2116.000000
2543.694824 2106.000000
2544.650879 2049.000000
2545.605713 2112.000000
2546.560791 2061.000000
2547.515137 2088.000000
2548.468750 2124.000000
2549.421387 2019.000000
2550.373779 1976.000000
2551.325684 1990.000000
2552.276855 1845.000000
2553.227295 2000.000000
2554.177246 1991.000000
2555.126953 1984.000000
2556.075928 1956.000000
2557.024414 2086.000000
2557.971680 2000.000000
2558.918945 1973.000000
2559.865479 2023.000000
2560.811523 2067.000000
2561.756592 1947.000000
2562.701416 1956.000000
2563.645752 1890.000000
2564.589600 1889.000000
2565.532959 1990.000000
2566.474854 1906.000000
2567.416992 2013.000000
2568.358398 1869.000000
2569.299072 1846.000000
2570.239014 1828.000000
2571.178955 1947.000000
2572.117920 1854.000000
2573.056641 1919.000000
2573.994385 1869.000000
2574.931885 1924.000000
2575.868652 1942.000000
2576.804688 1913.000000
2577.740234 1765.000000
2578.675049 1870.000000
2579.609863 1931.000000
2580.543701 1851.000000
2581.477051 2002.000000
2582.409668 1918.000000
2583.342041 1840.000000
2584.273682 1923.000000
2585.204834 1841.000000
2586.135498 1752.000000
2587.064941 1805.000000
2587.994385 1916.000000
2588.923340 1770.000000
2589.852051 1839.000000
2590.779053 1901.000000
2591.706299 1823.000000
2592.633057 1855.000000
2593.559082 1801.000000
2594.484863 1646.000000
2595.409424 1869.000000
2596.333740 1854.000000
2597.257568 1893.000000
2598.180908 1807.000000
2599.103271 1884.000000
2600.025391 1782.000000
2600.947021 1860.000000
2601.867920 1750.000000
2602.788086 1835.000000
2603.708008 1853.000000
2604.627441 1784.000000
2605.546631 1789.000000
2606.464844 1825.000000
2607.381836 1737.000000
2608.299072 1606.000000
2609.216064 1811.000000
2610.132080 1726.000000
2611.046875 1798.000000
2611.962158 1529.000000
2612.876709 1707.000000
2613.790283 1777.000000
2614.703857 1768.000000
2615.616211 1672.000000
2616.528564 1682.000000
2617.439941 1622.000000
2618.351074 1697.000000
2619.261475 1624.000000
2620.171631 1727.000000
2621.081055 1672.000000
2621.989990 1712.000000
2622.897949 1695.000000
2623.806152 1664.000000
2624.713379 1598.000000
2625.620117 1588.000000
2626.526123 1617.000000
2627.431885 1670.000000
2628.336914 1393.000000
2629.241699 1548.000000
2630.145752 1607.000000
2631.048828 1569.000000
2631.951904 1623.000000
2632.854004 1639.000000
2633.756104 1565.000000
2634.657959 1630.000000
2635.558105 1682.000000
2636.458496 1622.000000
2637.358154 1518.000000
2638.257568 1570.000000
2639.155518 1536.000000
2640.053955 1568.000000
2640.951904 1489.000000
2641.849121 1512.000000
2642.745117 1541.000000
2643.641113 1319.000000
2644.536865 1556.000000
2645.431885 1474.000000
2646.326660 1611.000000
2647.219971 1462.000000
2648.113281 1430.000000
2649.006348 1436.000000
2649.899170 1432.000000
2650.790283 1439.000000
2651.681641 1548.000000
2652.572510 1425.000000
2653.462646 1384.000000
2654.352539 1461.000000
2655.241211 1426.000000
2656.130127 1403.000000
2657.018555 1387.000000
2657.906006 1376.000000
2658.792480 1423.000000
2659.679443 1375.000000
2660.565674 1406.000000
2661.451416 1343.000000
2662.335938 1433.000000
2663.220459 1415.000000
2664.104736 1377.000000
2664.988281 1628.000000
2665.871338 1430.000000
2666.753662 1261.000000
2667.635498 1462.000000
2668.516602 1383.000000
2669.397949 1561.000000
2670.277832 1476.000000
2671.157959 1409.000000
2672.037354 1371.000000
2672.916748 1395.000000
2673.795410 1455.000000
2674.672363 1372.000000
2675.550049 1409.000000
2676.427002 1354.000000
2677.303223 1318.000000
2678.178955 1362.000000
2679.053955 1353.000000
2679.929199 1386.000000
2680.803467 1401.000000
2681.677246 1420.000000
2682.550293 1476.000000
2683.423096 1370.000000
2684.295654 1375.000000
2685.167480 1447.000000
2686.038574 1391.000000
2686.909424 1291.000000
2687.779785 1359.000000
2688.649902 1334.000000
2689.518311 1297.000000
2690.387451 1338.000000
2691.255859 1315.000000
2692.124023 1197.000000
2692.991455 1305.000000
2693.857666 1298.000000
2694.724365 1212.000000
2695.590088 1350.000000
2696.455811 1374.000000
2697.320068 1267.000000
2698.185059 1176.000000
2699.048584 1308.000000
2699.912354 1305.000000
2700.774658 1241.000000
2701.637451 1206.000000
2702.499268 1224.000000
2703.360596 1243.000000
2704.221924 1394.000000
2705.082031 1262.000000
2705.942139 1212.000000
2706.801758 1195.000000
2707.661133 1241.000000
2708.518799 1263.000000
2709.376709 1192.000000
2710.235107 1239.000000
2711.092285 1218.000000
2711.948730 1246.000000
2712.804688 1174.000000
2713.660645 1331.000000
2714.515869 1345.000000
2715.370361 1164.000000
2716.224365 1229.000000
2717.078369 1275.000000
2717.931396 1230.000000
2718.784668 1238.000000
2719.636230 1167.000000
2720.488281 1102.000000
2721.340088 1071.000000
2722.190674 1220.000000
2723.041260 1188.000000
2723.891357 1259.000000
2724.740723 1269.000000
2725.590088 1174.000000
2726.438232 1197.000000
2727.285889 1269.000000
2728.134033 1167.000000
2728.980957 1098.000000
2729.828369 1096.000000
2730.674316 1123.000000
2731.519531 1091.000000
2732.365234 1182.000000
2733.209961 1131.000000
2734.054688 1087.000000
2734.898193 1227.000000
2735.741943 1126.000000
2736.584961 1195.000000
2737.427490 1186.000000
2738.269043 1241.000000
2739.111084 1185.000000
2739.952148 1060.000000
2740.792969 1094.000000
2741.633545 1133.000000
2742.472900 1199.000000
2743.312256 1138.000000
2744.151611 1105.000000
2744.989746 1100.000000
2745.827393 1085.000000
2746.665039 1181.000000
2747.502197 1037.000000
2748.339111 1122.000000
2749.175537 1084.000000
2750.010742 1133.000000
2750.846191 1122.000000
2751.681152 1097.000000
2752.515381 1116.000000
2753.349365 1012.000000
2754.182861 1094.000000
2755.016357 1105.000000
2755.848877 1053.000000
2756.680908 1060.000000
2757.512451 1032.000000
2758.343994 1155.000000
2759.174561 1069.000000
2760.005371 1067.000000
2760.834961 1127.000000
2761.664551 1135.000000
2762.493896 1050.000000
2763.322510 1026.000000
2764.150635 1003.000000
2764.978271 959.000000
2765.805908 1054.000000
2766.633057 1072.000000
2767.459473 1052.000000
2768.285400 1017.000000
2769.110840 1026.000000
2769.936035 968.000000
2770.761230 1048.000000
2771.585205 1032.000000
2772.409180 1013.000000
2773.233154 940.000000
2774.055908 1004.000000
2774.878906 931.000000
2775.700684 975.000000
2776.522461 1043.000000
2777.344238 1011.000000
2778.165039 925.000000
2778.985107 918.000000
2779.805420 934.000000
2780.625244 962.000000
2781.445068 979.000000
2782.262939 1009.000000
2783.082031 928.000000
2783.899902 951.000000
2784.717529 952.000000
2785.534668 899.000000
2786.351318 979.000000
2787.167725 904.000000
2787.983643 941.000000
2788.799316 952.000000
2789.614014 918.000000
2790.429199 905.000000
2791.243652 832.000000
2792.057617 982.000000
2792.871338 900.000000
2793.683838 860.000000
2794.496582 918.000000
2795.308838 943.000000
2796.120605 979.000000
2796.931641 899.000000
2797.743408 880.000000
2798.553955 924.000000
2799.364502 931.000000
2800.173584 942.000000
2800.983398 862.000000
2801.792480 940.000000
2802.601318 871.000000
2803.409668 902.000000
2804.217041 939.000000
2805.024902 885.000000
2805.832031 907.000000
2806.638916 978.000000
2807.444580 865.000000
2808.250732 898.000000
2809.056152 854.000000
2809.861572 923.000000
2810.666260 943.000000
2811.469971 966.000000
2812.274170 877.000000
2813.077881 879.000000
2813.881348 898.000000
2814.683350 841.000000
2815.486084 852.000000
2816.288086 939.000000
2817.089844 934.000000
2817.891113 908.000000
2818.691895 993.000000
2819.492188 885.000000
2820.292725 886.000000
2821.092285 869.000000
2821.891357 897.000000
2822.690430 753.000000
2823.489258 897.000000
2824.287598 908.000000
2825.084961 906.000000
2825.882568 838.000000
2826.679443 850.000000
2827.476563 969.000000
2828.272949 848.000000
2829.068604 840.000000
2829.864258 768.000000
2830.659668 895.000000
2831.454590 802.000000
2832.248779 871.000000
2833.042969 824.000000
2833.836914 912.000000
2834.630371 934.000000
2835.423096 896.000000
2836.215576 895.000000
2837.008057 800.000000
2837.800293 884.000000
2838.592041 932.000000
2839.382813 929.000000
2840.173584 870.000000
2840.964600 915.000000
2841.754639 820.000000
2842.544189 787.000000
2843.333984 810.000000
2844.122803 852.000000
2844.911621 847.000000
2845.700439 844.000000
2846.488281 862.000000
2847.275635 804.000000
2848.063232 848.000000
2848.850342 922.000000
2849.636719 860.000000
2850.423096 831.000000
2851.209229 832.000000
2851.994873 923.000000
2852.779541 783.000000
2853.564697 852.000000
2854.349609 885.000000
2855.133789 795.000000
2855.917969 859.000000
2856.700928 853.000000
2857.484131 839.000000
2858.267090 965.000000
2859.049561 846.000000
2859.831787 833.000000
2860.613525 858.000000
2861.395020 810.000000
2862.176758 886.000000
2862.957764 904.000000
2863.738037 830.000000
2864.518066 873.000000
2865.298096 848.000000
2866.077881 784.000000
2866.856689 879.000000
2867.635742 904.000000
2868.414307 910.000000
2869.192627 975.000000
2869.970459 899.000000
2870.748047 982.000000
2871.525391 1044.000000
2872.302490 940.000000
2873.079102 1062.000000
2873.855225 1109.000000
2874.631348 919.000000
2875.406982 1065.000000
2876.182373 1092.000000
2876.957275 1072.000000
2877.731934 1102.000000
2878.506592 1178.000000
2879.281006 1033.000000
2880.054688 976.000000
2880.827637 1072.000000
2881.601318 1115.000000
2882.374023 1136.000000
2883.146729 1054.000000
2883.918701 1108.000000
2884.690430 1176.000000
2885.462646 1130.000000
2886.233643 1073.000000
2887.004150 1152.000000
2887.775146 1024.000000
2888.546143 1112.000000
2889.316406 1033.000000
2890.085693 1134.000000
2890.855225 1140.000000
2891.624756 1085.000000
2892.393799 1112.000000
2893.162354 1111.000000
2893.930908 980.000000
2894.698486 1099.000000
2895.466553 1047.000000
2896.234131 1080.000000
2897.001709 955.000000
2897.768066 907.000000
2898.535400 1055.000000
2899.301514 1005.000000
2900.067871 963.000000
2900.832764 962.000000
2901.598145 991.000000
2902.364014 1061.000000
2903.128418 1110.000000
2903.892822 1001.000000
2904.657471 941.000000
2905.421143 1071.000000
2906.185547 1055.000000
2906.949219 991.000000
2907.712158 1013.000000
2908.474854 922.000000
2909.238037 983.000000
2910.000732 907.000000
2910.762207 963.000000
2911.524170 963.000000
spectrumdark 2048
-96.706589 6154.000000
-94.079720 6154.000000
-91.454727 6031.000000
-88.831627 6392.000000
-86.210396 5741.000000
-83.591064 6172.000000
-80.973595 6025.000000
-78.358002 6378.000000
-75.744286 6184.000000
-73.132446 5810.000000
-70.522469 6100.000000
-67.914375 5942.000000
-65.308128 5944.000000
-62.703758 5937.000000
-60.101250 6057.000000
-57.500595 5644.000000
-54.901802 6228.000000
-52.304867 6825.000000
-49.709785 6442.000000
-47.116558 6519.000000
-44.525181 6268.000000
-41.935650 6736.000000
-39.347961 5839.000000
-36.762123 6025.000000
-34.178127 6451.000000
-31.595968 5676.000000
-29.015656 6296.000000
-26.437170 5679.000000
-23.860527 6131.000000
-21.285709 6258.000000
-18.712732 6472.000000
-16.141575 6453.000000
-13.572251 6771.000000
-11.004753 7763.000000
-8.439074 6308.000000
-5.875220 6432.000000
-3.313179 5966.000000
-0.752963 5799.000000
1.805445 6250.000000
4.362031 6948.000000
6.916814 6624.000000
9.469779 5993.000000
12.020944 6722.000000
14.570295 6369.000000
17.117851 6661.000000
19.663595 5993.000000
22.207546 5746.000000
24.749693 6701.000000
27.290043 6819.000000
29.828608 6850.000000
32.365376 6130.000000
34.900341 5780.000000
37.433529 7210.000000
39.964935 6254.000000
42.494549 7069.000000
45.022366 6449.000000
47.548424 7812.000000
50.072693 5725.000000
52.595192 6165.000000
55.115894 6747.000000
57.634842 6318.000000
60.152016 6364.000000
62.667412 6651.000000
65.181030 5579.000000
67.692894 5643.000000
70.203011 6524.000000
72.711334 6449.000000
75.217903 5870.000000
77.722725 6294.000000
80.225792 6427.000000
82.727081 6216.000000
85.226631 6111.000000
87.724426 6317.000000
90.220490 5780.000000
92.714775 7222.000000
95.207321 5716.000000
97.698151 6891.000000
100.187210 7183.000000
102.674522 6353.000000
105.160110 6157.000000
107.643959 6369.000000
110.126060 5674.000000
112.606438 6575.000000
115.085091 6151.000000
117.562019 6494.000000
120.037193 7154.000000
122.510658 6792.000000
124.982391 5858.000000
127.452415 6686.000000
129.920685 6280.000000
132.387283 6245.000000
134.852127 5620.000000
137.315277 6189.000000
139.776688 7280.000000
142.236404 6848.000000
144.694397 6314.000000
147.150696 5920.000000
149.605286 5798.000000
152.058151 6809.000000
154.509338 6321.000000
156.958832 6561.000000
159.406601 6113.000000
161.852661 6557.000000
164.297043 8715.000000
166.739746 6451.000000
169.180756 6679.000000
171.620056 6202.000000
174.057648 7187.000000
176.493607 6527.000000
178.927826 6883.000000
181.360367 7146.000000
183.791260 6672.000000
186.220428 7098.000000
188.647949 6719.000000
191.073792 6323.000000
193.497955 6664.000000
195.920456 7160.000000
198.341263 7365.000000
200.760406 6519.000000
203.177887 6031.000000
205.593674 7544.000000
208.007813 7044.000000
210.420319 6338.000000
212.831146 6030.000000
215.240295 6154.000000
217.647812 7384.000000
220.053619 6152.000000
222.457840 6500.000000
224.860352 6688.000000
227.261246 6888.000000
229.660492 6404.000000
232.058075 6821.000000
234.453995 7276.000000
236.848297 6560.000000
239.240936 5789.000000
241.631958 6797.000000
244.021317 6523.000000
246.409058 6332.000000
248.795151 6945.000000
251.179611 6119.000000
253.562424 7783.000000
255.943665 6574.000000
258.323181 6653.000000
260.701141 6391.000000
263.077423 7486.000000
265.452148 7518.000000
267.825226 7816.000000
270.196655 6183.000000
272.566437 6415.000000
274.934662 5813.000000
277.301239 6304.000000
279.666229 6720.000000
282.029602 5954.000000
284.391327 6211.000000
286.751465 7083.000000
289.109985 6005.000000
291.466919 6489.000000
293.822235 6432.000000
296.175964 5926.000000
298.528046 5951.000000
300.878571 6246.000000
303.227509 6278.000000
305.574799 6740.000000
307.920563 6384.000000
310.264648 6390.000000
312.607208 7304.000000
314.948151 7509.000000
317.287476 7136.000000
319.625244 6936.000000
321.961456 8044.000000
324.296021 6241.000000
326.629028 6419.000000
328.960480 5960.000000
331.290344 6629.000000
333.618622 6349.000000
335.945282 7175.000000
338.270447 6330.000000
340.593994 6168.000000
342.915985 5943.000000
345.236420 7498.000000
347.555237 7662.000000
349.872498 5925.000000
352.188232 5777.000000
354.502380 6915.000000
356.814941 6257.000000
359.125946 6368.000000
361.435425 6966.000000
363.743378 6322.000000
366.049713 5619.000000
368.354462 6379.000000
370.657745 6421.000000
372.959412 6233.000000
375.259583 6392.000000
377.558197 6294.000000
379.855255 5686.000000
382.150757 6026.000000
384.444733 5822.000000
386.737122 5213.000000
389.028015 5524.000000
391.317383 6184.000000
393.605164 6197.000000
395.891418 6417.000000
398.176178 6971.000000
400.459320 5989.000000
402.741028 6392.000000
405.021210 6134.000000
407.299805 7219.000000
409.576874 6442.000000
411.852417 6782.000000
414.126434 6469.000000
416.399017 6373.000000
418.669983 6467.000000
420.939453 6452.000000
423.207428 7093.000000
425.473846 7251.000000
427.738770 6222.000000
430.002228 6243.000000
432.264099 6488.000000
434.524506 5939.000000
436.783356 6634.000000
439.040741 6097.000000
441.296631 5602.000000
443.551025 5772.000000
445.803894 5414.000000
448.055206 6945.000000
450.305115 6102.000000
452.553436 6216.000000
454.800323 5597.000000
457.045746 6468.000000
459.289612 6443.000000
461.531982 6724.000000
463.772858 5612.000000
466.012329 6638.000000
468.250214 5473.000000
470.486664 5814.000000
472.721588 6040.000000
474.955048 7229.000000
477.187073 6697.000000
479.417572 5638.000000
481.646576 6401.000000
483.874115 6284.000000
486.100159 5914.000000
488.324768 6582.000000
490.547913 5896.000000
492.769592 6335.000000
494.989716 6636.000000
497.208435 5589.000000
499.425659 6240.000000
501.641510 5469.000000
503.855743 6091.000000
506.068665 6393.000000
508.279999 6374.000000
510.489899 6769.000000
512.698364 6526.000000
514.905457 6502.000000
517.110962 6450.000000
519.315063 6557.000000
521.517639 6163.000000
523.718811 6536.000000
525.918640 6588.000000
528.116943 6984.000000
530.313721 5278.000000
532.509155 5818.000000
534.703064 5505.000000
536.895630 7540.000000
539.086670 6701.000000
541.276306 6012.000000
543.464539 6901.000000
545.651245 7174.000000
547.836487 6736.000000
550.020447 6218.000000
552.202820 6404.000000
554.383850 6159.000000
556.563354 5964.000000
558.741577 5888.000000
560.918274 5965.000000
563.093567 6369.000000
565.267456 6434.000000
567.439880 5912.000000
569.610901 5976.000000
571.780457 6327.000000
573.948730 5262.000000
576.115479 6348.000000
578.280762 6280.000000
580.444641 6133.000000
582.607239 5735.000000
584.768311 5949.000000
586.927979 5576.000000
589.086304 5781.000000
591.243103 6142.000000
593.398560 6486.000000
595.552612 5750.000000
597.705322 6044.000000
599.856506 7263.000000
602.006348 6749.000000
604.154846 6617.000000
606.301758 6072.000000
608.447449 6521.000000
610.591736 6378.000000
612.734558 7023.000000
614.875916 6143.000000
617.016052 6504.000000
619.154663 7630.000000
621.291992 5676.000000
623.427856 6623.000000
625.562317 6842.000000
627.695313 7197.000000
629.827148 6632.000000
631.957520 6553.000000
634.086487 6739.000000
636.213989 6404.000000
638.340210 6203.000000
640.464905 7288.000000
642.588379 6386.000000
644.710510 6822.000000
646.831177 6757.000000
648.950500 6487.000000
651.068420 5613.000000
653.184998 5633.000000
655.300171 6433.000000
657.414001 6447.000000
659.526367 5794.000000
661.637512 6071.000000
663.747253 5418.000000
665.855530 6038.000000
667.962646 6275.000000
670.068298 6837.000000
672.172485 5887.000000
674.275452 5708.000000
676.377014 6969.000000
678.477234 5326.000000
680.576050 6686.000000
682.673523 6190.000000
684.769714 6900.000000
686.864441 6378.000000
688.957947 7013.000000
691.050110 6636.000000
693.140747 7913.000000
695.230164 6652.000000
697.318298 6481.000000
699.404968 5951.000000
701.490417 6664.000000
703.574341 5099.000000
705.657043 5885.000000
707.738464 5942.000000
709.818420 7587.000000
711.897156 6232.000000
713.974426 5506.000000
716.050415 6582.000000
718.125122 6009.000000
720.198547 7010.000000
722.270447 6244.000000
724.341187 7401.000000
726.410583 5801.000000
728.478577 6498.000000
730.545227 6312.000000
732.610657 7048.000000
734.674744 5743.000000
736.737488 6143.000000
738.798889 6553.000000
740.859009 6537.000000
742.917725 6012.000000
744.975220 6575.000000
747.031433 6442.000000
749.086243 6694.000000
751.139771 6375.000000
753.191895 7461.000000
755.242798 5710.000000
757.292480 6685.000000
759.340698 6332.000000
761.387695 6150.000000
763.433411 7062.000000
765.477722 5281.000000
767.520752 5719.000000
769.562561 6305.500000
771.603027 6892.000000
773.642090 6324.000000
775.679993 6090.000000
777.716553 5974.000000
779.751892 5385.000000
781.785889 5773.000000
783.818481 6809.000000
785.849915 5493.000000
787.879944 5742.000000
789.908691 5991.000000
791.936279 6283.000000
793.962524 6318.000000
795.987366 5823.000000
798.011108 5498.000000
800.033447 6335.000000
802.054565 5863.000000
804.074341 6628.000000
806.092834 4898.000000
808.110107 6665.000000
810.125977 6771.000000
812.140686 5731.000000
814.154053 6400.000000
816.166199 6257.000000
818.177124 6107.000000
820.186707 6575.000000
822.195068 5298.000000
824.202026 5688.000000
826.207764 6058.000000
828.212280 5723.000000
830.215515 5602.000000
832.217468 6448.000000
834.218140 6089.000000
836.217590 5968.000000
838.215698 6298.000000
840.212708 6977.000000
842.208313 6196.000000
844.202759 5991.000000
846.195862 6197.000000
848.187744 6805.000000
850.178284 5635.000000
852.167542 6841.000000
854.155762 5922.000000
856.142578 5730.000000
858.128174 6391.000000
860.112488 7246.000000
862.095703 6338.000000
864.077515 6368.000000
866.058105 5844.000000
868.037415 7718.000000
870.015564 7056.000000
871.992371 6201.000000
873.967896 5917.000000
875.942383 6157.000000
877.915405 6005.000000
879.887390 5424.000000
881.858032 6378.000000
883.827515 6087.000000
885.795654 5563.000000
887.762634 5195.000000
889.728271 6073.000000
891.692749 5728.000000
893.656006 5979.000000
895.618042 6491.000000
897.578796 5790.000000
899.538330 6387.000000
901.496582 6665.000000
903.453735 6275.000000
905.409729 5998.000000
907.364319 6833.000000
909.317688 6454.000000
911.269897 6387.000000
913.220886 6382.000000
915.170593 7053.000000
917.119141 6294.000000
919.066467 6149.000000
921.012512 6091.000000
922.957275 6036.000000
924.901001 6271.000000
926.843567 5925.000000
928.784851 5523.000000
930.724792 6466.000000
932.663635 5769.000000
934.601196 5495.000000
936.537537 5894.000000
938.472717 5775.000000
940.406616 6024.000000
942.339417 5838.000000
944.270996 6675.000000
946.201416 5157.000000
948.130615 6386.000000
950.058472 6985.000000
951.985291 6657.000000
953.910828 5939.000000
955.835083 5367.000000
957.758240 5936.000000
959.680237 6663.000000
961.600952 7310.000000
963.520508 6454.000000
965.438904 5258.000000
967.356262 6416.000000
969.272156 6366.000000
971.186951 6125.000000
973.100525 5956.000000
975.012939 6332.000000
976.924133 6525.000000
978.834167 5509.000000
980.742920 6190.000000
982.650635 6077.000000
984.557129 6304.000000
986.462402 5674.000000
988.366577 6702.000000
990.269531 6213.000000
992.171265 6790.000000
994.071838 6516.000000
995.971252 6548.000000
997.869446 5232.000000
999.766479 6490.000000
1001.662292 6424.000000
1003.556946 7676.000000
1005.450500 5593.000000
1007.342773 7132.000000
1009.234131 6049.000000
1011.124146 5300.000000
1013.012939 6613.000000
1014.900574 6250.000000
1016.787048 6893.000000
1018.672363 6727.000000
1020.556519 5913.000000
1022.439453 5830.000000
1024.321411 6229.000000
1026.202026 5211.000000
1028.081543 5791.000000
1029.960083 6063.000000
1031.837280 5404.000000
1033.713135 6166.000000
1035.588013 5890.000000
1037.461914 6526.000000
1039.334351 7007.000000
1041.205811 6765.000000
1043.075928 5509.000000
1044.945068 5484.000000
1046.812988 5752.000000
1048.679810 7042.000000
1050.545532 6739.000000
1052.410034 6414.000000
1054.273438 6461.000000
1056.135498 6389.000000
1057.996582 5845.000000
1059.856567 6519.000000
1061.715210 6620.000000
1063.572754 5699.000000
1065.429199 6667.000000
1067.284546 5938.000000
1069.138672 5762.000000
1070.991943 6229.000000
1072.843750 6314.000000
1074.694580 6166.000000
1076.544189 6125.000000
1078.392578 5733.000000
1080.240112 7903.000000
1082.086304 5556.000000
1083.931274 6172.000000
1085.775391 5367.000000
1087.618164 5546.000000
1089.459717 6470.000000
1091.300537 5420.000000
1093.139771 5765.000000
1094.978271 6031.000000
1096.815430 5988.000000
1098.651367 6788.000000
1100.486328 6577.000000
1102.320068 5378.000000
1104.152832 5646.000000
1105.984253 6125.000000
1107.814819 7149.000000
1109.644043 6486.000000
1111.472290 6421.000000
1113.299316 7044.000000
1115.125366 5383.000000
1116.950195 6263.000000
1118.773926 7165.000000
1120.596436 6166.000000
1122.417847 5889.000000
1124.238403 5867.000000
1126.057495 6610.000000
1127.875732 7062.000000
1129.692627 6792.000000
1131.508667 6638.000000
1133.323486 6459.000000
1135.137207 5609.000000
1136.949829 5801.000000
1138.761230 5581.000000
1140.571655 6097.000000
1142.380981 6690.000000
1144.188965 6954.000000
1145.996216 5875.000000
1147.802002 5879.000000
1149.606934 5327.000000
1151.410767 5325.000000
1153.213379 6105.000000
1155.015137 6062.000000
1156.815430 6035.000000
1158.614746 6130.000000
1160.413086 5874.000000
1162.210083 5347.000000
1164.006348 5920.000000
1165.801270 6063.000000
1167.595093 6341.000000
1169.388062 7740.000000
1171.179688 5694.000000
1172.970337 6492.000000
1174.760010 6027.000000
1176.548218 5859.000000
1178.335571 7368.000000
1180.121826 6845.000000
1181.906982 5745.000000
1183.691040 5962.000000
1185.473999 7659.000000
1187.255981 5804.000000
1189.036743 5879.000000
1190.816528 6271.000000
1192.595215 6868.000000
1194.372925 6559.000000
1196.149414 7153.000000
1197.924805 6578.000000
1199.699097 6438.000000
1201.472290 6693.000000
1203.244629 6603.000000
1205.015625 6663.000000
1206.785767 5681.000000
1208.554688 6124.000000
1210.322510 6287.000000
1212.089478 5779.000000
1213.855103 5875.000000
1215.619751 6946.000000
1217.383301 6488.000000
1219.145752 5951.000000
1220.907349 6706.000000
1222.667725 5943.000000
1224.427002 6257.000000
1226.185425 6024.000000
1227.942627 7022.000000
1229.698730 6381.000000
1231.453735 5467.000000
1233.207886 5934.000000
1234.960693 5829.000000
1236.712524 5960.000000
1238.463501 5946.000000
1240.213135 4887.000000
1241.961914 6941.000000
1243.709351 6455.000000
1245.456055 6577.000000
1247.201538 6457.000000
1248.946167 6395.000000
1250.689453 6695.000000
1252.431763 6674.000000
1254.172974 5335.000000
1255.913330 5067.000000
1257.652588 5746.000000
1259.390625 6602.000000
1261.127808 7080.000000
1262.863770 6166.000000
1264.598755 6391.000000
1266.332764 7228.000000
1268.065796 5956.000000
1269.797607 6172.000000
1271.528442 6401.000000
1273.258057 7210.000000
1274.986816 5880.000000
1276.714478 5664.000000
1278.441040 5528.000000
1280.166748 5535.000000
1281.891113 6401.000000
1283.614624 5176.000000
1285.337158 6925.000000
1287.058716 6629.000000
1288.779053 6086.000000
1290.498413 6643.000000
1292.216675 7265.000000
1293.933960 6398.000000
1295.650269 5742.000000
1297.365356 6245.000000
1299.079468 6082.000000
1300.792603 5751.000000
1302.504883 6400.000000
1304.215942 8269.000000
1305.926025 5262.000000
1307.635010 6304.000000
1309.342773 6638.000000
1311.049927 6957.000000
1312.755615 5775.000000
1314.460571 6808.000000
1316.164551 6152.000000
1317.867310 5924.000000
1319.569092 6547.000000
1321.270020 6043.000000
1322.969604 9764.000000
1324.668335 7650.000000
1326.366333 5536.000000
1328.062988 6454.000000
1329.758545 7107.000000
1331.453247 6873.000000
1333.146729 5718.000000
1334.839355 5361.000000
1336.531128 7400.000000
1338.221558 6219.000000
1339.911255 6539.000000
1341.599854 6041.000000
1343.287354 7603.000000
1344.973877 5652.000000
1346.659302 6791.000000
1348.343750 5942.000000
1350.027344 7143.000000
1351.709717 6390.000000
1353.391113 5876.000000
1355.071655 6531.000000
1356.750977 6729.000000
1358.429688 5879.000000
1360.107056 6540.000000
1361.783325 5745.000000
1363.458618 5535.000000
1365.133179 6531.000000
1366.806519 6423.000000
1368.478882 6768.000000
1370.150269 5178.000000
1371.820679 6687.000000
1373.489990 6126.000000
1375.158325 5679.000000
1376.825806 5969.000000
1378.492188 6489.000000
1380.157593 6095.000000
1381.822021 5829.000000
1383.485229 5959.000000
1385.147827 5707.000000
1386.809082 6382.000000
1388.469482 6583.000000
1390.128784 6354.000000
1391.787109 6450.000000
1393.444702 6746.000000
1395.101074 6421.000000
1396.756592 6974.000000
1398.410889 6320.000000
1400.064331 5885.000000
1401.716675 6081.000000
1403.368286 6418.000000
1405.018677 7165.000000
1406.667969 6221.000000
1408.316528 7518.000000
1409.963989 7850.000000
1411.610474 6184.000000
1413.256104 6286.000000
1414.900757 5935.000000
1416.544189 7016.000000
1418.186768 7096.000000
1419.828247 6845.000000
1421.468872 6500.000000
1423.108521 6382.000000
1424.747070 5993.000000
1426.384766 6540.000000
1428.021362 6299.000000
1429.656982 5957.000000
1431.291870 6341.000000
1432.925659 5890.000000
1434.558350 6116.000000
1436.190063 5631.000000
1437.820923 6063.000000
1439.450684 5999.000000
1441.079346 7841.000000
1442.707397 6001.000000
1444.334351 6134.000000
1445.960083 6139.000000
1447.585205 6091.000000
1449.209229 6455.000000
1450.832275 5974.000000
1452.454346 5908.000000
1454.075317 7398.000000
1455.695313 6306.000000
1457.314575 6887.000000
1458.932495 5681.000000
1460.549805 16300.000000
1462.166138 5436.000000
1463.781250 7124.000000
1465.395508 6210.000000
1467.008911 5211.000000
1468.621216 5596.000000
1470.232666 6192.000000
1471.843262 6337.000000
1473.452637 5985.000000
1475.061035 5907.000000
1476.668579 6181.000000
1478.275146 6793.000000
1479.880981 5271.000000
1481.485596 6275.000000
1483.089355 5463.000000
1484.691895 6654.000000
1486.293823 5543.000000
1487.894531 5603.000000
1489.494507 5630.000000
1491.093384 6258.000000
1492.691406 6520.000000
1494.288330 6667.000000
1495.884399 6251.000000
1497.479492 5892.000000
1499.073608 5441.000000
1500.666992 6528.000000
1502.259277 5511.000000
1503.850342 6150.000000
1505.440918 6733.000000
1507.030151 6539.000000
1508.618774 6157.000000
1510.206299 6486.000000
1511.792725 6873.000000
1513.378418 6211.000000
1514.963013 6646.000000
1516.546753 6235.000000
1518.129395 6089.000000
1519.711304 6558.000000
1521.292114 6631.000000
1522.872192 6037.000000
1524.451050 6247.000000
1526.029053 6367.000000
1527.606323 6325.000000
1529.182373 5666.000000
1530.757690 5922.000000
1532.331909 6266.000000
1533.905396 5406.000000
1535.477661 5866.000000
1537.049194 6409.000000
1538.619751 6432.000000
1540.189453 6333.000000
1541.757935 5453.000000
1543.325684 6601.000000
1544.892578 5615.000000
1546.458252 6797.000000
1548.023193 5939.000000
1549.587036 5050.000000
1551.150269 7507.000000
1552.712158 6319.000000
1554.273438 5983.000000
1555.833618 5683.000000
1557.393066 5729.000000
1558.951416 5826.000000
1560.509033 6187.000000
1562.065552 7003.000000
1563.620850 5850.000000
1565.175537 6339.000000
1566.729492 5637.000000
1568.282471 6315.000000
1569.834106 5694.000000
1571.385010 5844.000000
1572.935181 6166.000000
1574.484375 6295.000000
1576.032227 5742.000000
1577.579590 5497.000000
1579.125977 5681.000000
1580.671509 5052.000000
1582.216064 6595.000000
1583.759399 6365.000000
1585.302124 6614.000000
1586.843994 6435.000000
1588.384766 6636.000000
1589.924561 5774.000000
1591.463623 6711.000000
1593.001587 5848.000000
1594.539063 6114.000000
1596.075195 5845.000000
1597.610229 6681.000000
1599.144775 6242.000000
1600.678345 5913.000000
1602.211060 5988.000000
1603.742188 6306.000000
1605.273071 6259.000000
1606.803101 5780.000000
1608.331909 6075.000000
1609.859619 6124.000000
1611.386719 5989.000000
1612.913086 5703.000000
1614.438477 6225.000000
1615.963013 5795.000000
1617.486206 5761.000000
1619.008667 5574.000000
1620.530396 6507.000000
1622.051270 6935.000000
1623.570679 15543.000000
1625.089600 6199.000000
1626.607788 6028.000000
1628.125122 5874.000000
1629.641357 6347.000000
1631.156250 7047.000000
1632.670654 6795.000000
1634.184326 5753.000000
1635.696899 6853.000000
1637.208252 5938.000000
1638.719238 6395.000000
1640.229126 6262.000000
1641.738159 6143.000000
1643.245850 5567.000000
1644.753174 6097.000000
1646.259644 7151.000000
1647.765137 6192.000000
1649.269775 6767.000000
1650.772949 6167.000000
1652.275513 6606.000000
1653.777710 6311.000000
1655.278564 6545.000000
1656.778320 7531.000000
1658.277222 5879.000000
1659.775757 6517.000000
1661.273071 6235.000000
1662.769653 5903.000000
1664.264648 6474.000000
1665.759399 6322.000000
1667.253296 5175.000000
1668.746216 5682.000000
1670.237793 20550.000000
1671.728882 6421.000000
1673.219360 6132.000000
1674.708740 5991.000000
1676.196655 6977.000000
1677.684326 6781.000000
1679.171021 5975.000000
1680.656860 5361.000000
1682.141846 6039.000000
1683.625366 6179.000000
1685.108643 6166.000000
1686.591064 5887.000000
1688.072388 6175.000000
1689.552246 6171.000000
1691.031860 5611.000000
1692.510742 6489.000000
1693.988647 5959.000000
1695.465576 6131.000000
1696.941284 5715.000000
1698.416626 6023.000000
1699.890747 6255.000000
1701.364258 5478.000000
1702.836304 5518.000000
1704.308105 6787.000000
1705.778931 6363.000000
1707.248901 7055.000000
1708.717529 5113.000000
1710.185669 5800.000000
1711.653076 6331.000000
1713.119385 5475.000000
1714.585083 5714.000000
1716.049072 6239.000000
1717.512939 5913.000000
1718.975952 6998.000000
1720.437988 6299.000000
1721.898804 6580.000000
1723.359009 5458.000000
1724.818481 6323.000000
1726.277100 6108.000000
1727.734741 5990.000000
1729.191040 6213.000000
1730.647095 6056.000000
1732.102173 6478.000000
1733.556274 6017.000000
1735.009155 6880.000000
1736.461792 5938.000000
1737.913330 6888.000000
1739.364136 5941.000000
1740.813965 6530.000000
1742.262451 5936.000000
1743.710571 7349.000000
1745.157837 6528.000000
1746.604370 6683.000000
1748.049316 6641.000000
1749.494019 6120.000000
1750.937866 5806.000000
1752.380859 5457.000000
1753.822388 6542.000000
1755.263672 6415.000000
1756.704102 6366.000000
1758.143555 6317.000000
1759.582031 5238.000000
1761.019531 6045.000000
1762.456543 7478.000000
1763.892578 5827.000000
1765.327759 7155.000000
1766.761475 6121.000000
1768.195068 6398.000000
1769.627686 6653.000000
1771.059448 5730.000000
1772.490356 5723.000000
1773.920044 6378.000000
1775.348999 6100.000000
1776.777466 6314.000000
1778.204956 6653.000000
1779.631104 6214.000000
1781.057007 5573.000000
1782.481812 6873.000000
1783.906006 5544.000000
1785.328735 6686.000000
1786.750977 6548.000000
1788.172485 6842.000000
1789.593262 5719.000000
1791.013062 6152.000000
1792.431519 6120.000000
1793.849487 6901.000000
1795.266846 5481.000000
1796.683350 5994.000000
1798.098389 6496.000000
1799.513062 5805.000000
1800.927124 6590.000000
1802.339966 5930.000000
1803.752197 6968.000000
1805.163086 7072.000000
1806.573486 7815.000000
1807.983154 6428.000000
1809.391846 5933.000000
1810.799438 5344.000000
1812.206543 6405.000000
1813.612793 6347.000000
1815.018066 6669.000000
1816.422241 5939.000000
1817.826050 5901.000000
1819.228882 6242.000000
1820.630859 6022.000000
1822.032227 5878.000000
1823.432129 6279.000000
1824.831421 6546.000000
1826.230225 6545.000000
1827.628174 7412.000000
1829.024780 5724.000000
1830.420776 6695.000000
1831.816040 5849.000000
1833.210693 8123.000000
1834.604370 5957.000000
1835.996704 6788.000000
1837.388550 6342.000000
1838.779785 5870.000000
1840.170044 7071.000000
1841.559082 6042.000000
1842.947754 6085.000000
1844.335449 5973.000000
1845.722412 5737.000000
1847.108032 6955.000000
1848.493408 5857.000000
1849.877930 6375.000000
1851.261719 6307.000000
1852.644409 6319.000000
1854.025879 5366.000000
1855.406860 6494.000000
1856.787354 6302.000000
1858.166870 5690.000000
1859.544922 5951.000000
1860.922852 6252.000000
1862.299805 7825.000000
1863.676025 6064.000000
1865.051392 6080.000000
1866.425293 5623.000000
1867.799072 5720.000000
1869.171997 6206.000000
1870.543823 5932.000000
1871.914673 6869.000000
1873.285156 5387.000000
1874.654541 6072.000000
1876.023438 6084.000000
1877.390747 7109.000000
1878.757935 6038.000000
1880.124146 5978.000000
1881.489624 6761.000000
1882.854370 7468.000000
1884.217529 6730.000000
1885.580566 6925.000000
1886.942749 6340.000000
1888.304077 6431.000000
1889.664063 5620.000000
1891.023682 5765.000000
1892.382690 6114.000000
1893.740723 6664.000000
1895.097900 7266.000000
1896.453857 6008.000000
1897.809570 7619.000000
1899.164307 5853.000000
1900.518188 5564.000000
1901.870972 5888.000000
1903.223267 5848.000000
1904.574829 5875.000000
1905.925537 6866.000000
1907.275024 6492.000000
1908.624023 6640.000000
1909.972168 5801.000000
1911.319702 6110.000000
1912.666504 6257.000000
1914.011719 6756.000000
1915.356689 6088.000000
1916.700928 5402.000000
1918.044312 6417.000000
1919.386353 5934.000000
1920.728149 6673.000000
1922.069092 6993.000000
1923.409302 6093.000000
1924.748535 6251.000000
1926.086792 6360.000000
1927.424438 6458.000000
1928.761353 6910.000000
1930.097412 6755.000000
1931.432251 5562.000000
1932.766724 6632.000000
1934.100464 7212.000000
1935.433350 6237.000000
1936.764771 5743.000000
1938.096313 6276.000000
1939.426514 6644.000000
1940.756226 5772.000000
1942.085083 6051.000000
1943.412720 5854.000000
1944.739868 4957.000000
1946.066284 5845.000000
1947.391968 6353.000000
1948.716309 5734.000000
1950.040405 6608.000000
1951.363647 6299.000000
1952.686157 6411.000000
1954.007568 5694.000000
1955.328003 7401.000000
1956.647827 5997.000000
1957.967285 5542.000000
1959.285767 6862.000000
1960.602905 5884.000000
1961.919678 5819.000000
1963.235718 6578.000000
1964.551025 6525.000000
1965.864868 6292.000000
1967.178467 5649.000000
1968.491333 6247.000000
1969.803345 5980.000000
1971.114746 5982.000000
1972.424805 6264.000000
1973.734375 5871.000000
1975.043213 6122.000000
1976.351440 6537.000000
1977.658325 6017.000000
1978.964600 7200.000000
1980.270508 5579.000000
1981.575195 6360.000000
1982.879395 5911.000000
1984.182373 5671.000000
1985.484985 7544.000000
1986.786621 6126.000000
1988.087646 6745.000000
1989.387085 5986.000000
1990.686646 6515.000000
1991.985107 5252.000000
1993.283081 6049.000000
1994.579468 6099.000000
1995.875854 5777.000000
1997.171265 5607.000000
1998.465942 6492.000000
1999.759766 5703.000000
2001.052368 6595.000000
2002.344482 5707.000000
2003.636108 7166.000000
2004.927002 6432.000000
2006.216309 6091.000000
2007.505371 6863.000000
2008.793701 5942.000000
2010.081299 5965.000000
2011.368042 6784.000000
2012.653687 5598.000000
2013.938965 6334.000000
2015.223267 5940.000000
2016.506958 5554.000000
2017.789307 5965.000000
2019.071289 6501.000000
2020.352783 6784.000000
2021.633301 5864.000000
2022.913086 6029.000000
2024.191772 6707.000000
2025.469727 5858.000000
2026.747192 5921.000000
2028.024048 6269.000000
2029.299194 5722.000000
2030.574463 6550.000000
2031.848755 6001.000000
2033.122070 5902.000000
2034.394531 5910.000000
2035.666626 6124.000000
2036.937622 6909.000000
2038.208374 6562.000000
2039.477783 5988.000000
2040.746094 6788.000000
2042.014404 6608.000000
2043.281738 5951.000000
2044.548340 5941.000000
2045.813721 5521.000000
2047.078491 5780.000000
2048.343018 5392.000000
2049.606201 5843.000000
2050.869141 6350.000000
2052.130127 6127.000000
2053.391602 6144.000000
2054.651855 5896.000000
2055.911377 6431.000000
2057.170166 6225.000000
2058.427979 6834.000000
2059.685303 6157.000000
2060.941895 5980.000000
2062.197021 6539.000000
2063.452148 5575.000000
2064.706299 5521.000000
2065.959717 5626.000000
2067.212402 6796.000000
2068.463867 6227.000000
2069.715088 6235.000000
2070.965576 5563.000000
2072.215332 5348.000000
2073.463623 6156.000000
2074.711914 6443.000000
2075.959229 7394.000000
2077.205811 5554.000000
2078.451660 6020.000000
2079.696289 6945.000000
2080.940430 7570.000000
2082.184082 5461.000000
2083.426758 6025.000000
2084.668213 6957.000000
2085.909424 5890.000000
2087.150146 6369.000000
2088.389893 6791.000000
2089.628418 7067.000000
2090.866455 6095.000000
2092.103760 5732.000000
2093.340820 6627.000000
2094.576416 6111.000000
2095.811279 6146.000000
2097.045898 6030.000000
2098.279541 5596.000000
2099.512207 6018.000000
2100.744141 6886.000000
2101.975586 6404.000000
2103.206055 6789.000000
2104.435791 6017.000000
2105.665283 5956.000000
2106.892822 6012.000000
2108.120605 5988.000000
2109.347656 6271.000000
2110.573730 5506.000000
2111.798340 6429.000000
2113.023193 6909.000000
2114.246826 7024.000000
2115.469971 6199.000000
2116.691895 7552.000000
2117.913574 5958.000000
2119.134277 6835.000000
2120.354248 5932.000000
2121.573730 6114.000000
2122.791748 6592.000000
2124.009766 7044.000000
2125.226807 5766.000000
2126.443359 5745.000000
2127.658203 6545.000000
2128.873291 6337.000000
2130.087402 6984.000000
2131.300781 5608.000000
2132.513428 6062.000000
2133.724609 5870.000000
2134.936035 6478.000000
2136.146240 6713.000000
2137.355957 5969.000000
2138.564209 6129.000000
2139.772461 5701.000000
2140.979980 5888.000000
2142.186279 7655.000000
2143.391846 5831.000000
2144.597168 5683.000000
2145.801514 5575.000000
2147.005127 6228.000000
2148.208252 6222.000000
2149.409912 6519.000000
2150.611328 5239.000000
2151.812012 6287.000000
2153.011963 6032.000000
2154.210693 5900.000000
2155.409180 6946.000000
2156.607178 6146.000000
2157.804199 5942.000000
2159.000488 5112.000000
2160.195557 5245.000000
2161.390381 6169.000000
2162.584473 5509.000000
2163.777588 5988.000000
2164.969727 6828.000000
2166.161621 5915.000000
2167.352783 6302.000000
2168.542969 6242.000000
2169.732422 6505.000000
2170.921387 6805.000000
2172.109375 5998.000000
2173.297119 5733.000000
2174.483398 5869.000000
2175.668945 6526.000000
2176.854248 5966.000000
2178.039063 5860.000000
2179.222656 6362.000000
2180.405518 7526.000000
2181.587402 6320.000000
2182.769043 5929.000000
2183.950195 6545.000000
2185.130127 5709.000000
2186.309082 5580.000000
2187.487549 6328.000000
2188.665771 6882.000000
2189.842773 7210.000000
2191.018799 6710.000000
2192.194580 6084.000000
2193.369873 5577.000000
2194.543701 6613.000000
2195.717041 6128.000000
2196.890137 6148.000000
2198.062012 6372.000000
2199.233398 7034.000000
2200.404297 6330.000000
2201.573486 6873.000000
2202.742676 7600.000000
2203.911377 6256.000000
2205.079102 5916.000000
2206.245850 5585.000000
2207.411865 7107.000000
2208.577393 6665.000000
2209.742676 5944.000000
2210.906494 6732.000000
2212.069824 5455.000000
2213.231934 6150.000000
2214.394287 6114.000000
2215.555420 6680.000000
2216.715576 6625.000000
2217.875244 6271.000000
2219.034668 6553.000000
2220.192871 6336.000000
2221.350098 6292.000000
2222.507080 6739.000000
2223.663330 6526.000000
2224.818848 6727.000000
2225.973633 6244.000000
2227.127441 6429.000000
2228.280273 6050.000000
2229.433594 6893.000000
2230.584961 6159.000000
2231.736084 6145.000000
2232.886475 6530.000000
2234.036377 7656.000000
2235.185303 6307.000000
2236.333740 5166.000000
2237.480713 6790.000000
2238.627930 7056.000000
2239.773926 6065.000000
2240.919678 7194.000000
2242.063721 7321.000000
2243.208008 6724.000000
2244.351318 6241.000000
2245.493896 5959.000000
2246.635498 5728.000000
2247.776855 5827.000000
2248.917236 6364.000000
2250.056885 6443.000000
2251.196045 5795.000000
2252.333984 5853.000000
2253.471924 6127.000000
2254.608887 5300.000000
2255.745117 6279.000000
2256.880371 6130.000000
2258.014893 7178.000000
2259.149170 6319.000000
2260.282959 5424.000000
2261.415283 6147.000000
2262.547119 6760.000000
2263.678467 6244.000000
2264.808838 6394.000000
2265.938965 8045.000000
2267.067871 6663.000000
2268.196289 6108.000000
2269.324219 5540.000000
2270.451172 6057.000000
2271.577393 5907.000000
2272.702637 6762.000000
2273.827881 6525.000000
2274.952393 6388.000000
2276.075684 5898.000000
2277.198242 6382.000000
2278.320313 5944.000000
2279.441895 7410.000000
2280.562744 6372.000000
2281.682373 6420.000000
2282.801514 7041.000000
2283.920410 7680.000000
2285.038574 7249.000000
2286.155762 5892.000000
2287.271973 6412.000000
2288.387939 7006.000000
2289.503174 6840.000000
2290.617676 7319.000000
2291.730957 5697.000000
2292.844238 6329.000000
2293.956787 5957.000000
2295.068604 5369.000000
2296.179688 6746.000000
2297.289551 6394.000000
2298.398926 6175.000000
2299.508057 6650.000000
2300.616211 6319.000000
2301.723389 6713.000000
2302.830322 5837.000000
2303.936523 6262.000000
2305.042236 6604.000000
2306.146484 6582.000000
2307.250488 5459.000000
2308.354004 5687.000000
2309.457031 6525.000000
2310.558838 7437.000000
2311.659912 7296.000000
2312.760498 6571.000000
2313.860596 5502.000000
2314.959961 6335.000000
2316.057861 6530.000000
2317.156250 6961.000000
2318.253174 8147.000000
2319.349854 6868.000000
2320.446045 5811.000000
2321.540527 6853.000000
2322.635010 7570.000000
2323.728760 5818.000000
2324.822266 6032.000000
2325.914063 6390.000000
2327.005859 6827.000000
2328.096924 6040.000000
2329.187256 6264.000000
2330.276611 6897.000000
2331.365967 5985.000000
2332.454102 6243.000000
2333.541748 6840.000000
2334.629150 6549.000000
2335.714844 6615.000000
2336.800293 7686.000000
2337.885498 6335.000000
2338.969727 6716.000000
2340.052979 5894.000000
2341.135986 6454.000000
2342.218018 7396.000000
2343.299805 5967.000000
2344.380859 7420.000000
2345.460693 6700.000000
2346.540039 5712.000000
2347.618896 6764.000000
2348.697266 6530.000000
2349.774170 6277.000000
2350.850830 6965.000000
2351.927246 6009.000000
2353.002686 6440.000000
2354.077148 5909.000000
2355.151367 6302.000000
2356.224854 6747.000000
2357.297852 6159.000000
2358.369629 6936.000000
2359.441162 6267.000000
2360.511719 6784.000000
2361.582031 7546.000000
2362.651367 7511.000000
2363.719727 6793.000000
2364.787842 6718.000000
2365.855225 7088.000000
2366.922119 7044.000000
2367.988281 6039.000000
2369.053223 6883.000000
2370.118164 6964.000000
2371.182373 6280.000000
2372.245850 6996.000000
2373.308105 5751.000000
2374.370361 6303.000000
2375.431641 6325.000000
2376.492676 5981.000000
2377.552490 6209.000000
2378.611572 7875.000000
2379.670654 6398.000000
2380.728760 7547.000000
2381.786133 6890.000000
2382.842529 8038.000000
2383.898682 7823.000000
2384.954346 6153.000000
2386.009277 7018.000000
2387.062744 6716.000000
2388.116455 6500.000000
2389.169189 6286.000000
2390.221436 6746.000000
2391.272949 6169.000000
2392.323486 6561.000000
2393.373779 6525.000000
2394.423096 6125.000000
2395.472412 6173.000000
2396.520264 6910.000000
2397.567627 6982.000000
2398.614746 6330.000000
2399.660889 6578.000000
2400.706299 6126.000000
2401.750977 6724.000000
2402.795654 7696.000000
2403.838867 7440.000000
2404.882080 6536.000000
2405.923828 5741.000000
2406.965820 6644.000000
2408.007080 7109.000000
2409.047363 6076.000000
2410.086914 6352.000000
2411.125488 6343.000000
2412.164307 6017.000000
2413.201904 6527.000000
2414.239258 6864.000000
2415.275391 7344.000000
2416.311279 6234.000000
2417.346436 6214.000000
2418.381104 6590.000000
2419.414307 7216.000000
2420.447754 6432.000000
2421.480225 6712.000000
2422.512451 6797.000000
2423.543213 7117.000000
2424.573975 6297.000000
2425.604248 6796.000000
2426.633301 6776.000000
2427.662354 6638.000000
2428.689697 7391.000000
2429.717529 6651.000000
2430.744141 7305.000000
2431.770508 6905.000000
2432.795410 7740.000000
2433.820557 6527.000000
2434.844727 7054.000000
2435.868652 6675.000000
2436.891357 5835.000000
2437.913330 6260.000000
2438.935059 6631.000000
2439.956055 6644.000000
2440.976563 5959.000000
2441.995850 6490.000000
2443.015137 6565.000000
2444.033447 8418.000000
2445.051514 6153.000000
2446.068115 6430.000000
2447.084717 6517.000000
2448.100586 5987.000000
2449.116455 7012.000000
2450.130859 6811.000000
2451.144531 5520.000000
2452.157715 7183.000000
2453.170654 5930.000000
2454.182861 7200.000000
2455.194092 6659.000000
2456.205078 7676.000000
2457.215332 6298.000000
2458.225098 7548.000000
2459.233887 5900.000000
2460.241943 5959.000000
2461.250000 6272.000000
2462.256836 7320.000000
2463.263428 5368.000000
2464.268799 7364.000000
2465.273926 6887.000000
2466.278809 5816.000000
2467.282471 6573.000000
2468.285889 6329.000000
2469.288330 7561.000000
2470.290527 7335.000000
2471.292236 6796.000000
2472.292969 6559.000000
2473.292725 6995.000000
2474.292480 6707.000000
2475.291260 5655.000000
2476.289551 6524.000000
2477.286865 6967.000000
2478.283936 6054.000000
2479.281006 6979.000000
2480.276611 5739.000000
2481.272217 7077.000000
2482.266113 6642.000000
2483.260010 8104.000000
2484.253418 6858.000000
2485.246338 6702.000000
2486.238281 7551.000000
2487.229492 7177.000000
2488.220459 6705.000000
2489.210938 5796.000000
2490.200439 6509.000000
2491.189209 6458.000000
2492.177979 5630.000000
2493.165771 6775.000000
2494.152344 6520.000000
2495.138916 8050.000000
2496.125000 6728.000000
2497.110352 7016.000000
2498.094727 8066.000000
2499.078857 6040.000000
2500.062988 6888.000000
2501.045654 5765.000000
2502.027832 6972.000000
2503.009521 6829.000000
2503.990479 7217.000000
2504.970947 6524.000000
2505.951172 5755.000000
2506.929932 6336.000000
2507.908447 7539.000000
2508.886475 6686.000000
2509.864014 7073.000000
2510.840576 6047.000000
2511.816895 5928.000000
2512.792480 6431.000000
2513.767578 6176.000000
2514.742188 6474.000000
2515.715576 7430.000000
2516.688721 6797.000000
2517.661621 6826.000000
2518.633545 6081.000000
2519.604736 6768.000000
2520.575439 6957.000000
2521.545898 7766.000000
2522.515625 8049.000000
2523.484375 6166.000000
2524.452393 6073.000000
2525.420410 7783.000000
2526.387451 6273.000000
2527.354248 5499.000000
2528.319824 7253.000000
2529.285400 7034.000000
2530.250244 7691.000000
2531.214600 6286.000000
2532.177734 6326.000000
2533.141113 5862.000000
2534.103516 5968.000000
2535.065674 6702.000000
2536.026611 6377.000000
2536.986816 6140.000000
2537.947266 6097.000000
2538.906738 6700.000000
2539.865479 6761.000000
2540.823242 6643.000000
2541.781250 6161.000000
2542.738525 6723.000000
2543.694824 6044.000000
2544.650879 7079.000000
2545.605713 6150.000000
2546.560791 7726.000000
2547.515137 6998.000000
2548.468750 6456.000000
2549.421387 7234.000000
2550.373779 6732.000000
2551.325684 6956.000000
2552.276855 6456.000000
2553.227295 7677.000000
2554.177246 7216.000000
2555.126953 7381.000000
2556.075928 6572.000000
2557.024414 6193.000000
2557.971680 7106.000000
2558.918945 6269.000000
2559.865479 6455.000000
2560.811523 6689.000000
2561.756592 7399.000000
2562.701416 6704.000000
2563.645752 7179.000000
2564.589600 6859.000000
2565.532959 6578.000000
2566.474854 6547.000000
2567.416992 6532.000000
2568.358398 6134.000000
2569.299072 7162.000000
2570.239014 7273.000000
2571.178955 5667.000000
2572.117920 6157.000000
2573.056641 7456.000000
2573.994385 7164.000000
2574.931885 5434.000000
2575.868652 6947.000000
2576.804688 6746.000000
2577.740234 7561.000000
2578.675049 6313.000000
2579.609863 5885.000000
2580.543701 7099.000000
2581.477051 7028.000000
2582.409668 5823.000000
2583.342041 6939.000000
2584.273682 5394.000000
2585.204834 7019.000000
2586.135498 7052.000000
2587.064941 6854.000000
2587.994385 7243.000000
2588.923340 6477.000000
2589.852051 7666.000000
2590.779053 7244.000000
2591.706299 5888.000000
2592.633057 6775.000000
2593.559082 6290.000000
2594.484863 5664.000000
2595.409424 7593.000000
2596.333740 7613.000000
2597.257568 5311.000000
2598.180908 7252.000000
2599.103271 6237.000000
2600.025391 6826.000000
2600.947021 8218.000000
2601.867920 6439.000000
2602.788086 5756.000000
2603.708008 6306.000000
2604.627441 6372.000000
2605.546631 6376.000000
2606.464844 5806.000000
2607.381836 5973.000000
2608.299072 7244.000000
2609.216064 5801.000000
2610.132080 7540.000000
2611.046875 6608.000000
2611.962158 6695.000000
2612.876709 6525.000000
2613.790283 6475.000000
2614.703857 6100.000000
2615.616211 7601.000000
2616.528564 6954.000000
2617.439941 6791.000000
2618.351074 5743.000000
2619.261475 7216.000000
2620.171631 6603.000000
2621.081055 6164.000000
2621.989990 6570.000000
2622.897949 6210.000000
2623.806152 6813.000000
2624.713379 6582.000000
2625.620117 7057.000000
2626.526123 5996.000000
2627.431885 6469.000000
2628.336914 6574.000000
2629.241699 7829.000000
2630.145752 6407.000000
2631.048828 6429.000000
2631.951904 6395.000000
2632.854004 5604.000000
2633.756104 6706.000000
2634.657959 6903.000000
2635.558105 6614.000000
2636.458496 6314.000000
2637.358154 6412.000000
2638.257568 5968.000000
2639.155518 6855.000000
2640.053955 6680.000000
2640.951904 6392.000000
2641.849121 6104.000000
2642.745117 6140.000000
2643.641113 6899.000000
2644.536865 5997.000000
2645.431885 6461.000000
2646.326660 6573.000000
2647.219971 7068.000000
2648.113281 6283.000000
2649.006348 6726.000000
2649.899170 6414.000000
2650.790283 7474.000000
2651.681641 6372.000000
2652.572510 7586.000000
2653.462646 7300.000000
2654.352539 6504.000000
2655.241211 7301.000000
2656.130127 6577.000000
2657.018555 6608.000000
2657.906006 7368.000000
2658.792480 6476.000000
2659.679443 7119.000000
2660.565674 6779.000000
2661.451416 6828.000000
2662.335938 6468.000000
2663.220459 6364.000000
2664.104736 6211.000000
2664.988281 7011.000000
2665.871338 7788.000000
2666.753662 7361.000000
2667.635498 6189.000000
2668.516602 6598.000000
2669.397949 5970.000000
2670.277832 6537.000000
2671.157959 7367.000000
2672.037354 7215.000000
2672.916748 6256.000000
2673.795410 6088.000000
2674.672363 6434.000000
2675.550049 6755.000000
2676.427002 6355.000000
2677.303223 8156.000000
2678.178955 7129.000000
2679.053955 6264.000000
2679.929199 7727.000000
2680.803467 6922.000000
2681.677246 7304.000000
2682.550293 6915.000000
2683.423096 6161.000000
2684.295654 6087.000000
2685.167480 6900.000000
2686.038574 6489.000000
2686.909424 6887.000000
2687.779785 7127.000000
2688.649902 6627.000000
2689.518311 6317.000000
2690.387451 7342.000000
2691.255859 7098.000000
2692.124023 6755.000000
2692.991455 6902.000000
2693.857666 5874.000000
2694.724365 7144.000000
2695.590088 7361.000000
2696.455811 7147.000000
2697.320068 7888.000000
2698.185059 6617.000000
2699.048584 7220.000000
2699.912354 5834.000000
2700.774658 7462.000000
2701.637451 6788.000000
2702.499268 5879.000000
2703.360596 6853.000000
2704.221924 6636.000000
2705.082031 7373.000000
2705.942139 7325.000000
2706.801758 6587.000000
2707.661133 6843.000000
2708.518799 7105.000000
2709.376709 6855.000000
2710.235107 7263.000000
2711.092285 6719.000000
2711.948730 5946.000000
2712.804688 6774.000000
2713.660645 6043.000000
2714.515869 6839.000000
2715.370361 6135.000000
2716.224365 6804.000000
2717.078369 7253.000000
2717.931396 6207.000000
2718.784668 6571.000000
2719.636230 7719.000000
2720.488281 6760.000000
2721.340088 6326.000000
2722.190674 6478.000000
2723.041260 6395.000000
2723.891357 6998.000000
2724.740723 6968.000000
2725.590088 6996.000000
2726.438232 6636.000000
2727.285889 6466.000000
2728.134033 7032.000000
2728.980957 6860.000000
2729.828369 5528.000000
2730.674316 7496.000000
2731.519531 6956.000000
2732.365234 6440.000000
2733.209961 6957.000000
2734.054688 7381.000000
2734.898193 6828.000000
2735.741943 7777.000000
2736.584961 7069.000000
2737.427490 6015.000000
2738.269043 6171.000000
2739.111084 6825.000000
2739.952148 6915.000000
2740.792969 5819.000000
2741.633545 5898.000000
2742.472900 7734.000000
2743.312256 6838.000000
2744.151611 6878.000000
2744.989746 6771.000000
2745.827393 7801.000000
2746.665039 6297.000000
2747.502197 7120.000000
2748.339111 6164.000000
2749.175537 6030.000000
2750.010742 6579.000000
2750.846191 6327.000000
2751.681152 6297.000000
2752.515381 6260.000000
2753.349365 6916.000000
2754.182861 6807.000000
2755.016357 8006.000000
2755.848877 6799.000000
2756.680908 7245.000000
2757.512451 6852.000000
2758.343994 7055.000000
2759.174561 7189.000000
2760.005371 7230.000000
2760.834961 7287.000000
2761.664551 6613.000000
2762.493896 7247.000000
2763.322510 6838.000000
2764.150635 6776.000000
2764.978271 6970.000000
2765.805908 6618.000000
2766.633057 7830.000000
2767.459473 5820.000000
2768.285400 7469.000000
2769.110840 6857.000000
2769.936035 7821.000000
2770.761230 7069.000000
2771.585205 6725.000000
2772.409180 6499.000000
2773.233154 7638.000000
2774.055908 6574.000000
2774.878906 6919.000000
2775.700684 6891.000000
2776.522461 6882.000000
2777.344238 6501.000000
2778.165039 7920.000000
2778.985107 6522.000000
2779.805420 6947.000000
2780.625244 7229.000000
2781.445068 6446.000000
2782.262939 5921.000000
2783.082031 8053.000000
2783.899902 6535.000000
2784.717529 6750.000000
2785.534668 7120.000000
2786.351318 7234.000000
2787.167725 7183.000000
2787.983643 6251.000000
2788.799316 5960.000000
2789.614014 6369.000000
2790.429199 7033.000000
2791.243652 7190.000000
2792.057617 6571.000000
2792.871338 7457.000000
2793.683838 8827.000000
2794.496582 6914.000000
2795.308838 7389.000000
2796.120605 7171.000000
2796.931641 7355.000000
2797.743408 6531.000000
2798.553955 7168.000000
2799.364502 6990.000000
2800.173584 7347.000000
2800.983398 8190.000000
2801.792480 7779.000000
2802.601318 6637.000000
2803.409668 7180.000000
2804.217041 6151.000000
2805.024902 6460.000000
2805.832031 6727.000000
2806.638916 6918.000000
2807.444580 7004.000000
2808.250732 6623.000000
2809.056152 6453.000000
2809.861572 7282.000000
2810.666260 6141.000000
2811.469971 7528.000000
2812.274170 7470.000000
2813.077881 6355.000000
2813.881348 6108.000000
2814.683350 6627.000000
2815.486084 7353.000000
2816.288086 7780.000000
2817.089844 6107.000000
2817.891113 6517.000000
2818.691895 7203.000000
2819.492188 6502.000000
2820.292725 6601.000000
2821.092285 8066.000000
2821.891357 7122.000000
2822.690430 6515.000000
2823.489258 6929.000000
2824.287598 6366.000000
2825.084961 7004.000000
2825.882568 7397.000000
2826.679443 6639.000000
2827.476563 7271.000000
2828.272949 8101.000000
2829.068604 6989.000000
2829.864258 7394.000000
2830.659668 7499.000000
2831.454590 7470.000000
2832.248779 6607.000000
2833.042969 6839.000000
2833.836914 5681.000000
2834.630371 6839.000000
2835.423096 7137.000000
2836.215576 8114.000000
2837.008057 7655.000000
2837.800293 7467.000000
2838.592041 6386.000000
2839.382813 6722.000000
2840.173584 8833.000000
2840.964600 7371.000000
2841.754639 6195.000000
2842.544189 7685.000000
2843.333984 7161.000000
2844.122803 7310.000000
2844.911621 7766.000000
2845.700439 7703.000000
2846.488281 7478.000000
2847.275635 7210.000000
2848.063232 7445.000000
2848.850342 7316.000000
2849.636719 6623.000000
2850.423096 7421.000000
2851.209229 7181.000000
2851.994873 7483.000000
2852.779541 7221.000000
2853.564697 6839.000000
2854.349609 7423.000000
2855.133789 7119.000000
2855.917969 6902.000000
2856.700928 8271.000000
2857.484131 6795.000000
2858.267090 6675.000000
2859.049561 7750.000000
2859.831787 6273.000000
2860.613525 6595.000000
2861.395020 7586.000000
2862.176758 7459.000000
2862.957764 7617.000000
2863.738037 6583.000000
2864.518066 6718.000000
2865.298096 8213.000000
2866.077881 7470.000000
2866.856689 8107.000000
2867.635742 7703.000000
2868.414307 6757.000000
2869.192627 6999.000000
2869.970459 7233.000000
2870.748047 6871.000000
2871.525391 7439.000000
2872.302490 6923.000000
2873.079102 6395.000000
2873.855225 7431.000000
2874.631348 7255.000000
2875.406982 8270.000000
2876.182373 7171.000000
2876.957275 6651.000000
2877.731934 8006.000000
2878.506592 6598.000000
2879.281006 7861.000000
2880.054688 6826.000000
2880.827637 7183.000000
2881.601318 6693.000000
2882.374023 7564.000000
2883.146729 7863.000000
2883.918701 8164.000000
2884.690430 6202.000000
2885.462646 6758.000000
2886.233643 6884.000000
2887.004150 6122.000000
2887.775146 8320.000000
2888.546143 7360.000000
2889.316406 7988.000000
2890.085693 7628.000000
2890.855225 6888.000000
2891.624756 7236.000000
2892.393799 7292.000000
2893.162354 7884.000000
2893.930908 7712.000000
2894.698486 6921.000000
2895.466553 6596.000000
2896.234131 7456.000000
2897.001709 8416.000000
2897.768066 7373.000000
2898.535400 6486.000000
2899.301514 7193.000000
2900.067871 7009.000000
2900.832764 8284.000000
2901.598145 7002.000000
2902.364014 6433.000000
2903.128418 7675.000000
2903.892822 7707.000000
2904.657471 8480.000000
2905.421143 6612.000000
2906.185547 8434.000000
2906.949219 6655.000000
2907.712158 8351.000000
2908.474854 6497.000000
2909.238037 8944.000000
2910.000732 6980.000000
2910.762207 6774.000000
2911.524170 6774.000000
