scanname Analyse124
timestamp 2017-02-10 23:15:48
ccdbias 953.386230
ccdgain 3.473401
sigmaread 8.960639
laserwavenum -0.435683
wavenumcorrection 0.087281
scancount 1
totalexposurems 10000
singleexposurems 10000
measurementstate Unknown
scanmode Manual
snr 121.248917 1.856008 1.455174
replacelist 1
948 16288.000000 7550.000000
peaks 7
391.961182 0.318569 0.000000 0.147832 0.000017
811.024719 0.297695 0.000000 0.436478 0.000072
878.078247 0.293203 0.000000 0.322873 0.000047
1318.507202 0.272794 0.000000 12.329934 0.003420
1454.580933 0.225876 0.000000 0.106756 0.000036
2330.502686 0.106297 0.000000 0.107432 0.000178
2722.088135 0.076218 0.000000 0.120031 0.000529
finalresult GLS_Multiple 57
A12040	Ethanol w/ sweetener	5.761129e-002
A8461	Ethanol	5.709023e-002
A11101	Hydrogen peroxide, 70%	5.638664e-002
A2782	Acetamide	5.604597e-002
A11100	Hydrogen peroxide, 50%	5.592578e-002
A0969	Diethylene glycol monopropyl ether	5.560271e-002
A0113	Hydrogen peroxide	5.540051e-002
A2703	Acetaldehyde dimethyl acetal	5.487753e-002
A0251	Ethylamine	5.464900e-002
A0273	Denatured Solvent Alcohol	5.457673e-002
A0685	2-Mercaptobenzothiazole	5.406007e-002
A9092	p-Tolyl ether	5.391965e-002
A9660	3-(4-Methoxybenzoyl)propionic acid	5.316851e-002
A8849	2-Ethoxytetrahydrofuran	5.288164e-002
A14031	Methyl (S)-(+)-2-pyrrolidone-5-carboxylate	5.278171e-002
A5310	4-Methyl-3-nitroanisole	5.271860e-002
A3082	Methyl n-propyl ether	5.270912e-002
A1351	Sodium propionate	5.248271e-002
A16018	L (lewisite blister agent, lot D)	5.231971e-002
A4807	2-(2-Nitroethoxy)tetrahydropyran	5.222133e-002
A4881	2-(2-Chloroethoxy)tetrahydro-2H-pyran	5.212188e-002
A11872	Poly(methyl methacrylate)	5.209699e-002
A0673	Hexachlorocyclopentadiene	5.193936e-002
A8654	3-Chloro-6-methoxypyridazine	5.184407e-002
A3573	Ammonium tartrate dibasic	5.175448e-002
A13507	Poly(methyl methacrylate-co-ethyl acrylate)	5.161904e-002
A1754	N,N-Dimethylhydrazine	5.158499e-002
A0292	Hydrazine	5.157282e-002
A3222	Potassium nitrite	5.150164e-002
A5771	2-Methylnaphthalene-bis(hexachlorocyclopentadiene)	5.140271e-002
A1049	Lewisite (blister agent)	5.139416e-002
A16025	HL (distilled mustard / lewisite mixture)	5.127343e-002
A7387	4-Hydroxypiperidine	5.116768e-002
A4972	Boric acid	5.107734e-002
A10529	1-Formylpiperazine	5.101670e-002
A3938	Lead(II) acetylacetonate	5.096642e-002
A1550	Nitroethane	5.096504e-002
A9459	1-(4-Nitrophenyl)-3-pyrrolidino-2-pyrazolin-5-one	5.090452e-002
A3362	2-Nitro-para-xylene	5.087967e-002
A1564	Cyclooctatetraene	5.084130e-002
A2453	Calcium chromate	5.082810e-002
A3180	1,2-Diethylhydrazine dihydrochloride	5.080874e-002
A7749	Ethyl ethoxyacetate	5.077682e-002
A5061	2,4,5-Trichloroaniline	5.076588e-002
A5041	2,4,5,6-Tetrachloropyrimidine	5.071915e-002
A4025	2,4-Dimethylpentane	5.066926e-002
A1676	Trifluoroacetic acid	5.058276e-002
A7262	2-(Trifluoromethyl)benzenesulfonyl chloride	5.057365e-002
A2435	Sodium percarbonate	5.053763e-002
A1511	Methyl chloroacetate	5.052763e-002
A13320	Titanium tetrachloride	5.041021e-002
A6700	4'-Methoxypropiophenone	5.036583e-002
A4269	2,4-Dibromoanisole	5.028171e-002
A6214	1,2-Dibromotetrachloroethane	5.020397e-002
A2017	Isopropylamine	5.009349e-002
A4617	1,6-Dioxaspiro[4.4]nonane-2,7-dione	5.009126e-002
A7564	2-Nitroterephthalic acid	5.003524e-002
spectrum 2048
-97.165771 45832.000000
-94.538902 45832.000000
-91.913910 46253.000000
-89.290810 46115.000000
-86.669579 46913.000000
-84.050247 46557.000000
-81.432777 46752.000000
-78.817184 46599.000000
-76.203468 46767.000000
-73.591629 47122.000000
-70.981651 46970.000000
-68.373558 47121.000000
-65.767311 47131.000000
-63.162941 47086.000000
-60.560432 47040.000000
-57.959778 47432.000000
-55.360985 46954.000000
-52.764050 46267.000000
-50.168968 46668.000000
-47.575741 46600.000000
-44.984364 46911.000000
-42.394833 46392.000000
-39.807144 47227.000000
-37.221306 47041.000000
-34.637310 46655.000000
-32.055153 47354.000000
-29.474838 46831.000000
-26.896353 47354.000000
-24.319710 46845.000000
-21.744892 46738.000000
-19.171915 46499.000000
-16.600758 46415.000000
-14.031435 46141.000000
-11.463937 45114.000000
-8.898257 46617.000000
-6.334403 46285.000000
-3.772363 46649.000000
-1.212147 46638.000000
1.346261 46211.000000
3.902848 45339.000000
6.457631 45210.000000
9.010595 45491.000000
11.561760 44088.000000
14.111112 43566.000000
16.658669 42427.000000
19.204412 41895.000000
21.748363 40114.000000
24.290510 36900.000000
26.830860 34020.000000
29.369425 31001.000000
31.906193 26194.000000
34.441158 17489.000000
36.974346 11835.000000
39.505753 8951.000000
42.035366 8139.000000
44.563183 7892.000000
47.089241 7310.000000
49.613510 6426.000000
52.136009 5594.000000
54.656712 5169.000000
57.175659 5111.000000
59.692833 5881.000000
62.208229 7247.000000
64.721848 8316.000000
67.233711 7530.000000
69.743828 5687.000000
72.252151 3895.000000
74.758720 3158.000000
77.263542 2645.000000
79.766609 2420.000000
82.267899 2205.000000
84.767448 1991.000000
87.265244 1992.000000
89.761307 2067.000000
92.255592 2436.000000
94.748138 2606.000000
97.238968 2802.000000
99.728027 2493.000000
102.215340 1841.000000
104.700928 1497.000000
107.184776 1601.000000
109.666878 1517.000000
112.147255 1375.000000
114.625908 1245.000000
117.102837 1258.000000
119.578011 1130.000000
122.051476 1058.000000
124.523209 1211.000000
126.993233 1142.000000
129.461502 1288.000000
131.928101 1368.000000
134.392944 1327.000000
136.856094 1506.000000
139.317505 1673.000000
141.777222 1947.000000
144.235214 2305.000000
146.691513 2610.000000
149.146103 3063.000000
151.598969 3718.000000
154.050156 4382.000000
156.499649 5257.000000
158.947418 6092.000000
161.393478 7065.000000
163.837860 8024.000000
166.280563 8909.000000
168.721573 9678.000000
171.160873 10173.000000
173.598465 10502.000000
176.034424 10781.000000
178.468643 10897.000000
180.901184 10992.000000
183.332077 10989.000000
185.761246 11184.000000
188.188766 11190.000000
190.614609 11311.000000
193.038773 11224.000000
195.461273 11393.000000
197.882080 11491.000000
200.301224 11823.000000
202.718704 12122.000000
205.134491 12420.000000
207.548630 12961.000000
209.961136 13505.000000
212.371964 14554.000000
214.781113 15313.000000
217.188629 16120.000000
219.594437 17266.000000
221.998657 18058.000000
224.401169 18916.000000
226.802063 19505.000000
229.201309 20216.000000
231.598892 20437.000000
233.994812 20423.000000
236.389114 20493.000000
238.781754 20838.000000
241.172775 20757.000000
243.562134 20886.000000
245.949875 20842.000000
248.335968 20847.000000
250.720428 21103.000000
253.103241 20674.000000
255.484482 20968.000000
257.864014 20964.000000
260.241974 21099.000000
262.618256 20842.000000
264.992981 21024.000000
267.366058 20496.000000
269.737488 20725.000000
272.107269 20658.000000
274.475494 20891.000000
276.842072 20697.000000
279.207062 20892.000000
281.570435 20843.000000
283.932159 20801.000000
286.292297 20567.000000
288.650818 20651.000000
291.007751 20644.000000
293.363068 20682.000000
295.716797 20974.000000
298.068878 20850.000000
300.419403 20737.000000
302.768341 20636.000000
305.115631 20596.000000
307.461395 20268.000000
309.805481 20489.000000
312.148041 20298.000000
314.488983 20192.000000
316.828308 20337.000000
319.166077 20409.000000
321.502289 20042.000000
323.836853 20235.000000
326.169861 20107.000000
328.501312 20229.000000
330.831177 20025.000000
333.159454 20088.000000
335.486115 19978.000000
337.811279 20031.000000
340.134827 19975.000000
342.456818 20065.000000
344.777252 19880.000000
347.096069 19780.000000
349.413330 19805.000000
351.729065 19658.000000
354.043213 19622.000000
356.355774 19833.000000
358.666779 20117.000000
360.976257 19634.000000
363.284210 19947.000000
365.590546 20027.000000
367.895294 19821.000000
370.198578 19925.000000
372.500244 19979.000000
374.800415 19906.000000
377.099030 19842.000000
379.396088 19975.000000
381.691589 20127.000000
383.985565 20215.000000
386.277954 20368.000000
388.568848 20192.000000
390.858215 20235.000000
393.145996 20510.000000
395.432251 20657.000000
397.717010 20528.000000
400.000153 20807.000000
402.281860 20577.000000
404.562042 20600.000000
406.840637 20374.000000
409.117706 20501.000000
411.393250 20254.000000
413.667267 20407.000000
415.939850 20340.000000
418.210815 20372.000000
420.480286 20402.000000
422.748260 20063.000000
425.014679 20023.000000
427.279602 20153.000000
429.543060 20104.000000
431.804932 19879.000000
434.065338 19989.000000
436.324188 19979.000000
438.581573 19854.000000
440.837463 20024.000000
443.091858 19513.000000
445.344727 19738.000000
447.596039 19629.000000
449.845947 19535.000000
452.094269 19351.000000
454.341156 19593.000000
456.586578 19436.000000
458.830444 19098.000000
461.072815 19053.000000
463.313690 19278.000000
465.553162 19171.000000
467.791046 19419.000000
470.027496 19337.000000
472.262421 19171.000000
474.495880 18929.000000
476.727905 19053.000000
478.958405 19218.000000
481.187408 19138.000000
483.414948 19094.000000
485.640991 19046.000000
487.865601 18981.000000
490.088745 18949.000000
492.310425 18967.000000
494.530548 18921.000000
496.749268 19231.000000
498.966492 19222.000000
501.182343 19071.000000
503.396576 19178.000000
505.609497 19057.000000
507.820831 19178.000000
510.030731 19139.000000
512.239197 19333.000000
514.446289 19236.000000
516.651794 19198.000000
518.855896 19155.000000
521.058472 19229.000000
523.259644 19097.000000
525.459473 19056.000000
527.657776 18780.000000
529.854553 19302.000000
532.049988 19047.000000
534.243896 19058.000000
536.436462 18752.000000
538.627502 18995.000000
540.817139 19008.000000
543.005371 18903.000000
545.192078 18772.000000
547.377319 18789.000000
549.561279 18422.000000
551.743652 18345.000000
553.924683 18315.000000
556.104187 18189.000000
558.282410 18103.000000
560.459106 18004.000000
562.634399 18077.000000
564.808289 17954.000000
566.980713 17799.000000
569.151733 17959.000000
571.321289 17852.000000
573.489563 18046.000000
575.656311 17816.000000
577.821594 18103.000000
579.985474 18014.000000
582.148071 18232.000000
584.309143 18091.000000
586.468811 18241.000000
588.627136 18042.000000
590.783936 18249.000000
592.939392 17952.000000
595.093445 18210.000000
597.246155 18286.000000
599.397339 18100.000000
601.547180 18241.000000
603.695679 18156.000000
605.842590 18185.000000
607.988281 18264.000000
610.132568 18293.000000
612.275391 18286.000000
614.416748 18400.000000
616.556885 18398.000000
618.695496 18000.000000
620.832825 18315.000000
622.968689 18083.000000
625.103149 18044.000000
627.236145 17903.000000
629.367981 17781.000000
631.498352 17771.000000
633.627319 17701.000000
635.754822 17709.000000
637.881042 17498.000000
640.005737 17330.000000
642.129211 17343.000000
644.251343 17253.000000
646.372009 16974.000000
648.491333 17127.000000
650.609253 17175.000000
652.725830 17154.000000
654.841003 17154.000000
656.954834 16827.000000
659.067200 16947.000000
661.178345 16934.000000
663.288086 16856.000000
665.396362 16993.000000
667.503479 16938.000000
669.609131 16686.000000
671.713318 16915.000000
673.816284 16783.000000
675.917847 16897.000000
678.018066 16983.000000
680.116882 17060.000000
682.214355 17334.000000
684.310547 17322.000000
686.405273 17293.000000
688.498779 17053.000000
690.590942 16968.000000
692.681580 17157.000000
694.770996 17372.000000
696.859131 17349.000000
698.945801 17415.000000
701.031250 17389.000000
703.115173 17542.000000
705.197876 17381.000000
707.279297 17355.000000
709.359253 16917.000000
711.437988 16458.000000
713.515259 16387.000000
715.591248 16519.000000
717.665955 16439.000000
719.739380 16247.000000
721.811279 16873.000000
723.882019 16638.000000
725.951416 16486.000000
728.019409 16342.000000
730.086060 16247.000000
732.151489 16226.000000
734.215576 16140.000000
736.278320 16215.000000
738.339722 16057.000000
740.399841 15813.000000
742.458557 15879.000000
744.516052 15956.000000
746.572266 15819.000000
748.627075 15686.000000
750.680603 15715.000000
752.732727 15798.000000
754.783630 15796.000000
756.833313 15638.000000
758.881531 15589.000000
760.928528 15577.000000
762.974243 15336.000000
765.018555 15584.000000
767.061584 16416.000000
769.103394 14419.000000
771.143860 15577.000000
773.182922 15483.000000
775.220825 15639.000000
777.257385 15749.000000
779.292725 15799.000000
781.326721 15878.000000
783.359314 15705.000000
785.390747 16251.000000
787.420776 15755.000000
789.449524 15802.000000
791.477112 16040.000000
793.503357 16018.000000
795.528198 15998.000000
797.551941 16253.000000
799.574280 16168.000000
801.595398 16067.000000
803.615173 16175.000000
805.633667 16368.000000
807.650940 16369.000000
809.666809 16388.000000
811.681519 16395.000000
813.694885 16205.000000
815.707031 16012.000000
817.717957 16017.000000
819.727539 15728.000000
821.735901 15445.000000
823.742859 15458.000000
825.748596 15369.000000
827.753113 15410.000000
829.756348 15217.000000
831.758301 15145.000000
833.758972 15089.000000
835.758423 15078.000000
837.756531 15068.000000
839.753540 14853.000000
841.749146 15082.000000
843.743591 15062.000000
845.736694 14909.000000
847.728577 14685.000000
849.719116 14634.000000
851.708374 14420.000000
853.696594 14368.000000
855.683411 14366.000000
857.669006 14535.000000
859.653320 14264.000000
861.636536 14417.000000
863.618347 14512.000000
865.598938 14640.000000
867.578247 14338.000000
869.556396 14496.000000
871.533203 14733.000000
873.508728 14640.000000
875.483215 14885.000000
877.456238 15213.000000
879.428223 15279.000000
881.398865 15174.000000
883.368347 15304.000000
885.336487 15285.000000
887.303467 15026.000000
889.269104 15101.000000
891.233582 15069.000000
893.196838 14980.000000
895.158875 14586.000000
897.119629 14696.000000
899.079163 14826.000000
901.037415 14626.000000
902.994568 14388.000000
904.950562 14612.000000
906.905151 14589.000000
908.858521 14484.000000
910.810730 14383.000000
912.761719 14447.000000
914.711426 14092.000000
916.659973 13979.000000
918.607300 14083.000000
920.553345 13955.000000
922.498108 13793.000000
924.441833 13600.000000
926.384399 13678.000000
928.325684 13314.000000
930.265625 13218.000000
932.204468 13170.000000
934.142029 13091.000000
936.078369 13004.000000
938.013550 12919.000000
939.947449 13028.000000
941.880249 13012.000000
943.811829 13091.000000
945.742249 13088.000000
947.671448 13098.000000
949.599304 13077.000000
951.526123 13080.000000
953.451660 13138.000000
955.375916 13164.000000
957.299072 13108.000000
959.221069 13397.000000
961.141785 13163.000000
963.061340 13312.000000
964.979736 13432.000000
966.897095 13476.000000
968.812988 13539.000000
970.727783 13479.000000
972.641357 13496.000000
974.553772 13661.000000
976.464966 13473.000000
978.375000 13650.000000
980.283752 13563.000000
982.191467 13600.000000
984.097961 13262.000000
986.003235 13298.000000
987.907410 13376.000000
989.810364 13202.000000
991.712097 13243.000000
993.612671 13292.000000
995.512085 13188.000000
997.410278 13000.000000
999.307312 13028.000000
1001.203125 12770.000000
1003.097778 12488.000000
1004.991333 12532.000000
1006.883606 12339.000000
1008.774963 12357.000000
1010.664978 12256.000000
1012.553772 12197.000000
1014.441406 12201.000000
1016.327881 12111.000000
1018.213196 12126.000000
1020.097351 12111.000000
1021.980286 11978.000000
1023.862183 12023.000000
1025.742798 12039.000000
1027.622314 12009.000000
1029.500854 12021.000000
1031.378052 12135.000000
1033.253906 12073.000000
1035.128784 12049.000000
1037.002686 12055.000000
1038.875122 12078.000000
1040.746582 12035.000000
1042.616699 12071.000000
1044.485840 12126.000000
1046.353760 12233.000000
1048.220581 12009.000000
1050.086304 12174.000000
1051.950806 12385.000000
1053.814209 12320.000000
1055.676270 12363.000000
1057.537354 12345.000000
1059.397339 12283.000000
1061.255981 12070.000000
1063.113525 12236.000000
1064.969971 12313.000000
1066.825317 12441.000000
1068.679443 12362.000000
1070.532715 12220.000000
1072.384521 12296.000000
1074.235352 12269.000000
1076.084961 12099.000000
1077.933350 12217.000000
1079.780884 12004.000000
1081.627075 12276.000000
1083.472046 12110.000000
1085.316162 12154.000000
1087.158936 12097.000000
1089.000488 12249.000000
1090.841309 12108.000000
1092.680542 11888.000000
1094.519043 11892.000000
1096.356201 11926.000000
1098.192139 11677.000000
1100.027100 11576.000000
1101.860840 11219.000000
1103.693604 11208.000000
1105.525024 11145.000000
1107.355591 11465.000000
1109.184814 11248.000000
1111.013062 10766.000000
1112.840088 10796.000000
1114.666138 10786.000000
1116.490967 10822.000000
1118.314697 10660.000000
1120.137207 10867.000000
1121.958618 10909.000000
1123.779175 10763.000000
1125.598267 10711.000000
1127.416504 10875.000000
1129.233398 10809.000000
1131.049438 10777.000000
1132.864258 10998.000000
1134.677979 11118.000000
1136.490601 11159.000000
1138.302002 11066.000000
1140.112427 11454.000000
1141.921753 11311.000000
1143.729736 11347.000000
1145.536987 11422.000000
1147.342773 11412.000000
1149.147705 11315.000000
1150.951538 11259.000000
1152.754150 11381.000000
1154.555908 11409.000000
1156.356201 11295.000000
1158.155518 11325.000000
1159.953857 11171.000000
1161.750854 11217.000000
1163.547119 11079.000000
1165.342041 10822.000000
1167.135864 10822.000000
1168.928833 10730.000000
1170.720459 10579.000000
1172.511108 10507.000000
1174.300781 10477.000000
1176.088989 10504.000000
1177.876343 10353.000000
1179.662598 10269.000000
1181.447754 10525.000000
1183.231812 10399.000000
1185.014771 10385.000000
1186.796753 10338.000000
1188.577515 10326.000000
1190.357300 10399.000000
1192.135986 10154.000000
1193.913696 10167.000000
1195.690186 10164.000000
1197.465576 9983.000000
1199.239868 9854.000000
1201.013062 9855.000000
1202.785400 9798.000000
1204.556396 9713.000000
1206.326538 9766.000000
1208.095459 9713.000000
1209.863281 9629.000000
1211.630249 9700.000000
1213.395874 9645.000000
1215.160522 9628.000000
1216.924072 9725.000000
1218.686523 9610.000000
1220.448120 9680.000000
1222.208496 9658.000000
1223.967773 9425.000000
1225.726196 9385.000000
1227.483398 9631.000000
1229.239502 9608.000000
1230.994507 9595.000000
1232.748657 9647.000000
1234.501465 9835.000000
1236.253296 9785.000000
1238.004272 9860.000000
1239.753906 9827.000000
1241.502686 9898.000000
1243.250122 9842.000000
1244.996826 9830.000000
1246.742310 9900.000000
1248.486938 9847.000000
1250.230225 9840.000000
1251.972534 9849.000000
1253.713745 9860.000000
1255.454102 9636.000000
1257.193359 9558.000000
1258.931396 9196.000000
1260.668579 9113.000000
1262.404541 9204.000000
1264.139526 9388.000000
1265.873535 9429.000000
1267.606567 9729.000000
1269.338379 9697.000000
1271.069214 9680.000000
1272.798828 9833.000000
1274.527588 9870.000000
1276.255249 9829.000000
1277.981812 9794.000000
1279.707520 9763.000000
1281.431885 9773.000000
1283.155396 9653.000000
1284.877930 9689.000000
1286.599487 9655.000000
1288.319824 9733.000000
1290.039185 9589.000000
1291.757446 9574.000000
1293.474731 9575.000000
1295.191040 9618.000000
1296.906128 9546.000000
1298.620239 9651.000000
1300.333374 9328.000000
1302.045654 9382.000000
1303.756714 9108.000000
1305.466797 9196.000000
1307.175781 9122.000000
1308.883545 9095.000000
1310.590698 9093.000000
1312.296387 9023.000000
1314.001343 8961.000000
1315.705322 8988.000000
1317.408081 9269.000000
1319.109863 9250.000000
1320.810791 9206.000000
1322.510376 14346.000000
1324.209106 2601.000000
1325.907104 8783.000000
1327.603760 8787.000000
1329.299316 8720.000000
1330.994019 8708.000000
1332.687500 8682.000000
1334.380127 8506.000000
1336.071899 8705.000000
1337.762329 8516.000000
1339.452026 8516.000000
1341.140625 8416.000000
1342.828125 8300.000000
1344.514648 8310.000000
1346.200073 8308.000000
1347.884521 8408.000000
1349.568115 8392.000000
1351.250488 8471.000000
1352.931885 8439.000000
1354.612427 8679.000000
1356.291748 8576.000000
1357.970459 8779.000000
1359.647827 8882.000000
1361.324097 8798.000000
1362.999390 8769.000000
1364.673950 8876.000000
1366.347290 8723.000000
1368.019653 8720.000000
1369.691040 8815.000000
1371.361450 8793.000000
1373.030762 8800.000000
1374.699097 8689.000000
1376.366577 8795.000000
1378.032959 8629.000000
1379.698364 8651.000000
1381.362793 8667.000000
1383.026001 8407.000000
1384.688599 8585.000000
1386.349854 8413.000000
1388.010254 8467.000000
1389.669556 8395.000000
1391.327881 8345.000000
1392.985474 8210.000000
1394.641846 8378.000000
1396.297363 8242.000000
1397.951660 8302.000000
1399.605103 8367.000000
1401.257446 8364.000000
1402.909058 8328.000000
1404.559448 8304.000000
1406.208740 8092.000000
1407.857300 7675.000000
1409.504761 7704.000000
1411.151245 7711.000000
1412.796875 7640.000000
1414.441528 7688.000000
1416.084961 7674.000000
1417.727539 7681.000000
1419.369019 7557.000000
1421.009644 7509.000000
1422.649292 7704.000000
1424.287842 7448.000000
1425.925537 7538.000000
1427.562134 7435.000000
1429.197754 7413.000000
1430.832642 7475.000000
1432.466431 7412.000000
1434.099121 7437.000000
1435.730835 7431.000000
1437.361694 7454.000000
1438.991455 7519.000000
1440.620117 7424.000000
1442.248169 7374.000000
1443.875122 7387.000000
1445.500854 7424.000000
1447.125977 7438.000000
1448.750000 7448.000000
1450.373047 7720.000000
1451.995117 7639.000000
1453.616089 7536.000000
1455.236084 7748.000000
1456.855347 7661.000000
1458.473267 7771.000000
1460.090576 7315.000000
1461.706909 7548.000000
1463.322021 7521.000000
1464.936279 7417.000000
1466.549683 7514.000000
1468.161987 7666.000000
1469.773438 7476.000000
1471.384033 7547.000000
1472.993408 7550.000000
1474.601807 7437.000000
1476.209351 7496.000000
1477.815918 7520.000000
1479.421753 7578.000000
1481.026367 7624.000000
1482.630127 7462.000000
1484.232666 7305.000000
1485.834595 7100.000000
1487.435303 6976.000000
1489.035278 6789.000000
1490.634155 6844.000000
1492.232178 6907.000000
1493.829102 6787.000000
1495.425171 7100.000000
1497.020264 7366.000000
1498.614380 7200.000000
1500.207764 7297.000000
1501.800049 7214.000000
1503.391113 7193.000000
1504.981689 7096.000000
1506.570923 7020.000000
1508.159546 6959.000000
1509.747070 6956.000000
1511.333496 6965.000000
1512.919189 6775.000000
1514.503784 6993.000000
1516.087524 6861.000000
1517.670166 6855.000000
1519.252075 6947.000000
1520.832886 6793.000000
1522.412964 6735.000000
1523.991821 6702.000000
1525.569824 6551.000000
1527.147095 6627.000000
1528.723145 6459.000000
1530.298462 6431.000000
1531.872681 6204.000000
1533.446167 6386.000000
1535.018433 6481.000000
1536.589966 6510.000000
1538.160522 6394.000000
1539.730225 6256.000000
1541.298706 6420.000000
1542.866455 6277.000000
1544.433350 6312.000000
1545.999023 6296.000000
1547.563965 6356.000000
1549.127808 6196.000000
1550.691040 6331.000000
1552.252930 6209.000000
1553.814209 6349.000000
1555.374390 6296.000000
1556.933838 6336.000000
1558.492188 6170.000000
1560.049805 6223.000000
1561.606323 6185.000000
1563.161621 6056.000000
1564.716309 6152.000000
1566.270264 6212.000000
1567.823242 6287.000000
1569.374878 6103.000000
1570.925781 6276.000000
1572.475952 6159.000000
1574.025146 6200.000000
1575.572998 6146.000000
1577.120361 6155.000000
1578.666748 6152.000000
1580.212280 6178.000000
1581.756836 6196.000000
1583.300171 6188.000000
1584.842896 6138.000000
1586.384766 6088.000000
1587.925537 6044.000000
1589.465332 6205.000000
1591.004395 6197.000000
1592.542358 6151.000000
1594.079834 6007.000000
1595.615967 6159.000000
1597.151001 6101.000000
1598.685547 6066.000000
1600.219116 6014.000000
1601.751831 6013.000000
1603.282959 6170.000000
1604.813843 6222.000000
1606.343872 6164.000000
1607.872681 6015.000000
1609.400391 6014.000000
1610.927490 6101.000000
1612.453857 6149.000000
1613.979248 6084.000000
1615.503784 5914.000000
1617.026978 5863.000000
1618.549438 5966.000000
1620.071167 5974.000000
1621.592041 6033.000000
1623.111450 5700.000000
1624.630371 5962.000000
1626.148560 6015.000000
1627.665894 5897.000000
1629.182129 5773.000000
1630.697021 5872.000000
1632.211426 5776.000000
1633.725098 5718.000000
1635.237671 5845.000000
1636.749023 5722.000000
1638.260010 5700.000000
1639.769897 5676.000000
1641.278931 5692.000000
1642.786621 5742.000000
1644.293945 5648.000000
1645.800415 5609.000000
1647.305908 5668.000000
1648.810547 5635.000000
1650.313721 5620.000000
1651.816284 5472.000000
1653.318481 5477.000000
1654.819336 5475.000000
1656.319092 5330.000000
1657.817993 5333.000000
1659.316528 5344.000000
1660.813843 5374.000000
1662.310425 5393.000000
1663.805420 5249.000000
1665.300171 5151.000000
1666.794067 5164.000000
1668.286987 5145.000000
1669.778564 4365.000000
1671.269653 5062.000000
1672.760132 5018.000000
1674.249512 5007.000000
1675.737427 5034.000000
1677.225098 5198.000000
1678.711792 5113.000000
1680.197632 5108.000000
1681.682617 5058.000000
1683.166138 5064.000000
1684.649414 4976.000000
1686.131836 5005.000000
1687.613159 4984.000000
1689.093018 4900.000000
1690.572632 4940.000000
1692.051514 4859.000000
1693.529419 5358.000000
1695.006348 4853.000000
1696.482056 4901.000000
1697.957397 4920.000000
1699.431519 4834.000000
1700.905029 4852.000000
1702.377075 4943.000000
1703.848877 4842.000000
1705.319702 4793.000000
1706.789673 4852.000000
1708.258301 4996.000000
1709.726440 4909.000000
1711.193848 4877.000000
1712.660156 4902.000000
1714.125854 4929.000000
1715.589844 4840.000000
1717.053711 4962.000000
1718.516724 4847.000000
1719.978760 4812.000000
1721.439575 4938.000000
1722.899780 4932.000000
1724.359253 4896.000000
1725.817871 4934.000000
1727.275513 4860.000000
1728.731812 4851.000000
1730.187866 4852.000000
1731.642944 4807.000000
1733.097046 4892.000000
1734.549927 4832.000000
1736.002563 4839.000000
1737.454102 4768.000000
1738.904907 4839.000000
1740.354736 4811.000000
1741.803223 4747.000000
1743.251343 4625.000000
1744.698608 4637.000000
1746.145142 4698.000000
1747.590088 4614.000000
1749.034790 4697.000000
1750.478638 4647.000000
1751.921631 4802.000000
1753.363159 4551.000000
1754.804443 4544.000000
1756.244873 4546.500000
1757.684326 4549.000000
1759.122803 4648.000000
1760.560303 4422.000000
1761.997314 4511.000000
1763.433350 4388.000000
1764.868530 4423.000000
1766.302246 4511.000000
1767.735840 4575.000000
1769.168457 4553.000000
1770.600220 4571.000000
1772.031128 4526.000000
1773.460815 4431.000000
1774.889771 4374.000000
1776.318237 4335.000000
1777.745728 4182.000000
1779.171875 3921.000000
1780.597778 4182.000000
1782.022583 4184.000000
1783.446777 4133.000000
1784.869507 4183.000000
1786.291748 4169.000000
1787.713257 4173.000000
1789.134033 4216.000000
1790.553833 4109.000000
1791.972290 4085.000000
1793.390259 4113.000000
1794.807617 4103.000000
1796.224121 4089.000000
1797.639160 4090.000000
1799.053833 4051.000000
1800.467896 4046.000000
1801.880737 3993.000000
1803.292969 4026.000000
1804.703857 4055.000000
1806.114258 4042.000000
1807.523926 3972.000000
1808.932617 4122.000000
1810.340210 4004.000000
1811.747314 4111.000000
1813.153564 4064.000000
1814.558838 4099.000000
1815.963013 4061.000000
1817.366821 4008.000000
1818.769653 4002.000000
1820.171631 3996.000000
1821.572998 4127.000000
1822.972900 4039.000000
1824.372192 3980.000000
1825.770996 3976.000000
1827.168945 4016.000000
1828.565552 3863.000000
1829.961548 3933.000000
1831.356812 4003.000000
1832.751465 3921.000000
1834.145142 3956.000000
1835.537476 4045.000000
1836.929321 4102.000000
1838.320557 3842.000000
1839.710815 3926.000000
1841.099854 4016.000000
1842.488525 4014.000000
1843.876221 3848.000000
1845.263184 3812.000000
1846.648804 3861.000000
1848.034180 3900.000000
1849.418701 3847.000000
1850.802490 3832.000000
1852.185181 3808.000000
1853.566650 3845.000000
1854.947632 3692.000000
1856.328125 3779.000000
1857.707642 3760.000000
1859.085693 3752.000000
1860.463623 3741.000000
1861.840576 3548.000000
1863.216797 3531.000000
1864.592163 3624.000000
1865.966064 3543.000000
1867.339844 3554.000000
1868.712769 3620.000000
1870.084595 3458.000000
1871.455444 3588.000000
1872.825928 3494.000000
1874.195313 3600.000000
1875.564209 3476.000000
1876.931519 3440.000000
1878.298706 3392.000000
1879.664917 3380.000000
1881.030396 3423.000000
1882.395142 3464.000000
1883.758301 3423.000000
1885.121338 3503.000000
1886.483521 3388.000000
1887.844849 3338.000000
1889.204834 3445.000000
1890.564453 3391.000000
1891.923462 3362.000000
1893.281494 3297.000000
1894.638672 3212.000000
1895.994629 3326.000000
1897.350342 3362.000000
1898.705078 3476.000000
1900.058960 3295.000000
1901.411743 3316.000000
1902.764038 3280.000000
1904.115601 3273.000000
1905.466309 3464.000000
1906.815796 3346.000000
1908.164795 3333.000000
1909.512939 3296.000000
1910.860474 3286.000000
1912.207275 3339.000000
1913.552490 3328.000000
1914.897461 3301.000000
1916.241699 3367.000000
1917.585083 3317.000000
1918.927124 3386.000000
1920.268921 3255.000000
1921.609863 3195.000000
1922.950073 3371.000000
1924.289307 3350.000000
1925.627563 3227.000000
1926.965210 3326.000000
1928.302124 3274.000000
1929.638184 3315.000000
1930.973022 3312.000000
1932.307495 3218.000000
1933.641235 3340.000000
1934.974121 3160.000000
1936.305542 3234.000000
1937.637085 3177.000000
1938.967285 3220.000000
1940.296997 3228.000000
1941.625854 3252.000000
1942.953491 3160.000000
1944.280640 3274.000000
1945.607056 3187.000000
1946.932739 3120.000000
1948.257080 3179.000000
1949.581177 3176.000000
1950.904419 3155.000000
1952.226929 3077.000000
1953.548340 3159.000000
1954.868774 3094.000000
1956.188599 3096.000000
1957.508057 3071.000000
1958.826538 3123.000000
1960.143677 3134.000000
1961.460449 2929.000000
1962.776489 3008.000000
1964.091797 3082.000000
1965.405640 3033.000000
1966.719238 2972.000000
1968.032104 2950.000000
1969.344116 2969.000000
1970.655518 2953.000000
1971.965576 2970.000000
1973.275146 2857.000000
1974.583984 2953.000000
1975.892212 2842.000000
1977.199097 2855.000000
1978.505371 2888.000000
1979.811279 2830.000000
1981.115967 2986.000000
1982.420166 2820.000000
1983.723145 2839.000000
1985.025757 2781.000000
1986.327393 2813.000000
1987.628418 2807.000000
1988.927856 2699.000000
1990.227417 2774.000000
1991.525879 2738.000000
1992.823853 2707.000000
1994.120239 2775.000000
1995.416626 2650.000000
1996.712036 2711.000000
1998.006714 2628.000000
1999.300537 2658.000000
2000.593140 2647.000000
2001.885254 2707.000000
2003.176880 2693.000000
2004.467773 2565.000000
2005.757080 2612.000000
2007.046143 2642.000000
2008.334473 2727.000000
2009.622070 2617.000000
2010.908813 2630.000000
2012.194458 2563.000000
2013.479736 2653.000000
2014.764038 2602.000000
2016.047729 2662.000000
2017.330078 2588.000000
2018.612061 2573.000000
2019.893555 2535.000000
2021.174072 2523.000000
2022.453857 2415.000000
2023.732544 2531.000000
2025.010498 2462.000000
2026.287964 2574.000000
2027.564819 2515.000000
2028.839966 2535.000000
2030.115234 2554.000000
2031.389526 2639.000000
2032.662842 2572.000000
2033.935303 2545.000000
2035.207397 2626.000000
2036.478394 2525.000000
2037.749146 2599.000000
2039.018555 2580.000000
2040.286865 2618.000000
2041.555176 2572.000000
2042.822510 2494.000000
2044.089111 2545.000000
2045.354492 2523.000000
2046.619263 2188.000000
2047.883789 2521.000000
2049.146973 2487.000000
2050.409912 2557.000000
2051.670898 2510.000000
2052.932373 2360.000000
2054.192627 2450.000000
2055.452148 2497.000000
2056.710938 2506.000000
2057.968750 2364.000000
2059.226074 2504.000000
2060.482666 2423.000000
2061.737793 2374.000000
2062.992920 2421.000000
2064.247070 2395.000000
2065.500488 2405.000000
2066.753174 2323.000000
2068.004639 2332.000000
2069.255859 2414.000000
2070.506348 2345.000000
2071.756104 2274.000000
2073.004395 2358.000000
2074.252686 2377.000000
2075.500000 2329.000000
2076.746582 2391.000000
2077.992432 2437.000000
2079.237061 2296.000000
2080.481201 2314.000000
2081.724854 2290.000000
2082.967529 2286.000000
2084.208984 2194.000000
2085.450195 2228.000000
2086.690918 2239.000000
2087.930664 2288.000000
2089.169189 2260.000000
2090.407227 2197.000000
2091.644531 2275.000000
2092.881592 2182.000000
2094.117188 2076.000000
2095.352051 2244.000000
2096.586670 2185.000000
2097.820313 2227.000000
2099.052979 2176.000000
2100.284912 2143.000000
2101.516357 2212.000000
2102.746826 2206.000000
2103.976563 2207.000000
2105.206055 2099.000000
2106.433594 2143.000000
2107.661377 2052.000000
2108.888428 2112.000000
2110.114502 2111.000000
2111.339111 2066.000000
2112.563965 2050.000000
2113.787598 2061.000000
2115.010742 2036.000000
2116.232666 2106.000000
2117.454346 2032.000000
2118.675049 2088.000000
2119.895020 2062.000000
2121.114502 2115.000000
2122.332520 2111.000000
2123.550537 2040.000000
2124.767578 2199.000000
2125.984131 2215.000000
2127.198975 1997.000000
2128.414063 2118.000000
2129.628174 2033.000000
2130.841553 2042.000000
2132.054199 2042.000000
2133.265381 2011.000000
2134.476807 2253.000000
2135.687012 2053.000000
2136.896729 2024.000000
2138.104980 2097.000000
2139.313232 2099.000000
2140.520752 2031.000000
2141.727051 1905.000000
2142.932617 2009.000000
2144.137939 1906.000000
2145.342285 2053.000000
2146.545898 2061.000000
2147.749023 2134.000000
2148.950684 1993.000000
2150.152100 2025.000000
2151.352783 1971.000000
2152.552734 1942.000000
2153.751465 2109.000000
2154.949951 1998.000000
2156.147949 1957.000000
2157.344971 1986.000000
2158.541260 1936.000000
2159.736328 1870.000000
2160.931152 1924.000000
2162.125244 1882.000000
2163.318359 1883.000000
2164.510498 1843.000000
2165.702393 1783.000000
2166.893555 1867.000000
2168.083740 1864.000000
2169.273193 1774.000000
2170.462158 1890.000000
2171.650146 1819.000000
2172.837891 1849.000000
2174.024170 1852.000000
2175.209717 1652.000000
2176.395020 1792.000000
2177.579834 1798.000000
2178.763428 1847.000000
2179.946289 1841.000000
2181.128174 1761.000000
2182.309814 1737.000000
2183.490967 1684.000000
2184.670898 1757.000000
2185.849854 1690.000000
2187.028320 1674.000000
2188.206543 1693.000000
2189.383545 1752.000000
2190.559570 1794.000000
2191.735352 1611.000000
2192.910645 1711.000000
2194.084473 1765.000000
2195.257813 1700.000000
2196.430908 1736.000000
2197.602783 1707.000000
2198.774170 1734.000000
2199.945068 1706.000000
2201.114258 1764.000000
2202.283447 1713.000000
2203.452148 1666.000000
2204.619873 1672.000000
2205.786621 1737.000000
2206.952637 1628.000000
2208.118164 1729.000000
2209.283447 1676.000000
2210.447266 1669.000000
2211.610596 1678.000000
2212.772705 1664.000000
2213.935059 1650.000000
2215.096191 1644.000000
2216.256348 1710.000000
2217.416016 1669.000000
2218.575439 1648.000000
2219.733643 1564.000000
2220.890869 1644.000000
2222.047852 1651.000000
2223.204102 1539.000000
2224.359619 1656.000000
2225.514404 1591.000000
2226.668213 1604.000000
2227.821045 1622.000000
2228.974365 1587.000000
2230.125732 1524.000000
2231.276855 1555.000000
2232.427246 1593.000000
2233.577148 1540.000000
2234.726074 1554.000000
2235.874512 1693.000000
2237.021484 1579.000000
2238.168701 1586.000000
2239.314697 1548.000000
2240.460449 1459.000000
2241.604492 1562.000000
2242.748779 1478.000000
2243.892090 1455.000000
2245.034668 1528.000000
2246.176270 1481.000000
2247.317627 1495.000000
2248.458008 1476.000000
2249.597656 1447.000000
2250.736816 1320.000000
2251.874756 1483.000000
2253.012695 1453.000000
2254.149658 1403.000000
2255.285889 1443.000000
2256.421143 1387.000000
2257.555664 1466.000000
2258.689941 1347.000000
2259.823730 1426.000000
2260.956055 1405.000000
2262.087891 1365.000000
2263.219238 1304.000000
2264.349609 1378.000000
2265.479736 1340.000000
2266.608643 1346.000000
2267.737061 1370.000000
2268.864990 1361.000000
2269.991943 1336.000000
2271.118164 1300.000000
2272.243408 1320.000000
2273.368652 1348.000000
2274.493164 1329.000000
2275.616455 1321.000000
2276.739014 1348.000000
2277.861084 1292.000000
2278.982666 1377.000000
2280.103516 1355.000000
2281.223145 1303.000000
2282.342285 1228.000000
2283.461182 1284.000000
2284.579346 1238.000000
2285.696533 1314.000000
2286.812744 1343.000000
2287.928711 1276.000000
2289.043945 1251.000000
2290.158447 1152.000000
2291.271729 1308.000000
2292.385010 1399.000000
2293.497559 1332.000000
2294.609375 1346.000000
2295.720459 1243.000000
2296.830322 1361.000000
2297.939697 1342.000000
2299.048828 1263.000000
2300.156982 1335.000000
2301.264160 1318.000000
2302.371094 1238.000000
2303.477295 1240.000000
2304.583008 1310.000000
2305.687256 1258.000000
2306.791260 1231.000000
2307.894775 1283.000000
2308.997803 1335.000000
2310.099609 1261.000000
2311.200684 1295.000000
2312.301270 1303.000000
2313.401367 1239.000000
2314.500732 1154.000000
2315.598633 1263.000000
2316.697021 1210.000000
2317.793945 1318.000000
2318.890625 1265.000000
2319.986816 1179.000000
2321.081299 1234.000000
2322.175781 1095.000000
2323.269531 1240.000000
2324.363037 1267.000000
2325.454834 1203.000000
2326.546631 1295.000000
2327.637695 1302.000000
2328.728027 1239.000000
2329.817383 1337.000000
2330.906738 1326.000000
2331.994873 1347.000000
2333.082520 1237.000000
2334.169922 1265.000000
2335.255615 1182.000000
2336.341064 1144.000000
2337.426270 1202.000000
2338.510498 1127.000000
2339.593750 1129.000000
2340.676758 1127.000000
2341.758789 1287.000000
2342.840576 1092.000000
2343.921631 1183.000000
2345.001465 1085.000000
2346.080811 1047.000000
2347.159668 1138.000000
2348.238037 1083.000000
2349.314941 1130.000000
2350.391602 1050.000000
2351.468018 974.000000
2352.543457 1075.000000
2353.617920 1031.000000
2354.692139 1108.000000
2355.765625 1056.000000
2356.838623 1064.000000
2357.910400 1162.000000
2358.981934 1075.000000
2360.052490 1079.000000
2361.122803 1043.000000
2362.192139 1123.000000
2363.260498 1005.000000
2364.328613 1027.000000
2365.395996 986.000000
2366.462891 1046.000000
2367.529053 994.000000
2368.593994 1031.000000
2369.658936 1058.000000
2370.723145 979.000000
2371.786621 912.000000
2372.848877 1029.000000
2373.911133 975.000000
2374.972412 981.000000
2376.033447 953.000000
2377.093262 979.000000
2378.152344 993.000000
2379.211426 1106.000000
2380.269531 1034.000000
2381.326904 993.000000
2382.383301 906.000000
2383.439453 910.000000
2384.495117 959.000000
2385.550049 965.000000
2386.603516 1061.000000
2387.657227 952.000000
2388.709961 1016.000000
2389.762207 702.000000
2390.813721 955.000000
2391.864258 918.000000
2392.914551 992.000000
2393.963867 967.000000
2395.013184 909.000000
2396.061035 930.000000
2397.108398 904.000000
2398.155518 947.000000
2399.201660 987.000000
2400.247070 867.000000
2401.291748 948.000000
2402.336426 940.000000
2403.379639 926.000000
2404.422852 983.000000
2405.464600 978.000000
2406.506592 996.000000
2407.547852 1004.000000
2408.588135 804.000000
2409.627686 1022.000000
2410.666260 925.000000
2411.705078 927.000000
2412.742676 959.000000
2413.780029 937.000000
2414.816162 977.000000
2415.852051 787.000000
2416.887207 834.000000
2417.921875 887.000000
2418.955078 887.000000
2419.988525 937.000000
2421.020996 958.000000
2422.053223 801.000000
2423.083984 809.000000
2424.114746 965.000000
2425.145020 898.000000
2426.174072 864.000000
2427.203125 807.000000
2428.230469 890.000000
2429.258301 894.000000
2430.284912 844.000000
2431.311279 916.000000
2432.336182 910.000000
2433.361328 808.000000
2434.385498 940.000000
2435.409424 844.000000
2436.432129 895.000000
2437.454102 805.000000
2438.475830 819.000000
2439.496826 876.000000
2440.517334 868.000000
2441.536621 754.000000
2442.555908 866.000000
2443.574219 867.000000
2444.592285 883.000000
2445.608887 813.000000
2446.625488 833.000000
2447.641357 768.000000
2448.657227 786.000000
2449.671631 762.000000
2450.685303 846.000000
2451.698486 798.000000
2452.711426 755.000000
2453.723633 804.000000
2454.734863 720.000000
2455.745850 699.000000
2456.756104 756.000000
2457.765869 778.000000
2458.774658 781.000000
2459.782715 788.000000
2460.790771 698.000000
2461.797607 800.000000
2462.804199 835.000000
2463.809570 733.000000
2464.814697 696.000000
2465.819580 711.000000
2466.823242 665.000000
2467.826660 750.000000
2468.829102 790.000000
2469.831299 816.000000
2470.833008 849.000000
2471.833740 749.000000
2472.833496 804.000000
2473.833252 693.000000
2474.832031 773.000000
2475.830322 698.000000
2476.827637 807.000000
2477.824707 744.000000
2478.821777 682.000000
2479.817383 703.000000
2480.812988 773.000000
2481.806885 666.000000
2482.800781 701.000000
2483.794189 700.000000
2484.787109 746.000000
2485.779053 779.000000
2486.770264 736.000000
2487.761230 705.000000
2488.751709 684.000000
2489.741211 772.000000
2490.729980 686.000000
2491.718750 655.000000
2492.706543 766.000000
2493.693115 716.000000
2494.679688 693.000000
2495.665771 623.000000
2496.651123 547.000000
2497.635498 825.000000
2498.619629 720.000000
2499.603760 698.000000
2500.586426 633.000000
2501.568604 709.000000
2502.550293 662.000000
2503.531250 673.000000
2504.511719 688.000000
2505.491943 737.000000
2506.470703 697.000000
2507.449219 643.000000
2508.427246 633.000000
2509.404785 715.000000
2510.381348 606.000000
2511.357666 695.000000
2512.333252 630.000000
2513.308350 694.000000
2514.282959 697.000000
2515.256348 676.000000
2516.229492 729.000000
2517.202393 655.000000
2518.174316 672.000000
2519.145508 702.000000
2520.116211 652.000000
2521.086670 737.000000
2522.056396 733.000000
2523.025146 684.000000
2523.993164 607.000000
2524.961182 644.000000
2525.928223 655.000000
2526.895020 651.000000
2527.860596 629.000000
2528.826172 617.000000
2529.791016 620.000000
2530.755371 594.000000
2531.718506 642.000000
2532.681885 695.000000
2533.644287 591.000000
2534.606445 672.000000
2535.567383 588.000000
2536.527588 633.000000
2537.488037 566.000000
2538.447510 545.000000
2539.406250 697.000000
2540.364014 673.000000
2541.322021 626.000000
2542.279297 591.000000
2543.235596 613.000000
2544.191650 614.000000
2545.146484 638.000000
2546.101563 768.000000
2547.055908 614.000000
2548.009521 313.000000
2548.962158 644.000000
2549.914551 667.000000
2550.866455 596.000000
2551.817627 597.000000
2552.768066 506.000000
2553.718018 596.000000
2554.667725 529.000000
2555.616699 508.000000
2556.565186 659.000000
2557.512451 596.000000
2558.459717 548.000000
2559.406250 527.000000
2560.352295 531.000000
2561.297363 614.000000
2562.242188 492.000000
2563.186523 588.000000
2564.130371 535.000000
2565.073730 582.000000
2566.015625 589.000000
2566.957764 624.000000
2567.899170 604.000000
2568.839844 551.000000
2569.779785 548.000000
2570.719727 498.000000
2571.658691 556.000000
2572.597412 548.000000
2573.535156 605.000000
2574.472656 660.000000
2575.409424 523.000000
2576.345459 559.000000
2577.281006 432.000000
2578.215820 494.000000
2579.150635 623.000000
2580.084473 487.000000
2581.017822 706.000000
2581.950439 589.000000
2582.882813 464.000000
2583.814453 531.000000
2584.745605 583.000000
2585.676270 532.000000
2586.605713 413.000000
2587.535156 556.000000
2588.464111 546.000000
2589.392822 386.000000
2590.319824 584.000000
2591.247070 534.000000
2592.173828 563.000000
2593.099854 608.000000
2594.025635 480.000000
2594.950195 477.000000
2595.874512 452.000000
2596.798340 487.000000
2597.721680 501.000000
2598.644043 489.000000
2599.566162 566.000000
2600.487793 501.000000
2601.408691 523.000000
2602.328857 559.000000
2603.248779 434.000000
2604.168213 535.000000
2605.087402 486.000000
2606.005615 506.000000
2606.922607 518.000000
2607.839844 529.000000
2608.756836 530.000000
2609.672852 469.000000
2610.587646 545.000000
2611.502930 484.000000
2612.417480 477.000000
2613.331055 543.000000
2614.244629 506.000000
2615.156982 390.000000
2616.069336 475.000000
2616.980713 486.000000
2617.891846 515.000000
2618.802246 549.000000
2619.712402 507.000000
2620.621826 454.000000
2621.530762 392.000000
2622.438721 479.000000
2623.346924 487.000000
2624.254150 427.000000
2625.160889 528.000000
2626.066895 405.000000
2626.972656 454.000000
2627.877686 438.000000
2628.782471 523.000000
2629.686523 452.000000
2630.589600 423.000000
2631.492676 427.000000
2632.394775 493.000000
2633.296875 490.000000
2634.198730 501.000000
2635.098877 438.000000
2635.999268 509.000000
2636.898926 387.000000
2637.798340 464.000000
2638.696289 430.000000
2639.594727 383.000000
2640.492676 453.000000
2641.389893 459.000000
2642.285889 420.000000
2643.181885 311.000000
2644.077637 431.000000
2644.972656 459.000000
2645.867432 498.000000
2646.760742 416.000000
2647.654053 395.000000
2648.547119 361.000000
2649.439941 478.000000
2650.331055 433.000000
2651.222412 444.000000
2652.113281 422.000000
2653.003418 258.000000
2653.893311 405.000000
2654.781982 425.000000
2655.670898 364.000000
2656.559326 488.000000
2657.446777 421.000000
2658.333252 477.000000
2659.220215 375.000000
2660.106445 303.000000
2660.992188 255.000000
2661.876709 334.000000
2662.761230 398.000000
2663.645508 302.000000
2664.529053 318.000000
2665.412109 349.000000
2666.294434 435.000000
2667.176270 419.000000
2668.057373 401.000000
2668.938721 403.000000
2669.818604 418.000000
2670.698730 366.000000
2671.578125 395.000000
2672.457520 373.000000
2673.336182 430.000000
2674.213135 411.000000
2675.090820 387.000000
2675.967773 335.000000
2676.843994 350.000000
2677.719727 475.000000
2678.594727 383.000000
2679.469971 403.000000
2680.344238 334.000000
2681.218018 400.000000
2682.091064 394.000000
2682.963867 413.000000
2683.836426 406.000000
2684.708252 408.000000
2685.579346 297.000000
2686.450195 364.000000
2687.320557 323.000000
2688.190674 416.000000
2689.059082 295.000000
2689.928223 378.000000
2690.796631 349.000000
2691.664795 335.000000
2692.532227 316.000000
2693.398438 294.000000
2694.265137 332.000000
2695.130859 302.000000
2695.996582 429.000000
2696.860840 409.000000
2697.725830 347.000000
2698.589355 351.000000
2699.453125 312.000000
2700.315430 402.000000
2701.178223 318.000000
2702.040039 446.000000
2702.901367 334.000000
2703.762695 456.000000
2704.622803 401.000000
2705.482910 376.000000
2706.342529 368.000000
2707.201904 428.000000
2708.059570 356.000000
2708.917480 385.000000
2709.775879 308.000000
2710.633057 331.000000
2711.489502 367.000000
2712.345459 367.000000
2713.201416 418.000000
2714.056641 241.000000
2714.911133 317.000000
2715.765137 254.000000
2716.619141 265.000000
2717.472168 412.000000
2718.325439 311.000000
2719.177002 354.000000
2720.029053 291.000000
2720.880859 357.000000
2721.731445 284.000000
2722.582031 627.000000
2723.432129 337.000000
2724.281494 406.000000
2725.130859 331.000000
2725.979004 388.000000
2726.826660 346.000000
2727.674805 373.000000
2728.521729 204.000000
2729.369141 206.000000
2730.215088 336.000000
2731.060303 268.000000
2731.906006 313.000000
2732.750732 367.000000
2733.595459 333.000000
2734.438965 305.000000
2735.282715 256.000000
2736.125732 334.000000
2736.968262 283.000000
2737.809814 287.000000
2738.651855 310.000000
2739.492920 272.000000
2740.333740 237.000000
2741.174316 307.000000
2742.013672 277.000000
2742.853027 383.000000
2743.692383 364.000000
2744.530518 234.000000
2745.368164 313.000000
2746.205811 255.000000
2747.042969 318.000000
2747.879883 307.000000
2748.716309 272.000000
2749.551514 326.000000
2750.386963 301.000000
2751.221924 376.000000
2752.056152 342.000000
2752.890137 352.000000
2753.723633 289.000000
2754.557129 319.000000
2755.389648 313.000000
2756.221680 343.000000
2757.053223 231.000000
2757.884766 314.000000
2758.715332 342.000000
2759.546143 255.000000
2760.375732 298.000000
2761.205322 273.000000
2762.034668 260.000000
2762.863281 307.000000
2763.691406 314.000000
2764.519043 416.000000
2765.346680 219.000000
2766.173828 203.000000
2767.000244 275.000000
2767.826172 199.000000
2768.651611 304.000000
2769.476807 237.000000
2770.302002 247.000000
2771.125977 297.000000
2771.949951 163.000000
2772.773926 261.000000
2773.596680 205.000000
2774.419678 358.000000
2775.241455 246.000000
2776.063232 258.000000
2776.885010 273.000000
2777.705811 229.000000
2778.525879 348.000000
2779.346191 153.000000
2780.166016 192.000000
2780.985840 174.000000
2781.803711 270.000000
2782.622803 268.000000
2783.440674 231.000000
2784.258301 192.000000
2785.075439 288.000000
2785.892090 252.000000
2786.708496 201.000000
2787.524414 245.000000
2788.340088 307.000000
2789.154785 225.000000
2789.969971 200.000000
2790.784424 210.000000
2791.598389 358.000000
2792.412109 227.000000
2793.224609 277.000000
2794.037354 213.000000
2794.849609 285.000000
2795.661377 119.000000
2796.472412 253.000000
2797.284180 250.000000
2798.094727 274.000000
2798.905273 443.000000
2799.714355 257.000000
2800.524170 298.000000
2801.333252 243.000000
2802.142090 181.000000
2802.950439 190.000000
2803.757813 278.000000
2804.565674 239.000000
2805.372803 238.000000
2806.179688 210.000000
2806.985352 152.000000
2807.791504 193.000000
2808.596924 247.000000
2809.402344 191.000000
2810.207031 237.000000
2811.010742 199.000000
2811.814941 139.000000
2812.618652 178.000000
2813.422119 210.000000
2814.224121 162.000000
2815.026855 255.000000
2815.828857 285.000000
2816.630615 195.000000
2817.431885 247.000000
2818.232666 187.000000
2819.032959 238.000000
2819.833496 206.000000
2820.633057 195.000000
2821.432129 219.000000
2822.231201 291.000000
2823.030029 217.000000
2823.828369 207.000000
2824.625732 254.000000
2825.423340 257.000000
2826.220215 167.000000
2827.017334 266.000000
2827.813721 214.000000
2828.609375 136.000000
2829.405029 273.000000
2830.200439 241.000000
2830.995361 175.000000
2831.789551 196.000000
2832.583740 219.000000
2833.377686 249.000000
2834.171143 258.000000
2834.963867 146.000000
2835.756348 252.000000
2836.548828 199.000000
2837.341064 215.000000
2838.132813 247.000000
2838.923584 307.000000
2839.714355 229.000000
2840.505371 266.000000
2841.295410 230.000000
2842.084961 278.000000
2842.874756 281.000000
2843.663574 171.000000
2844.452393 196.000000
2845.241211 336.000000
2846.029053 232.000000
2846.816406 262.000000
2847.604004 226.000000
2848.391113 224.000000
2849.177490 177.000000
2849.963867 253.000000
2850.750000 239.000000
2851.535645 255.000000
2852.320313 200.000000
2853.105469 206.000000
2853.890381 219.000000
2854.674561 206.000000
2855.458740 174.000000
2856.241699 232.000000
2857.024902 121.000000
2857.807861 209.000000
2858.590332 227.000000
2859.372559 192.000000
2860.154297 209.000000
2860.935791 179.000000
2861.717529 238.000000
2862.498535 182.000000
2863.278809 240.000000
2864.058838 94.000000
2864.838867 230.000000
2865.618652 232.000000
2866.397461 128.000000
2867.176514 160.000000
2867.955078 164.000000
2868.733398 257.000000
2869.511230 197.000000
2870.288818 259.000000
2871.066162 236.000000
2871.843262 263.000000
2872.619873 277.000000
2873.395996 213.000000
2874.172119 249.000000
2874.947754 195.000000
2875.723145 145.000000
2876.498047 182.000000
2877.272705 310.000000
2878.047363 226.000000
2878.821777 162.000000
2879.595459 155.000000
2880.368408 357.000000
2881.142090 288.000000
2881.914795 287.000000
2882.687500 213.000000
2883.459473 226.000000
2884.231201 207.000000
2885.003418 241.000000
2885.774414 222.000000
2886.544922 211.000000
2887.315918 161.000000
2888.086914 291.000000
2888.857178 202.000000
2889.626465 308.000000
2890.395996 313.000000
2891.165527 225.000000
2891.934570 191.000000
2892.703125 268.000000
2893.471680 268.000000
2894.239258 334.000000
2895.007324 173.000000
2895.774902 194.000000
2896.542480 264.000000
2897.308838 235.000000
2898.076172 204.000000
2898.842285 185.000000
2899.608643 184.000000
2900.373535 104.000000
2901.138916 266.000000
2901.904785 239.000000
2902.669189 338.000000
2903.433594 165.000000
2904.198242 208.000000
2904.961914 280.000000
2905.726318 234.000000
2906.489990 283.000000
2907.252930 189.000000
2908.015625 140.000000
2908.778809 181.000000
2909.541504 160.000000
2910.302979 241.000000
2911.064941 241.000000
spectrumdark 2048
-97.165771 6212.000000
-94.538902 6212.000000
-91.913910 6077.000000
-89.290810 6429.000000
-86.669579 5779.000000
-84.050247 6241.000000
-81.432777 6132.000000
-78.817184 6366.000000
-76.203468 6210.000000
-73.591629 5895.000000
-70.981651 6118.000000
-68.373558 6004.000000
-65.767311 5972.000000
-63.162941 6033.000000
-60.560432 6162.000000
-57.959778 5712.000000
-55.360985 6200.000000
-52.764050 6888.000000
-50.168968 6482.000000
-47.575741 6549.000000
-44.984364 6221.000000
-42.394833 6721.000000
-39.807144 5916.000000
-37.221306 6056.000000
-34.637310 6475.000000
-32.055153 5767.000000
-29.474838 6235.000000
-26.896353 5697.000000
-24.319710 6165.000000
-21.744892 6267.000000
-19.171915 6499.000000
-16.600758 6514.000000
-14.031435 6754.000000
-11.463937 7762.000000
-8.898257 6218.000000
-6.334403 6447.000000
-3.772363 5969.000000
-1.212147 5833.000000
1.346261 6153.000000
3.902848 6884.000000
6.457631 6674.000000
9.010595 5998.000000
11.561760 6719.000000
14.111112 6471.000000
16.658669 6580.000000
19.204412 5977.000000
21.748363 5745.000000
24.290510 6715.000000
26.830860 6774.000000
29.369425 6945.000000
31.906193 6155.000000
34.441158 5798.000000
36.974346 7239.000000
39.505753 6309.000000
42.035366 7098.000000
44.563183 6447.000000
47.089241 7820.000000
49.613510 5643.000000
52.136009 6246.000000
54.656712 6689.000000
57.175659 6287.000000
59.692833 6352.000000
62.208229 6627.000000
64.721848 5661.000000
67.233711 5715.000000
69.743828 6522.000000
72.252151 6556.000000
74.758720 5943.000000
77.263542 6354.000000
79.766609 6443.000000
82.267899 6273.000000
84.767448 6184.000000
87.265244 6319.000000
89.761307 5764.000000
92.255592 7150.000000
94.748138 5831.000000
97.238968 6953.000000
99.728027 7198.000000
102.215340 6401.000000
104.700928 6228.000000
107.184776 6362.000000
109.666878 5754.000000
112.147255 6576.000000
114.625908 6287.000000
117.102837 6444.000000
119.578011 7244.000000
122.051476 6856.000000
124.523209 5856.000000
126.993233 6738.000000
129.461502 6248.000000
131.928101 6269.000000
134.392944 5749.000000
136.856094 6188.000000
139.317505 7256.000000
141.777222 6889.000000
144.235214 6326.000000
146.691513 6019.000000
149.146103 5841.000000
151.598969 6817.000000
154.050156 6342.000000
156.499649 6473.000000
158.947418 6079.000000
161.393478 6599.000000
163.837860 8631.000000
166.280563 6396.000000
168.721573 6722.000000
171.160873 6238.000000
173.598465 7171.000000
176.034424 6610.000000
178.468643 6929.000000
180.901184 7188.000000
183.332077 6689.000000
185.761246 6834.000000
188.188766 6685.000000
190.614609 6354.000000
193.038773 6704.000000
195.461273 7171.000000
197.882080 7405.000000
200.301224 6471.000000
202.718704 6057.000000
205.134491 7596.000000
207.548630 7107.000000
209.961136 6371.000000
212.371964 6030.000000
214.781113 6190.000000
217.188629 7365.000000
219.594437 6186.000000
221.998657 6546.000000
224.401169 6673.000000
226.802063 6929.000000
229.201309 6423.000000
231.598892 6872.000000
233.994812 7237.000000
236.389114 6586.000000
238.781754 5866.000000
241.172775 6842.000000
243.562134 6536.000000
245.949875 6407.000000
248.335968 6964.000000
250.720428 6069.000000
253.103241 7800.000000
255.484482 6632.000000
257.864014 6659.000000
260.241974 6492.000000
262.618256 7502.000000
264.992981 7520.000000
267.366058 7924.000000
269.737488 6266.000000
272.107269 6461.000000
274.475494 5849.000000
276.842072 6356.000000
279.207062 6700.000000
281.570435 6032.000000
283.932159 6270.000000
286.292297 7150.000000
288.650818 5948.000000
291.007751 6489.000000
293.363068 6364.000000
295.716797 5901.000000
298.068878 5920.000000
300.419403 6305.000000
302.768341 6330.000000
305.115631 6708.000000
307.461395 6422.000000
309.805481 6436.000000
312.148041 7319.000000
314.488983 7617.000000
316.828308 7204.000000
319.166077 6980.000000
321.502289 8028.000000
323.836853 6247.000000
326.169861 6511.000000
328.501312 5917.000000
330.831177 6621.000000
333.159454 6377.000000
335.486115 7190.000000
337.811279 6310.000000
340.134827 6182.000000
342.456818 6027.000000
344.777252 7519.000000
347.096069 7681.000000
349.413330 5997.000000
351.729065 5876.000000
354.043213 6935.000000
356.355774 6278.000000
358.666779 6162.000000
360.976257 7050.000000
363.284210 6333.000000
365.590546 5643.000000
367.895294 6437.000000
370.198578 6473.000000
372.500244 6237.000000
374.800415 6362.000000
377.099030 6282.000000
379.396088 5754.000000
381.691589 6110.000000
383.985565 5846.000000
386.277954 5244.000000
388.568848 5616.000000
390.858215 6212.000000
393.145996 6265.000000
395.432251 6517.000000
397.717010 6989.000000
400.000153 5985.000000
402.281860 6449.000000
404.562042 6107.000000
406.840637 7251.000000
409.117706 6446.000000
411.393250 6759.000000
413.667267 6502.000000
415.939850 6447.000000
418.210815 6238.000000
420.480286 6416.000000
422.748260 7147.000000
425.014679 7280.000000
427.279602 6246.000000
429.543060 6225.000000
431.804932 6485.000000
434.065338 6027.000000
436.324188 6420.000000
438.581573 6100.000000
440.837463 5646.000000
443.091858 5895.000000
445.344727 5459.000000
447.596039 6921.000000
449.845947 6061.000000
452.094269 6257.000000
454.341156 5567.000000
456.586578 6491.000000
458.830444 6475.000000
461.072815 6779.000000
463.313690 5623.000000
465.553162 6698.000000
467.791046 5439.000000
470.027496 5874.000000
472.262421 6054.000000
474.495880 7326.000000
476.727905 6697.000000
478.958405 5642.000000
481.187408 6405.000000
483.414948 6332.000000
485.640991 5932.000000
487.865601 6523.000000
490.088745 5864.000000
492.310425 6395.000000
494.530548 6752.000000
496.749268 5669.000000
498.966492 6279.000000
501.182343 5588.000000
503.396576 6123.000000
505.609497 6477.000000
507.820831 6454.000000
510.030731 6863.000000
512.239197 6429.000000
514.446289 6586.000000
516.651794 6439.000000
518.855896 6585.000000
521.058472 6215.000000
523.259644 6575.000000
525.459473 6676.000000
527.657776 7070.000000
529.854553 5334.000000
532.049988 5862.000000
534.243896 5555.000000
536.436462 7568.000000
538.627502 6681.000000
540.817139 6052.000000
543.005371 6936.000000
545.192078 7138.000000
547.377319 6796.000000
549.561279 6183.000000
551.743652 6388.000000
553.924683 6084.000000
556.104187 6008.000000
558.282410 5860.000000
560.459106 6002.000000
562.634399 6393.000000
564.808289 6428.000000
566.980713 5928.000000
569.151733 6016.000000
571.321289 6340.000000
573.489563 5206.000000
575.656311 6404.000000
577.821594 6260.000000
579.985474 6129.000000
582.148071 5657.000000
584.309143 6001.000000
586.468811 5584.000000
588.627136 5805.000000
590.783936 6130.000000
592.939392 6538.000000
595.093445 5766.000000
597.246155 6177.000000
599.397339 7227.000000
601.547180 6809.000000
603.695679 6697.000000
605.842590 6056.000000
607.988281 6530.000000
610.132568 6414.000000
612.275391 7011.000000
614.416748 6095.000000
616.556885 6456.000000
618.695496 7552.000000
620.832825 5700.000000
622.968689 6571.000000
625.103149 6855.000000
627.236145 7189.000000
629.367981 6712.000000
631.498352 6564.000000
633.627319 7103.000000
635.754822 6514.000000
637.881042 6254.000000
640.005737 7292.000000
642.129211 6396.000000
644.251343 6731.000000
646.372009 6805.000000
648.491333 6513.000000
650.609253 5669.000000
652.725830 5657.000000
654.841003 6423.000000
656.954834 6455.000000
659.067200 5838.000000
661.178345 6106.000000
663.288086 5390.000000
665.396362 5998.000000
667.503479 6238.000000
669.609131 6797.000000
671.713318 5625.000000
673.816284 5745.000000
675.917847 6969.000000
678.018066 5393.000000
680.116882 6767.000000
682.214355 6250.000000
684.310547 7014.000000
686.405273 6247.000000
688.498779 7099.000000
690.590942 6639.000000
692.681580 7864.000000
694.770996 6644.000000
696.859131 6487.000000
698.945801 6078.000000
701.031250 6674.000000
703.115173 5169.000000
705.197876 5884.000000
707.279297 5958.000000
709.359253 7577.000000
711.437988 6249.000000
713.515259 5495.000000
715.591248 6552.000000
717.665955 6104.000000
719.739380 6918.000000
721.811279 6238.000000
723.882019 7334.000000
725.951416 5796.000000
728.019409 6504.000000
730.086060 6420.000000
732.151489 6980.000000
734.215576 5761.000000
736.278320 6125.000000
738.339722 6500.000000
740.399841 6677.000000
742.458557 6081.000000
744.516052 6575.000000
746.572266 6474.000000
748.627075 6657.000000
750.680603 6398.000000
752.732727 7411.000000
754.783630 5723.000000
756.833313 6629.000000
758.881531 6366.000000
760.928528 6193.000000
762.974243 7051.000000
765.018555 5318.000000
767.061584 5778.000000
769.103394 14916.000000
771.143860 7231.000000
773.182922 6375.000000
775.220825 6165.000000
777.257385 5956.000000
779.292725 5336.000000
781.326721 5738.000000
783.359314 6959.000000
785.390747 5434.000000
787.420776 11648.000000
789.449524 5988.000000
791.477112 6304.000000
793.503357 6382.000000
795.528198 5848.000000
797.551941 5505.000000
799.574280 6356.000000
801.595398 5909.000000
803.615173 6657.000000
805.633667 4980.000000
807.650940 6607.000000
809.666809 6796.000000
811.681519 5734.000000
813.694885 6375.000000
815.707031 6213.000000
817.717957 6003.000000
819.727539 6576.000000
821.735901 5317.000000
823.742859 5711.000000
825.748596 6066.000000
827.753113 5686.000000
829.756348 5648.000000
831.758301 6467.000000
833.758972 6046.000000
835.758423 5873.000000
837.756531 6328.000000
839.753540 6985.000000
841.749146 6174.000000
843.743591 6013.000000
845.736694 6186.000000
847.728577 6756.000000
849.719116 5542.000000
851.708374 6808.000000
853.696594 6038.000000
855.683411 5653.000000
857.669006 6384.000000
859.653320 7301.000000
861.636536 6304.000000
863.618347 6352.000000
865.598938 5783.000000
867.578247 7740.000000
869.556396 7047.000000
871.533203 6145.000000
873.508728 5968.000000
875.483215 6146.000000
877.456238 6048.000000
879.428223 5447.000000
881.398865 6426.000000
883.368347 6057.000000
885.336487 5541.000000
887.303467 5225.000000
889.269104 6103.000000
891.233582 5816.000000
893.196838 5967.000000
895.158875 6514.000000
897.119629 5835.000000
899.079163 6418.000000
901.037415 6693.000000
902.994568 6378.000000
904.950562 6004.000000
906.905151 6894.000000
908.858521 6504.000000
910.810730 6415.000000
912.761719 6329.000000
914.711426 7116.000000
916.659973 6308.000000
918.607300 6105.000000
920.553345 6102.000000
922.498108 6087.000000
924.441833 6272.000000
926.384399 5889.000000
928.325684 5567.000000
930.265625 6461.000000
932.204468 5711.000000
934.142029 5549.000000
936.078369 5947.000000
938.013550 5851.000000
939.947449 6094.000000
941.880249 5935.000000
943.811829 6770.000000
945.742249 5246.000000
947.671448 6458.000000
949.599304 7072.000000
951.526123 6651.000000
953.451660 5929.000000
955.375916 5373.000000
957.299072 5976.000000
959.221069 6653.000000
961.141785 7347.000000
963.061340 6447.000000
964.979736 5314.000000
966.897095 6417.000000
968.812988 6394.000000
970.727783 6118.000000
972.641357 5938.000000
974.553772 6388.000000
976.464966 6466.000000
978.375000 5440.000000
980.283752 6216.000000
982.191467 6068.000000
984.097961 6332.000000
986.003235 5704.000000
987.907410 6733.000000
989.810364 6208.000000
991.712097 6797.000000
993.612671 6584.000000
995.512085 6553.000000
997.410278 5306.000000
999.307312 6608.000000
1001.203125 6443.000000
1003.097778 7748.000000
1004.991333 5579.000000
1006.883606 7109.000000
1008.774963 6092.000000
1010.664978 5347.000000
1012.553772 6668.000000
1014.441406 6274.000000
1016.327881 6902.000000
1018.213196 6697.000000
1020.097351 5903.000000
1021.980286 5849.000000
1023.862183 6200.000000
1025.742798 5180.000000
1027.622314 5894.000000
1029.500854 6119.000000
1031.378052 5463.000000
1033.253906 6221.000000
1035.128784 5897.000000
1037.002686 6616.000000
1038.875122 7023.000000
1040.746582 6690.000000
1042.616699 5482.000000
1044.485840 5466.000000
1046.353760 5729.000000
1048.220581 7134.000000
1050.086304 6769.000000
1051.950806 6425.000000
1053.814209 6448.000000
1055.676270 6438.000000
1057.537354 5877.000000
1059.397339 6523.000000
1061.255981 6639.000000
1063.113525 5800.000000
1064.969971 6693.000000
1066.825317 5947.000000
1068.679443 5774.000000
1070.532715 6242.000000
1072.384521 6356.000000
1074.235352 6139.000000
1076.084961 6210.000000
1077.933350 5748.000000
1079.780884 7969.000000
1081.627075 5624.000000
1083.472046 6231.000000
1085.316162 5441.000000
1087.158936 5493.000000
1089.000488 6550.000000
1090.841309 5456.000000
1092.680542 5775.000000
1094.519043 6019.000000
1096.356201 6010.000000
1098.192139 6825.000000
1100.027100 6552.000000
1101.860840 5427.000000
1103.693604 5483.000000
1105.525024 6104.000000
1107.355591 7231.000000
1109.184814 6516.000000
1111.013062 6446.000000
1112.840088 7147.000000
1114.666138 5417.000000
1116.490967 6371.000000
1118.314697 7144.000000
1120.137207 6085.000000
1121.958618 5814.000000
1123.779175 5955.000000
1125.598267 6579.000000
1127.416504 7045.000000
1129.233398 6831.000000
1131.049438 6665.000000
1132.864258 6447.000000
1134.677979 5610.000000
1136.490601 5838.000000
1138.302002 5639.000000
1140.112427 6074.000000
1141.921753 6723.000000
1143.729736 6973.000000
1145.536987 5913.000000
1147.342773 5939.000000
1149.147705 5413.000000
1150.951538 5458.000000
1152.754150 6147.000000
1154.555908 6098.000000
1156.356201 5823.000000
1158.155518 6055.000000
1159.953857 5868.000000
1161.750854 5407.000000
1163.547119 5868.000000
1165.342041 6162.000000
1167.135864 6306.000000
1168.928833 7684.000000
1170.720459 5770.000000
1172.511108 6476.000000
1174.300781 6016.000000
1176.088989 5800.000000
1177.876343 7036.000000
1179.662598 6837.000000
1181.447754 5721.000000
1183.231812 5932.000000
1185.014771 7644.000000
1186.796753 5909.000000
1188.577515 5950.000000
1190.357300 6254.000000
1192.135986 6925.000000
1193.913696 6656.000000
1195.690186 7171.000000
1197.465576 6617.000000
1199.239868 6525.000000
1201.013062 6663.000000
1202.785400 6589.000000
1204.556396 6734.000000
1206.326538 5719.000000
1208.095459 6118.000000
1209.863281 6335.000000
1211.630249 5878.000000
1213.395874 5901.000000
1215.160522 6970.000000
1216.924072 6489.000000
1218.686523 5982.000000
1220.448120 6621.000000
1222.208496 5910.000000
1223.967773 6292.000000
1225.726196 6043.000000
1227.483398 7065.000000
1229.239502 6471.000000
1230.994507 5529.000000
1232.748657 5944.000000
1234.501465 5854.000000
1236.253296 5943.000000
1238.004272 5903.000000
1239.753906 4926.000000
1241.502686 6981.000000
1243.250122 6457.000000
1244.996826 6582.000000
1246.742310 6495.000000
1248.486938 6372.000000
1250.230225 6754.000000
1251.972534 6646.000000
1253.713745 5296.000000
1255.454102 5003.000000
1257.193359 5760.000000
1258.931396 6509.000000
1260.668579 7073.000000
1262.404541 6121.000000
1264.139526 6395.000000
1265.873535 7256.000000
1267.606567 5942.000000
1269.338379 6119.000000
1271.069214 6462.000000
1272.798828 7198.000000
1274.527588 5861.000000
1276.255249 5649.000000
1277.981812 5579.000000
1279.707520 5557.000000
1281.431885 6413.000000
1283.155396 5194.000000
1284.877930 6887.000000
1286.599487 6547.000000
1288.319824 6159.000000
1290.039185 6599.000000
1291.757446 7224.000000
1293.474731 6426.000000
1295.191040 5766.000000
1296.906128 6339.000000
1298.620239 6094.000000
1300.333374 5797.000000
1302.045654 6413.000000
1303.756714 8280.000000
1305.466797 5587.000000
1307.175781 6265.000000
1308.883545 6643.000000
1310.590698 6986.000000
1312.296387 5785.000000
1314.001343 6894.000000
1315.705322 6203.000000
1317.408081 5919.000000
1319.109863 6520.000000
1320.810791 5983.000000
1322.510376 9629.000000
1324.209106 31142.000000
1325.907104 5582.000000
1327.603760 6429.000000
1329.299316 7162.000000
1330.994019 6770.000000
1332.687500 5649.000000
1334.380127 5449.000000
1336.071899 7079.000000
1337.762329 6248.000000
1339.452026 6549.000000
1341.140625 6074.000000
1342.828125 7578.000000
1344.514648 5635.000000
1346.200073 6797.000000
1347.884521 5930.000000
1349.568115 7201.000000
1351.250488 6393.000000
1352.931885 5943.000000
1354.612427 6483.000000
1356.291748 6668.000000
1357.970459 5795.000000
1359.647827 6515.000000
1361.324097 5775.000000
1362.999390 5603.000000
1364.673950 6529.000000
1366.347290 6418.000000
1368.019653 6750.000000
1369.691040 5203.000000
1371.361450 6679.000000
1373.030762 6119.000000
1374.699097 5705.000000
1376.366577 5937.000000
1378.032959 6435.000000
1379.698364 6038.000000
1381.362793 5871.000000
1383.026001 5946.000000
1384.688599 5651.000000
1386.349854 6303.000000
1388.010254 6520.000000
1389.669556 6346.000000
1391.327881 6425.000000
1392.985474 6810.000000
1394.641846 6458.000000
1396.297363 7013.000000
1397.951660 6249.000000
1399.605103 5822.000000
1401.257446 6117.000000
1402.909058 6477.000000
1404.559448 7126.000000
1406.208740 6247.000000
1407.857300 7564.000000
1409.504761 7859.000000
1411.151245 6203.000000
1412.796875 6288.000000
1414.441528 5915.000000
1416.084961 6937.000000
1417.727539 7094.000000
1419.369019 6807.000000
1421.009644 6492.000000
1422.649292 6434.000000
1424.287842 5998.000000
1425.925537 6556.000000
1427.562134 6330.000000
1429.197754 5977.000000
1430.832642 6349.000000
1432.466431 5844.000000
1434.099121 6100.000000
1435.730835 5620.000000
1437.361694 6114.000000
1438.991455 6026.000000
1440.620117 7785.000000
1442.248169 6028.000000
1443.875122 6204.000000
1445.500854 6128.000000
1447.125977 6128.000000
1448.750000 6467.000000
1450.373047 5968.000000
1451.995117 5956.000000
1453.616089 7428.000000
1455.236084 6240.000000
1456.855347 6906.000000
1458.473267 5657.000000
1460.090576 16388.000000
1461.706909 5593.000000
1463.322021 7240.000000
1464.936279 6245.000000
1466.549683 5170.000000
1468.161987 5565.000000
1469.773438 6283.000000
1471.384033 6364.000000
1472.993408 5970.000000
1474.601807 6008.000000
1476.209351 6155.000000
1477.815918 6767.000000
1479.421753 5293.000000
1481.026367 6245.000000
1482.630127 5448.000000
1484.232666 6806.000000
1485.834595 5490.000000
1487.435303 5503.000000
1489.035278 5646.000000
1490.634155 6233.000000
1492.232178 6456.000000
1493.829102 6665.000000
1495.425171 6310.000000
1497.020264 5929.000000
1498.614380 5483.000000
1500.207764 6477.000000
1501.800049 5487.000000
1503.391113 5948.000000
1504.981689 6803.000000
1506.570923 6442.000000
1508.159546 6142.000000
1509.747070 6487.000000
1511.333496 6781.000000
1512.919189 6231.000000
1514.503784 6604.000000
1516.087524 6201.000000
1517.670166 6211.000000
1519.252075 6562.000000
1520.832886 6691.000000
1522.412964 6104.000000
1523.991821 6179.000000
1525.569824 6366.000000
1527.147095 6252.000000
1528.723145 5706.000000
1530.298462 5952.000000
1531.872681 6347.000000
1533.446167 5460.000000
1535.018433 5877.000000
1536.589966 6341.000000
1538.160522 6476.000000
1539.730225 6347.000000
1541.298706 5437.000000
1542.866455 6603.000000
1544.433350 5595.000000
1545.999023 6756.000000
1547.563965 5882.000000
1549.127808 5115.000000
1550.691040 7422.000000
1552.252930 6334.000000
1553.814209 5936.000000
1555.374390 5668.000000
1556.933838 5742.000000
1558.492188 5957.000000
1560.049805 6244.000000
1561.606323 7001.000000
1563.161621 5869.000000
1564.716309 6321.000000
1566.270264 5630.000000
1567.823242 6224.000000
1569.374878 5722.000000
1570.925781 5842.000000
1572.475952 6199.000000
1574.025146 6380.000000
1575.572998 5820.000000
1577.120361 5504.000000
1578.666748 5728.000000
1580.212280 5086.000000
1581.756836 6652.000000
1583.300171 6352.000000
1584.842896 6609.000000
1586.384766 6449.000000
1587.925537 6756.000000
1589.465332 5800.000000
1591.004395 6616.000000
1592.542358 5879.000000
1594.079834 6127.000000
1595.615967 5857.000000
1597.151001 6665.000000
1598.685547 6196.000000
1600.219116 5939.000000
1601.751831 5811.000000
1603.282959 6238.000000
1604.813843 6334.000000
1606.343872 5744.000000
1607.872681 6083.000000
1609.400391 6183.000000
1610.927490 5984.000000
1612.453857 5796.000000
1613.979248 6220.000000
1615.503784 5863.000000
1617.026978 5779.000000
1618.549438 5665.000000
1620.071167 6544.000000
1621.592041 6912.000000
1623.111450 15563.000000
1624.630371 6090.000000
1626.148560 6003.000000
1627.665894 5888.000000
1629.182129 6405.000000
1630.697021 6959.000000
1632.211426 6712.000000
1633.725098 5755.000000
1635.237671 6857.000000
1636.749023 5943.000000
1638.260010 6411.000000
1639.769897 6281.000000
1641.278931 6170.000000
1642.786621 5614.000000
1644.293945 6050.000000
1645.800415 7078.000000
1647.305908 6174.000000
1648.810547 6765.000000
1650.313721 6097.000000
1651.816284 6589.000000
1653.318481 6313.000000
1654.819336 6673.000000
1656.319092 7559.000000
1657.817993 5982.000000
1659.316528 6370.000000
1660.813843 6231.000000
1662.310425 5955.000000
1663.805420 6478.000000
1665.300171 6348.000000
1666.794067 5193.000000
1668.286987 5698.000000
1669.778564 21307.000000
1671.269653 6477.000000
1672.760132 6092.000000
1674.249512 5979.000000
1675.737427 6961.000000
1677.225098 6782.000000
1678.711792 6062.000000
1680.197632 5344.000000
1681.682617 6019.000000
1683.166138 6135.000000
1684.649414 6125.000000
1686.131836 5869.000000
1687.613159 6253.000000
1689.093018 6215.000000
1690.572632 5483.000000
1692.051514 6555.000000
1693.529419 5571.000000
1695.006348 6126.000000
1696.482056 5782.000000
1697.957397 6247.000000
1699.431519 6294.000000
1700.905029 5483.000000
1702.377075 5532.000000
1703.848877 6856.000000
1705.319702 6366.000000
1706.789673 7276.000000
1708.258301 5082.000000
1709.726440 5801.000000
1711.193848 6436.000000
1712.660156 5444.000000
1714.125854 5668.000000
1715.589844 6233.000000
1717.053711 5959.000000
1718.516724 6976.000000
1719.978760 6405.000000
1721.439575 6493.000000
1722.899780 5466.000000
1724.359253 5667.000000
1725.817871 6077.000000
1727.275513 5974.000000
1728.731812 6239.000000
1730.187866 6033.000000
1731.642944 6407.000000
1733.097046 5978.000000
1734.549927 6881.000000
1736.002563 5950.000000
1737.454102 6874.000000
1738.904907 5986.000000
1740.354736 6553.000000
1741.803223 5927.000000
1743.251343 7357.000000
1744.698608 6592.000000
1746.145142 6617.000000
1747.590088 6682.000000
1749.034790 6115.000000
1750.478638 5858.000000
1751.921631 5452.000000
1753.363159 6543.000000
1754.804443 6369.000000
1756.244873 6331.000000
1757.684326 6293.000000
1759.122803 5332.000000
1760.560303 6086.000000
1761.997314 7459.000000
1763.433350 5873.000000
1764.868530 7146.000000
1766.302246 6117.000000
1767.735840 6417.000000
1769.168457 6599.000000
1770.600220 5855.000000
1772.031128 5744.000000
1773.460815 6330.000000
1774.889771 6146.000000
1776.318237 6234.000000
1777.745728 6658.000000
1779.171875 6180.000000
1780.597778 5585.000000
1782.022583 6872.000000
1783.446777 5557.000000
1784.869507 6597.000000
1786.291748 6461.000000
1787.713257 6830.000000
1789.134033 5889.000000
1790.553833 6151.000000
1791.972290 6139.000000
1793.390259 6811.000000
1794.807617 5508.000000
1796.224121 6062.000000
1797.639160 6495.000000
1799.053833 5818.000000
1800.467896 6571.000000
1801.880737 5981.000000
1803.292969 6988.000000
1804.703857 7063.000000
1806.114258 7801.000000
1807.523926 6531.000000
1808.932617 5918.000000
1810.340210 5360.000000
1811.747314 6406.000000
1813.153564 6287.000000
1814.558838 6651.000000
1815.963013 5964.000000
1817.366821 5972.000000
1818.769653 6197.000000
1820.171631 5994.000000
1821.572998 5834.000000
1822.972900 6332.000000
1824.372192 6348.000000
1825.770996 6574.000000
1827.168945 7380.000000
1828.565552 5792.000000
1829.961548 6649.000000
1831.356812 5861.000000
1832.751465 8100.000000
1834.145142 5940.000000
1835.537476 6817.000000
1836.929321 6306.000000
1838.320557 5911.000000
1839.710815 7013.000000
1841.099854 5924.000000
1842.488525 6039.000000
1843.876221 5964.000000
1845.263184 5859.000000
1846.648804 6810.000000
1848.034180 5828.000000
1849.418701 6355.000000
1850.802490 6269.000000
1852.185181 6323.000000
1853.566650 5373.000000
1854.947632 6496.000000
1856.328125 6246.000000
1857.707642 5714.000000
1859.085693 5931.000000
1860.463623 6243.000000
1861.840576 7889.000000
1863.216797 6124.000000
1864.592163 6049.000000
1865.966064 5691.000000
1867.339844 5715.000000
1868.712769 6186.000000
1870.084595 5969.000000
1871.455444 6822.000000
1872.825928 5462.000000
1874.195313 6015.000000
1875.564209 6069.000000
1876.931519 7126.000000
1878.298706 6032.000000
1879.664917 6029.000000
1881.030396 6775.000000
1882.395142 7447.000000
1883.758301 6725.000000
1885.121338 6837.000000
1886.483521 6315.000000
1887.844849 6443.000000
1889.204834 5590.000000
1890.564453 5774.000000
1891.923462 6146.000000
1893.281494 6670.000000
1894.638672 7282.000000
1895.994629 5904.000000
1897.350342 7573.000000
1898.705078 5776.000000
1900.058960 5548.000000
1901.411743 5905.000000
1902.764038 5973.000000
1904.115601 5926.000000
1905.466309 6740.000000
1906.815796 6544.000000
1908.164795 6666.000000
1909.512939 5814.000000
1910.860474 6153.000000
1912.207275 6269.000000
1913.552490 6824.000000
1914.897461 6121.000000
1916.241699 5453.000000
1917.585083 6506.000000
1918.927124 5903.000000
1920.268921 6709.000000
1921.609863 6970.000000
1922.950073 6122.000000
1924.289307 6268.000000
1925.627563 6275.000000
1926.965210 6503.000000
1928.302124 7001.000000
1929.638184 6668.000000
1930.973022 5573.000000
1932.307495 6626.000000
1933.641235 7207.000000
1934.974121 6279.000000
1936.305542 5692.000000
1937.637085 6358.000000
1938.967285 6648.000000
1940.296997 5731.000000
1941.625854 6043.000000
1942.953491 5857.000000
1944.280640 5013.000000
1945.607056 5837.000000
1946.932739 6538.000000
1948.257080 5747.000000
1949.581177 6619.000000
1950.904419 6319.000000
1952.226929 6427.000000
1953.548340 5769.000000
1954.868774 7390.000000
1956.188599 5990.000000
1957.508057 5566.000000
1958.826538 6822.000000
1960.143677 5862.000000
1961.460449 5840.000000
1962.776489 6557.000000
1964.091797 6580.000000
1965.405640 6273.000000
1966.719238 5637.000000
1968.032104 6216.000000
1969.344116 6002.000000
1970.655518 6004.000000
1971.965576 6275.000000
1973.275146 5838.000000
1974.583984 6104.000000
1975.892212 6609.000000
1977.199097 6096.000000
1978.505371 7190.000000
1979.811279 5536.000000
1981.115967 6352.000000
1982.420166 5850.000000
1983.723145 5692.000000
1985.025757 7560.000000
1986.327393 6076.000000
1987.628418 6721.000000
1988.927856 6077.000000
1990.227417 6625.000000
1991.525879 5232.000000
1992.823853 6020.000000
1994.120239 6058.000000
1995.416626 5786.000000
1996.712036 5567.000000
1998.006714 6520.000000
1999.300537 5716.000000
2000.593140 6516.000000
2001.885254 5661.000000
2003.176880 7119.000000
2004.467773 6440.000000
2005.757080 6220.000000
2007.046143 6760.000000
2008.334473 5874.000000
2009.622070 6023.000000
2010.908813 6549.000000
2012.194458 5669.000000
2013.479736 6312.000000
2014.764038 5980.000000
2016.047729 5502.000000
2017.330078 5983.000000
2018.612061 6427.000000
2019.893555 6736.000000
2021.174072 5885.000000
2022.453857 6141.000000
2023.732544 6727.000000
2025.010498 5862.000000
2026.287964 5836.000000
2027.564819 6242.000000
2028.839966 5750.000000
2030.115234 6571.000000
2031.389526 6001.000000
2032.662842 5877.000000
2033.935303 5961.000000
2035.207397 6045.000000
2036.478394 6934.000000
2037.749146 6574.000000
2039.018555 5962.000000
2040.286865 6691.000000
2041.555176 6582.000000
2042.822510 5908.000000
2044.089111 5969.000000
2045.354492 5737.000000
2046.619263 5875.000000
2047.883789 5404.000000
2049.146973 5881.000000
2050.409912 6343.000000
2051.670898 6115.000000
2052.932373 6135.000000
2054.192627 5909.000000
2055.452148 6383.000000
2056.710938 6202.000000
2057.968750 6874.000000
2059.226074 6106.000000
2060.482666 5991.000000
2061.737793 6470.000000
2062.992920 5636.000000
2064.247070 5581.000000
2065.500488 5624.000000
2066.753174 6894.000000
2068.004639 6292.000000
2069.255859 6257.000000
2070.506348 5699.000000
2071.756104 5508.000000
2073.004395 6136.000000
2074.252686 6464.000000
2075.500000 7398.000000
2076.746582 5514.000000
2077.992432 5964.000000
2079.237061 7033.000000
2080.481201 7584.000000
2081.724854 5536.000000
2082.967529 6041.000000
2084.208984 6992.000000
2085.450195 5982.000000
2086.690918 6333.000000
2087.930664 6713.000000
2089.169189 7059.000000
2090.407227 6208.000000
2091.644531 5741.000000
2092.881592 6586.000000
2094.117188 6203.000000
2095.352051 6151.000000
2096.586670 6057.000000
2097.820313 5598.000000
2099.052979 6044.000000
2100.284912 6847.000000
2101.516357 6378.000000
2102.746826 6719.000000
2103.976563 5992.000000
2105.206055 6021.000000
2106.433594 5986.000000
2107.661377 5997.000000
2108.888428 6274.000000
2110.114502 5436.000000
2111.339111 6398.000000
2112.563965 6901.000000
2113.787598 7054.000000
2115.010742 6169.000000
2116.232666 7508.000000
2117.454346 5996.000000
2118.675049 6763.000000
2119.895020 6000.000000
2121.114502 6123.000000
2122.332520 6577.000000
2123.550537 7025.000000
2124.767578 5723.000000
2125.984131 5685.000000
2127.198975 6571.000000
2128.414063 6354.000000
2129.628174 6774.000000
2130.841553 5663.000000
2132.054199 6039.000000
2133.265381 5838.000000
2134.476807 6444.000000
2135.687012 6661.000000
2136.896729 5911.000000
2138.104980 6158.000000
2139.313232 5612.000000
2140.520752 5848.000000
2141.727051 7723.000000
2142.932617 5858.000000
2144.137939 5669.000000
2145.342285 5529.000000
2146.545898 6289.000000
2147.749023 6142.000000
2148.950684 6553.000000
2150.152100 5298.000000
2151.352783 6254.000000
2152.552734 6079.000000
2153.751465 5924.000000
2154.949951 6918.000000
2156.147949 6125.000000
2157.344971 5960.000000
2158.541260 5175.000000
2159.736328 5272.000000
2160.931152 6100.000000
2162.125244 5595.000000
2163.318359 6069.000000
2164.510498 6903.000000
2165.702393 5937.000000
2166.893555 6269.000000
2168.083740 6230.000000
2169.273193 6518.000000
2170.462158 6730.000000
2171.650146 6210.000000
2172.837891 5727.000000
2174.024170 5880.000000
2175.209717 6572.000000
2176.395020 5973.000000
2177.579834 5801.000000
2178.763428 6290.000000
2179.946289 7380.000000
2181.128174 6300.000000
2182.309814 6026.000000
2183.490967 6519.000000
2184.670898 5713.000000
2185.849854 5576.000000
2187.028320 6340.000000
2188.206543 6929.000000
2189.383545 7163.000000
2190.559570 6587.000000
2191.735352 6189.000000
2192.910645 5641.000000
2194.084473 6651.000000
2195.257813 6155.000000
2196.430908 6103.000000
2197.602783 6414.000000
2198.774170 7078.000000
2199.945068 6334.000000
2201.114258 6835.000000
2202.283447 7514.000000
2203.452148 6337.000000
2204.619873 5840.000000
2205.786621 5616.000000
2206.952637 7127.000000
2208.118164 6653.000000
2209.283447 5987.000000
2210.447266 6724.000000
2211.610596 5464.000000
2212.772705 6191.000000
2213.935059 6198.000000
2215.096191 6635.000000
2216.256348 6608.000000
2217.416016 6236.000000
2218.575439 6563.000000
2219.733643 6376.000000
2220.890869 6282.000000
2222.047852 6721.000000
2223.204102 6604.000000
2224.359619 6722.000000
2225.514404 6265.000000
2226.668213 6385.000000
2227.821045 6011.000000
2228.974365 6852.000000
2230.125732 6197.000000
2231.276855 6194.000000
2232.427246 6502.000000
2233.577148 7658.000000
2234.726074 6285.000000
2235.874512 5150.000000
2237.021484 6792.000000
2238.168701 6933.000000
2239.314697 6069.000000
2240.460449 7255.000000
2241.604492 7257.000000
2242.748779 6716.000000
2243.892090 6159.000000
2245.034668 5946.000000
2246.176270 5695.000000
2247.317627 5795.000000
2248.458008 6389.000000
2249.597656 6430.000000
2250.736816 5841.000000
2251.874756 5786.000000
2253.012695 6187.000000
2254.149658 5255.000000
2255.285889 6308.000000
2256.421143 6115.000000
2257.555664 7220.000000
2258.689941 6426.000000
2259.823730 5410.000000
2260.956055 6141.000000
2262.087891 6815.000000
2263.219238 6252.000000
2264.349609 6440.000000
2265.479736 8056.000000
2266.608643 6658.000000
2267.737061 6038.000000
2268.864990 5568.000000
2269.991943 6092.000000
2271.118164 5965.000000
2272.243408 6664.000000
2273.368652 6505.000000
2274.493164 6401.000000
2275.616455 5900.000000
2276.739014 6363.000000
2277.861084 5940.000000
2278.982666 7370.000000
2280.103516 6358.000000
2281.223145 6400.000000
2282.342285 7090.000000
2283.461182 7637.000000
2284.579346 7204.000000
2285.696533 5885.000000
2286.812744 6432.000000
2287.928711 7037.000000
2289.043945 6907.000000
2290.158447 7424.000000
2291.271729 5762.000000
2292.385010 6304.000000
2293.497559 5979.000000
2294.609375 5367.000000
2295.720459 6717.000000
2296.830322 6380.000000
2297.939697 6148.000000
2299.048828 6695.000000
2300.156982 6291.000000
2301.264160 6706.000000
2302.371094 5893.000000
2303.477295 6256.000000
2304.583008 6566.000000
2305.687256 6458.000000
2306.791260 5473.000000
2307.894775 5795.000000
2308.997803 6493.000000
2310.099609 7380.000000
2311.200684 7289.000000
2312.301270 6518.000000
2313.401367 5510.000000
2314.500732 6418.000000
2315.598633 6504.000000
2316.697021 7022.000000
2317.793945 8105.000000
2318.890625 6829.000000
2319.986816 5793.000000
2321.081299 6809.000000
2322.175781 7577.000000
2323.269531 5839.000000
2324.363037 6010.000000
2325.454834 6414.000000
2326.546631 6975.000000
2327.637695 6074.000000
2328.728027 6263.000000
2329.817383 6873.000000
2330.906738 5997.000000
2331.994873 6278.000000
2333.082520 6860.000000
2334.169922 6471.000000
2335.255615 6690.000000
2336.341064 7818.000000
2337.426270 6284.000000
2338.510498 6764.000000
2339.593750 5883.000000
2340.676758 6389.000000
2341.758789 7069.000000
2342.840576 6008.000000
2343.921631 7364.000000
2345.001465 6627.000000
2346.080811 5714.000000
2347.159668 6750.000000
2348.238037 6529.000000
2349.314941 6308.000000
2350.391602 6970.000000
2351.468018 6076.000000
2352.543457 6433.000000
2353.617920 5870.000000
2354.692139 6245.000000
2355.765625 6761.000000
2356.838623 6220.000000
2357.910400 6931.000000
2358.981934 6276.000000
2360.052490 6811.000000
2361.122803 7487.000000
2362.192139 7461.000000
2363.260498 6810.000000
2364.328613 6720.000000
2365.395996 7050.000000
2366.462891 7106.000000
2367.529053 6070.000000
2368.593994 6840.000000
2369.658936 6977.000000
2370.723145 6325.000000
2371.786621 6952.000000
2372.848877 5704.000000
2373.911133 6328.000000
2374.972412 6322.000000
2376.033447 5971.000000
2377.093262 6293.000000
2378.152344 7873.000000
2379.211426 6433.000000
2380.269531 7580.000000
2381.326904 6819.000000
2382.383301 8071.000000
2383.439453 7815.000000
2384.495117 6203.000000
2385.550049 7040.000000
2386.603516 6711.000000
2387.657227 6551.000000
2388.709961 6294.000000
2389.762207 6714.000000
2390.813721 6156.000000
2391.864258 6647.000000
2392.914551 6451.000000
2393.963867 6201.000000
2395.013184 6176.000000
2396.061035 6873.000000
2397.108398 7023.000000
2398.155518 6367.000000
2399.201660 6602.000000
2400.247070 6168.000000
2401.291748 6766.000000
2402.336426 7714.000000
2403.379639 7466.000000
2404.422852 6528.000000
2405.464600 5716.000000
2406.506592 6697.000000
2407.547852 7068.000000
2408.588135 6188.000000
2409.627686 6393.000000
2410.666260 6356.000000
2411.705078 5907.000000
2412.742676 6533.000000
2413.780029 6880.000000
2414.816162 7282.000000
2415.852051 6300.000000
2416.887207 6291.000000
2417.921875 6878.000000
2418.955078 7212.000000
2419.988525 6493.000000
2421.020996 6669.000000
2422.053223 6838.000000
2423.083984 7089.000000
2424.114746 6333.000000
2425.145020 6815.000000
2426.174072 6846.000000
2427.203125 6708.000000
2428.230469 7338.000000
2429.258301 6667.000000
2430.284912 7267.000000
2431.311279 6901.000000
2432.336182 7677.000000
2433.361328 6548.000000
2434.385498 7038.000000
2435.409424 6675.000000
2436.432129 5847.000000
2437.454102 6330.000000
2438.475830 6653.000000
2439.496826 6596.000000
2440.517334 5987.000000
2441.536621 6554.000000
2442.555908 6540.000000
2443.574219 8402.000000
2444.592285 6149.000000
2445.608887 6442.000000
2446.625488 6576.000000
2447.641357 5960.000000
2448.657227 6964.000000
2449.671631 6826.000000
2450.685303 5500.000000
2451.698486 7201.000000
2452.711426 6013.000000
2453.723633 7185.000000
2454.734863 6705.000000
2455.745850 7681.000000
2456.756104 6391.000000
2457.765869 7555.000000
2458.774658 5914.000000
2459.782715 5946.000000
2460.790771 6339.000000
2461.797607 7374.000000
2462.804199 5423.000000
2463.809570 7433.000000
2464.814697 6997.000000
2465.819580 5903.000000
2466.823242 6588.000000
2467.826660 6374.000000
2468.829102 7602.000000
2469.831299 7294.000000
2470.833008 6803.000000
2471.833740 6581.000000
2472.833496 6817.000000
2473.833252 6772.000000
2474.832031 5636.000000
2475.830322 6582.000000
2476.827637 7006.000000
2477.824707 6098.000000
2478.821777 6932.000000
2479.817383 5840.000000
2480.812988 7096.000000
2481.806885 6736.000000
2482.800781 8060.000000
2483.794189 6881.000000
2484.787109 6697.000000
2485.779053 7428.000000
2486.770264 7208.000000
2487.761230 6769.000000
2488.751709 5878.000000
2489.741211 6554.000000
2490.729980 6537.000000
2491.718750 5677.000000
2492.706543 6779.000000
2493.693115 6596.000000
2494.679688 7988.000000
2495.665771 6771.000000
2496.651123 7166.000000
2497.635498 8290.000000
2498.619629 6048.000000
2499.603760 6913.000000
2500.586426 5763.000000
2501.568604 6953.000000
2502.550293 6832.000000
2503.531250 7248.000000
2504.511719 6530.000000
2505.491943 5759.000000
2506.470703 6327.000000
2507.449219 7613.000000
2508.427246 6741.000000
2509.404785 7045.000000
2510.381348 6102.000000
2511.357666 5974.000000
2512.333252 6451.000000
2513.308350 6223.000000
2514.282959 6471.000000
2515.256348 7501.000000
2516.229492 6801.000000
2517.202393 6847.000000
2518.174316 6110.000000
2519.145508 6770.000000
2520.116211 6683.000000
2521.086670 7667.000000
2522.056396 7999.000000
2523.025146 6128.000000
2523.993164 6157.000000
2524.961182 7771.000000
2525.928223 6282.000000
2526.895020 5542.000000
2527.860596 7248.000000
2528.826172 7019.000000
2529.791016 7754.000000
2530.755371 6388.000000
2531.718506 6377.000000
2532.681885 5860.000000
2533.644287 5990.000000
2534.606445 6632.000000
2535.567383 6345.000000
2536.527588 6130.000000
2537.488037 6156.000000
2538.447510 6849.000000
2539.406250 6812.000000
2540.364014 6670.000000
2541.322021 6209.000000
2542.279297 6785.000000
2543.235596 6103.000000
2544.191650 7045.000000
2545.146484 6189.000000
2546.101563 7671.000000
2547.055908 6994.000000
2548.009521 6655.000000
2548.962158 7215.000000
2549.914551 6683.000000
2550.866455 6962.000000
2551.817627 6352.000000
2552.768066 7739.000000
2553.718018 7311.000000
2554.667725 7415.000000
2555.616699 6669.000000
2556.565186 6208.000000
2557.512451 7070.000000
2558.459717 6290.000000
2559.406250 6574.000000
2560.352295 6755.000000
2561.297363 7349.000000
2562.242188 6724.000000
2563.186523 7156.000000
2564.130371 6892.000000
2565.073730 6622.000000
2566.015625 6586.000000
2566.957764 6480.000000
2567.899170 6144.000000
2568.839844 7156.000000
2569.779785 7264.000000
2570.719727 5689.000000
2571.658691 6132.000000
2572.597412 7480.000000
2573.535156 7125.000000
2574.472656 5397.000000
2575.409424 6979.000000
2576.345459 6797.000000
2577.281006 7521.000000
2578.215820 6379.000000
2579.150635 5935.000000
2580.084473 7054.000000
2581.017822 7030.000000
2581.950439 5834.000000
2582.882813 6963.000000
2583.814453 5450.000000
2584.745605 7048.000000
2585.676270 7008.000000
2586.605713 6941.000000
2587.535156 7191.000000
2588.464111 6461.000000
2589.392822 7564.000000
2590.319824 7316.000000
2591.247070 5910.000000
2592.173828 6747.000000
2593.099854 6187.000000
2594.025635 5664.000000
2594.950195 7668.000000
2595.874512 7600.000000
2596.798340 5382.000000
2597.721680 7290.000000
2598.644043 6296.000000
2599.566162 6840.000000
2600.487793 8332.000000
2601.408691 6440.000000
2602.328857 5928.000000
2603.248779 6433.000000
2604.168213 6381.000000
2605.087402 6441.000000
2606.005615 5797.000000
2606.922607 5968.000000
2607.839844 7258.000000
2608.756836 5878.000000
2609.672852 7574.000000
2610.587646 6594.000000
2611.502930 6668.000000
2612.417480 6501.000000
2613.331055 6493.000000
2614.244629 6093.000000
2615.156982 7661.000000
2616.069336 7061.000000
2616.980713 6798.000000
2617.891846 5658.000000
2618.802246 7122.000000
2619.712402 6599.000000
2620.621826 6151.000000
2621.530762 6653.000000
2622.438721 6244.000000
2623.346924 6784.000000
2624.254150 6658.000000
2625.160889 7055.000000
2626.066895 6050.000000
2626.972656 6516.000000
2627.877686 6505.000000
2628.782471 7792.000000
2629.686523 6455.000000
2630.589600 6348.000000
2631.492676 6401.000000
2632.394775 5590.000000
2633.296875 6693.000000
2634.198730 6978.000000
2635.098877 6740.000000
2635.999268 6391.000000
2636.898926 6464.000000
2637.798340 5974.000000
2638.696289 6881.000000
2639.594727 6689.000000
2640.492676 6299.000000
2641.389893 6088.000000
2642.285889 6229.000000
2643.181885 6943.000000
2644.077637 6094.000000
2644.972656 6450.000000
2645.867432 6624.000000
2646.760742 7075.000000
2647.654053 6282.000000
2648.547119 6793.000000
2649.439941 6396.000000
2650.331055 7480.000000
2651.222412 6362.000000
2652.113281 7632.000000
2653.003418 7399.000000
2653.893311 6588.000000
2654.781982 7293.000000
2655.670898 6641.000000
2656.559326 6597.000000
2657.446777 7314.000000
2658.333252 6441.000000
2659.220215 7090.000000
2660.106445 6863.000000
2660.992188 6851.000000
2661.876709 6572.000000
2662.761230 6359.000000
2663.645508 6256.000000
2664.529053 7086.000000
2665.412109 7815.000000
2666.294434 7285.000000
2667.176270 6175.000000
2668.057373 6568.000000
2668.938721 6081.000000
2669.818604 6574.000000
2670.698730 7354.000000
2671.578125 7206.000000
2672.457520 6201.000000
2673.336182 6147.000000
2674.213135 6393.000000
2675.090820 6753.000000
2675.967773 6440.000000
2676.843994 8083.000000
2677.719727 7147.000000
2678.594727 6286.000000
2679.469971 7770.000000
2680.344238 6985.000000
2681.218018 7331.000000
2682.091064 6994.000000
2682.963867 6205.000000
2683.836426 6100.000000
2684.708252 6926.000000
2685.579346 6554.000000
2686.450195 6913.000000
2687.320557 7094.000000
2688.190674 6672.000000
2689.059082 6345.000000
2689.928223 7317.000000
2690.796631 7122.000000
2691.664795 6700.000000
2692.532227 6980.000000
2693.398438 5899.000000
2694.265137 7182.000000
2695.130859 7464.000000
2695.996582 7133.000000
2696.860840 7908.000000
2697.725830 6603.000000
2698.589355 7245.000000
2699.453125 5908.000000
2700.315430 7410.000000
2701.178223 6864.000000
2702.040039 5894.000000
2702.901367 6906.000000
2703.762695 6677.000000
2704.622803 7376.000000
2705.482910 7305.000000
2706.342529 6580.000000
2707.201904 6821.000000
2708.059570 7123.000000
2708.917480 6865.000000
2709.775879 7346.000000
2710.633057 6725.000000
2711.489502 5987.000000
2712.345459 6855.000000
2713.201416 6034.000000
2714.056641 6960.000000
2714.911133 6151.000000
2715.765137 6843.000000
2716.619141 7303.000000
2717.472168 6241.000000
2718.325439 6444.000000
2719.177002 7755.000000
2720.029053 6763.000000
2720.880859 6291.000000
2721.731445 6474.000000
2722.582031 6376.000000
2723.432129 7102.000000
2724.281494 7023.000000
2725.130859 6990.000000
2725.979004 6617.000000
2726.826660 6589.000000
2727.674805 6977.000000
2728.521729 6963.000000
2729.369141 5645.000000
2730.215088 7511.000000
2731.060303 6986.000000
2731.906006 6459.000000
2732.750732 6919.000000
2733.595459 7358.000000
2734.438965 6898.000000
2735.282715 7812.000000
2736.125732 7074.000000
2736.968262 6090.000000
2737.809814 6244.000000
2738.651855 6804.000000
2739.492920 6945.000000
2740.333740 5868.000000
2741.174316 5884.000000
2742.013672 7745.000000
2742.853027 6781.000000
2743.692383 6879.000000
2744.530518 6852.000000
2745.368164 7745.000000
2746.205811 6358.000000
2747.042969 7126.000000
2747.879883 6207.000000
2748.716309 6028.000000
2749.551514 6670.000000
2750.386963 6289.000000
2751.221924 6320.000000
2752.056152 6251.000000
2752.890137 6877.000000
2753.723633 6820.000000
2754.557129 7990.000000
2755.389648 6800.000000
2756.221680 7239.000000
2757.053223 6859.000000
2757.884766 7089.000000
2758.715332 7348.000000
2759.546143 7312.000000
2760.375732 7259.000000
2761.205322 6703.000000
2762.034668 7291.000000
2762.863281 6837.000000
2763.691406 6777.000000
2764.519043 6859.000000
2765.346680 6626.000000
2766.173828 7935.000000
2767.000244 5830.000000
2767.826172 7471.000000
2768.651611 6871.000000
2769.476807 7773.000000
2770.302002 7130.000000
2771.125977 6733.000000
2771.949951 6518.000000
2772.773926 7650.000000
2773.596680 6447.000000
2774.419678 6933.000000
2775.241455 6903.000000
2776.063232 6948.000000
2776.885010 6513.000000
2777.705811 7951.000000
2778.525879 6462.000000
2779.346191 7074.000000
2780.166016 7260.000000
2780.985840 6506.000000
2781.803711 5954.000000
2782.622803 8012.000000
2783.440674 6548.000000
2784.258301 6776.000000
2785.075439 7140.000000
2785.892090 7269.000000
2786.708496 7276.000000
2787.524414 6281.000000
2788.340088 5933.000000
2789.154785 6428.000000
2789.969971 7035.000000
2790.784424 7148.000000
2791.598389 6518.000000
2792.412109 7422.000000
2793.224609 8733.000000
2794.037354 6974.000000
2794.849609 7428.000000
2795.661377 7209.000000
2796.472412 7329.000000
2797.284180 6514.000000
2798.094727 7181.000000
2798.905273 7000.000000
2799.714355 7399.000000
2800.524170 8210.000000
2801.333252 7729.000000
2802.142090 6694.000000
2802.950439 7213.000000
2803.757813 6178.000000
2804.565674 6509.000000
2805.372803 6758.000000
2806.179688 6864.000000
2806.985352 7218.000000
2807.791504 6676.000000
2808.596924 6474.000000
2809.402344 7293.000000
2810.207031 6212.000000
2811.010742 7605.000000
2811.814941 7532.000000
2812.618652 6385.000000
2813.422119 6139.000000
2814.224121 6365.000000
2815.026855 7338.000000
2815.828857 7769.000000
2816.630615 6163.000000
2817.431885 6563.000000
2818.232666 7259.000000
2819.032959 6528.000000
2819.833496 6707.000000
2820.633057 8062.000000
2821.432129 7178.000000
2822.231201 6442.000000
2823.030029 6952.000000
2823.828369 6351.000000
2824.625732 7020.000000
2825.423340 7381.000000
2826.220215 6716.000000
2827.017334 7361.000000
2827.813721 7950.000000
2828.609375 7041.000000
2829.405029 7335.000000
2830.200439 7537.000000
2830.995361 7435.000000
2831.789551 6664.000000
2832.583740 6843.000000
2833.377686 5799.000000
2834.171143 6818.000000
2834.963867 7218.000000
2835.756348 8173.000000
2836.548828 7706.000000
2837.341064 7506.000000
2838.132813 6433.000000
2838.923584 6733.000000
2839.714355 8874.000000
2840.505371 7412.000000
2841.295410 6264.000000
2842.084961 7667.000000
2842.874756 7099.000000
2843.663574 7384.000000
2844.452393 7820.000000
2845.241211 7661.000000
2846.029053 7471.000000
2846.816406 7190.000000
2847.604004 7460.000000
2848.391113 7329.000000
2849.177490 6690.000000
2849.963867 7410.000000
2850.750000 7205.000000
2851.535645 7517.000000
2852.320313 7190.000000
2853.105469 6925.000000
2853.890381 7428.000000
2854.674561 7135.000000
2855.458740 7007.000000
2856.241699 8257.000000
2857.024902 6874.000000
2857.807861 6781.000000
2858.590332 7695.000000
2859.372559 6271.000000
2860.154297 6646.000000
2860.935791 7616.000000
2861.717529 7447.000000
2862.498535 7642.000000
2863.278809 6571.000000
2864.058838 6792.000000
2864.838867 8172.000000
2865.618652 7459.000000
2866.397461 8149.000000
2867.176514 7723.000000
2867.955078 6809.000000
2868.733398 6856.000000
2869.511230 7194.000000
2870.288818 6927.000000
2871.066162 7482.000000
2871.843262 6927.000000
2872.619873 6425.000000
2873.395996 7461.000000
2874.172119 7159.000000
2874.947754 8273.000000
2875.723145 7263.000000
2876.498047 6658.000000
2877.272705 7939.000000
2878.047363 6631.000000
2878.821777 7838.000000
2879.595459 6858.000000
2880.368408 7088.000000
2881.142090 6766.000000
2881.914795 7559.000000
2882.687500 7820.000000
2883.459473 8249.000000
2884.231201 6228.000000
2885.003418 6716.000000
2885.774414 6847.000000
2886.544922 6236.000000
2887.315918 8350.000000
2888.086914 7328.000000
2888.857178 7953.000000
2889.626465 7590.000000
2890.395996 6913.000000
2891.165527 7253.000000
2891.934570 7388.000000
2892.703125 7839.000000
2893.471680 7877.000000
2894.239258 6830.000000
2895.007324 6627.000000
2895.774902 7460.000000
2896.542480 8334.000000
2897.308838 7323.000000
2898.076172 6473.000000
2898.842285 7239.000000
2899.608643 7040.000000
2900.373535 8344.000000
2901.138916 6967.000000
2901.904785 6443.000000
2902.669189 7582.000000
2903.433594 7788.000000
2904.198242 8428.000000
2904.961914 6570.000000
2905.726318 8419.000000
2906.489990 6645.000000
2907.252930 8365.000000
2908.015625 6553.000000
2908.778809 8888.000000
2909.541504 6983.000000
2910.302979 6759.000000
2911.064941 6759.000000
