scanname Analyse082
timestamp 2017-02-10 22:01:08
ccdbias 954.794434
ccdgain 3.473401
sigmaread 8.960639
laserwavenum -0.528197
wavenumcorrection -0.005233
scancount 1
totalexposurems 10000
singleexposurems 10000
measurementstate Unknown
scanmode Manual
snr 314.617767 10.374039 8.840063
replacelist 5
672 53336.000000 31229.000000
754 53196.000000 16394.000000
858 52749.000000 15590.000000
889 52189.000000 21166.000000
948 51310.000000 19479.000000
peaks 82
278.631714 0.720835 0.000000 1.369910 0.000179
284.847168 0.721026 0.000000 0.877885 0.000065
293.731934 0.723208 0.000000 0.669409 0.000030
302.836823 0.724030 0.000000 0.130242 0.000022
330.002441 0.741854 0.000000 0.923360 0.000150
342.037842 0.744869 0.000000 0.796552 0.000035
349.442291 0.748259 0.000000 0.682397 0.000025
360.840332 0.751596 0.000000 0.660563 0.000060
386.015472 0.751529 0.000000 1.431485 0.000308
460.808441 0.767474 0.000000 0.246677 0.000041
487.315338 0.780881 0.000000 0.852015 0.000110
534.743713 0.783599 0.000000 0.649200 0.000148
559.401123 0.823098 0.000000 1.342804 0.000234
572.893738 0.829622 0.000000 0.367173 0.000081
660.088135 0.856447 0.000000 0.986553 0.000145
673.117371 0.854115 0.000000 1.358153 0.000266
715.765198 0.875461 0.000000 5.659400 0.001188
724.766174 0.857067 0.000000 1.248210 0.000053
742.028076 0.880187 0.000000 1.078268 0.000117
757.124939 0.906962 0.000000 6.067905 0.000696
779.167725 0.908686 0.000000 8.439913 0.001320
825.841125 0.915788 0.000000 1.044486 0.000053
832.571289 0.908369 0.000000 0.378391 0.000160
853.112061 0.939088 0.000000 0.980975 0.000267
868.651489 0.934931 0.000000 0.718344 0.000151
936.409485 1.013385 0.000000 0.762934 0.000419
954.231628 0.992114 0.000000 3.606348 0.001095
1013.618286 1.035207 0.000000 1.852444 0.000737
1020.358704 1.037713 0.000000 0.975208 0.000152
1026.700562 1.049678 0.000000 0.727466 0.000280
1044.151855 1.046053 0.000000 4.196174 0.001375
1104.458618 1.067403 0.000000 2.309912 0.000638
1117.601685 1.108218 0.000000 2.350175 0.000674
1134.671509 1.086351 0.000000 2.169237 0.000929
1150.189697 1.068006 0.000000 2.289921 0.000953
1174.699585 1.101663 0.000000 1.400799 0.000483
1187.512695 1.107687 0.000000 0.881491 0.000073
1208.062378 1.177453 0.000000 1.059842 0.000438
1222.428589 1.193993 0.000000 1.521555 0.000572
1232.515869 1.176157 0.000000 1.269301 0.000344
1259.913452 1.214893 0.000000 2.795266 0.001342
1282.700928 1.154963 0.000000 0.670208 0.000237
1312.523438 1.222882 0.000000 1.877203 0.000726
1330.320068 1.286852 0.000000 3.579087 0.001814
1347.805420 1.294345 0.000000 0.730375 0.000712
1389.793823 1.278318 0.000000 0.673102 0.000282
1414.548584 1.360271 0.000000 2.890670 0.001752
1429.002563 1.382972 0.000000 1.332528 0.000184
1434.221802 1.415408 0.000000 1.564231 0.000802
1446.891479 1.407536 0.000000 1.396207 0.000517
1460.002075 1.404550 0.000000 2.087933 0.001475
1489.863525 1.480674 0.000000 4.100722 0.002565
1517.001221 1.423632 0.000000 0.259419 0.000157
1533.374634 1.510040 0.000000 1.136797 0.000742
1547.363525 1.532677 0.000000 0.590715 0.000356
1558.235107 1.556883 0.000000 1.489839 0.000940
1577.991821 1.548155 0.000000 1.492460 0.001440
1598.420898 1.539990 0.000000 0.348957 0.000296
1606.644165 1.542203 0.000000 0.269909 0.000075
1616.419189 1.557675 0.000000 2.135588 0.001883
1651.365234 1.600921 0.000000 0.259282 0.000104
1669.876221 1.706437 0.000000 1.643451 0.001817
1685.828491 1.722745 0.000000 0.751440 0.000771
1699.191162 1.740505 0.000000 1.094149 0.001516
1711.764404 1.717473 0.000000 1.021659 0.000936
1761.219360 1.749298 0.000000 0.753292 0.000567
1778.745483 1.847722 0.000000 5.182773 0.005127
1796.468506 1.833067 0.000000 0.638605 0.000570
1809.476074 1.831878 0.000000 1.480112 0.001420
1852.641846 1.763077 0.000000 1.028734 0.000791
1871.338135 1.769380 0.000000 1.002424 0.000804
1889.733398 1.778985 0.000000 1.586102 0.001678
1902.147095 1.780384 0.000000 1.743152 0.001819
1912.382446 1.754374 0.000000 0.543152 0.000607
1943.052124 1.720205 0.000000 0.285005 0.000481
1974.849243 1.686617 0.000000 0.657375 0.000512
1995.198853 1.671853 0.000000 1.151743 0.000553
2010.853882 1.650750 0.000000 0.117590 0.000294
2027.783691 1.652872 0.000000 0.654602 0.000553
2046.027588 1.624616 0.000000 0.799220 0.002138
2064.000488 1.595584 0.000000 0.318290 0.001625
2107.482178 1.545471 0.000000 0.130869 0.000245
finalresult GLS_NoMatch 0
spectrum 2048
-97.073257 47338.000000
-94.446388 47338.000000
-91.821396 47442.000000
-89.198296 47093.000000
-86.577065 47670.000000
-83.957733 47183.000000
-81.340263 47412.000000
-78.724670 47077.000000
-76.110954 47282.000000
-73.499115 47620.000000
-70.889137 47337.000000
-68.281044 47503.000000
-65.674797 47553.000000
-63.070427 47469.000000
-60.467918 47328.000000
-57.867264 47815.000000
-55.268471 47170.000000
-52.671535 46574.000000
-50.076454 47030.000000
-47.483227 47021.000000
-44.891850 47210.000000
-42.302319 46729.000000
-39.714630 47640.000000
-37.128792 47433.000000
-34.544796 47018.000000
-31.962639 47789.000000
-29.382326 47055.000000
-26.803841 47824.000000
-24.227198 47362.000000
-21.652380 47341.000000
-19.079403 46985.000000
-16.508245 47050.000000
-13.938921 46728.000000
-11.371423 45705.000000
-8.805743 47218.000000
-6.241890 47085.000000
-3.679849 47536.000000
-1.119633 47673.000000
1.438775 47286.000000
3.995362 46588.000000
6.550144 46834.000000
9.103109 47452.000000
11.654274 46762.000000
14.203626 47060.000000
16.751181 46821.000000
19.296925 47532.000000
21.840876 47785.000000
24.383022 46801.000000
26.923372 46731.000000
29.461937 46681.000000
31.998705 47328.000000
34.533672 47738.000000
37.066860 46199.000000
39.598267 47182.000000
42.127880 46417.000000
44.655697 46952.000000
47.181755 45620.000000
49.706024 47881.000000
52.228523 47315.000000
54.749226 46838.000000
57.268173 47280.000000
59.785347 47113.000000
62.300743 46899.000000
64.814362 47938.000000
67.326225 47725.000000
69.836342 47025.000000
72.344666 47046.000000
74.851234 47601.000000
77.356056 47089.000000
79.859123 47081.000000
82.360413 47215.000000
84.859962 47352.000000
87.357758 47158.000000
89.853821 47826.000000
92.348106 46281.000000
94.840652 47770.000000
97.331482 46632.000000
99.820541 46312.000000
102.307854 47116.000000
104.793442 47265.000000
107.277290 47104.000000
109.759392 47712.000000
112.239769 46932.000000
114.718422 47259.000000
117.195351 46862.000000
119.670525 46304.000000
122.143990 46664.000000
124.615723 47623.000000
127.085747 46710.000000
129.554016 47207.000000
132.020615 47132.000000
134.485458 47744.000000
136.948608 47298.000000
139.410019 46239.000000
141.869736 46677.000000
144.327728 47105.000000
146.784027 47543.000000
149.238617 47697.000000
151.691483 46637.000000
154.142670 47062.000000
156.592163 46849.000000
159.039932 47401.000000
161.485992 46982.000000
163.930374 44717.000000
166.373077 47016.000000
168.814087 46706.000000
171.253387 47263.000000
173.690979 46296.000000
176.126938 46907.000000
178.561157 46599.000000
180.993698 46340.000000
183.424591 46821.000000
185.853760 46728.000000
188.281281 46842.000000
190.707123 47150.000000
193.131287 46832.000000
195.553787 46266.000000
197.974594 46068.000000
200.393738 47021.000000
202.811218 47457.000000
205.227005 45873.000000
207.641144 46444.000000
210.053650 47168.000000
212.464478 47374.000000
214.873627 47186.000000
217.281143 46113.000000
219.686951 47357.000000
222.091171 46960.000000
224.493683 46840.000000
226.894577 46557.000000
229.293823 46970.000000
231.691406 46619.000000
234.087326 46201.000000
236.481628 47043.000000
238.874268 47622.000000
241.265289 46725.000000
243.654648 46814.000000
246.042389 47086.000000
248.428482 46473.000000
250.812943 47344.000000
253.195755 45578.000000
255.576996 46873.000000
257.956512 46868.000000
260.334473 46987.000000
262.710754 45920.000000
265.085480 45925.000000
267.458557 45629.000000
269.829987 47212.000000
272.199768 47005.000000
274.567993 47649.000000
276.934570 47129.000000
279.299561 46738.000000
281.662933 47497.000000
284.024658 47269.000000
286.384796 46445.000000
288.743317 47509.000000
291.100250 46988.000000
293.455566 47046.000000
295.809296 47594.000000
298.161377 47582.000000
300.511902 47149.000000
302.860840 47148.000000
305.208130 46652.000000
307.553894 47084.000000
309.897980 46956.000000
312.240540 46142.000000
314.581482 45901.000000
316.920807 46348.000000
319.258575 46475.000000
321.594788 45389.000000
323.929352 47241.000000
326.262360 47062.000000
328.593811 47561.000000
330.923676 46862.000000
333.251953 47131.000000
335.578613 46230.000000
337.903778 47152.000000
340.227325 47314.000000
342.549316 47481.000000
344.869751 45969.000000
347.188568 45779.000000
349.505829 47463.000000
351.821564 47641.000000
354.135712 46561.000000
356.448273 47201.000000
358.759277 47074.000000
361.068756 46445.000000
363.376709 47119.000000
365.683044 47798.000000
367.987793 47129.000000
370.291077 47023.000000
372.592743 47269.000000
374.892914 47121.000000
377.191528 47220.000000
379.488586 47674.000000
381.784088 47398.000000
384.078064 47650.000000
386.370453 48233.000000
388.661346 47852.000000
390.950714 47261.000000
393.238495 47213.000000
395.524750 46884.000000
397.809509 46431.000000
400.092651 47460.000000
402.374359 47097.000000
404.654541 47358.000000
406.933136 46159.000000
409.210205 47018.000000
411.485748 46805.000000
413.759766 46994.000000
416.032349 47076.000000
418.303314 47230.000000
420.572784 47125.000000
422.840759 46346.000000
425.107178 46165.000000
427.372101 47236.000000
429.635559 47125.000000
431.897430 47050.000000
434.157837 47392.000000
436.416687 46785.000000
438.674072 47324.000000
440.929962 47598.000000
443.184357 47672.000000
445.437225 47940.000000
447.688538 46609.000000
449.938446 47357.000000
452.186768 47204.000000
454.433655 47852.000000
456.679077 46929.000000
458.922943 46965.000000
461.165314 46698.000000
463.406189 47840.000000
465.645660 46789.000000
467.883545 48083.000000
470.119995 47630.000000
472.354919 47457.000000
474.588379 46091.000000
476.820404 46789.000000
479.050903 47853.000000
481.279907 46984.000000
483.507446 47131.000000
485.733490 47582.000000
487.958099 46898.000000
490.181244 47533.000000
492.402924 47029.000000
494.623047 46790.000000
496.841766 47797.000000
499.058990 47193.000000
501.274841 47882.000000
503.489075 47310.000000
505.701996 47024.000000
507.913330 46858.000000
510.123230 46538.000000
512.331726 46913.000000
514.538818 46951.000000
516.744324 47044.000000
518.948425 46835.000000
521.151001 47264.000000
523.352173 46863.000000
525.552002 46839.000000
527.750305 46503.000000
529.947083 48122.000000
532.142517 47656.000000
534.336426 47930.000000
536.528992 45890.000000
538.720032 46805.000000
540.909668 47440.000000
543.097900 46492.000000
545.284607 46360.000000
547.469849 46619.000000
549.653809 47262.000000
551.836182 46929.000000
554.017212 47396.000000
556.196716 47444.000000
558.374939 47501.000000
560.551636 47412.000000
562.726929 47030.000000
564.900818 47063.000000
567.073242 47551.000000
569.244263 47417.000000
571.413818 47103.000000
573.582092 48192.000000
575.748840 47075.000000
577.914124 47142.000000
580.078003 47255.000000
582.240601 47682.000000
584.401672 47356.000000
586.561340 47785.000000
588.719666 47652.000000
590.876465 47274.000000
593.031921 46860.000000
595.185974 47728.000000
597.338684 47302.000000
599.489868 46180.000000
601.639709 46731.000000
603.788208 46724.000000
605.935120 47405.000000
608.080811 46997.000000
610.225098 47020.000000
612.367920 46422.000000
614.509277 47239.000000
616.649414 47018.000000
618.788025 45799.000000
620.925354 47728.000000
623.061218 46847.000000
625.195679 46526.000000
627.328674 46268.000000
629.460510 46814.000000
631.590881 46892.000000
633.719849 46631.000000
635.847351 47016.000000
637.973572 47280.000000
640.098267 46152.000000
642.221741 47060.000000
644.343872 46654.000000
646.464539 46640.000000
648.583862 46880.000000
650.701782 47808.000000
652.818359 47760.000000
654.933533 47025.000000
657.047363 47004.000000
659.159729 47571.000000
661.270874 47356.000000
663.380615 48040.000000
665.488892 46863.000000
667.596008 47243.000000
669.701660 46550.000000
671.805847 47548.000000
673.908813 47867.000000
676.010376 46437.000000
678.110596 48118.000000
680.209412 46659.000000
682.306885 47101.000000
684.403076 46474.000000
686.497803 47230.000000
688.591309 46465.000000
690.683472 46834.000000
692.774109 45554.000000
694.863525 46823.000000
696.951660 47008.000000
699.038330 47454.000000
701.123779 46701.000000
703.207703 48324.000000
705.290405 47514.000000
707.371826 47512.000000
709.451782 45804.000000
711.530518 47281.000000
713.607788 47848.000000
715.683777 46856.000000
717.758484 47436.000000
719.831909 46507.000000
721.903809 47166.000000
723.974548 46096.000000
726.043945 47644.000000
728.111938 46973.000000
730.178589 47042.000000
732.244019 46339.000000
734.308105 47624.000000
736.370850 47252.000000
738.432251 47107.000000
740.492371 46813.000000
742.551086 47366.000000
744.608582 46737.000000
746.664795 46936.000000
748.719604 46750.000000
750.773132 47073.000000
752.825256 45999.000000
754.876160 47678.000000
756.925842 46763.000000
758.974060 47131.000000
761.021057 47246.000000
763.066772 46474.000000
765.111084 48111.000000
767.154114 47714.000000
769.195923 38390.000000
771.236389 46512.000000
773.275452 47076.000000
775.313354 47394.000000
777.349915 47444.000000
779.385254 48035.000000
781.419250 47656.000000
783.451843 46539.000000
785.483276 47951.000000
787.513306 41992.000000
789.542053 47466.000000
791.569641 47120.000000
793.595886 47118.000000
795.620728 47577.000000
797.644470 47932.000000
799.666809 47072.000000
801.687927 47428.000000
803.707703 46803.000000
805.726196 48574.000000
807.743469 46747.000000
809.759338 46660.000000
811.774048 47768.000000
813.787415 46957.000000
815.799561 47175.000000
817.810486 47366.000000
819.820068 46865.000000
821.828430 48151.000000
823.835388 47710.000000
825.841125 47455.000000
827.845642 47667.000000
829.848877 47773.000000
831.850830 46967.000000
833.851501 47340.000000
835.850952 47522.000000
837.849060 47101.000000
839.846069 46478.000000
841.841675 47250.000000
843.836121 47561.000000
845.829224 47265.000000
847.821106 46638.000000
849.811646 47813.000000
851.800903 46601.000000
853.789124 47435.000000
855.775940 47679.000000
857.761536 46948.000000
859.745850 46175.000000
861.729065 47177.000000
863.710876 47031.000000
865.691467 47534.000000
867.670776 45701.000000
869.648926 46290.000000
871.625732 47235.000000
873.601257 47387.000000
875.575745 47345.000000
877.548767 47390.000000
879.520752 47984.000000
881.491394 47042.000000
883.460876 47310.000000
885.429016 47914.000000
887.395996 48183.000000
889.361633 47288.000000
891.326111 47596.000000
893.289368 47440.000000
895.251404 46937.000000
897.212158 47646.000000
899.171692 47023.000000
901.129944 46736.000000
903.087097 47119.000000
905.043091 47362.000000
906.997681 46540.000000
908.951050 46910.000000
910.903259 47045.000000
912.854248 47085.000000
914.803955 46348.000000
916.752502 47156.000000
918.699829 47295.000000
920.645874 47355.000000
922.590637 47379.000000
924.534363 47116.000000
926.476929 47439.000000
928.418213 47837.000000
930.358154 46990.000000
932.296997 47703.000000
934.234558 47917.000000
936.170898 47507.000000
938.106079 47619.000000
940.039978 47425.000000
941.972778 47637.000000
943.904358 46630.000000
945.834778 48305.000000
947.763977 46998.000000
949.691833 46458.000000
951.618652 46814.000000
953.544189 47480.000000
955.468445 48078.000000
957.391602 47496.000000
959.313599 46799.000000
961.234314 46069.000000
963.153870 46960.000000
965.072266 48135.000000
966.989624 47076.000000
968.905518 47001.000000
970.820313 47290.000000
972.733887 47444.000000
974.646301 46998.000000
976.557495 46953.000000
978.467529 47966.000000
980.376282 47193.000000
982.283997 47276.000000
984.190491 47011.000000
986.095764 47690.000000
987.999939 46709.000000
989.902893 47190.000000
991.804626 46648.000000
993.705200 46906.000000
995.604614 46832.000000
997.502808 48174.000000
999.399841 46944.000000
1001.295654 46924.000000
1003.190308 45780.000000
1005.083862 47796.000000
1006.976135 46341.000000
1008.867493 47299.000000
1010.757507 48052.000000
1012.646301 46844.000000
1014.533936 47017.000000
1016.420410 46479.000000
1018.305725 46714.000000
1020.189880 47413.000000
1022.072815 47573.000000
1023.954712 47267.000000
1025.835327 48257.000000
1027.714844 47592.000000
1029.593384 47351.000000
1031.470581 47986.000000
1033.346436 47182.000000
1035.221313 47486.000000
1037.095215 46764.000000
1038.967651 46426.000000
1040.839111 46704.000000
1042.709229 47920.000000
1044.578369 47952.000000
1046.446289 47640.000000
1048.313110 46328.000000
1050.178833 46688.000000
1052.043335 46920.000000
1053.906738 46951.000000
1055.768799 46981.000000
1057.629883 47528.000000
1059.489868 46973.000000
1061.348511 46784.000000
1063.206055 47609.000000
1065.062500 46759.000000
1066.917847 47481.000000
1068.771973 47514.000000
1070.625244 47096.000000
1072.477051 47138.000000
1074.327881 47286.000000
1076.177490 47263.000000
1078.025879 47720.000000
1079.873413 45476.000000
1081.719604 47841.000000
1083.564575 47212.000000
1085.408691 47958.000000
1087.251465 47887.000000
1089.093018 46868.000000
1090.933838 47874.000000
1092.773071 47591.000000
1094.611572 47336.000000
1096.448730 47242.000000
1098.284668 46547.000000
1100.119629 46735.000000
1101.953369 47991.000000
1103.786133 47749.000000
1105.617554 47208.000000
1107.448120 46183.000000
1109.277344 46806.000000
1111.105591 46989.000000
1112.932617 46274.000000
1114.758667 48016.000000
1116.583496 47061.000000
1118.407227 46284.000000
1120.229736 47342.000000
1122.051147 47456.000000
1123.871704 47484.000000
1125.690796 46870.000000
1127.509033 46387.000000
1129.325928 46576.000000
1131.141968 46732.000000
1132.956787 46904.000000
1134.770508 47816.000000
1136.583130 47642.000000
1138.394531 47807.000000
1140.204956 47312.000000
1142.014282 46664.000000
1143.822266 46508.000000
1145.629517 47483.000000
1147.435303 47459.000000
1149.240234 47965.000000
1151.044067 47985.000000
1152.846680 47248.000000
1154.648438 47273.000000
1156.448730 47322.000000
1158.248047 47222.000000
1160.046387 47541.000000
1161.843384 47957.000000
1163.639648 47510.000000
1165.434570 47313.000000
1167.228394 47039.000000
1169.021362 45658.000000
1170.812988 47691.000000
1172.603638 46876.000000
1174.393311 47450.000000
1176.181519 47513.000000
1177.968872 45964.000000
1179.755127 46642.000000
1181.540283 47715.000000
1183.324341 47427.000000
1185.107300 45722.000000
1186.889282 47551.000000
1188.670044 47455.000000
1190.449829 47005.000000
1192.228516 46418.000000
1194.006226 46768.000000
1195.782715 46342.000000
1197.558105 46818.000000
1199.332397 46923.000000
1201.105591 46696.000000
1202.877930 46832.000000
1204.648926 46676.000000
1206.419067 47721.000000
1208.187988 47302.000000
1209.955811 47019.000000
1211.722778 47348.000000
1213.488403 47480.000000
1215.253052 46402.000000
1217.016602 46784.000000
1218.779053 47422.000000
1220.540649 46705.000000
1222.301025 47408.000000
1224.060303 46992.000000
1225.818726 47280.000000
1227.575928 46169.000000
1229.332031 46922.000000
1231.087036 47793.000000
1232.841187 47376.000000
1234.593994 47529.000000
1236.345825 47309.000000
1238.096802 47408.000000
1239.846436 48425.000000
1241.595215 46385.000000
1243.342651 46903.000000
1245.089355 46713.000000
1246.834839 46959.000000
1248.579468 46973.000000
1250.322754 46578.000000
1252.065063 46709.000000
1253.806274 47970.000000
1255.546631 48406.000000
1257.285889 47567.000000
1259.023926 46720.000000
1260.761108 46290.000000
1262.497070 47231.000000
1264.232056 46947.000000
1265.966064 46122.000000
1267.699097 47397.000000
1269.430908 47169.000000
1271.161743 46975.000000
1272.891357 46165.000000
1274.620117 47492.000000
1276.347778 47621.000000
1278.074341 47826.000000
1279.800049 47805.000000
1281.524414 46993.000000
1283.247925 48145.000000
1284.970459 46534.000000
1286.692017 46728.000000
1288.412354 47294.000000
1290.131714 46715.000000
1291.849976 46127.000000
1293.567261 46888.000000
1295.283569 47592.000000
1296.998657 46949.000000
1298.712769 47226.000000
1300.425903 47497.000000
1302.138184 46819.000000
1303.849243 44992.000000
1305.559326 48054.000000
1307.268311 47064.000000
1308.976074 46690.000000
1310.683228 46339.000000
1312.388916 47485.000000
1314.093872 46483.000000
1315.797852 47108.000000
1317.500610 47297.000000
1319.202393 46730.000000
1320.903320 47282.000000
1322.602905 43626.000000
1324.301636 45690.500000
1325.999634 47755.000000
1327.696289 46848.000000
1329.391846 46161.000000
1331.086548 46451.000000
1332.780029 47563.000000
1334.472656 47850.000000
1336.164429 45755.000000
1337.854858 47009.000000
1339.544556 46739.000000
1341.233154 47253.000000
1342.920654 45716.000000
1344.607178 47650.000000
1346.292603 46515.000000
1347.977051 47326.000000
1349.660645 46038.000000
1351.343018 46955.000000
1353.024414 47317.000000
1354.704956 46857.000000
1356.384277 46596.000000
1358.062988 47399.000000
1359.740356 46830.000000
1361.416626 47526.000000
1363.091919 47729.000000
1364.766479 46692.000000
1366.439819 46773.000000
1368.112183 46460.000000
1369.783569 48152.000000
1371.453979 46574.000000
1373.123291 47117.000000
1374.791626 47651.000000
1376.459106 47292.000000
1378.125488 46936.000000
1379.790894 47212.000000
1381.455322 47425.000000
1383.118530 47383.000000
1384.781128 47624.000000
1386.442383 46977.000000
1388.102783 46724.000000
1389.762085 46898.000000
1391.420410 46785.000000
1393.078003 46463.000000
1394.734375 46833.000000
1396.389893 46340.000000
1398.044189 46955.000000
1399.697632 47402.000000
1401.349976 47142.000000
1403.001587 46825.000000
1404.651978 46143.000000
1406.301270 46914.000000
1407.949829 45760.000000
1409.597290 45405.000000
1411.243774 47086.000000
1412.889404 47066.000000
1414.534058 47212.000000
1416.177490 46227.000000
1417.820068 46126.000000
1419.461548 46416.000000
1421.102173 46713.000000
1422.741821 46819.000000
1424.380371 47205.000000
1426.018066 46563.000000
1427.654663 46880.000000
1429.290283 47241.000000
1430.925171 46871.000000
1432.558960 47387.000000
1434.191650 47086.000000
1435.823364 47552.000000
1437.454224 47115.000000
1439.083984 47277.000000
1440.712646 45462.000000
1442.340698 47219.000000
1443.967651 46968.000000
1445.593384 46991.000000
1447.218506 47035.000000
1448.842529 46704.000000
1450.465576 47158.000000
1452.087646 47219.000000
1453.708618 45886.000000
1455.328613 46874.000000
1456.947876 46328.000000
1458.565796 47452.000000
1460.183105 47528.500000
1461.799438 47605.000000
1463.414551 45965.000000
1465.028809 46845.000000
1466.642212 47900.000000
1468.254517 47551.000000
1469.865967 46874.000000
1471.476563 46773.000000
1473.085938 47130.000000
1474.694336 47164.000000
1476.301880 46927.000000
1477.908447 46511.000000
1479.514282 47775.000000
1481.118896 46891.000000
1482.722656 47632.000000
1484.325195 46383.000000
1485.927124 47550.000000
1487.527832 47599.000000
1489.127808 47507.000000
1490.726685 46808.000000
1492.324707 46626.000000
1493.921631 46455.000000
1495.517700 46818.000000
1497.112793 47118.000000
1498.706909 47613.000000
1500.300293 46508.000000
1501.892578 47589.000000
1503.483643 47004.000000
1505.074219 46277.000000
1506.663452 46619.000000
1508.252075 46947.000000
1509.839600 46593.000000
1511.426025 46188.000000
1513.011719 46851.000000
1514.596313 46483.000000
1516.180054 46781.000000
1517.762695 46870.000000
1519.344604 46388.000000
1520.925415 46314.000000
1522.505493 46974.000000
1524.084351 46839.000000
1525.662354 46620.000000
1527.239624 46663.000000
1528.815674 47360.000000
1530.390991 47088.000000
1531.965210 46627.000000
1533.538696 47435.000000
1535.110962 47034.000000
1536.682495 46563.000000
1538.253052 46468.000000
1539.822754 46638.000000
1541.391235 47478.000000
1542.958984 46368.000000
1544.525879 47245.000000
1546.091553 46161.000000
1547.656494 46917.000000
1549.220337 47820.000000
1550.783569 45383.000000
1552.345459 46530.000000
1553.906738 46947.000000
1555.466919 47122.000000
1557.026367 47104.000000
1558.584717 46927.000000
1560.142334 46564.000000
1561.698853 45838.000000
1563.254150 47000.000000
1564.808838 46508.000000
1566.362793 47225.000000
1567.915771 46580.000000
1569.467407 47160.000000
1571.018311 47012.000000
1572.568481 46743.000000
1574.117676 46498.000000
1575.665527 47069.000000
1577.212891 47373.000000
1578.759277 46944.000000
1580.304810 47823.000000
1581.849365 46119.000000
1583.392700 46463.000000
1584.935425 46222.000000
1586.477295 46392.000000
1588.018066 46131.000000
1589.557861 47017.000000
1591.096924 46138.000000
1592.634888 46864.000000
1594.172363 46719.000000
1595.708496 46914.000000
1597.243530 46183.000000
1598.778076 46579.000000
1600.311646 46864.000000
1601.844360 46891.000000
1603.375488 46461.000000
1604.906372 46497.000000
1606.436401 46991.000000
1607.965210 46667.000000
1609.492920 46663.000000
1611.020020 46738.000000
1612.546387 46861.000000
1614.071777 46646.000000
1615.596313 46989.000000
1617.119507 46943.000000
1618.641968 47209.000000
1620.163696 46174.000000
1621.684570 45776.000000
1623.203979 46157.000000
1624.722900 46538.000000
1626.241089 46575.000000
1627.758423 46756.000000
1629.274658 46212.000000
1630.789551 45563.000000
1632.303955 45865.000000
1633.817627 46802.000000
1635.330200 45724.000000
1636.841553 46540.000000
1638.352539 46098.000000
1639.862427 46275.000000
1641.371460 46343.000000
1642.879150 46851.000000
1644.386475 46356.000000
1645.892944 45372.000000
1647.398438 46138.000000
1648.903076 45606.000000
1650.406250 46217.000000
1651.908813 45768.000000
1653.411011 46085.000000
1654.911865 45572.000000
1656.411621 44711.000000
1657.910522 46319.000000
1659.409058 45748.000000
1660.906372 45970.000000
1662.402954 46323.000000
1663.897949 45709.000000
1665.392700 45834.000000
1666.886597 46887.000000
1668.379517 46584.000000
1669.871094 46118.500000
1671.362183 45653.000000
1672.852661 45996.000000
1674.342041 46077.000000
1675.829956 45035.000000
1677.317627 45141.000000
1678.804321 45890.000000
1680.290161 46600.000000
1681.775146 45861.000000
1683.258667 45790.000000
1684.741943 45550.000000
1686.224365 46061.000000
1687.705688 45691.000000
1689.185547 45606.000000
1690.665161 46236.000000
1692.144043 45273.000000
1693.621948 45841.000000
1695.098877 45747.000000
1696.574585 46043.000000
1698.049927 45801.000000
1699.524048 45558.000000
1700.997559 46394.000000
1702.469604 46211.000000
1703.941406 44987.000000
1705.412231 45402.000000
1706.882202 44748.000000
1708.350830 46736.000000
1709.818970 46022.000000
1711.286377 45457.000000
1712.752686 46369.000000
1714.218384 46035.000000
1715.682373 45707.000000
1717.146240 45809.000000
1718.609253 44898.000000
1720.071289 45489.000000
1721.532104 45233.000000
1722.992310 46327.000000
1724.451782 46142.000000
1725.910400 45659.000000
1727.368042 45779.000000
1728.824341 45431.000000
1730.280396 45686.000000
1731.735474 45236.000000
1733.189575 45702.000000
1734.642456 44803.000000
1736.095093 45662.000000
1737.546631 44808.000000
1738.997437 45580.000000
1740.447266 45003.000000
1741.895752 45578.000000
1743.343872 44236.000000
1744.791138 44857.000000
1746.237671 44788.000000
1747.682617 44737.000000
1749.127319 45216.000000
1750.571167 45611.000000
1752.014160 45874.000000
1753.455688 44805.000000
1754.896973 44993.000000
1756.337402 45005.500000
1757.776855 45018.000000
1759.215332 45844.000000
1760.652832 44941.000000
1762.089844 43483.000000
1763.525879 45069.000000
1764.961060 43780.000000
1766.394775 44657.000000
1767.828369 44453.000000
1769.260986 44126.000000
1770.692749 44858.000000
1772.123657 44913.000000
1773.553345 44202.000000
1774.982300 44286.000000
1776.410767 44104.000000
1777.838257 43668.000000
1779.264404 44042.000000
1780.690308 44619.000000
1782.115112 43340.000000
1783.539307 44671.000000
1784.962036 43535.000000
1786.384277 43605.000000
1787.805786 43181.000000
1789.226563 44132.000000
1790.646362 43902.000000
1792.064819 43750.000000
1793.482788 42986.000000
1794.900146 44370.000000
1796.316650 43675.000000
1797.731689 43277.000000
1799.146362 43991.000000
1800.560425 43173.000000
1801.973267 43736.000000
1803.385498 42790.000000
1804.796387 42623.000000
1806.206787 41906.000000
1807.616455 43123.000000
1809.025146 43563.000000
1810.432739 44048.000000
1811.839844 43057.000000
1813.246094 43077.000000
1814.651367 42774.000000
1816.055542 43446.000000
1817.459351 43431.000000
1818.862183 43133.000000
1820.264160 43261.000000
1821.665527 43404.000000
1823.065430 42892.000000
1824.464722 42611.000000
1825.863525 42554.000000
1827.261475 41546.000000
1828.658081 43257.000000
1830.054077 42244.000000
1831.449341 43073.000000
1832.843994 40652.000000
1834.237671 42815.000000
1835.630005 41798.000000
1837.021851 42156.000000
1838.413086 42565.000000
1839.803345 41275.000000
1841.192383 42298.000000
1842.581055 41964.000000
1843.968750 42012.000000
1845.355713 42042.000000
1846.741333 40735.000000
1848.126709 41693.000000
1849.511230 40976.000000
1850.895020 40893.000000
1852.277710 40588.000000
1853.659180 41409.000000
1855.040161 40106.000000
1856.420654 40136.000000
1857.800171 40569.000000
1859.178223 40275.000000
1860.556152 39842.000000
1861.933105 38155.000000
1863.309326 39736.000000
1864.684692 39502.000000
1866.058594 39810.000000
1867.432373 39664.000000
1868.805298 39105.000000
1870.177124 39296.000000
1871.547974 38236.000000
1872.918457 39616.000000
1874.287842 38933.000000
1875.656738 38862.000000
1877.024048 37708.000000
1878.391235 38761.000000
1879.757446 38828.000000
1881.122925 37849.000000
1882.487671 37132.000000
1883.850830 37784.000000
1885.213867 37490.000000
1886.576050 37992.000000
1887.937378 37787.000000
1889.297363 38608.000000
1890.656982 38436.000000
1892.015991 38024.000000
1893.374023 37527.000000
1894.731201 36866.000000
1896.087158 38117.000000
1897.442871 36481.000000
1898.797607 38196.000000
1900.151489 38407.000000
1901.504272 38135.000000
1902.856567 38039.000000
1904.208130 38113.000000
1905.558838 37157.000000
1906.908325 37459.000000
1908.257324 37350.000000
1909.605469 38193.000000
1910.953003 37713.000000
1912.299805 37561.000000
1913.645020 37055.000000
1914.989990 37788.000000
1916.334229 38333.000000
1917.677612 37245.000000
1919.019653 37822.000000
1920.361450 37055.000000
1921.702393 36736.000000
1923.042603 37430.000000
1924.381836 37237.000000
1925.720093 37224.000000
1927.057739 36923.000000
1928.394653 36341.000000
1929.730713 36517.000000
1931.065552 37530.000000
1932.400024 36239.000000
1933.733765 35686.000000
1935.066650 36497.000000
1936.398071 36794.000000
1937.729614 36175.000000
1939.059814 35830.000000
1940.389526 36623.000000
1941.718384 36167.000000
1943.046021 36465.000000
1944.373169 37146.000000
1945.699585 36336.000000
1947.025269 35642.000000
1948.349609 36314.000000
1949.673706 35399.000000
1950.996948 35623.000000
1952.319458 35296.000000
1953.640869 35856.000000
1954.961304 34141.000000
1956.281128 35394.000000
1957.600586 35601.000000
1958.919067 34297.000000
1960.236206 35065.000000
1961.552979 34978.000000
1962.869019 34348.000000
1964.184326 34115.000000
1965.498169 34271.000000
1966.811768 34606.000000
1968.124634 34044.000000
1969.436646 34119.000000
1970.748047 34001.000000
1972.058105 33598.000000
1973.367676 33840.000000
1974.676514 33416.000000
1975.984741 33063.000000
1977.291626 33418.000000
1978.597900 32208.000000
1979.903809 33693.000000
1981.208496 32880.000000
1982.512695 33227.000000
1983.815674 33312.000000
1985.118286 31436.000000
1986.419922 32655.000000
1987.720947 31731.000000
1989.020386 32054.000000
1990.319946 31376.000000
1991.618408 32492.000000
1992.916382 31605.000000
1994.212769 31522.000000
1995.509155 31720.000000
1996.804565 31776.000000
1998.099243 30861.000000
1999.393066 31566.000000
2000.685669 30748.000000
2001.977783 31536.000000
2003.269409 30073.000000
2004.560303 30842.000000
2005.849609 30892.000000
2007.138672 30231.000000
2008.427002 30841.000000
2009.714600 30726.000000
2011.001343 30107.000000
2012.286987 30940.000000
2013.572266 30154.000000
2014.856567 30534.000000
2016.140259 30908.000000
2017.422607 30446.000000
2018.704590 30099.000000
2019.986084 29737.000000
2021.266602 30512.000000
2022.546387 30325.000000
2023.825073 29663.000000
2025.103027 30615.000000
2026.380493 30583.000000
2027.657349 30325.000000
2028.932495 30993.000000
2030.207764 30250.000000
2031.482056 30701.000000
2032.755371 30713.000000
2034.027832 30702.000000
2035.299927 30674.000000
2036.570923 29879.000000
2037.841675 30030.000000
2039.111084 30443.000000
2040.379395 29684.000000
2041.647705 29704.000000
2042.915039 30118.000000
2044.181641 29972.000000
2045.447021 30198.000000
2046.711792 30168.000000
2047.976318 30212.000000
2049.239502 29740.000000
2050.502441 29223.000000
2051.763428 29397.000000
2053.024902 29252.000000
2054.285156 29408.000000
2055.544678 28824.000000
2056.803467 28993.000000
2058.061279 28233.000000
2059.318604 28811.000000
2060.575195 28744.000000
2061.830322 28263.000000
2063.085449 28918.000000
2064.339600 28957.000000
2065.593018 28947.000000
2066.845703 27788.000000
2068.097168 28282.000000
2069.348389 28217.000000
2070.598877 28677.000000
2071.848633 28942.000000
2073.096924 27923.000000
2074.345215 27929.000000
2075.592529 26938.000000
2076.839111 28501.000000
2078.084961 27881.000000
2079.329590 27086.000000
2080.573730 26349.000000
2081.817383 28064.000000
2083.060059 27443.000000
2084.301514 26543.000000
2085.542725 27544.000000
2086.783447 27065.000000
2088.023193 26688.000000
2089.261719 26253.000000
2090.499756 26738.000000
2091.737061 27104.000000
2092.974121 26270.000000
2094.209717 26652.000000
2095.444580 26583.000000
2096.679199 26577.000000
2097.912842 26996.000000
2099.145508 26577.000000
2100.377441 25960.000000
2101.608887 26239.000000
2102.839355 25737.000000
2104.069092 26067.000000
2105.298584 25962.000000
2106.526123 25867.000000
2107.753906 25602.000000
2108.980957 25223.000000
2110.207031 25961.000000
2111.431641 25551.000000
2112.656494 25157.000000
2113.880127 24996.000000
2115.103271 25698.000000
2116.325195 24593.000000
2117.546875 25579.000000
2118.767578 24998.000000
2119.987549 25668.000000
2121.207031 25673.000000
2122.425049 25390.000000
2123.643066 24914.000000
2124.860107 25701.000000
2126.076660 25755.000000
2127.291504 25335.000000
2128.506592 25443.000000
2129.720703 24940.000000
2130.934082 25195.000000
2132.146729 24798.000000
2133.357910 25327.000000
2134.569336 25074.000000
2135.779541 24684.000000
2136.989258 25222.000000
2138.197510 25112.000000
2139.405762 25273.000000
2140.613281 25153.000000
2141.819580 23809.000000
2143.025146 24764.000000
2144.230469 24707.000000
2145.434814 24949.000000
2146.638428 24661.000000
2147.841553 24694.000000
2149.043213 24319.000000
2150.244629 24825.000000
2151.445313 24293.000000
2152.645264 24391.000000
2153.843994 24603.000000
2155.042480 23998.000000
2156.240479 24010.000000
2157.437500 23718.000000
2158.633789 23887.000000
2159.828857 23678.000000
2161.023682 23251.000000
2162.217773 23227.000000
2163.410889 23185.000000
2164.603027 22855.000000
2165.794922 23057.000000
2166.986084 22825.000000
2168.176270 22741.000000
2169.365723 22634.000000
2170.554688 22234.000000
2171.742676 22126.000000
2172.930420 22110.000000
2174.116699 21955.000000
2175.302246 21657.000000
2176.487549 21705.000000
2177.672363 21611.000000
2178.855957 21724.000000
2180.038818 21418.000000
2181.220703 21642.000000
2182.402344 21793.000000
2183.583496 21591.000000
2184.763428 21756.000000
2185.942383 21745.000000
2187.120850 21347.000000
2188.299072 21441.000000
2189.476074 21363.000000
2190.652100 21304.000000
2191.827881 21522.000000
2193.003174 21658.000000
2194.177002 21343.000000
2195.350342 21519.000000
2196.523438 21455.000000
2197.695313 21592.000000
2198.866699 21451.000000
2200.037598 21607.000000
2201.206787 21674.000000
2202.375977 21419.000000
2203.544678 21500.000000
2204.712402 21551.000000
2205.879150 21562.000000
2207.045166 21179.000000
2208.210693 21125.000000
2209.375977 21300.000000
2210.539795 21009.000000
2211.703125 21344.000000
2212.865234 21085.000000
2214.027588 21087.000000
2215.188721 20949.000000
2216.348877 20898.000000
2217.508545 20692.000000
2218.667969 20854.000000
2219.826172 20618.000000
2220.983398 20610.000000
2222.140381 20436.000000
2223.296631 20573.000000
2224.452148 20371.000000
2225.606934 20315.000000
2226.760742 20311.000000
2227.913574 20220.000000
2229.066895 19954.000000
2230.218262 20005.000000
2231.369385 19859.000000
2232.519775 19802.000000
2233.669678 19788.000000
2234.818604 19873.000000
2235.967041 19927.000000
2237.114014 19683.000000
2238.261230 19543.000000
2239.407227 19344.000000
2240.552979 19171.000000
2241.697021 18966.000000
2242.841309 18845.000000
2243.984619 18978.000000
2245.127197 18784.000000
2246.268799 18731.000000
2247.410156 18588.000000
2248.550537 18422.000000
2249.690186 18375.000000
2250.829346 18236.000000
2251.967285 18251.000000
2253.105225 18060.000000
2254.242188 18119.000000
2255.378418 17954.000000
2256.513672 18084.000000
2257.648193 18055.000000
2258.782471 18013.000000
2259.916260 18611.000000
2261.048584 18727.000000
2262.180420 18095.000000
2263.311768 17818.000000
2264.442139 17546.000000
2265.572266 17346.000000
2266.701172 17401.000000
2267.829590 17386.000000
2268.957520 17175.000000
2270.084473 17195.000000
2271.210693 17235.000000
2272.335938 17169.000000
2273.461182 17399.000000
2274.585693 17274.000000
2275.708984 17465.000000
2276.831543 17341.000000
2277.953613 17243.000000
2279.075195 17145.000000
2280.196045 17108.000000
2281.315674 17159.000000
2282.434814 17114.000000
2283.553711 16722.000000
2284.671875 16519.000000
2285.789063 16897.000000
2286.905273 16615.000000
2288.021240 16764.000000
2289.136475 16736.000000
2290.250977 16842.000000
2291.364258 17150.000000
2292.477539 16978.000000
2293.590088 17064.000000
2294.701904 17007.000000
2295.812988 17000.000000
2296.922852 17063.000000
2298.032227 17024.000000
2299.141357 17155.000000
2300.249512 17162.000000
2301.356689 16999.000000
2302.463623 16959.000000
2303.569824 16951.000000
2304.675537 16882.000000
2305.779785 16840.000000
2306.883789 16638.000000
2307.987305 16646.000000
2309.090332 16539.000000
2310.192139 16508.000000
2311.293213 16412.000000
2312.393799 16428.000000
2313.493896 16473.000000
2314.593262 16493.000000
2315.691162 16236.000000
2316.789551 16187.000000
2317.886475 16021.000000
2318.983154 16142.000000
2320.079346 16173.000000
2321.173828 15809.000000
2322.268311 15713.000000
2323.362061 15813.000000
2324.455566 15532.000000
2325.547363 15685.000000
2326.639160 15690.000000
2327.730225 15650.000000
2328.820557 15586.000000
2329.909912 15609.000000
2330.999268 15603.000000
2332.087402 15476.000000
2333.175049 15613.000000
2334.262451 15453.000000
2335.348145 15390.000000
2336.433594 15078.000000
2337.518799 15193.000000
2338.603027 14974.000000
2339.686279 14962.000000
2340.769287 14900.000000
2341.851318 14723.000000
2342.933105 14674.000000
2344.014160 14523.000000
2345.093994 14476.000000
2346.173340 14708.000000
2347.252197 14434.000000
2348.330566 14459.000000
2349.407471 14333.000000
2350.484131 14375.000000
2351.560547 14241.000000
2352.635986 14136.000000
2353.710449 14241.000000
2354.784668 13957.000000
2355.858154 14022.000000
2356.931152 13938.000000
2358.002930 13704.000000
2359.074463 13902.000000
2360.145020 13685.000000
2361.215332 13643.000000
2362.284668 13680.000000
2363.353027 13671.000000
2364.421143 13428.000000
2365.488525 13470.000000
2366.555420 13401.000000
2367.621582 13468.000000
2368.686523 13303.000000
2369.751465 13195.000000
2370.815674 13185.000000
2371.879150 13229.000000
2372.941406 13347.000000
2374.003662 13175.000000
2375.064941 13246.000000
2376.125977 13066.000000
2377.185791 13206.000000
2378.244873 13175.000000
2379.303955 13122.000000
2380.362061 13021.000000
2381.419434 13156.000000
2382.475830 12968.000000
2383.531982 12893.000000
2384.587646 13120.000000
2385.642578 12902.000000
2386.696045 12896.000000
2387.749756 12639.000000
2388.802490 12910.000000
2389.854736 12739.000000
2390.906250 13041.000000
2391.956787 12936.000000
2393.007080 12914.000000
2394.056396 12907.000000
2395.105713 12863.000000
2396.153564 12709.000000
2397.200928 12656.000000
2398.248047 12752.000000
2399.294189 12762.000000
2400.339600 12749.000000
2401.384277 12614.000000
2402.428955 12724.000000
2403.472168 12541.000000
2404.515381 12519.000000
2405.557129 12774.000000
2406.599121 12576.000000
2407.640381 12597.000000
2408.680664 12630.000000
2409.720215 12725.000000
2410.758789 12513.000000
2411.797607 12468.000000
2412.835205 12405.000000
2413.872559 12384.000000
2414.908691 12454.000000
2415.944580 12422.000000
2416.979736 12375.000000
2418.014404 12422.000000
2419.047607 12416.000000
2420.081055 12368.000000
2421.113525 12331.000000
2422.145752 12237.000000
2423.176514 12120.000000
2424.207275 12109.000000
2425.237549 12099.000000
2426.266602 12123.000000
2427.295654 11965.000000
2428.322998 11947.000000
2429.350830 11834.000000
2430.377441 11746.000000
2431.403809 11757.000000
2432.428711 11722.000000
2433.453857 11551.000000
2434.478027 11443.000000
2435.501953 11375.000000
2436.524658 11510.000000
2437.546631 11495.000000
2438.568359 11270.000000
2439.589355 11290.000000
2440.609863 11239.000000
2441.629150 11048.000000
2442.648438 11063.000000
2443.666748 10999.000000
2444.684814 11016.000000
2445.701416 10927.000000
2446.718018 10908.000000
2447.733887 10877.000000
2448.749756 10701.000000
2449.764160 10809.000000
2450.777832 10694.000000
2451.791016 10708.000000
2452.803955 10682.000000
2453.816162 10617.000000
2454.827393 10554.000000
2455.838379 10736.000000
2456.848633 10672.000000
2457.858398 10500.000000
2458.867188 10597.000000
2459.875244 10495.000000
2460.883301 10433.000000
2461.890137 10295.000000
2462.896729 10188.000000
2463.902100 10119.000000
2464.907227 10071.000000
2465.912109 10303.000000
2466.915771 10063.000000
2467.919189 10044.000000
2468.921631 10098.000000
2469.923828 10143.000000
2470.925537 10219.000000
2471.926270 10110.000000
2472.926025 10080.000000
2473.925781 9888.000000
2474.924561 10005.000000
2475.922852 9934.000000
2476.920166 9832.000000
2477.917236 9953.000000
2478.914307 9825.000000
2479.909912 9910.000000
2480.905518 9875.000000
2481.899414 9901.000000
2482.893311 9886.000000
2483.886719 9898.000000
2484.879639 9804.000000
2485.871582 9847.000000
2486.862793 9821.000000
2487.853760 9868.000000
2488.844238 9808.000000
2489.833740 9924.000000
2490.822510 9989.000000
2491.811279 9915.000000
2492.799072 9840.000000
2493.785645 9745.000000
2494.772217 9724.000000
2495.758301 9845.000000
2496.743652 9777.000000
2497.728027 9804.000000
2498.712158 9787.000000
2499.696289 9792.000000
2500.678955 9774.000000
2501.661133 9631.000000
2502.642822 9561.000000
2503.623779 9495.000000
2504.604248 9543.000000
2505.584473 9524.000000
2506.563232 9578.000000
2507.541748 9565.000000
2508.519775 9394.000000
2509.497314 9362.000000
2510.473877 9636.000000
2511.450195 9417.000000
2512.425781 9518.000000
2513.400879 9420.000000
2514.375488 9279.000000
2515.348877 9343.000000
2516.322021 9165.000000
2517.294922 9165.000000
2518.266846 9112.000000
2519.238037 9113.000000
2520.208740 9118.000000
2521.179199 9055.000000
2522.148926 9047.000000
2523.117676 8859.000000
2524.085693 8871.000000
2525.053711 8733.000000
2526.020752 8762.000000
2526.987549 8742.000000
2527.953125 8718.000000
2528.918701 8735.000000
2529.883545 8778.000000
2530.847900 8564.000000
2531.811035 8636.000000
2532.774414 8708.000000
2533.736816 8582.000000
2534.698975 8636.000000
2535.659912 8701.000000
2536.620117 8736.000000
2537.580566 8540.000000
2538.540039 8652.000000
2539.498779 8637.000000
2540.456543 8547.000000
2541.414551 8383.000000
2542.371826 8319.000000
2543.328125 8316.000000
2544.284180 8199.000000
2545.239014 8162.000000
2546.194092 8201.000000
2547.148438 8054.000000
2548.102051 8455.000000
2549.054688 7826.000000
2550.007080 8008.000000
2550.958984 7897.000000
2551.910156 7832.000000
2552.860596 7851.000000
2553.810547 7817.000000
2554.760254 7844.000000
2555.709229 7961.000000
2556.657715 7849.000000
2557.604980 7766.000000
2558.552246 7773.000000
2559.498779 7668.000000
2560.444824 7722.000000
2561.389893 7811.000000
2562.334717 7668.000000
2563.279053 7685.000000
2564.222900 7548.000000
2565.166260 7617.000000
2566.108154 7634.000000
2567.050293 7524.000000
2567.991699 7582.000000
2568.932373 7436.000000
2569.872314 7483.000000
2570.812256 7544.000000
2571.751221 7485.000000
2572.689941 7415.000000
2573.627686 7356.000000
2574.565186 7394.000000
2575.501953 7481.000000
2576.437988 7533.000000
2577.373535 7509.000000
2578.308350 7403.000000
2579.243164 7440.000000
2580.177002 7434.000000
2581.110352 7609.000000
2582.042969 7529.000000
2582.975342 7406.000000
2583.906982 7361.000000
2584.838135 7176.000000
2585.768799 7406.000000
2586.698242 7274.000000
2587.627686 7380.000000
2588.556641 7219.000000
2589.485352 7160.000000
2590.412354 7188.000000
2591.339600 7137.000000
2592.266357 7156.000000
2593.192383 7159.000000
2594.118164 7239.000000
2595.042725 7269.000000
2595.967041 7202.000000
2596.890869 7245.000000
2597.814209 7165.000000
2598.736572 7225.000000
2599.658691 7158.000000
2600.580322 7172.000000
2601.501221 7106.000000
2602.421387 7254.000000
2603.341309 7146.000000
2604.260742 7127.000000
2605.179932 7001.000000
2606.098145 7088.000000
2607.015137 7000.000000
2607.932373 6967.000000
2608.849365 6874.000000
2609.765381 6818.000000
2610.680176 6833.000000
2611.595459 6837.000000
2612.510010 6814.000000
2613.423584 6737.000000
2614.337158 6780.000000
2615.249512 6642.000000
2616.161865 6806.000000
2617.073242 6743.000000
2617.984375 6773.000000
2618.894775 6648.000000
2619.804932 6580.000000
2620.714355 6600.000000
2621.623291 6651.000000
2622.531250 6502.000000
2623.439453 6636.000000
2624.346680 6541.000000
2625.253418 6460.000000
2626.159424 6442.000000
2627.065186 6480.000000
2627.970215 6539.000000
2628.875000 6338.000000
2629.779053 6336.000000
2630.682129 6304.000000
2631.585205 6336.000000
2632.487305 6158.000000
2633.389404 6125.000000
2634.291260 6167.000000
2635.191406 6268.000000
2636.091797 6184.000000
2636.991455 6167.000000
2637.890869 6102.000000
2638.788818 6166.000000
2639.687256 6168.000000
2640.585205 6039.000000
2641.482422 6186.000000
2642.378418 6020.000000
2643.274414 5863.000000
2644.170166 5867.000000
2645.065186 5918.000000
2645.959961 5859.000000
2646.853271 5836.000000
2647.746582 5730.000000
2648.639648 5847.000000
2649.532471 5856.000000
2650.423584 5881.000000
2651.314941 5839.000000
2652.205811 5684.000000
2653.095947 5701.000000
2653.985840 5761.000000
2654.874512 5702.000000
2655.763428 5610.000000
2656.651855 5652.000000
2657.539307 5678.000000
2658.425781 5702.000000
2659.312744 5517.000000
2660.198975 5568.000000
2661.084717 5452.000000
2661.969238 5589.000000
2662.853760 5653.000000
2663.738037 5642.000000
2664.621582 5535.000000
2665.504639 5676.000000
2666.386963 5485.000000
2667.268799 5595.000000
2668.149902 5613.000000
2669.031250 5747.000000
2669.911133 5713.000000
2670.791260 5638.000000
2671.670654 5599.000000
2672.550049 5698.000000
2673.428711 5669.000000
2674.305664 5559.000000
2675.183350 5601.000000
2676.060303 5506.000000
2676.936523 5473.000000
2677.812256 5437.000000
2678.687256 5474.000000
2679.562500 5465.000000
2680.436768 5365.000000
2681.310547 5351.000000
2682.183594 5327.000000
2683.056396 5395.000000
2683.928955 5410.000000
2684.800781 5362.000000
2685.671875 5285.000000
2686.542725 5261.000000
2687.413086 5166.000000
2688.283203 5176.000000
2689.151611 5224.000000
2690.020752 5281.000000
2690.889160 5079.000000
2691.757324 5223.000000
2692.624756 4983.000000
2693.490967 5148.000000
2694.357666 5099.000000
2695.223389 5054.000000
2696.089111 5063.000000
2696.953369 4974.000000
2697.818359 4972.000000
2698.681885 4966.000000
2699.545654 4891.000000
2700.407959 5018.000000
2701.270752 4999.000000
2702.132568 5040.000000
2702.993896 4999.000000
2703.855225 4906.000000
2704.715332 4877.000000
2705.575439 4853.000000
2706.435059 4896.000000
2707.294434 4906.000000
2708.152100 4804.000000
2709.010010 4838.000000
2709.868408 4766.000000
2710.725586 4852.000000
2711.582031 4823.000000
2712.437988 4719.000000
2713.293945 4861.000000
2714.149170 4668.000000
2715.003662 4695.000000
2715.857666 4706.000000
2716.711670 4686.000000
2717.564697 4686.000000
2718.417969 4608.000000
2719.269531 4622.000000
2720.121582 4612.000000
2720.973389 4659.000000
2721.823975 4576.000000
2722.674561 4565.000000
2723.524658 4597.000000
2724.374023 4523.000000
2725.223389 4529.000000
2726.071533 4548.000000
2726.919189 4482.000000
2727.767334 4543.000000
2728.614258 4366.000000
2729.461670 4550.000000
2730.307617 4453.000000
2731.152832 4444.000000
2731.998535 4366.000000
2732.843262 4360.000000
2733.687988 4323.000000
2734.531494 4313.000000
2735.375244 4324.000000
2736.218262 4448.000000
2737.060791 4403.000000
2737.902344 4382.000000
2738.744385 4270.000000
2739.585449 4387.000000
2740.426270 4316.000000
2741.266846 4322.000000
2742.106201 4312.000000
2742.945557 4328.000000
2743.784912 4275.000000
2744.623047 4317.000000
2745.460693 4259.000000
2746.298340 4340.000000
2747.135498 4421.000000
2747.972412 4325.000000
2748.808838 4473.000000
2749.644043 4285.000000
2750.479492 4295.000000
2751.314453 4234.000000
2752.148682 4321.000000
2752.982666 4219.000000
2753.816162 4202.000000
2754.649658 4074.000000
2755.482178 4188.000000
2756.314209 4214.000000
2757.145752 4238.000000
2757.977295 4277.000000
2758.807861 4144.000000
2759.638672 4164.000000
2760.468262 3992.000000
2761.297852 4176.000000
2762.127197 4186.000000
2762.955811 4000.000000
2763.783936 4128.000000
2764.611572 4111.000000
2765.439209 4179.000000
2766.266357 3995.000000
2767.092773 4077.000000
2767.918701 3964.000000
2768.744141 3954.000000
2769.569336 3918.000000
2770.394531 3787.000000
2771.218506 3757.000000
2772.042480 3904.000000
2772.866455 3796.000000
2773.689209 3856.000000
2774.512207 3882.000000
2775.333984 3842.000000
2776.155762 3704.000000
2776.977539 3788.000000
2777.798340 3780.000000
2778.618408 3677.000000
2779.438721 3748.000000
2780.258545 3732.000000
2781.078369 3683.000000
2781.896240 3764.000000
2782.715332 3634.000000
2783.533203 3745.000000
2784.350830 3676.000000
2785.167969 3791.000000
2785.984619 3552.000000
2786.801025 3577.000000
2787.616943 3682.000000
2788.432617 3592.000000
2789.247314 3547.000000
2790.062500 3528.000000
2790.876953 3451.000000
2791.690918 3508.000000
2792.504639 3596.000000
2793.317139 3513.000000
2794.129883 3476.000000
2794.942139 3538.000000
2795.753906 3433.000000
2796.564941 3560.000000
2797.376709 3582.000000
2798.187256 3499.000000
2798.997803 3461.000000
2799.806885 3390.000000
2800.616699 3479.000000
2801.425781 3460.000000
2802.234619 3510.000000
2803.042969 3495.000000
2803.850342 3543.000000
2804.658203 3330.000000
2805.465332 3456.000000
2806.272217 3425.000000
2807.077881 3445.000000
2807.884033 3286.000000
2808.689453 3353.000000
2809.494873 3308.000000
2810.299561 3350.000000
2811.103271 3318.000000
2811.907471 3300.000000
2812.711182 3354.000000
2813.514648 3223.000000
2814.316650 3212.000000
2815.119385 3324.000000
2815.921387 3216.000000
2816.723145 3244.000000
2817.524414 3282.000000
2818.325195 3253.000000
2819.125488 3209.000000
2819.926025 3212.000000
2820.725586 3192.000000
2821.524658 3315.000000
2822.323730 3206.000000
2823.122559 3261.000000
2823.920898 3188.000000
2824.718262 3208.000000
2825.515869 3177.000000
2826.312744 3265.000000
2827.109863 3251.000000
2827.906250 3163.000000
2828.701904 3132.000000
2829.497559 3181.000000
2830.292969 3131.000000
2831.087891 3114.000000
2831.882080 3301.000000
2832.676270 3161.000000
2833.470215 3073.000000
2834.263672 3129.000000
2835.056396 3011.000000
2835.848877 3019.000000
2836.641357 3009.000000
2837.433594 3055.000000
2838.225342 3062.000000
2839.016113 3074.000000
2839.806885 3075.000000
2840.597900 3038.000000
2841.387939 3155.000000
2842.177490 3073.000000
2842.967285 2993.000000
2843.756104 2959.000000
2844.544922 3031.000000
2845.333740 3002.000000
2846.121582 2906.000000
2846.908936 3062.000000
2847.696533 2883.000000
2848.483643 2990.000000
2849.270020 2961.000000
2850.056396 2972.000000
2850.842529 2904.000000
2851.628174 2942.000000
2852.412842 2993.000000
2853.197998 2937.000000
2853.982910 2921.000000
2854.767090 2816.000000
2855.551270 2968.000000
2856.334229 2882.000000
2857.117432 2869.000000
2857.900391 2902.000000
2858.682861 2828.000000
2859.465088 3028.000000
2860.246826 2916.000000
2861.028320 2931.000000
2861.810059 2831.000000
2862.591064 2833.000000
2863.371338 2920.000000
2864.151367 2868.000000
2864.931396 2841.000000
2865.711182 2882.000000
2866.489990 2962.000000
2867.269043 2876.000000
2868.047607 2900.000000
2868.825928 2881.000000
2869.603760 2944.000000
2870.381348 3000.000000
2871.158691 3085.000000
2871.935791 3043.000000
2872.712402 3105.000000
2873.488525 3100.000000
2874.264648 3077.000000
2875.040283 2971.000000
2875.815674 3122.000000
2876.590576 3226.000000
2877.365234 3115.000000
2878.139893 3098.000000
2878.914307 3030.000000
2879.687988 3055.000000
2880.460938 3071.000000
2881.234619 3117.000000
2882.007324 3076.000000
2882.780029 3007.000000
2883.552002 2973.000000
2884.323730 3075.000000
2885.095947 3073.000000
2885.866943 2981.000000
2886.637451 2957.000000
2887.408447 2889.000000
2888.179443 2966.000000
2888.949707 2927.000000
2889.718994 2997.000000
2890.488525 3001.000000
2891.258057 2902.000000
2892.027100 3020.000000
2892.795654 3041.000000
2893.564209 3073.000000
2894.331787 3055.000000
2895.099854 2909.000000
2895.867432 2829.000000
2896.635010 2846.000000
2897.401367 2769.000000
2898.168701 2879.000000
2898.934814 2651.000000
2899.701172 2758.000000
2900.466064 2648.000000
2901.231445 2789.000000
2901.997314 2805.000000
2902.761719 2719.000000
2903.526123 2704.000000
2904.290771 2784.000000
2905.054443 2778.000000
2905.818848 2823.000000
2906.582520 2777.000000
2907.345459 2656.000000
2908.108154 2660.000000
2908.871338 2736.000000
2909.634033 2551.000000
2910.395508 2594.000000
2911.157471 2594.000000
spectrumdark 2048
-97.073257 6249.000000
-94.446388 6249.000000
-91.821396 6089.000000
-89.198296 6453.000000
-86.577065 5851.000000
-83.957733 6312.000000
-81.340263 6122.000000
-78.724670 6434.000000
-76.110954 6262.000000
-73.499115 5894.000000
-70.889137 6153.000000
-68.281044 6033.000000
-65.674797 5977.000000
-63.070427 6040.000000
-60.467918 6172.000000
-57.867264 5670.000000
-55.268471 6322.000000
-52.671535 6942.000000
-50.076454 6533.000000
-47.483227 6496.000000
-44.891850 6325.000000
-42.302319 6820.000000
-39.714630 5909.000000
-37.128792 6114.000000
-34.544796 6528.000000
-31.962639 5730.000000
-29.382326 6424.000000
-26.803841 5710.000000
-24.227198 6176.000000
-21.652380 6240.000000
-19.079403 6557.000000
-16.508245 6485.000000
-13.938921 6825.000000
-11.371423 7860.000000
-8.805743 6280.000000
-6.241890 6463.000000
-3.679849 6038.000000
-1.119633 5854.000000
1.438775 6260.000000
3.995362 6973.000000
6.550144 6683.000000
9.103109 6077.000000
11.654274 6768.000000
14.203626 6517.000000
16.751181 6754.000000
19.296925 6038.000000
21.840876 5770.000000
24.383022 6752.000000
26.923372 6811.000000
29.461937 6837.000000
31.998705 6165.000000
34.533672 5780.000000
37.066860 7312.000000
39.598267 6330.000000
42.127880 7139.000000
44.655697 6590.000000
47.181755 7932.000000
49.706024 5689.000000
52.228523 6281.000000
54.749226 6735.000000
57.268173 6297.000000
59.785347 6460.000000
62.300743 6682.000000
64.814362 5626.000000
67.326225 5810.000000
69.836342 6522.000000
72.344666 6532.000000
74.851234 5941.000000
77.356056 6428.000000
79.859123 6461.000000
82.360413 6316.000000
84.859962 6189.000000
87.357758 6366.000000
89.853821 5728.000000
92.348106 7291.000000
94.840652 5816.000000
97.331482 6951.000000
99.820541 7204.000000
102.307854 6393.000000
104.793442 6255.000000
107.277290 6429.000000
109.759392 5810.000000
112.239769 6573.000000
114.718422 6251.000000
117.195351 6642.000000
119.670525 7187.000000
122.143990 6828.000000
124.615723 5919.000000
127.085747 6774.000000
129.554016 6285.000000
132.020615 6362.000000
134.485458 5725.000000
136.948608 6203.000000
139.410019 7305.000000
141.869736 6879.000000
144.327728 6388.000000
146.784027 5979.000000
149.238617 5834.000000
151.691483 6863.000000
154.142670 6451.000000
156.592163 6657.000000
159.039932 6127.000000
161.485992 6540.000000
163.930374 8807.000000
166.373077 6491.000000
168.814087 6802.000000
171.253387 6282.000000
173.690979 7241.000000
176.126938 6646.000000
178.561157 6971.000000
180.993698 7181.000000
183.424591 6693.000000
185.853760 6839.000000
188.281281 6720.000000
190.707123 6395.000000
193.131287 6738.000000
195.553787 7258.000000
197.974594 7467.000000
200.393738 6480.000000
202.811218 6046.000000
205.227005 7616.000000
207.641144 7100.000000
210.053650 6371.000000
212.464478 6140.000000
214.873627 6300.000000
217.281143 7385.000000
219.686951 6184.000000
222.091171 6571.000000
224.493683 6729.000000
226.894577 6984.000000
229.293823 6534.000000
231.691406 6900.000000
234.087326 7310.000000
236.481628 6475.000000
238.874268 5892.000000
241.265289 6812.000000
243.654648 6669.000000
246.042389 6424.000000
248.428482 7043.000000
250.812943 6165.000000
253.195755 7929.000000
255.576996 6630.000000
257.956512 6653.000000
260.334473 6534.000000
262.710754 7643.000000
265.085480 7590.000000
267.458557 7889.000000
269.829987 6287.000000
272.199768 6501.000000
274.567993 5894.000000
276.934570 6413.000000
279.299561 6778.000000
281.662933 6058.000000
284.024658 6267.000000
286.384796 7085.000000
288.743317 5987.000000
291.100250 6564.000000
293.455566 6472.000000
295.809296 5939.000000
298.161377 5967.000000
300.511902 6387.000000
302.860840 6365.000000
305.208130 6860.000000
307.553894 6423.000000
309.897980 6555.000000
312.240540 7382.000000
314.581482 7598.000000
316.920807 7169.000000
319.258575 7043.000000
321.594788 8114.000000
323.929352 6280.000000
326.262360 6473.000000
328.593811 6022.000000
330.923676 6686.000000
333.251953 6388.000000
335.578613 7284.000000
337.903778 6383.000000
340.227325 6233.000000
342.549316 6040.000000
344.869751 7537.000000
347.188568 7757.000000
349.505829 6035.000000
351.821564 5862.000000
354.135712 6985.000000
356.448273 6363.000000
358.759277 6462.000000
361.068756 7083.000000
363.376709 6424.000000
365.683044 5746.000000
367.987793 6403.000000
370.291077 6525.000000
372.592743 6235.000000
374.892914 6401.000000
377.191528 6309.000000
379.488586 5850.000000
381.784088 6146.000000
384.078064 5895.000000
386.370453 5303.000000
388.661346 5671.000000
390.950714 6260.000000
393.238495 6296.000000
395.524750 6587.000000
397.809509 7090.000000
400.092651 6039.000000
402.374359 6417.000000
404.654541 6180.000000
406.933136 7343.000000
409.210205 6504.000000
411.485748 6746.000000
413.759766 6535.000000
416.032349 6465.000000
418.303314 6314.000000
420.572784 6440.000000
422.840759 7168.000000
425.107178 7326.000000
427.372101 6314.000000
429.635559 6376.000000
431.897430 6476.000000
434.157837 6064.000000
436.416687 6713.000000
438.674072 6141.000000
440.929962 5876.000000
443.184357 5869.000000
445.437225 5557.000000
447.688538 6951.000000
449.938446 6150.000000
452.186768 6297.000000
454.433655 5674.000000
456.679077 6566.000000
458.922943 6543.000000
461.165314 6817.000000
463.406189 5642.000000
465.645660 6732.000000
467.883545 5468.000000
470.119995 5914.000000
472.354919 6066.000000
474.588379 7397.000000
476.820404 6737.000000
479.050903 5669.000000
481.279907 6508.000000
483.507446 6348.000000
485.733490 5942.000000
487.958099 6603.000000
490.181244 5971.000000
492.402924 6496.000000
494.623047 6685.000000
496.841766 5704.000000
499.058990 6286.000000
501.274841 5583.000000
503.489075 6208.000000
505.701996 6479.000000
507.913330 6581.000000
510.123230 6985.000000
512.331726 6594.000000
514.538818 6609.000000
516.744324 6483.000000
518.948425 6639.000000
521.151001 6226.000000
523.352173 6616.000000
525.552002 6682.000000
527.750305 7003.000000
529.947083 5378.000000
532.142517 5864.000000
534.336426 5589.000000
536.528992 7597.000000
538.720032 6739.000000
540.909668 6052.000000
543.097900 7001.000000
545.284607 7159.000000
547.469849 6871.000000
549.653809 6243.000000
551.836182 6520.000000
554.017212 6094.000000
556.196716 6083.000000
558.374939 5963.000000
560.551636 6070.000000
562.726929 6437.000000
564.900818 6437.000000
567.073242 5951.000000
569.244263 6079.000000
571.413818 6405.000000
573.582092 5327.000000
575.748840 6450.000000
577.914124 6334.000000
580.078003 6230.000000
582.240601 5794.000000
584.401672 6099.000000
586.561340 5705.000000
588.719666 5812.000000
590.876465 6185.000000
593.031921 6645.000000
595.185974 5771.000000
597.338684 6163.000000
599.489868 7317.000000
601.639709 6775.000000
603.788208 6775.000000
605.935120 6094.000000
608.080811 6510.000000
610.225098 6495.000000
612.367920 7066.000000
614.509277 6251.000000
616.649414 6473.000000
618.788025 7680.000000
620.925354 5795.000000
623.061218 6633.000000
625.195679 6934.000000
627.328674 7239.000000
629.460510 6688.000000
631.590881 6627.000000
633.719849 6842.000000
635.847351 6493.000000
637.973572 6207.000000
640.098267 7312.000000
642.221741 6426.000000
644.343872 6821.000000
646.464539 6882.000000
648.583862 6618.000000
650.701782 5709.000000
652.818359 5704.000000
654.933533 6458.000000
657.047363 6461.000000
659.159729 5945.000000
661.270874 6131.000000
663.380615 5445.000000
665.488892 6644.000000
667.596008 6259.000000
669.701660 6939.000000
671.805847 5943.000000
673.908813 5691.000000
676.010376 7049.000000
678.110596 5402.000000
680.209412 6827.000000
682.306885 6386.000000
684.403076 6998.000000
686.497803 6254.000000
688.591309 7056.000000
690.683472 6674.000000
692.774109 7945.000000
694.863525 6665.000000
696.951660 6488.000000
699.038330 6040.000000
701.123779 6768.000000
703.207703 5206.000000
705.290405 5967.000000
707.371826 6009.000000
709.451782 7680.000000
711.530518 6217.000000
713.607788 5641.000000
715.683777 6642.000000
717.758484 6062.000000
719.831909 7005.000000
721.903809 6294.000000
723.974548 7390.000000
726.043945 5829.000000
728.111938 6504.000000
730.178589 6415.000000
732.244019 7093.000000
734.308105 5821.000000
736.370850 6210.000000
738.432251 6332.000000
740.492371 6670.000000
742.551086 6095.000000
744.608582 6718.000000
746.664795 6488.000000
748.719604 6756.000000
750.773132 6453.000000
752.825256 7475.000000
754.876160 5801.000000
756.925842 6725.000000
758.974060 6377.000000
761.021057 6214.000000
763.066772 7023.000000
765.111084 5375.000000
767.154114 5767.000000
769.195923 15086.000000
771.236389 6977.000000
773.275452 6398.000000
775.313354 6091.000000
777.349915 6039.000000
779.385254 5445.000000
781.419250 5843.000000
783.451843 6945.000000
785.483276 5547.000000
787.513306 11494.000000
789.542053 6010.000000
791.569641 6398.000000
793.595886 6374.000000
795.620728 5927.000000
797.644470 5561.000000
799.666809 6397.000000
801.687927 6033.000000
803.707703 6661.000000
805.726196 4903.000000
807.743469 6719.000000
809.759338 6799.000000
811.774048 5706.000000
813.787415 6503.000000
815.799561 6311.000000
817.810486 6098.000000
819.820068 6610.000000
821.828430 5349.000000
823.835388 5795.000000
825.841125 6050.000000
827.845642 5825.000000
829.848877 5701.000000
831.850830 6522.000000
833.851501 6111.000000
835.850952 5953.000000
837.849060 6411.000000
839.846069 7010.000000
841.841675 6232.000000
843.836121 5914.000000
845.829224 6238.000000
847.821106 6862.000000
849.811646 5660.000000
851.800903 6844.000000
853.789124 6032.000000
855.775940 5788.000000
857.761536 6484.000000
859.745850 7324.000000
861.729065 6333.000000
863.710876 6464.000000
865.691467 5920.000000
867.670776 7760.000000
869.648926 7189.000000
871.625732 6230.000000
873.601257 6092.000000
875.575745 6136.000000
877.548767 6092.000000
879.520752 5474.000000
881.491394 6425.000000
883.460876 6176.000000
885.429016 5532.000000
887.395996 5261.000000
889.361633 6185.000000
891.326111 5847.000000
893.289368 5984.000000
895.251404 6532.000000
897.212158 5846.000000
899.171692 6459.000000
901.129944 6723.000000
903.087097 6353.000000
905.043091 6104.000000
906.997681 6916.000000
908.951050 6590.000000
910.903259 6434.000000
912.854248 6339.000000
914.803955 7101.000000
916.752502 6325.000000
918.699829 6205.000000
920.645874 6112.000000
922.590637 6098.000000
924.534363 6342.000000
926.476929 6027.000000
928.418213 5667.000000
930.358154 6472.000000
932.296997 5756.000000
934.234558 5556.000000
936.170898 5958.000000
938.106079 5846.000000
940.039978 6112.000000
941.972778 5889.000000
943.904358 6865.000000
945.834778 5205.000000
947.763977 6501.000000
949.691833 7029.000000
951.618652 6671.000000
953.544189 6014.000000
955.468445 5434.000000
957.391602 6006.000000
959.313599 6691.000000
961.234314 7406.000000
963.153870 6492.000000
965.072266 5365.000000
966.989624 6408.000000
968.905518 6463.000000
970.820313 6168.000000
972.733887 6009.000000
974.646301 6487.000000
976.557495 6540.000000
978.467529 5482.000000
980.376282 6260.000000
982.283997 6175.000000
984.190491 6427.000000
986.095764 5753.000000
987.999939 6792.000000
989.902893 6265.000000
991.804626 6831.000000
993.705200 6550.000000
995.604614 6579.000000
997.502808 5301.000000
999.399841 6522.000000
1001.295654 6542.000000
1003.190308 7708.000000
1005.083862 5663.000000
1006.976135 7126.000000
1008.867493 6165.000000
1010.757507 5412.000000
1012.646301 6624.000000
1014.533936 6438.000000
1016.420410 6996.000000
1018.305725 6759.000000
1020.189880 6032.000000
1022.072815 5880.000000
1023.954712 6196.000000
1025.835327 5205.000000
1027.714844 5867.000000
1029.593384 6120.000000
1031.470581 5501.000000
1033.346436 6269.000000
1035.221313 5979.000000
1037.095215 6687.000000
1038.967651 7041.000000
1040.839111 6770.000000
1042.709229 5567.000000
1044.578369 5535.000000
1046.446289 5867.000000
1048.313110 7146.000000
1050.178833 6808.000000
1052.043335 6531.000000
1053.906738 6527.000000
1055.768799 6490.000000
1057.629883 5920.000000
1059.489868 6540.000000
1061.348511 6639.000000
1063.206055 5831.000000
1065.062500 6696.000000
1066.917847 5972.000000
1068.771973 5900.000000
1070.625244 6339.000000
1072.477051 6334.000000
1074.327881 6188.000000
1076.177490 6144.000000
1078.025879 5768.000000
1079.873413 8010.000000
1081.719604 5608.000000
1083.564575 6240.000000
1085.408691 5480.000000
1087.251465 5565.000000
1089.093018 6584.000000
1090.933838 5548.000000
1092.773071 5829.000000
1094.611572 6097.000000
1096.448730 6163.000000
1098.284668 6905.000000
1100.119629 6713.000000
1101.953369 5478.000000
1103.786133 5702.000000
1105.617554 6230.000000
1107.448120 7274.000000
1109.277344 6626.000000
1111.105591 6457.000000
1112.932617 7169.000000
1114.758667 5441.000000
1116.583496 6373.000000
1118.407227 7132.000000
1120.229736 6086.000000
1122.051147 5986.000000
1123.871704 5971.000000
1125.690796 6627.000000
1127.509033 7061.000000
1129.325928 6884.000000
1131.141968 6736.000000
1132.956787 6523.000000
1134.770508 5663.000000
1136.583130 5827.000000
1138.394531 5661.000000
1140.204956 6149.000000
1142.014282 6795.000000
1143.822266 6939.000000
1145.629517 5951.000000
1147.435303 6018.000000
1149.240234 5466.000000
1151.044067 5454.000000
1152.846680 6179.000000
1154.648438 6147.000000
1156.448730 6072.000000
1158.248047 6193.000000
1160.046387 5913.000000
1161.843384 5498.000000
1163.639648 5874.000000
1165.434570 6140.000000
1167.228394 6399.000000
1169.021362 7782.000000
1170.812988 5772.000000
1172.603638 6581.000000
1174.393311 6013.000000
1176.181519 5931.000000
1177.968872 7489.000000
1179.755127 6777.000000
1181.540283 5763.000000
1183.324341 6019.000000
1185.107300 7711.000000
1186.889282 5895.000000
1188.670044 5979.000000
1190.449829 6447.000000
1192.228516 7022.000000
1194.006226 6702.000000
1195.782715 7134.000000
1197.558105 6630.000000
1199.332397 6506.000000
1201.105591 6749.000000
1202.877930 6592.000000
1204.648926 6752.000000
1206.419067 5696.000000
1208.187988 6153.000000
1209.955811 6395.000000
1211.722778 6056.000000
1213.488403 5948.000000
1215.253052 7028.000000
1217.016602 6650.000000
1218.779053 5986.000000
1220.540649 6708.000000
1222.301025 5972.000000
1224.060303 6400.000000
1225.818726 6120.000000
1227.575928 7216.000000
1229.332031 6508.000000
1231.087036 5600.000000
1232.841187 6024.000000
1234.593994 5856.000000
1236.345825 6089.000000
1238.096802 5945.000000
1239.846436 4937.000000
1241.595215 6992.000000
1243.342651 6520.000000
1245.089355 6683.000000
1246.834839 6447.000000
1248.579468 6411.000000
1250.322754 6808.000000
1252.065063 6701.000000
1253.806274 5439.000000
1255.546631 4995.000000
1257.285889 5826.000000
1259.023926 6636.000000
1260.761108 7130.000000
1262.497070 6155.000000
1264.232056 6443.000000
1265.966064 7293.000000
1267.699097 6016.000000
1269.430908 6256.000000
1271.161743 6442.000000
1272.891357 7243.000000
1274.620117 5907.000000
1276.347778 5745.000000
1278.074341 5576.000000
1279.800049 5621.000000
1281.524414 6439.000000
1283.247925 5270.000000
1284.970459 6890.000000
1286.692017 6664.000000
1288.412354 6106.000000
1290.131714 6662.000000
1291.849976 7248.000000
1293.567261 6513.000000
1295.283569 5812.000000
1296.998657 6428.000000
1298.712769 6165.000000
1300.425903 5837.000000
1302.138184 6515.000000
1303.849243 8352.000000
1305.559326 5309.000000
1307.268311 6311.000000
1308.976074 6674.000000
1310.683228 7042.000000
1312.388916 5848.000000
1314.093872 6891.000000
1315.797852 6246.000000
1317.500610 6032.000000
1319.202393 6609.000000
1320.903320 6093.000000
1322.602905 9694.000000
1324.301636 7643.000000
1325.999634 5592.000000
1327.696289 6507.000000
1329.391846 7202.000000
1331.086548 6889.000000
1332.780029 5754.000000
1334.472656 5453.000000
1336.164429 7547.000000
1337.854858 6309.000000
1339.544556 6598.000000
1341.233154 6085.000000
1342.920654 7619.000000
1344.607178 5678.000000
1346.292603 6822.000000
1347.977051 6017.000000
1349.660645 7282.000000
1351.343018 6415.000000
1353.024414 6032.000000
1354.704956 6525.000000
1356.384277 6735.000000
1358.062988 5965.000000
1359.740356 6534.000000
1361.416626 5833.000000
1363.091919 5615.000000
1364.766479 6619.000000
1366.439819 6531.000000
1368.112183 6832.000000
1369.783569 5179.000000
1371.453979 6790.000000
1373.123291 6226.000000
1374.791626 5722.000000
1376.459106 6068.000000
1378.125488 6434.000000
1379.790894 6152.000000
1381.455322 5901.000000
1383.118530 5940.000000
1384.781128 5684.000000
1386.442383 6352.000000
1388.102783 6605.000000
1389.762085 6450.000000
1391.420410 6529.000000
1393.078003 6877.000000
1394.734375 6529.000000
1396.389893 7003.000000
1398.044189 6365.000000
1399.697632 5899.000000
1401.349976 6174.000000
1403.001587 6519.000000
1404.651978 7199.000000
1406.301270 6362.000000
1407.949829 7543.000000
1409.597290 7916.000000
1411.243774 6198.000000
1412.889404 6286.000000
1414.534058 6049.000000
1416.177490 7059.000000
1417.820068 7145.000000
1419.461548 6880.000000
1421.102173 6584.000000
1422.741821 6463.000000
1424.380371 6075.000000
1426.018066 6675.000000
1427.654663 6392.000000
1429.290283 6041.000000
1430.925171 6394.000000
1432.558960 5870.000000
1434.191650 6191.000000
1435.823364 5732.000000
1437.454224 6166.000000
1439.083984 5997.000000
1440.712646 7800.000000
1442.340698 6007.000000
1443.967651 6265.000000
1445.593384 6256.000000
1447.218506 6174.000000
1448.842529 6557.000000
1450.465576 6055.000000
1452.087646 6031.000000
1453.708618 7348.000000
1455.328613 6377.000000
1456.947876 6895.000000
1458.565796 5738.000000
1460.183105 5653.000000
1461.799438 5568.000000
1463.414551 7238.000000
1465.028809 6294.000000
1466.642212 5284.000000
1468.254517 5625.000000
1469.865967 6328.000000
1471.476563 6373.000000
1473.085938 6040.000000
1474.694336 5972.000000
1476.301880 6222.000000
1477.908447 6661.000000
1479.514282 5350.000000
1481.118896 6285.000000
1482.722656 5529.000000
1484.325195 6752.000000
1485.927124 5606.000000
1487.527832 5556.000000
1489.127808 5662.000000
1490.726685 6342.000000
1492.324707 6532.000000
1493.921631 6697.000000
1495.517700 6356.000000
1497.112793 6048.000000
1498.706909 5544.000000
1500.300293 6613.000000
1501.892578 5543.000000
1503.483643 6149.000000
1505.074219 6876.000000
1506.663452 6508.000000
1508.252075 6211.000000
1509.839600 6563.000000
1511.426025 6942.000000
1513.011719 6248.000000
1514.596313 6648.000000
1516.180054 6291.000000
1517.762695 6230.000000
1519.344604 6621.000000
1520.925415 6725.000000
1522.505493 6076.000000
1524.084351 6214.000000
1525.662354 6428.000000
1527.239624 6331.000000
1528.815674 5675.000000
1530.390991 5913.000000
1531.965210 6384.000000
1533.538696 5529.000000
1535.110962 5910.000000
1536.682495 6407.000000
1538.253052 6498.000000
1539.822754 6328.000000
1541.391235 5475.000000
1542.958984 6596.000000
1544.525879 5703.000000
1546.091553 6824.000000
1547.656494 6032.000000
1549.220337 5107.000000
1550.783569 7549.000000
1552.345459 6419.000000
1553.906738 6012.000000
1555.466919 5797.000000
1557.026367 5814.000000
1558.584717 6014.000000
1560.142334 6347.000000
1561.698853 7077.000000
1563.254150 5911.000000
1564.808838 6388.000000
1566.362793 5681.000000
1567.915771 6363.000000
1569.467407 5718.000000
1571.018311 5894.000000
1572.568481 6181.000000
1574.117676 6399.000000
1575.665527 5846.000000
1577.212891 5536.000000
1578.759277 5928.000000
1580.304810 5082.000000
1581.849365 6779.000000
1583.392700 6428.000000
1584.935425 6657.000000
1586.477295 6468.000000
1588.018066 6776.000000
1589.557861 5863.000000
1591.096924 6740.000000
1592.634888 5983.000000
1594.172363 6141.000000
1595.708496 5961.000000
1597.243530 6690.000000
1598.778076 6297.000000
1600.311646 5991.000000
1601.844360 5982.000000
1603.375488 6370.000000
1604.906372 6333.000000
1606.436401 5830.000000
1607.965210 6143.000000
1609.492920 6168.000000
1611.020020 6032.000000
1612.546387 5895.000000
1614.071777 6165.000000
1615.596313 5791.000000
1617.119507 5820.000000
1618.641968 5568.000000
1620.163696 6567.000000
1621.684570 6971.000000
1623.203979 6577.500000
1624.722900 6184.000000
1626.241089 6104.000000
1627.758423 5958.000000
1629.274658 6467.000000
1630.789551 7096.000000
1632.303955 6776.000000
1633.817627 5809.000000
1635.330200 6889.000000
1636.841553 6022.000000
1638.352539 6485.000000
1639.862427 6280.000000
1641.371460 6207.000000
1642.879150 5695.000000
1644.386475 6153.000000
1645.892944 7111.000000
1647.398438 6328.000000
1648.903076 6822.000000
1650.406250 6223.000000
1651.908813 6622.000000
1653.411011 6294.000000
1654.911865 6748.000000
1656.411621 7625.000000
1657.910522 5962.000000
1659.409058 6544.000000
1660.906372 6308.000000
1662.402954 5949.000000
1663.897949 6563.000000
1665.392700 6353.000000
1666.886597 5285.000000
1668.379517 5624.000000
1669.871094 6071.500000
1671.362183 6519.000000
1672.852661 6122.000000
1674.342041 5963.000000
1675.829956 7029.000000
1677.317627 6889.000000
1678.804321 6131.000000
1680.290161 5401.000000
1681.775146 6127.000000
1683.258667 6163.000000
1684.741943 6390.000000
1686.224365 5874.000000
1687.705688 6263.000000
1689.185547 6307.000000
1690.665161 5659.000000
1692.144043 6628.000000
1693.621948 6065.000000
1695.098877 6170.000000
1696.574585 5823.000000
1698.049927 6062.000000
1699.524048 6348.000000
1700.997559 5475.000000
1702.469604 5644.000000
1703.941406 6902.000000
1705.412231 6436.000000
1706.882202 7137.000000
1708.350830 5146.000000
1709.818970 5849.000000
1711.286377 6429.000000
1712.752686 5532.000000
1714.218384 5839.000000
1715.682373 6189.000000
1717.146240 6074.000000
1718.609253 6967.000000
1720.071289 6369.000000
1721.532104 6663.000000
1722.992310 5522.000000
1724.451782 5713.000000
1725.910400 6203.000000
1727.368042 6014.000000
1728.824341 6326.000000
1730.280396 6105.000000
1731.735474 6475.000000
1733.189575 6034.000000
1734.642456 6900.000000
1736.095093 6032.000000
1737.546631 6806.000000
1738.997437 5999.000000
1740.447266 6593.000000
1741.895752 5977.000000
1743.343872 7325.000000
1744.791138 6624.000000
1746.237671 6715.000000
1747.682617 6723.000000
1749.127319 6187.000000
1750.571167 5791.000000
1752.014160 5521.000000
1753.455688 6586.000000
1754.896973 6379.000000
1756.337402 6336.500000
1757.776855 6294.000000
1759.215332 5310.000000
1760.652832 6129.000000
1762.089844 7550.000000
1763.525879 5911.000000
1764.961060 7176.000000
1766.394775 6244.000000
1767.828369 6455.000000
1769.260986 6709.000000
1770.692749 5907.000000
1772.123657 5788.000000
1773.553345 6376.000000
1774.982300 6243.000000
1776.410767 6314.000000
1777.838257 6702.000000
1779.264404 6253.000000
1780.690308 5645.000000
1782.115112 6942.000000
1783.539307 5633.000000
1784.962036 6669.000000
1786.384277 6586.000000
1787.805786 6959.000000
1789.226563 5940.000000
1790.646362 6070.000000
1792.064819 6195.000000
1793.482788 6949.000000
1794.900146 5531.000000
1796.316650 6141.000000
1797.731689 6580.000000
1799.146362 5847.000000
1800.560425 6618.000000
1801.973267 6035.000000
1803.385498 6971.000000
1804.796387 7132.000000
1806.206787 7799.000000
1807.616455 6504.000000
1809.025146 6023.000000
1810.432739 5511.000000
1811.839844 6489.000000
1813.246094 6474.000000
1814.651367 6745.000000
1816.055542 6039.000000
1817.459351 6003.000000
1818.862183 6279.000000
1820.264160 6069.000000
1821.665527 5882.000000
1823.065430 6359.000000
1824.464722 6590.000000
1825.863525 6615.000000
1827.261475 7567.000000
1828.658081 5808.000000
1830.054077 6759.000000
1831.449341 5885.000000
1832.843994 8219.000000
1834.237671 6019.000000
1835.630005 6908.000000
1837.021851 6463.000000
1838.413086 5959.000000
1839.803345 7127.000000
1841.192383 6039.000000
1842.581055 6140.000000
1843.968750 6003.000000
1845.355713 5835.000000
1846.741333 6970.000000
1848.126709 5894.000000
1849.511230 6365.000000
1850.895020 6314.000000
1852.277710 6398.000000
1853.659180 5429.000000
1855.040161 6544.000000
1856.420654 6399.000000
1857.800171 5797.000000
1859.178223 5985.000000
1860.556152 6315.000000
1861.933105 7869.000000
1863.309326 6114.000000
1864.684692 6139.000000
1866.058594 5687.000000
1867.432373 5722.000000
1868.805298 6227.000000
1870.177124 5952.000000
1871.547974 6938.000000
1872.918457 5499.000000
1874.287842 6096.000000
1875.656738 6106.000000
1877.024048 7208.000000
1878.391235 6068.000000
1879.757446 5954.000000
1881.122925 6861.000000
1882.487671 7573.000000
1883.850830 6828.000000
1885.213867 6976.000000
1886.576050 6404.000000
1887.937378 6526.000000
1889.297363 5671.000000
1890.656982 5796.000000
1892.015991 6200.000000
1893.374023 6685.000000
1894.731201 7328.000000
1896.087158 6014.000000
1897.442871 7624.000000
1898.797607 5896.000000
1900.151489 5634.000000
1901.504272 5929.000000
1902.856567 6012.000000
1904.208130 5961.000000
1905.558838 6904.000000
1906.908325 6604.000000
1908.257324 6658.000000
1909.605469 5757.000000
1910.953003 6171.000000
1912.299805 6357.000000
1913.645020 6852.000000
1914.989990 6137.000000
1916.334229 5535.000000
1917.677612 6595.000000
1919.019653 6010.000000
1920.361450 6740.000000
1921.702393 6998.000000
1923.042603 6254.000000
1924.381836 6327.000000
1925.720093 6293.000000
1927.057739 6524.000000
1928.394653 7036.000000
1929.730713 6780.000000
1931.065552 5611.000000
1932.400024 6755.000000
1933.733765 7293.000000
1935.066650 6285.000000
1936.398071 5816.000000
1937.729614 6395.000000
1939.059814 6698.000000
1940.389526 5795.000000
1941.718384 6142.000000
1943.046021 5848.000000
1944.373169 5071.000000
1945.699585 5880.000000
1947.025269 6575.000000
1948.349609 5761.000000
1949.673706 6648.000000
1950.996948 6327.000000
1952.319458 6504.000000
1953.640869 5887.000000
1954.961304 7514.000000
1956.281128 6053.000000
1957.600586 5599.000000
1958.919067 6864.000000
1960.236206 5942.000000
1961.552979 5868.000000
1962.869019 6487.000000
1964.184326 6642.000000
1965.498169 6348.000000
1966.811768 5761.000000
1968.124634 6248.000000
1969.436646 6051.000000
1970.748047 6041.000000
1972.058105 6297.000000
1973.367676 5895.000000
1974.676514 6204.000000
1975.984741 6574.000000
1977.291626 6127.000000
1978.597900 7319.000000
1979.903809 5650.000000
1981.208496 6445.000000
1982.512695 5960.000000
1983.815674 5770.000000
1985.118286 7686.000000
1986.419922 6152.000000
1987.720947 6731.000000
1989.020386 6108.000000
1990.319946 6600.000000
1991.618408 5288.000000
1992.916382 6065.000000
1994.212769 6147.000000
1995.509155 5804.000000
1996.804565 5632.000000
1998.099243 6560.000000
1999.393066 5786.000000
2000.685669 6575.000000
2001.977783 5740.000000
2003.269409 7220.000000
2004.560303 6461.000000
2005.849609 6272.000000
2007.138672 6863.000000
2008.427002 6068.000000
2009.714600 6088.000000
2011.001343 6631.000000
2012.286987 5661.000000
2013.572266 6446.000000
2014.856567 6052.000000
2016.140259 5608.000000
2017.422607 6095.000000
2018.704590 6519.000000
2019.986084 6884.000000
2021.266602 5972.000000
2022.546387 6096.000000
2023.825073 6839.000000
2025.103027 5850.000000
2026.380493 5912.000000
2027.657349 6324.000000
2028.932495 5733.000000
2030.207764 6551.000000
2031.482056 6081.000000
2032.755371 5949.000000
2034.027832 5988.000000
2035.299927 6122.000000
2036.570923 6919.000000
2037.841675 6655.000000
2039.111084 6066.000000
2040.379395 6780.000000
2041.647705 6596.000000
2042.915039 5974.000000
2044.181641 5978.000000
2045.447021 5641.000000
2046.711792 5585.000000
2047.976318 5481.000000
2049.239502 5929.000000
2050.502441 6477.000000
2051.763428 6202.000000
2053.024902 6174.000000
2054.285156 5942.000000
2055.544678 6478.000000
2056.803467 6263.000000
2058.061279 6901.000000
2059.318604 6189.000000
2060.575195 6101.000000
2061.830322 6537.000000
2063.085449 5711.000000
2064.339600 5635.000000
2065.593018 5682.000000
2066.845703 6886.000000
2068.097168 6307.000000
2069.348389 6278.000000
2070.598877 5683.000000
2071.848633 5464.000000
2073.096924 6529.000000
2074.345215 6534.000000
2075.592529 7409.000000
2076.839111 5607.000000
2078.084961 6104.000000
2079.329590 7027.000000
2080.573730 7649.000000
2081.817383 5522.000000
2083.060059 6066.000000
2084.301514 7060.000000
2085.542725 5983.000000
2086.783447 6415.000000
2088.023193 6840.000000
2089.261719 7145.000000
2090.499756 6305.000000
2091.737061 5774.000000
2092.974121 6707.000000
2094.209717 6181.000000
2095.444580 6242.000000
2096.679199 6130.000000
2097.912842 5684.000000
2099.145508 6118.000000
2100.377441 6883.000000
2101.608887 6440.000000
2102.839355 6801.000000
2104.069092 6073.000000
2105.298584 6017.000000
2106.526123 6035.000000
2107.753906 6069.000000
2108.980957 6370.000000
2110.207031 5527.000000
2111.431641 6411.000000
2112.656494 7011.000000
2113.880127 7158.000000
2115.103271 6260.000000
2116.325195 7623.000000
2117.546875 6086.000000
2118.767578 6887.000000
2119.987549 6021.000000
2121.207031 6180.000000
2122.425049 6614.000000
2123.643066 7077.000000
2124.860107 5806.000000
2126.076660 5855.000000
2127.291504 6576.000000
2128.506592 6377.000000
2129.720703 6958.000000
2130.934082 5756.000000
2132.146729 6162.000000
2133.357910 5876.000000
2134.569336 6546.000000
2135.779541 6892.000000
2136.989258 5964.000000
2138.197510 6192.000000
2139.405762 5701.000000
2140.613281 5908.000000
2141.819580 7528.000000
2143.025146 5917.000000
2144.230469 5729.000000
2145.434814 5539.000000
2146.638428 6369.000000
2147.841553 6276.000000
2149.043213 6619.000000
2150.244629 5371.000000
2151.445313 6307.000000
2152.645264 6110.000000
2153.843994 5929.000000
2155.042480 6930.000000
2156.240479 6274.000000
2157.437500 6054.000000
2158.633789 5184.000000
2159.828857 5271.000000
2161.023682 6169.000000
2162.217773 5661.000000
2163.410889 6156.000000
2164.603027 6976.000000
2165.794922 5962.000000
2166.986084 6375.000000
2168.176270 6335.000000
2169.365723 6528.000000
2170.554688 6844.000000
2171.742676 6048.000000
2172.930420 5786.000000
2174.116699 5922.000000
2175.302246 6612.000000
2176.487549 6028.000000
2177.672363 5945.000000
2178.855957 6416.000000
2180.038818 7544.000000
2181.220703 6325.000000
2182.402344 5977.000000
2183.583496 6590.000000
2184.763428 5652.000000
2185.942383 5588.000000
2187.120850 6395.000000
2188.299072 6899.000000
2189.476074 7292.000000
2190.652100 6785.000000
2191.827881 6097.000000
2193.003174 5667.000000
2194.177002 6718.000000
2195.350342 6192.000000
2196.523438 6203.000000
2197.695313 6474.000000
2198.866699 7147.000000
2200.037598 6364.000000
2201.206787 6921.000000
2202.375977 7570.000000
2203.544678 6329.000000
2204.712402 5906.000000
2205.879150 5661.000000
2207.045166 7247.000000
2208.210693 6741.000000
2209.375977 5974.000000
2210.539795 6793.000000
2211.703125 5527.000000
2212.865234 6203.000000
2214.027588 6178.000000
2215.188721 6752.000000
2216.348877 6747.000000
2217.508545 6354.000000
2218.667969 6611.000000
2219.826172 6417.000000
2220.983398 6340.000000
2222.140381 6791.000000
2223.296631 6616.000000
2224.452148 6811.000000
2225.606934 6263.000000
2226.760742 6477.000000
2227.913574 6083.000000
2229.066895 6960.000000
2230.218262 6235.000000
2231.369385 6266.000000
2232.519775 6546.000000
2233.669678 7710.000000
2234.818604 6372.000000
2235.967041 5202.000000
2237.114014 6880.000000
2238.261230 7065.000000
2239.407227 6124.000000
2240.552979 7244.000000
2241.697021 7373.000000
2242.841309 6781.000000
2243.984619 6195.000000
2245.127197 6033.000000
2246.268799 5772.000000
2247.410156 5871.000000
2248.550537 6459.000000
2249.690186 6499.000000
2250.829346 5879.000000
2251.967285 5844.000000
2253.105225 6279.000000
2254.242188 5359.000000
2255.378418 6414.000000
2256.513672 6179.000000
2257.648193 7312.000000
2258.782471 6494.000000
2259.916260 5466.000000
2261.048584 6169.000000
2262.180420 6823.000000
2263.311768 6269.000000
2264.442139 6532.000000
2265.572266 8100.000000
2266.701172 6763.000000
2267.829590 6135.000000
2268.957520 5623.000000
2270.084473 6165.000000
2271.210693 6025.000000
2272.335938 6747.000000
2273.461182 6527.000000
2274.585693 6538.000000
2275.708984 5935.000000
2276.831543 6379.000000
2277.953613 6018.000000
2279.075195 7423.000000
2280.196045 6416.000000
2281.315674 6498.000000
2282.434814 7191.000000
2283.553711 7717.000000
2284.671875 7302.000000
2285.789063 5916.000000
2286.905273 6496.000000
2288.021240 7011.000000
2289.136475 6902.000000
2290.250977 7412.000000
2291.364258 5781.000000
2292.477539 6361.000000
2293.590088 5987.000000
2294.701904 5489.000000
2295.812988 6753.000000
2296.922852 6471.000000
2298.032227 6175.000000
2299.141357 6707.000000
2300.249512 6299.000000
2301.356689 6779.000000
2302.463623 5950.000000
2303.569824 6211.000000
2304.675537 6635.000000
2305.779785 6631.000000
2306.883789 5523.000000
2307.987305 5808.000000
2309.090332 6566.000000
2310.192139 7435.000000
2311.293213 7358.000000
2312.393799 6639.000000
2313.493896 5588.000000
2314.593262 6433.000000
2315.691162 6619.000000
2316.789551 7029.000000
2317.886475 8266.000000
2318.983154 6985.000000
2320.079346 5827.000000
2321.173828 6922.000000
2322.268311 7527.000000
2323.362061 5805.000000
2324.455566 6078.000000
2325.547363 6503.000000
2326.639160 6989.000000
2327.730225 6178.000000
2328.820557 6359.000000
2329.909912 6932.000000
2330.999268 6038.000000
2332.087402 6335.000000
2333.175049 6832.000000
2334.262451 6562.000000
2335.348145 6668.000000
2336.433594 7789.000000
2337.518799 6406.000000
2338.603027 6753.000000
2339.686279 5957.000000
2340.769287 6489.000000
2341.851318 7151.000000
2342.933105 6029.000000
2344.014160 7451.000000
2345.093994 6706.000000
2346.173340 5663.000000
2347.252197 6771.000000
2348.330566 6623.000000
2349.407471 6327.000000
2350.484131 6961.000000
2351.560547 6086.000000
2352.635986 6503.000000
2353.710449 5967.000000
2354.784668 6331.000000
2355.858154 6851.000000
2356.931152 6268.000000
2358.002930 7046.000000
2359.074463 6295.000000
2360.145020 6895.000000
2361.215332 7587.000000
2362.284668 7564.000000
2363.353027 6861.000000
2364.421143 6806.000000
2365.488525 7178.000000
2366.555420 7211.000000
2367.621582 6132.000000
2368.686523 6890.000000
2369.751465 7017.000000
2370.815674 6368.000000
2371.879150 6987.000000
2372.941406 5785.000000
2374.003662 6356.000000
2375.064941 6375.000000
2376.125977 6001.000000
2377.185791 6366.000000
2378.244873 7930.000000
2379.303955 6489.000000
2380.362061 7650.000000
2381.419434 6910.000000
2382.475830 8113.000000
2383.531982 7877.000000
2384.587646 6235.000000
2385.642578 7101.000000
2386.696045 6797.000000
2387.749756 6575.000000
2388.802490 6310.000000
2389.854736 6807.000000
2390.906250 6110.000000
2391.956787 6723.000000
2393.007080 6563.000000
2394.056396 6261.000000
2395.105713 6234.000000
2396.153564 7001.000000
2397.200928 7046.000000
2398.248047 6314.000000
2399.294189 6747.000000
2400.339600 6237.000000
2401.384277 6850.000000
2402.428955 7753.000000
2403.472168 7484.000000
2404.515381 6539.000000
2405.557129 5739.000000
2406.599121 6761.000000
2407.640381 7118.000000
2408.680664 6137.000000
2409.720215 6407.000000
2410.758789 6426.000000
2411.797607 5983.000000
2412.835205 6573.000000
2413.872559 6934.000000
2414.908691 7394.000000
2415.944580 6277.000000
2416.979736 6315.000000
2418.014404 6870.000000
2419.047607 7193.000000
2420.081055 6513.000000
2421.113525 6691.000000
2422.145752 6863.000000
2423.176514 7076.000000
2424.207275 6390.000000
2425.237549 6879.000000
2426.266602 6894.000000
2427.295654 6699.000000
2428.322998 7405.000000
2429.350830 6753.000000
2430.377441 7299.000000
2431.403809 6957.000000
2432.428711 7783.000000
2433.453857 6622.000000
2434.478027 7243.000000
2435.501953 6787.000000
2436.524658 5887.000000
2437.546631 6343.000000
2438.568359 6673.000000
2439.589355 6742.000000
2440.609863 6026.000000
2441.629150 6595.000000
2442.648438 6566.000000
2443.666748 8451.000000
2444.684814 6265.000000
2445.701416 6496.000000
2446.718018 6639.000000
2447.733887 5993.000000
2448.749756 7055.000000
2449.764160 6838.000000
2450.777832 5585.000000
2451.791016 7250.000000
2452.803955 6026.000000
2453.816162 7171.000000
2454.827393 6772.000000
2455.838379 7690.000000
2456.848633 6397.000000
2457.858398 7656.000000
2458.867188 5915.000000
2459.875244 5905.000000
2460.883301 6332.000000
2461.890137 7375.000000
2462.896729 5545.000000
2463.902100 7430.000000
2464.907227 6966.000000
2465.912109 5832.000000
2466.915771 6630.000000
2467.919189 6443.000000
2468.921631 7668.000000
2469.923828 7368.000000
2470.925537 6820.000000
2471.926270 6592.000000
2472.926025 6914.000000
2473.925781 6768.000000
2474.924561 5693.000000
2475.922852 6644.000000
2476.920166 7073.000000
2477.917236 6192.000000
2478.914307 7096.000000
2479.909912 5814.000000
2480.905518 7189.000000
2481.899414 6774.000000
2482.893311 8113.000000
2483.886719 6845.000000
2484.879639 6828.000000
2485.871582 7534.000000
2486.862793 7265.000000
2487.853760 6782.000000
2488.844238 5919.000000
2489.833740 6640.000000
2490.822510 6497.000000
2491.811279 5702.000000
2492.799072 6800.000000
2493.785645 6670.000000
2494.772217 8033.000000
2495.758301 6807.000000
2496.743652 7113.000000
2497.728027 8452.000000
2498.712158 6092.000000
2499.696289 6883.000000
2500.678955 5735.000000
2501.661133 7062.000000
2502.642822 6968.000000
2503.623779 7356.000000
2504.604248 6575.000000
2505.584473 5818.000000
2506.563232 6361.000000
2507.541748 7573.000000
2508.519775 6836.000000
2509.497314 7094.000000
2510.473877 6080.000000
2511.450195 5958.000000
2512.425781 6471.000000
2513.400879 6284.000000
2514.375488 6489.000000
2515.348877 7533.000000
2516.322021 6849.000000
2517.294922 6922.000000
2518.266846 6164.000000
2519.238037 6823.000000
2520.208740 6958.000000
2521.179199 7778.000000
2522.148926 8104.000000
2523.117676 6121.000000
2524.085693 6158.000000
2525.053711 7852.000000
2526.020752 6324.000000
2526.987549 5589.000000
2527.953125 7243.000000
2528.918701 7088.000000
2529.883545 7772.000000
2530.847900 6365.000000
2531.811035 6374.000000
2532.774414 5871.000000
2533.736816 6016.000000
2534.698975 6729.000000
2535.659912 6470.000000
2536.620117 6172.000000
2537.580566 6166.000000
2538.540039 6792.000000
2539.498779 6814.000000
2540.456543 6736.000000
2541.414551 6289.000000
2542.371826 6745.000000
2543.328125 6096.000000
2544.284180 7172.000000
2545.239014 6252.000000
2546.194092 7715.000000
2547.148438 7070.000000
2548.102051 6409.000000
2549.054688 7328.000000
2550.007080 6737.000000
2550.958984 7039.000000
2551.910156 6504.000000
2552.860596 7798.000000
2553.810547 7356.000000
2554.760254 7458.000000
2555.709229 6599.000000
2556.657715 6240.000000
2557.604980 7145.000000
2558.552246 6345.000000
2559.498779 6597.000000
2560.444824 6774.000000
2561.389893 7396.000000
2562.334717 6774.000000
2563.279053 7175.000000
2564.222900 6911.000000
2565.166260 6668.000000
2566.108154 6593.000000
2567.050293 6536.000000
2567.991699 6203.000000
2568.932373 7186.000000
2569.872314 7276.000000
2570.812256 5682.000000
2571.751221 6252.000000
2572.689941 7539.000000
2573.627686 7252.000000
2574.565186 5500.000000
2575.501953 7008.000000
2576.437988 6825.000000
2577.373535 7495.000000
2578.308350 6461.000000
2579.243164 6029.000000
2580.177002 7084.000000
2581.110352 7091.000000
2582.042969 5907.000000
2582.975342 6942.000000
2583.906982 5486.000000
2584.838135 7164.000000
2585.768799 7071.000000
2586.698242 6962.000000
2587.627686 7240.000000
2588.556641 6496.000000
2589.485352 7592.000000
2590.412354 7447.000000
2591.339600 5988.000000
2592.266357 6857.000000
2593.192383 6368.000000
2594.118164 5637.000000
2595.042725 7638.000000
2595.967041 7636.000000
2596.890869 5398.000000
2597.814209 7325.000000
2598.736572 6343.000000
2599.658691 6824.000000
2600.580322 8305.000000
2601.501221 6413.000000
2602.421387 5946.000000
2603.341309 6446.000000
2604.260742 6433.000000
2605.179932 6474.000000
2606.098145 5819.000000
2607.015137 6032.000000
2607.932373 7297.000000
2608.849365 5899.000000
2609.765381 7573.000000
2610.680176 6686.000000
2611.595459 6664.000000
2612.510010 6550.000000
2613.423584 6618.000000
2614.337158 6139.000000
2615.249512 7732.000000
2616.161865 7041.000000
2617.073242 6817.000000
2617.984375 5749.000000
2618.894775 7230.000000
2619.804932 6736.000000
2620.714355 6191.000000
2621.623291 6622.000000
2622.531250 6319.000000
2623.439453 6869.000000
2624.346680 6648.000000
2625.253418 7098.000000
2626.159424 6008.000000
2627.065186 6614.000000
2627.970215 6443.000000
2628.875000 7840.000000
2629.779053 6497.000000
2630.682129 6425.000000
2631.585205 6452.000000
2632.487305 5719.000000
2633.389404 6844.000000
2634.291260 7023.000000
2635.191406 6750.000000
2636.091797 6445.000000
2636.991455 6447.000000
2637.890869 6057.000000
2638.788818 6907.000000
2639.687256 6741.000000
2640.585205 6411.000000
2641.482422 6106.000000
2642.378418 6238.000000
2643.274414 6927.000000
2644.170166 6175.000000
2645.065186 6506.000000
2645.959961 6681.000000
2646.853271 7192.000000
2647.746582 6359.000000
2648.639648 6786.000000
2649.532471 6441.000000
2650.423584 7507.000000
2651.314941 6505.000000
2652.205811 7651.000000
2653.095947 7329.000000
2653.985840 6602.000000
2654.874512 7339.000000
2655.763428 6762.000000
2656.651855 6670.000000
2657.539307 7330.000000
2658.425781 6472.000000
2659.312744 7222.000000
2660.198975 6904.000000
2661.084717 6888.000000
2661.969238 6536.000000
2662.853760 6428.000000
2663.738037 6269.000000
2664.621582 7237.000000
2665.504639 7740.000000
2666.386963 7361.000000
2667.268799 6248.000000
2668.149902 6650.000000
2669.031250 6134.000000
2669.911133 6608.000000
2670.791260 7439.000000
2671.670654 7276.000000
2672.550049 6220.000000
2673.428711 6101.000000
2674.305664 6480.000000
2675.183350 6742.000000
2676.060303 6444.000000
2676.936523 8100.000000
2677.812256 7243.000000
2678.687256 6237.000000
2679.562500 7777.000000
2680.436768 7020.000000
2681.310547 7364.000000
2682.183594 7034.000000
2683.056396 6207.000000
2683.928955 6131.000000
2684.800781 6945.000000
2685.671875 6621.000000
2686.542725 6909.000000
2687.413086 7154.000000
2688.283203 6735.000000
2689.151611 6338.000000
2690.020752 7395.000000
2690.889160 7230.000000
2691.757324 6653.000000
2692.624756 6943.000000
2693.490967 5845.000000
2694.357666 7162.000000
2695.223389 7453.000000
2696.089111 7218.000000
2696.953369 7951.000000
2697.818359 6698.000000
2698.681885 7297.000000
2699.545654 5975.000000
2700.407959 7468.000000
2701.270752 6859.000000
2702.132568 5940.000000
2702.993896 6907.000000
2703.855225 6766.000000
2704.715332 7476.000000
2705.575439 7387.000000
2706.435059 6648.000000
2707.294434 6886.000000
2708.152100 7197.000000
2709.010010 6913.000000
2709.868408 7358.000000
2710.725586 6720.000000
2711.582031 6045.000000
2712.437988 6919.000000
2713.293945 6118.000000
2714.149170 7009.000000
2715.003662 6125.000000
2715.857666 6823.000000
2716.711670 7303.000000
2717.564697 6312.000000
2718.417969 6487.000000
2719.269531 7778.000000
2720.121582 6794.000000
2720.973389 6315.000000
2721.823975 6529.000000
2722.674561 6526.000000
2723.524658 7088.000000
2724.374023 7081.000000
2725.223389 7035.000000
2726.071533 6715.000000
2726.919189 6633.000000
2727.767334 6992.000000
2728.614258 6890.000000
2729.461670 5539.000000
2730.307617 7486.000000
2731.152832 7039.000000
2731.998535 6488.000000
2732.843262 7028.000000
2733.687988 7459.000000
2734.531494 6973.000000
2735.375244 7914.000000
2736.218262 7185.000000
2737.060791 6081.000000
2737.902344 6258.000000
2738.744385 6930.000000
2739.585449 6925.000000
2740.426270 5883.000000
2741.266846 5939.000000
2742.106201 7837.000000
2742.945557 6901.000000
2743.784912 6986.000000
2744.623047 6858.000000
2745.460693 7935.000000
2746.298340 6434.000000
2747.135498 7142.000000
2747.972412 6281.000000
2748.808838 6029.000000
2749.644043 6727.000000
2750.479492 6377.000000
2751.314453 6356.000000
2752.148682 6303.000000
2752.982666 6966.000000
2753.816162 6887.000000
2754.649658 8039.000000
2755.482178 6792.000000
2756.314209 7286.000000
2757.145752 6841.000000
2757.977295 7122.000000
2758.807861 7171.000000
2759.638672 7224.000000
2760.468262 7376.000000
2761.297852 6763.000000
2762.127197 7252.000000
2762.955811 6854.000000
2763.783936 6797.000000
2764.611572 6965.000000
2765.439209 6607.000000
2766.266357 7945.000000
2767.092773 5800.000000
2767.918701 7546.000000
2768.744141 6907.000000
2769.569336 7870.000000
2770.394531 7138.000000
2771.218506 6877.000000
2772.042480 6593.000000
2772.866455 7662.000000
2773.689209 6684.000000
2774.512207 6825.000000
2775.333984 6934.000000
2776.155762 7055.000000
2776.977539 6512.000000
2777.798340 7976.000000
2778.618408 6610.000000
2779.438721 6968.000000
2780.258545 7331.000000
2781.078369 6461.000000
2781.896240 5948.000000
2782.715332 8096.000000
2783.533203 6556.000000
2784.350830 6774.000000
2785.167969 7178.000000
2785.984619 7316.000000
2786.801025 7208.000000
2787.616943 6221.000000
2788.432617 5965.000000
2789.247314 6456.000000
2790.062500 7064.000000
2790.876953 7264.000000
2791.690918 6630.000000
2792.504639 7446.000000
2793.317139 8777.000000
2794.129883 7013.000000
2794.942139 7496.000000
2795.753906 7280.000000
2796.564941 7353.000000
2797.376709 6563.000000
2798.187256 7287.000000
2798.997803 7096.000000
2799.806885 7468.000000
2800.616699 8295.000000
2801.425781 7858.000000
2802.234619 6695.000000
2803.042969 7216.000000
2803.850342 6189.000000
2804.658203 6610.000000
2805.465332 6973.000000
2806.272217 6990.000000
2807.077881 7113.000000
2807.884033 6715.000000
2808.689453 6528.000000
2809.494873 7386.000000
2810.299561 6276.000000
2811.103271 7711.000000
2811.907471 7539.000000
2812.711182 6385.000000
2813.514648 6181.000000
2814.316650 6349.000000
2815.119385 7350.000000
2815.921387 7910.000000
2816.723145 6239.000000
2817.524414 6562.000000
2818.325195 7298.000000
2819.125488 6560.000000
2819.926025 6773.000000
2820.725586 8090.000000
2821.524658 7205.000000
2822.323730 6565.000000
2823.122559 6989.000000
2823.920898 6443.000000
2824.718262 7068.000000
2825.515869 7451.000000
2826.312744 6730.000000
2827.109863 7398.000000
2827.906250 8155.000000
2828.701904 7061.000000
2829.497559 7391.000000
2830.292969 7652.000000
2831.087891 7489.000000
2831.882080 6631.000000
2832.676270 6882.000000
2833.470215 5767.000000
2834.263672 6861.000000
2835.056396 7223.000000
2835.848877 8278.000000
2836.641357 7737.000000
2837.433594 7542.000000
2838.225342 6523.000000
2839.016113 6798.000000
2839.806885 8860.000000
2840.597900 7554.000000
2841.387939 6252.000000
2842.177490 7670.000000
2842.967285 7260.000000
2843.756104 7432.000000
2844.544922 7825.000000
2845.333740 7760.000000
2846.121582 7581.000000
2846.908936 7216.000000
2847.696533 7580.000000
2848.483643 7343.000000
2849.270020 6704.000000
2850.056396 7471.000000
2850.842529 7229.000000
2851.628174 7572.000000
2852.412842 7210.000000
2853.197998 6897.000000
2853.982910 7502.000000
2854.767090 7206.000000
2855.551270 6956.000000
2856.334229 8356.000000
2857.117432 6879.000000
2857.900391 6816.000000
2858.682861 7849.000000
2859.465088 6252.000000
2860.246826 6621.000000
2861.028320 7590.000000
2861.810059 7585.000000
2862.591064 7694.000000
2863.371338 6633.000000
2864.151367 6775.000000
2864.931396 8217.000000
2865.711182 7539.000000
2866.489990 8164.000000
2867.269043 7746.000000
2868.047607 6883.000000
2868.825928 7095.000000
2869.603760 7270.000000
2870.381348 7037.000000
2871.158691 7428.000000
2871.935791 7019.000000
2872.712402 6463.000000
2873.488525 7485.000000
2874.264648 7202.000000
2875.040283 8368.000000
2875.815674 7266.000000
2876.590576 6602.000000
2877.365234 8027.000000
2878.139893 6640.000000
2878.914307 7841.000000
2879.687988 6825.000000
2880.460938 7217.000000
2881.234619 6735.000000
2882.007324 7616.000000
2882.780029 7943.000000
2883.552002 8307.000000
2884.323730 6254.000000
2885.095947 6783.000000
2885.866943 6952.000000
2886.637451 6243.000000
2887.408447 8479.000000
2888.179443 7456.000000
2888.949707 7966.000000
2889.718994 7629.000000
2890.488525 6971.000000
2891.258057 7310.000000
2892.027100 7341.000000
2892.795654 7925.000000
2893.564209 7679.000000
2894.331787 6994.000000
2895.099854 6656.000000
2895.867432 7526.000000
2896.635010 8382.000000
2897.401367 7419.000000
2898.168701 6552.000000
2898.934814 7360.000000
2899.701172 7045.000000
2900.466064 8432.000000
2901.231445 7003.000000
2901.997314 6501.000000
2902.761719 7824.000000
2903.526123 7782.000000
2904.290771 8433.000000
2905.054443 6639.000000
2905.818848 8442.000000
2906.582520 6713.000000
2907.345459 8444.000000
2908.108154 6539.000000
2908.871338 8979.000000
2909.634033 7088.000000
2910.395508 6846.000000
2911.157471 6846.000000
