scanname Analyse011
timestamp 2017-02-10 20:03:41
ccdbias 905.755859
ccdgain 3.473401
sigmaread 8.960639
laserwavenum -0.494394
wavenumcorrection 0.028570
scancount 1
totalexposurems 10000
singleexposurems 10000
measurementstate Unknown
scanmode Manual
snr 239.862015 6.453246 5.642805
replacelist 3
374 46187.000000 15051.000000
383 45934.000000 12159.000000
672 37591.000000 31428.000000
peaks 49
278.189484 0.690951 0.000000 1.544908 0.000191
284.468658 0.690434 0.000000 0.867445 0.000063
293.475128 0.692306 0.000000 0.622912 0.000028
301.418518 0.692770 0.000000 0.285104 0.000027
332.144562 0.708967 0.000000 0.787881 0.000135
342.106506 0.709638 0.000000 0.692739 0.000032
350.956177 0.713376 0.000000 0.531964 0.000021
360.475861 0.717204 0.000000 0.795974 0.000065
386.393219 0.718326 0.000000 1.400245 0.000299
448.837555 0.716921 0.000000 0.423859 0.000048
464.595032 0.728105 0.000000 0.417201 0.000036
487.358490 0.736926 0.000000 0.681920 0.000094
493.272217 0.733034 0.000000 0.178264 0.000038
533.646118 0.732733 0.000000 0.659881 0.000145
559.567322 0.760850 0.000000 1.032910 0.000192
574.196045 0.765780 0.000000 0.398911 0.000056
582.499695 0.761350 0.000000 0.604737 0.000098
660.649780 0.763013 0.000000 0.935555 0.000094
673.650024 0.763182 0.000000 1.308168 0.000248
715.435059 0.754110 0.000000 5.039408 0.001017
740.474060 0.743032 0.000000 0.759261 0.000088
751.286743 0.744148 0.000000 0.475578 0.000028
764.771973 0.760619 0.000000 1.654891 0.000476
778.645142 0.746715 0.000000 1.002092 0.000153
830.425659 0.720395 0.000000 0.968708 0.000154
852.509766 0.728475 0.000000 0.585104 0.000185
874.728943 0.732828 0.000000 2.020194 0.000395
939.457825 0.711558 0.000000 1.053228 0.000185
955.106323 0.709305 0.000000 2.971038 0.000829
976.513000 0.690654 0.000000 0.265725 0.000065
1010.269226 0.681188 0.000000 0.755185 0.000159
1027.958984 0.690243 0.000000 0.807042 0.000169
1034.482300 0.686852 0.000000 0.587986 0.000041
1044.725830 0.695311 0.000000 3.425249 0.001001
1101.889771 0.658500 0.000000 1.226577 0.000340
1121.512085 0.664536 0.000000 0.595993 0.000156
1126.945313 0.659669 0.000000 0.701001 0.000064
1135.697754 0.664773 0.000000 1.899829 0.000704
1150.030518 0.655272 0.000000 1.864867 0.000687
1172.106689 0.643806 0.000000 0.712447 0.000265
1210.628662 0.639042 0.000000 0.284493 0.000045
1236.146729 0.639240 0.000000 1.106368 0.000249
1258.898071 0.629451 0.000000 0.390504 0.000145
1320.306152 0.702643 0.000000 6.460966 0.002310
1382.710327 0.605410 0.000000 0.332312 0.000056
1454.895996 0.631039 0.000000 7.483832 0.003089
1606.626099 0.545762 0.000000 0.219645 0.000064
1613.907715 0.546750 0.000000 0.709852 0.000296
1663.012817 0.548193 0.000000 2.778025 0.001239
finalresult GLS_NoMatch 0
spectrum 2048
-97.107063 45608.000000
-94.480194 45608.000000
-91.855202 46189.000000
-89.232101 46030.000000
-86.610870 46964.000000
-83.991539 46698.000000
-81.374069 47044.000000
-78.758476 46822.000000
-76.144760 47109.000000
-73.532921 47284.000000
-70.922943 47321.000000
-68.314850 47488.000000
-65.708603 47468.000000
-63.104229 47494.000000
-60.501720 47436.000000
-57.901066 47890.000000
-55.302273 47217.000000
-52.705338 46680.000000
-50.110256 47052.000000
-47.517029 46981.000000
-44.925652 47259.000000
-42.336121 46794.000000
-39.748432 47572.000000
-37.162594 47428.000000
-34.578598 46950.000000
-31.996441 47749.000000
-29.416128 47024.000000
-26.837643 47659.000000
-24.261000 47249.000000
-21.686182 47108.000000
-19.113205 46853.000000
-16.542048 46727.000000
-13.972723 46422.000000
-11.405226 45470.000000
-8.839546 46839.000000
-6.275692 46731.000000
-3.713651 47054.000000
-1.153435 47119.000000
1.404973 46599.000000
3.961560 45710.000000
6.516342 45779.000000
9.069307 46200.000000
11.620472 44894.000000
14.169823 44537.000000
16.717379 43747.000000
19.263123 43817.000000
21.807074 43075.000000
24.349220 40153.000000
26.889570 37925.000000
29.428135 34897.000000
31.964903 30990.000000
34.499870 21537.000000
37.033058 12342.000000
39.564465 8729.000000
42.094078 8181.000000
44.621895 7855.000000
47.147953 6974.000000
49.672222 6131.000000
52.194721 5395.000000
54.715424 4977.000000
57.234371 5046.000000
59.751545 5825.000000
62.266941 7394.000000
64.780556 8095.000000
67.292419 7767.000000
69.802536 6345.000000
72.310860 4329.000000
74.817429 3577.000000
77.322250 2842.000000
79.825317 2394.000000
82.326607 2118.000000
84.826157 2087.000000
87.323952 2007.000000
89.820015 2321.000000
92.314301 2836.000000
94.806847 2931.000000
97.297676 2874.000000
99.786736 2606.000000
102.274048 2042.000000
104.759636 1613.000000
107.243484 1459.000000
109.725586 1572.000000
112.205963 1448.000000
114.684616 1444.000000
117.161545 1341.000000
119.636719 1258.000000
122.110184 1357.000000
124.581917 1335.000000
127.051941 1501.000000
129.520218 1574.000000
131.986816 1800.000000
134.451660 1882.000000
136.914810 2223.000000
139.376221 2718.000000
141.835938 3284.000000
144.293930 4007.000000
146.750229 5025.000000
149.204819 6265.000000
151.657684 7612.000000
154.108871 9335.000000
156.558365 11414.000000
159.006134 13694.000000
161.452194 15983.000000
163.896576 18064.000000
166.339279 21203.000000
168.780289 23744.000000
171.219589 25968.000000
173.657181 26217.000000
176.093140 27840.000000
178.527359 28573.000000
180.959900 29587.000000
183.390793 31569.000000
185.819962 33298.000000
188.247482 35068.000000
190.673325 36443.000000
193.097488 37106.000000
195.519989 37450.000000
197.940796 38076.000000
200.359940 39940.000000
202.777420 41590.000000
205.193207 41015.000000
207.607346 42111.000000
210.019852 43309.000000
212.430679 43961.000000
214.839828 44160.000000
217.247345 43291.000000
219.653152 44715.000000
222.057373 44571.000000
224.459885 44575.000000
226.860779 44384.000000
229.260025 44935.000000
231.657608 44563.000000
234.053528 44225.000000
236.447830 44999.000000
238.840469 45332.000000
241.231491 44718.000000
243.620850 44994.000000
246.008591 45230.000000
248.394684 44586.000000
250.779144 45437.000000
253.161957 43684.000000
255.543198 44916.000000
257.922729 44865.000000
260.300690 45152.000000
262.676971 44034.000000
265.051697 43972.000000
267.424774 43649.000000
269.796204 45371.000000
272.165985 45071.000000
274.534210 45513.000000
276.900787 45132.000000
279.265778 44982.000000
281.629150 45490.000000
283.990875 45171.000000
286.351013 44354.000000
288.709534 45505.000000
291.066467 44952.000000
293.421783 45085.000000
295.775513 45526.000000
298.127594 45488.000000
300.478119 45187.000000
302.827057 45064.000000
305.174347 44622.000000
307.520111 44975.000000
309.864197 44905.000000
312.206757 44054.000000
314.547699 43821.000000
316.887024 44204.000000
319.224792 44350.000000
321.561005 43271.000000
323.895569 45048.000000
326.228577 44813.000000
328.560028 45296.000000
330.889893 44681.000000
333.218170 44890.000000
335.544830 44100.000000
337.869995 44921.000000
340.193542 45080.000000
342.515533 45247.000000
344.835968 43789.000000
347.154785 43603.000000
349.472046 45227.000000
351.787781 45512.000000
354.101929 44381.000000
356.414490 44961.000000
358.725494 45059.000000
361.034973 44281.000000
363.342926 44963.000000
365.649261 45626.000000
367.954010 44790.000000
370.257294 44869.000000
372.558960 45001.000000
374.859131 44934.000000
377.157745 45045.000000
379.454803 45572.000000
381.750305 45218.000000
384.044281 45494.000000
386.336670 46180.000000
388.627563 45739.000000
390.916931 45232.000000
393.204712 45196.000000
395.490967 44960.000000
397.775726 44388.000000
400.058868 45281.000000
402.340576 44975.000000
404.620758 45273.000000
406.899353 44032.000000
409.176422 44859.000000
411.451965 44458.000000
413.725983 44679.000000
415.998566 44710.000000
418.269531 44829.000000
420.539001 44786.000000
422.806976 44080.000000
425.073395 43949.000000
427.338318 44881.000000
429.601776 44829.000000
431.863647 44637.000000
434.124054 45072.000000
436.382904 44595.000000
438.640289 44919.000000
440.896179 45302.000000
443.150574 45201.000000
445.403442 45472.000000
447.654755 43982.000000
449.904663 44827.000000
452.152985 44608.000000
454.399872 45242.000000
456.645294 44336.000000
458.889160 44369.000000
461.131531 44351.000000
463.372406 45224.000000
465.611877 44156.000000
467.849762 45427.000000
470.086212 44935.000000
472.321136 44726.000000
474.554596 43668.000000
476.786621 44123.000000
479.017120 45134.000000
481.246124 44367.000000
483.473663 44492.000000
485.699707 44871.000000
487.924316 44270.000000
490.147461 44948.000000
492.369141 44426.000000
494.589264 44141.000000
496.807983 45154.000000
499.025208 44581.000000
501.241058 45205.000000
503.455292 44736.000000
505.668213 44354.000000
507.879547 44367.000000
510.089447 43834.000000
512.297913 44246.000000
514.505005 44216.000000
516.710510 44223.000000
518.914612 44058.000000
521.117188 44496.000000
523.318359 44004.000000
525.518188 43887.000000
527.716492 43590.000000
529.913269 45156.000000
532.108704 44588.000000
534.302612 44804.000000
536.495178 42809.000000
538.686218 43672.000000
540.875854 44247.000000
543.064087 43283.000000
545.250793 43056.000000
547.436035 43235.000000
549.619995 43812.000000
551.802368 43498.000000
553.983398 43670.000000
556.162903 43887.000000
558.341125 43958.000000
560.517822 43816.000000
562.693115 43500.000000
564.867004 43340.000000
567.039429 43866.000000
569.210449 43796.000000
571.380005 43403.000000
573.548279 44548.000000
575.715027 43444.000000
577.880310 43611.000000
580.044189 43675.000000
582.206787 44094.000000
584.367859 43805.000000
586.527527 44215.000000
588.685852 43942.000000
590.842651 43682.000000
592.998108 43281.000000
595.152161 44055.000000
597.304871 43691.000000
599.456055 42545.000000
601.605896 42968.000000
603.754395 42997.000000
605.901306 43695.000000
608.046997 43082.000000
610.191284 43118.000000
612.334106 42471.000000
614.475464 43306.000000
616.615601 42942.000000
618.754211 41663.000000
620.891541 43604.000000
623.027405 42650.000000
625.161865 42228.000000
627.294861 41892.000000
629.426697 42362.000000
631.557068 42367.000000
633.686035 42113.000000
635.813538 42284.000000
637.939758 42512.000000
640.064453 41364.000000
642.187927 42178.000000
644.310059 41762.000000
646.430725 41659.000000
648.550049 41849.000000
650.667969 42609.000000
652.784546 42600.000000
654.899719 41877.000000
657.013550 41798.000000
659.125916 42449.000000
661.237061 42127.000000
663.346802 42888.000000
665.455078 42254.000000
667.562195 42101.000000
669.667847 41554.000000
671.772034 42549.000000
673.875000 42651.000000
675.976563 41388.000000
678.076782 43189.000000
680.175598 41753.000000
682.273071 42342.000000
684.369263 41506.000000
686.463989 42260.000000
688.557495 41434.000000
690.649658 41670.000000
692.740295 40356.000000
694.829712 41556.000000
696.917847 41564.000000
699.004517 41945.000000
701.089966 41075.000000
703.173889 42483.000000
705.256592 41507.000000
707.338013 41352.000000
709.417969 39651.000000
711.496704 40870.000000
713.573975 41373.000000
715.649963 40277.000000
717.724670 40852.000000
719.798096 39830.000000
721.869995 40481.000000
723.940735 39385.000000
726.010132 40783.000000
728.078125 39925.000000
730.144775 40048.000000
732.210205 39254.000000
734.274292 40427.000000
736.337036 40030.000000
738.398438 39622.000000
740.458557 39503.000000
742.517273 39980.000000
744.574768 39366.000000
746.630981 39477.000000
748.685791 39260.000000
750.739319 39545.000000
752.791443 38424.000000
754.842346 40207.000000
756.892029 39186.000000
758.940247 39616.000000
760.987244 39810.000000
763.032959 38988.000000
765.077271 40653.000000
767.120300 40385.000000
769.162109 39697.000000
771.202576 39009.000000
773.241638 39384.000000
775.279541 39693.000000
777.316101 39750.000000
779.351440 40409.000000
781.385437 40001.000000
783.418030 38992.000000
785.449463 40394.000000
787.479492 40068.000000
789.508240 39742.000000
791.535828 39149.000000
793.562073 39105.000000
795.586914 39516.000000
797.610657 39778.000000
799.632996 38849.000000
801.654114 39323.000000
803.673889 38378.000000
805.692383 40076.000000
807.709656 38129.000000
809.725525 37962.000000
811.740234 38834.000000
813.753601 37973.000000
815.765747 37947.000000
817.776672 38023.000000
819.786255 37405.000000
821.794617 38560.000000
823.801575 38027.000000
825.807312 37626.000000
827.811829 37926.000000
829.815063 37910.000000
831.817017 36905.000000
833.817688 37402.000000
835.817139 37492.000000
837.815247 37016.000000
839.812256 36312.000000
841.807861 36929.000000
843.802307 37115.000000
845.795410 36860.000000
847.787292 36077.000000
849.777832 37312.000000
851.767090 35967.000000
853.755310 36831.000000
855.742126 37060.000000
857.727722 36454.000000
859.712036 35709.000000
861.695251 36742.000000
863.677063 36671.000000
865.657654 37204.000000
867.636963 35441.000000
869.615112 36118.000000
871.591919 36984.000000
873.567444 37034.000000
875.541931 37168.000000
877.514954 37294.000000
879.486938 37852.000000
881.457581 36883.000000
883.427063 37108.000000
885.395203 37508.000000
887.362183 37817.000000
889.327820 36736.000000
891.292297 37065.000000
893.255554 36792.000000
895.217590 36228.000000
897.178345 36934.000000
899.137878 36212.000000
901.096130 35897.000000
903.053284 36143.000000
905.009277 36380.000000
906.963867 35419.000000
908.917236 35648.000000
910.869446 35526.000000
912.820435 35358.000000
914.770142 34496.000000
916.718689 34927.000000
918.666016 34700.000000
920.612061 34540.000000
922.556824 34145.000000
924.500549 33776.000000
926.443115 33686.000000
928.384399 33921.000000
930.324341 32867.000000
932.263184 33546.000000
934.200745 33729.000000
936.137085 33304.000000
938.072266 33510.000000
940.006165 33234.000000
941.938965 33608.000000
943.870544 32734.000000
945.800964 34340.000000
947.730164 33292.000000
949.658020 32845.000000
951.584839 33195.000000
953.510376 33784.000000
955.434631 34532.000000
957.357788 34137.000000
959.279785 33706.000000
961.200500 33314.000000
963.120056 33941.000000
965.038452 35017.000000
966.955811 34010.000000
968.871704 34001.000000
970.786499 34260.000000
972.700073 34422.000000
974.612488 34025.000000
976.523682 33997.000000
978.433716 34807.000000
980.342468 34053.000000
982.250183 34144.000000
984.156677 33765.000000
986.061951 34279.000000
987.966125 33198.000000
989.869080 33801.000000
991.770813 33087.000000
993.671387 33226.000000
995.570801 32677.000000
997.468994 33744.000000
999.366028 32263.000000
1001.261841 32061.000000
1003.156494 30648.000000
1005.050049 32454.000000
1006.942322 30619.000000
1008.833679 31586.000000
1010.723694 32111.000000
1012.612488 30912.000000
1014.500122 31164.000000
1016.386597 30466.000000
1018.271912 30492.000000
1020.156067 31110.000000
1022.039001 31191.000000
1023.920898 30787.000000
1025.801514 31757.000000
1027.681030 31276.000000
1029.559570 31067.000000
1031.436768 31706.000000
1033.312622 31025.000000
1035.187500 31547.000000
1037.061401 30937.000000
1038.933838 30482.000000
1040.805298 30703.000000
1042.675415 31814.000000
1044.544556 31850.000000
1046.412476 31878.000000
1048.279297 30789.000000
1050.145020 31266.000000
1052.009521 31496.000000
1053.872925 31440.000000
1055.734985 31484.000000
1057.596069 31929.000000
1059.456055 31292.000000
1061.314697 31196.000000
1063.172241 31991.000000
1065.028687 31036.000000
1066.884033 31814.000000
1068.738159 31912.000000
1070.591431 31401.000000
1072.443237 31187.000000
1074.294067 31400.000000
1076.143677 31264.000000
1077.992065 31675.000000
1079.839600 29519.000000
1081.685791 31585.000000
1083.530762 30696.000000
1085.374878 31333.000000
1087.217651 31038.000000
1089.059204 30034.000000
1090.900024 30885.000000
1092.739258 30252.000000
1094.577759 30099.000000
1096.414917 29985.000000
1098.250854 29080.000000
1100.085815 28989.000000
1101.919556 29815.000000
1103.752319 29449.000000
1105.583740 29077.000000
1107.414307 27963.000000
1109.243530 28542.000000
1111.071777 28215.000000
1112.898804 27361.000000
1114.724854 29022.000000
1116.549683 28090.000000
1118.373413 27388.000000
1120.195923 28510.000000
1122.017334 28610.000000
1123.837891 28737.000000
1125.656982 28295.000000
1127.475220 27877.000000
1129.292114 27999.000000
1131.108154 28324.000000
1132.922974 28471.000000
1134.736694 29201.000000
1136.549316 29151.000000
1138.360718 29505.000000
1140.171143 29156.000000
1141.980469 28614.000000
1143.788452 28329.000000
1145.595703 29219.000000
1147.401489 29009.000000
1149.206421 29468.000000
1151.010254 29444.000000
1152.812866 28854.000000
1154.614624 28926.000000
1156.414917 28893.000000
1158.214233 28703.000000
1160.012573 28796.000000
1161.809570 29027.000000
1163.605835 28533.000000
1165.400757 28302.000000
1167.194580 27991.000000
1168.987549 26516.000000
1170.779175 28219.000000
1172.569824 27322.000000
1174.359497 27755.000000
1176.147705 27965.000000
1177.935059 26369.000000
1179.721313 26886.000000
1181.506470 27796.000000
1183.290527 27466.000000
1185.073486 25894.000000
1186.855469 27550.000000
1188.636230 27413.000000
1190.416016 27031.000000
1192.194702 26453.000000
1193.972412 26637.000000
1195.748901 25889.000000
1197.524292 26151.000000
1199.298584 25947.000000
1201.071777 25638.000000
1202.844116 25614.000000
1204.615112 25267.000000
1206.385254 25959.000000
1208.154175 25597.000000
1209.921997 25423.000000
1211.688965 25704.000000
1213.454590 25813.000000
1215.219238 25086.000000
1216.982788 25270.000000
1218.745239 25610.000000
1220.506836 24913.000000
1222.267212 25455.000000
1224.026489 25088.000000
1225.784912 25439.000000
1227.542114 24559.000000
1229.298218 25086.000000
1231.053223 25815.000000
1232.807373 25488.000000
1234.560181 25923.000000
1236.312012 25762.000000
1238.062988 25891.000000
1239.812622 26922.000000
1241.561401 25309.000000
1243.308838 25898.000000
1245.055542 25800.000000
1246.801025 25829.000000
1248.545654 25787.000000
1250.288940 25365.000000
1252.031250 25064.000000
1253.772461 25628.000000
1255.512817 25593.000000
1257.252075 25077.000000
1258.990112 24262.000000
1260.727295 23831.000000
1262.463257 24607.000000
1264.198242 24917.000000
1265.932251 24414.000000
1267.665283 25663.000000
1269.397095 25542.000000
1271.127930 25507.000000
1272.857544 24779.000000
1274.586304 25709.000000
1276.313965 25677.000000
1278.040527 25736.000000
1279.766235 25867.000000
1281.490601 25182.000000
1283.214111 26234.000000
1284.936646 24938.000000
1286.658203 25192.000000
1288.378540 25294.000000
1290.097900 25075.000000
1291.816162 24557.000000
1293.533447 24901.000000
1295.249756 25371.000000
1296.964844 24925.000000
1298.678955 25086.000000
1300.392090 25138.000000
1302.104370 24749.000000
1303.815430 23231.000000
1305.525513 24677.000000
1307.234497 23908.000000
1308.942261 23839.000000
1310.649414 23546.000000
1312.355103 24270.000000
1314.060059 24178.000000
1315.764038 25477.000000
1317.466797 26647.000000
1319.168579 26961.000000
1320.869507 28509.000000
1322.569092 25704.000000
1324.267822 24515.500000
1325.965820 23327.000000
1327.662476 22786.000000
1329.358032 22537.000000
1331.052734 22491.000000
1332.746216 22737.000000
1334.438843 22718.000000
1336.130615 22040.000000
1337.821045 22342.000000
1339.510742 22289.000000
1341.199341 22466.000000
1342.886841 21720.000000
1344.573364 22180.000000
1346.258789 22033.000000
1347.943237 22213.000000
1349.626831 21940.000000
1351.309204 22240.000000
1352.990601 22619.000000
1354.671143 22750.000000
1356.350464 22686.000000
1358.029175 23212.000000
1359.706543 22961.000000
1361.382813 23139.000000
1363.058105 23371.000000
1364.732666 23017.000000
1366.406006 23168.000000
1368.078369 22746.000000
1369.749756 23303.000000
1371.420166 22845.000000
1373.089478 22911.000000
1374.757813 23092.000000
1376.425293 23057.000000
1378.091675 22869.000000
1379.757080 22902.000000
1381.421509 22786.000000
1383.084717 22743.000000
1384.747314 22510.000000
1386.408569 22250.000000
1388.068970 22004.000000
1389.728271 22189.000000
1391.386597 21974.000000
1393.044189 21896.000000
1394.700562 21992.000000
1396.356079 21644.000000
1398.010376 21902.000000
1399.663818 22124.000000
1401.316162 22231.000000
1402.967773 22249.000000
1404.618164 21655.000000
1406.267456 21516.000000
1407.916016 20909.000000
1409.563477 20595.000000
1411.209961 20721.000000
1412.855591 20626.000000
1414.500244 20620.000000
1416.143677 20383.000000
1417.786255 20269.000000
1419.427734 20421.000000
1421.068359 20371.000000
1422.708008 20321.000000
1424.346558 20162.000000
1425.984253 20083.000000
1427.620850 19913.000000
1429.256470 20114.000000
1430.891357 19798.000000
1432.525146 19841.000000
1434.157837 19822.000000
1435.789551 19690.000000
1437.420410 19763.000000
1439.050171 19716.000000
1440.678833 19430.000000
1442.306885 19768.000000
1443.933838 19603.000000
1445.559570 19627.000000
1447.184692 19748.000000
1448.808716 19860.000000
1450.431763 20032.000000
1452.053833 20115.000000
1453.674805 20102.000000
1455.294800 20400.000000
1456.914063 20740.000000
1458.531982 24419.000000
1460.149292 15801.000000
1461.765625 20011.000000
1463.380737 19656.000000
1464.994995 19927.000000
1466.608398 20058.000000
1468.220703 20251.000000
1469.832153 20131.000000
1471.442749 20136.000000
1473.052124 20134.000000
1474.660522 20135.000000
1476.268066 20262.000000
1477.874634 20053.000000
1479.480469 20229.000000
1481.085083 19928.000000
1482.688843 19717.000000
1484.291382 19196.000000
1485.893311 18665.000000
1487.494019 18875.000000
1489.093994 18792.000000
1490.692871 18385.000000
1492.290894 18508.000000
1493.887817 18478.000000
1495.483887 19105.000000
1497.078979 19760.000000
1498.673096 19605.000000
1500.266479 19360.000000
1501.858765 19459.000000
1503.449829 19303.000000
1505.040405 19295.000000
1506.629639 19203.000000
1508.218262 18944.000000
1509.805786 18962.000000
1511.392212 18725.000000
1512.977905 18694.000000
1514.562500 18663.000000
1516.146240 18535.000000
1517.728882 18767.000000
1519.310791 18450.000000
1520.891602 18557.000000
1522.471680 18474.000000
1524.050537 18202.000000
1525.628540 17910.000000
1527.205811 18077.000000
1528.781860 17894.000000
1530.357178 17701.000000
1531.931396 17709.000000
1533.504883 17788.000000
1535.077148 17766.000000
1536.648682 17645.000000
1538.219238 17507.000000
1539.788940 17506.000000
1541.357422 17584.000000
1542.925171 17368.000000
1544.492065 17387.000000
1546.057739 17217.000000
1547.622681 17224.000000
1549.186523 17143.000000
1550.749756 16892.000000
1552.311646 17050.000000
1553.872925 17018.000000
1555.433105 17091.000000
1556.992554 17097.000000
1558.550903 16976.000000
1560.108521 16796.000000
1561.665039 16731.000000
1563.220337 16798.000000
1564.775024 16798.000000
1566.328979 16888.000000
1567.881958 16828.000000
1569.433594 16787.000000
1570.984497 17071.000000
1572.534668 17056.000000
1574.083862 16899.000000
1575.631714 16868.000000
1577.179077 16823.000000
1578.725464 16851.000000
1580.270996 17092.000000
1581.815552 16947.000000
1583.358887 16940.000000
1584.901611 16905.000000
1586.443481 16859.000000
1587.984253 16791.000000
1589.524048 16865.000000
1591.063110 16665.000000
1592.601074 16627.000000
1594.138550 16502.000000
1595.674683 16774.000000
1597.209717 16633.000000
1598.744263 16366.000000
1600.277832 16447.000000
1601.810547 16423.000000
1603.341675 16576.000000
1604.872559 16689.000000
1606.402588 16493.000000
1607.931396 16373.000000
1609.459106 16222.000000
1610.986206 16405.000000
1612.512573 16450.000000
1614.037964 16454.000000
1615.562500 16478.000000
1617.085693 16229.000000
1618.608154 16406.000000
1620.129883 16289.000000
1621.650757 17465.000000
1623.170166 14641.000000
1624.689087 16090.000000
1626.207275 16012.000000
1627.724609 16170.000000
1629.240845 15987.000000
1630.755737 16105.000000
1632.270142 15816.000000
1633.783813 15783.000000
1635.296387 15824.000000
1636.807739 15782.000000
1638.318726 15674.000000
1639.828613 15843.000000
1641.337646 15846.000000
1642.845337 15629.000000
1644.352661 15424.000000
1645.859131 15413.000000
1647.364624 15551.000000
1648.869263 15339.000000
1650.372437 15307.000000
1651.875000 15195.000000
1653.377197 15097.000000
1654.878052 15030.000000
1656.377808 14927.000000
1657.876709 14878.000000
1659.375244 15047.000000
1660.872559 14910.000000
1662.369141 14780.000000
1663.864136 14749.000000
1665.358887 14620.000000
1666.852783 14469.000000
1668.345703 17476.000000
1669.837280 11044.000000
1671.328369 14330.000000
1672.818848 14252.000000
1674.308228 14158.000000
1675.796143 14044.000000
1677.283813 14139.000000
1678.770508 14400.000000
1680.256348 14427.000000
1681.741333 14149.000000
1683.224854 13983.000000
1684.708130 13878.000000
1686.190552 13812.000000
1687.671875 13882.000000
1689.151733 13831.000000
1690.631348 13627.000000
1692.110229 13712.000000
1693.588135 13716.000000
1695.065063 13747.000000
1696.540771 13749.000000
1698.016113 13630.000000
1699.490234 13625.000000
1700.963745 13584.000000
1702.435791 13682.000000
1703.907593 13614.000000
1705.378418 13692.000000
1706.848389 13590.000000
1708.317017 13708.000000
1709.785156 13804.000000
1711.252563 13696.000000
1712.718872 13716.000000
1714.184570 13591.000000
1715.648560 13728.000000
1717.112427 13635.000000
1718.575439 13660.000000
1720.037476 13655.000000
1721.498291 13655.000000
1722.958496 13588.000000
1724.417969 13595.000000
1725.876587 13684.000000
1727.334229 13567.000000
1728.790527 13629.000000
1730.246582 13576.000000
1731.701660 13550.000000
1733.155762 13468.000000
1734.608643 13586.000000
1736.061279 13461.000000
1737.512817 13476.000000
1738.963623 13468.000000
1740.413452 13381.000000
1741.861938 13428.000000
1743.310059 13146.000000
1744.757324 13215.000000
1746.203857 13124.000000
1747.648804 12982.000000
1749.093506 13023.000000
1750.537354 12955.000000
1751.980347 13054.000000
1753.421875 12836.000000
1754.863159 14369.000000
1756.303589 10767.000000
1757.743042 12903.000000
1759.181519 12765.000000
1760.619019 12724.000000
1762.056030 12327.000000
1763.492065 12566.000000
1764.927246 12573.000000
1766.360962 12439.000000
1767.794556 12664.000000
1769.227173 12669.000000
1770.658936 12805.000000
1772.089844 12575.000000
1773.519531 12533.000000
1774.948486 12371.000000
1776.376953 12026.000000
1777.804443 11645.000000
1779.230591 11197.000000
1780.656494 11997.000000
1782.081299 11925.000000
1783.505493 11921.000000
1784.928223 11938.000000
1786.350464 11814.000000
1787.771973 11849.000000
1789.192749 11830.000000
1790.612549 11551.000000
1792.031006 11520.000000
1793.448975 11405.000000
1794.866333 11622.000000
1796.282837 11484.000000
1797.697876 11494.000000
1799.112549 11380.000000
1800.526611 11307.000000
1801.939453 11273.000000
1803.351685 11276.000000
1804.762573 11208.000000
1806.172974 11228.000000
1807.582642 11325.000000
1808.991333 11183.000000
1810.398926 11379.000000
1811.806030 11331.000000
1813.212280 11364.000000
1814.617554 11250.000000
1816.021729 11370.000000
1817.425537 11491.000000
1818.828369 11271.000000
1820.230347 11304.000000
1821.631714 11393.000000
1823.031616 11316.000000
1824.430908 11346.000000
1825.829712 11170.000000
1827.227661 11088.000000
1828.624268 11071.000000
1830.020264 11084.000000
1831.415527 11288.000000
1832.810181 11185.000000
1834.203857 11324.000000
1835.596191 11149.000000
1836.988037 11052.000000
1838.379272 11168.000000
1839.769531 10983.000000
1841.158569 10964.000000
1842.547241 10959.000000
1843.934937 11084.000000
1845.321899 10983.000000
1846.707520 10910.000000
1848.092896 10956.000000
1849.477417 11005.000000
1850.861206 10948.000000
1852.243896 10865.000000
1853.625366 10728.000000
1855.006348 10648.000000
1856.386841 10674.000000
1857.766357 10576.000000
1859.144409 10542.000000
1860.522339 10532.000000
1861.899292 10564.000000
1863.275513 10459.000000
1864.650879 10388.000000
1866.024780 10324.000000
1867.398560 10296.000000
1868.771484 10188.000000
1870.143311 9999.000000
1871.514160 10180.000000
1872.884644 10104.000000
1874.254028 10024.000000
1875.622925 9988.000000
1876.990234 9927.000000
1878.357422 9980.000000
1879.723633 9761.000000
1881.089111 9827.000000
1882.453857 9696.000000
1883.817017 9842.000000
1885.180054 9753.000000
1886.542236 9779.000000
1887.903564 9654.000000
1889.263550 9583.000000
1890.623169 9535.000000
1891.982178 9670.000000
1893.340210 9531.000000
1894.697388 9457.000000
1896.053345 9558.000000
1897.409058 9518.000000
1898.763794 9459.000000
1900.117676 9442.000000
1901.470459 9582.000000
1902.822754 9429.000000
1904.174316 9599.000000
1905.525024 9426.000000
1906.874512 9649.000000
1908.223511 9543.000000
1909.571655 9490.000000
1910.919189 9650.000000
1912.265991 9351.000000
1913.611206 9551.000000
1914.956177 9457.000000
1916.300415 9673.000000
1917.643799 9647.000000
1918.985840 9642.000000
1920.327637 9486.000000
1921.668579 9425.000000
1923.008789 9567.000000
1924.348022 9421.000000
1925.686279 9531.000000
1927.023926 9600.000000
1928.360840 9374.000000
1929.696899 9397.000000
1931.031738 9398.000000
1932.366211 9247.000000
1933.699951 9157.000000
1935.032837 9276.000000
1936.364258 9306.000000
1937.695801 9096.000000
1939.026001 8946.000000
1940.355713 9187.000000
1941.684570 9125.000000
1943.012207 9124.000000
1944.339355 9097.000000
1945.665771 9184.000000
1946.991455 9243.000000
1948.315796 9094.000000
1949.639893 9063.000000
1950.963135 9010.000000
1952.285645 8980.000000
1953.607056 9013.000000
1954.927490 8929.000000
1956.247314 8983.000000
1957.566772 8864.000000
1958.885254 8908.000000
1960.202393 8827.000000
1961.519165 8702.000000
1962.835205 8879.000000
1964.150513 8623.000000
1965.464355 8627.000000
1966.777954 8758.000000
1968.090820 8573.000000
1969.402832 8613.000000
1970.714233 8634.000000
1972.024292 8587.000000
1973.333862 8424.000000
1974.642700 8329.000000
1975.950928 8267.000000
1977.257813 8303.000000
1978.564087 8227.000000
1979.869995 8412.000000
1981.174683 8371.000000
1982.478882 8266.000000
1983.781860 8154.000000
1985.084473 8203.000000
1986.386108 8185.000000
1987.687134 8005.000000
1988.986572 8028.000000
1990.286133 7961.000000
1991.584595 8103.000000
1992.882568 7955.000000
1994.178955 7937.000000
1995.475342 7868.000000
1996.770752 7950.000000
1998.065430 7810.000000
1999.359253 7742.000000
2000.651855 7745.000000
2001.943970 7743.000000
2003.235596 7660.000000
2004.526489 7576.000000
2005.815796 7721.000000
2007.104858 7683.000000
2008.393188 7661.000000
2009.680786 7632.000000
2010.967529 7520.000000
2012.253174 7549.000000
2013.538452 7337.000000
2014.822754 7522.000000
2016.106445 7641.000000
2017.388794 7388.000000
2018.670776 7505.000000
2019.952271 7498.000000
2021.232788 7548.000000
2022.512573 7518.000000
2023.791260 7339.000000
2025.069214 7389.000000
2026.346680 7385.000000
2027.623535 7311.000000
2028.898682 7501.000000
2030.173950 7531.000000
2031.448242 7405.000000
2032.721558 7614.000000
2033.994019 7462.000000
2035.266113 7527.000000
2036.537109 7522.000000
2037.807861 7529.000000
2039.077271 7400.000000
2040.345581 7435.000000
2041.613892 7531.000000
2042.881226 7376.000000
2044.147827 7446.000000
2045.413208 7444.000000
2046.677979 7410.000000
2047.942505 7351.000000
2049.205811 7208.000000
2050.468750 7329.000000
2051.729736 7207.000000
2052.991211 7292.000000
2054.251465 7041.000000
2055.510986 7096.000000
2056.769775 7007.000000
2058.027588 7154.000000
2059.284912 7123.000000
2060.541504 7086.000000
2061.796631 7063.000000
2063.051758 7050.000000
2064.305908 7116.000000
2065.559326 7111.000000
2066.812012 6961.000000
2068.063477 7006.000000
2069.314697 6936.000000
2070.565186 6997.000000
2071.814941 6947.000000
2073.063232 6537.000000
2074.311523 6789.000000
2075.558838 6801.000000
2076.805420 6815.000000
2078.051270 6777.000000
2079.295898 6762.000000
2080.540039 6723.000000
2081.783691 6574.000000
2083.026367 6737.000000
2084.267822 6765.000000
2085.509033 6589.000000
2086.749756 6553.000000
2087.989502 6568.000000
2089.228027 6473.000000
2090.466064 6614.000000
2091.703369 6514.000000
2092.940430 6490.000000
2094.176025 6620.000000
2095.410889 6446.000000
2096.645508 6545.000000
2097.879150 6597.000000
2099.111816 6392.000000
2100.343750 6395.000000
2101.575195 6352.000000
2102.805664 6361.000000
2104.035400 6378.000000
2105.264893 6341.000000
2106.492432 6386.000000
2107.720215 6285.000000
2108.947266 6150.000000
2110.173340 6096.000000
2111.397949 6098.000000
2112.622803 6060.000000
2113.846436 6111.000000
2115.069580 6047.000000
2116.291504 6037.000000
2117.513184 6048.000000
2118.733887 6061.000000
2119.953857 6266.000000
2121.173340 6098.000000
2122.391357 6141.000000
2123.609375 6112.000000
2124.826416 6106.000000
2126.042969 6163.000000
2127.257813 6115.000000
2128.472900 6113.000000
2129.687012 6129.000000
2130.900391 6064.000000
2132.113037 5977.000000
2133.324219 6082.000000
2134.535645 6158.000000
2135.745850 5982.000000
2136.955566 6012.000000
2138.163818 6119.000000
2139.372070 6040.000000
2140.579590 5988.000000
2141.785889 6125.000000
2142.991455 6032.000000
2144.196777 5893.000000
2145.401123 6036.000000
2146.604736 5857.000000
2147.807861 6015.000000
2149.009521 5823.000000
2150.210938 5809.000000
2151.411621 5807.000000
2152.611572 5822.000000
2153.810303 5847.000000
2155.008789 5819.000000
2156.206787 5853.000000
2157.403809 5698.000000
2158.600098 5668.000000
2159.795166 5650.000000
2160.989990 5650.000000
2162.184082 5703.000000
2163.377197 5536.000000
2164.569336 5556.000000
2165.761230 5555.000000
2166.952393 5504.000000
2168.142578 5361.000000
2169.332031 5471.000000
2170.520996 5260.000000
2171.708984 5158.000000
2172.896729 5259.000000
2174.083008 5167.000000
2175.268555 5074.000000
2176.453857 5220.000000
2177.638672 5072.000000
2178.822266 5149.000000
2180.005127 4999.000000
2181.187012 5107.000000
2182.368652 5075.000000
2183.549805 5108.000000
2184.729736 5006.000000
2185.908691 4986.000000
2187.087158 4890.000000
2188.265381 5018.000000
2189.442383 4984.000000
2190.618408 5004.000000
2191.794189 5021.000000
2192.969482 5012.000000
2194.143311 4996.000000
2195.316650 4972.000000
2196.489746 4964.000000
2197.661621 4971.000000
2198.833008 4917.000000
2200.003906 5004.000000
2201.173096 5035.000000
2202.342285 5084.000000
2203.510986 5079.000000
2204.678711 5173.000000
2205.845459 5040.000000
2207.011475 5023.000000
2208.177002 5004.000000
2209.342285 5007.000000
2210.506104 5066.000000
2211.669434 5067.000000
2212.831543 4867.000000
2213.993896 4972.000000
2215.155029 4981.000000
2216.315186 4987.000000
2217.474854 4866.000000
2218.634277 4923.000000
2219.792480 4807.000000
2220.949707 4959.000000
2222.106689 4825.000000
2223.262939 4917.000000
2224.418457 4741.000000
2225.573242 4855.000000
2226.727051 4802.000000
2227.879883 4698.000000
2229.033203 4727.000000
2230.184570 4813.000000
2231.335693 4794.000000
2232.486084 4776.000000
2233.635986 4620.000000
2234.784912 4670.000000
2235.933350 4739.000000
2237.080322 4548.000000
2238.227539 4573.000000
2239.373535 4519.000000
2240.519287 4487.000000
2241.663330 4470.000000
2242.807617 4391.000000
2243.950928 4338.000000
2245.093506 4353.000000
2246.235107 4397.000000
2247.376465 4293.000000
2248.516846 4358.000000
2249.656494 4316.000000
2250.795654 4250.000000
2251.933594 4283.000000
2253.071533 4227.000000
2254.208496 4255.000000
2255.344727 4209.000000
2256.479980 4211.000000
2257.614502 4338.000000
2258.748779 4158.000000
2259.882568 4257.000000
2261.014893 4282.000000
2262.146729 4222.000000
2263.278076 4095.000000
2264.408447 4179.000000
2265.538574 4010.000000
2266.667480 3988.000000
2267.795898 4012.000000
2268.923828 4159.000000
2270.050781 3918.000000
2271.177002 4039.000000
2272.302246 3957.000000
2273.427490 4081.000000
2274.552002 3902.000000
2275.675293 3920.000000
2276.797852 4099.000000
2277.919922 3966.000000
2279.041504 3930.000000
2280.162354 3940.000000
2281.281982 3903.000000
2282.401123 3927.000000
2283.520020 3877.000000
2284.638184 3856.000000
2285.755371 3847.000000
2286.871582 3817.000000
2287.987549 3837.000000
2289.102783 3831.000000
2290.217285 3913.000000
2291.330566 3946.000000
2292.443848 3894.000000
2293.556396 3933.000000
2294.668213 4014.000000
2295.779297 3898.000000
2296.889160 3872.000000
2297.998535 3892.000000
2299.107666 3923.000000
2300.215820 3967.000000
2301.322998 3961.000000
2302.429932 3997.000000
2303.536133 3851.000000
2304.641846 3942.000000
2305.746094 3797.000000
2306.850098 3811.000000
2307.953613 3850.000000
2309.056641 3766.000000
2310.158447 3872.000000
2311.259521 3847.000000
2312.360107 3782.000000
2313.460205 3803.000000
2314.559570 3728.000000
2315.657471 3715.000000
2316.755859 3738.000000
2317.852783 3771.000000
2318.949463 3833.000000
2320.045654 3728.000000
2321.140137 3530.000000
2322.234619 3629.000000
2323.328369 3626.000000
2324.421875 3578.000000
2325.513672 3693.000000
2326.605469 3611.000000
2327.696533 3723.000000
2328.786865 3648.000000
2329.876221 3712.000000
2330.965576 3702.000000
2332.053711 3698.000000
2333.141357 3631.000000
2334.228760 3535.000000
2335.314453 3556.000000
2336.399902 3421.000000
2337.485107 3463.000000
2338.569336 3423.000000
2339.652588 3543.000000
2340.735596 3428.000000
2341.817627 3341.000000
2342.899414 3414.000000
2343.980469 3362.000000
2345.060303 3406.000000
2346.139648 3313.000000
2347.218506 3334.000000
2348.296875 3252.000000
2349.373779 3412.000000
2350.450439 3284.000000
2351.526855 3190.000000
2352.602295 3257.000000
2353.676758 3311.000000
2354.750977 3215.000000
2355.824463 3297.000000
2356.897461 3145.000000
2357.969238 3199.000000
2359.040771 3203.000000
2360.111328 3094.000000
2361.181641 3182.000000
2362.250977 3215.000000
2363.319336 3071.000000
2364.387451 3035.000000
2365.454834 2984.000000
2366.521729 3088.000000
2367.587891 3015.000000
2368.652832 3089.000000
2369.717773 2974.000000
2370.781982 3071.000000
2371.845459 3047.000000
2372.907715 3041.000000
2373.969971 3023.000000
2375.031250 3031.000000
2376.092285 2969.000000
2377.152100 3071.000000
2378.211182 3019.000000
2379.270264 2978.000000
2380.328369 2934.000000
2381.385742 2962.000000
2382.442139 2841.000000
2383.498291 3041.000000
2384.553955 2923.000000
2385.608887 2900.000000
2386.662354 2975.000000
2387.716064 2759.000000
2388.768799 2885.000000
2389.821045 3014.000000
2390.872559 2960.000000
2391.923096 2997.000000
2392.973389 2978.000000
2394.022705 2923.000000
2395.072021 2996.000000
2396.119873 2900.000000
2397.167236 2874.000000
2398.214355 3003.000000
2399.260498 2833.000000
2400.305908 2875.000000
2401.350586 2804.000000
2402.395264 2924.000000
2403.438477 2930.000000
2404.481689 2923.000000
2405.523438 2934.000000
2406.565430 2772.000000
2407.606689 2815.000000
2408.646973 2809.000000
2409.686523 2793.000000
2410.725098 2812.000000
2411.763916 2795.000000
2412.801514 2790.000000
2413.838867 2915.000000
2414.875000 2922.000000
2415.910889 2772.000000
2416.946045 2839.000000
2417.980713 2855.000000
2419.013916 2802.000000
2420.047363 2772.000000
2421.079834 2763.000000
2422.112061 2790.000000
2423.142822 2778.000000
2424.173584 2764.000000
2425.203857 2799.000000
2426.232910 2711.000000
2427.261963 2608.000000
2428.289307 2723.000000
2429.317139 2763.000000
2430.343750 2611.000000
2431.370117 2739.000000
2432.395020 2647.000000
2433.420166 2642.000000
2434.444336 2594.000000
2435.468262 2714.000000
2436.490967 2654.000000
2437.512939 2581.000000
2438.534668 2584.000000
2439.555664 2591.000000
2440.576172 2583.000000
2441.595459 2512.000000
2442.614746 2486.000000
2443.633057 2592.000000
2444.651123 2470.000000
2445.667725 2506.000000
2446.684326 2419.000000
2447.700195 2504.000000
2448.716064 2476.000000
2449.730469 2483.000000
2450.744141 2433.000000
2451.757324 2395.000000
2452.770264 2391.000000
2453.782471 2468.000000
2454.793701 2346.000000
2455.804688 2426.000000
2456.814941 2489.000000
2457.824707 2287.000000
2458.833496 2360.000000
2459.841553 2379.000000
2460.849609 2333.000000
2461.856445 2390.000000
2462.863037 2314.000000
2463.868408 2357.000000
2464.873535 2227.000000
2465.878418 2333.000000
2466.882080 2379.000000
2467.885498 2191.000000
2468.887939 2277.000000
2469.890137 2399.000000
2470.891846 2323.000000
2471.892578 2398.000000
2472.892334 2301.000000
2473.892090 2279.000000
2474.890869 2245.000000
2475.889160 2286.000000
2476.886475 2240.000000
2477.883545 2302.000000
2478.880615 2226.000000
2479.876221 2170.000000
2480.871826 2260.000000
2481.865723 2279.000000
2482.859619 2211.000000
2483.853027 2200.000000
2484.845947 2240.000000
2485.837891 2268.000000
2486.829102 2206.000000
2487.820068 2262.000000
2488.810547 2191.000000
2489.800049 2113.000000
2490.788818 2255.000000
2491.777588 2284.000000
2492.765381 2228.000000
2493.751953 2078.000000
2494.738525 2207.000000
2495.724609 2193.000000
2496.709961 2200.000000
2497.694336 2252.000000
2498.678467 2096.000000
2499.662598 2209.000000
2500.645264 2214.000000
2501.627441 2232.000000
2502.609131 2199.000000
2503.590088 2156.000000
2504.570557 2130.000000
2505.550781 2257.000000
2506.529541 2231.000000
2507.508057 2101.000000
2508.486084 2083.000000
2509.463623 2207.000000
2510.440186 2159.000000
2511.416504 2145.000000
2512.392090 2145.000000
2513.367188 2122.000000
2514.341797 2146.000000
2515.315186 2118.000000
2516.288330 2058.000000
2517.261230 2070.000000
2518.233154 2028.000000
2519.204346 2071.000000
2520.175049 2071.000000
2521.145508 2032.000000
2522.115234 2053.000000
2523.083984 1929.000000
2524.052002 2081.000000
2525.020020 1923.000000
2525.987061 2027.000000
2526.953857 1986.000000
2527.919434 2015.000000
2528.885010 2005.000000
2529.849854 2003.000000
2530.814209 1998.000000
2531.777344 1936.000000
2532.740723 1946.000000
2533.703125 1863.000000
2534.665283 1855.000000
2535.626221 1925.000000
2536.586426 2008.000000
2537.546875 1875.000000
2538.506348 1945.000000
2539.465088 1994.000000
2540.422852 1919.000000
2541.380859 1923.000000
2542.338135 1938.000000
2543.294434 1886.000000
2544.250488 1868.000000
2545.205322 1810.000000
2546.160400 2009.000000
2547.114746 1813.000000
2548.068359 2229.000000
2549.020996 1728.000000
2549.973389 1756.000000
2550.925293 1907.000000
2551.876465 1785.000000
2552.826904 1675.000000
2553.776855 1832.000000
2554.726563 1797.000000
2555.675537 1791.000000
2556.624023 1806.000000
2557.571289 1798.000000
2558.518555 1760.000000
2559.465088 1809.000000
2560.411133 1762.000000
2561.356201 1855.000000
2562.301025 1700.000000
2563.245361 1800.000000
2564.189209 1806.000000
2565.132568 1719.000000
2566.074463 1654.000000
2567.016602 1716.000000
2567.958008 1767.000000
2568.898682 1724.000000
2569.838623 1693.000000
2570.778564 1756.000000
2571.717529 1789.000000
2572.656250 1687.000000
2573.593994 1708.000000
2574.531494 1698.000000
2575.468262 1728.000000
2576.404297 1831.000000
2577.339844 1790.000000
2578.274658 1639.000000
2579.209473 1676.000000
2580.143311 1688.000000
2581.076660 1777.000000
2582.009277 1648.000000
2582.941650 1611.000000
2583.873291 1697.000000
2584.804443 1667.000000
2585.735107 1707.000000
2586.664551 1589.000000
2587.593994 1711.000000
2588.522949 1710.000000
2589.451660 1621.000000
2590.378662 1647.000000
2591.305908 1655.000000
2592.232666 1585.000000
2593.158691 1660.000000
2594.084473 1573.000000
2595.009033 1638.000000
2595.933350 1657.000000
2596.857178 1649.000000
2597.780518 1492.000000
2598.702881 1735.000000
2599.625000 1720.000000
2600.546631 1630.000000
2601.467529 1578.000000
2602.387695 1624.000000
2603.307617 1602.000000
2604.227051 1565.000000
2605.146240 1604.000000
2606.064453 1613.000000
2606.981445 1656.000000
2607.898682 1569.000000
2608.815674 1626.000000
2609.731689 1561.000000
2610.646484 1570.000000
2611.561768 1464.000000
2612.476318 1534.000000
2613.389893 1565.000000
2614.303467 1497.000000
2615.215820 1541.000000
2616.128174 1447.000000
2617.039551 1572.000000
2617.950684 1497.000000
2618.861084 1502.000000
2619.771240 1601.000000
2620.680664 1527.000000
2621.589600 1533.000000
2622.497559 1479.000000
2623.405762 1563.000000
2624.312988 1401.000000
2625.219727 1501.000000
2626.125732 1445.000000
2627.031494 1462.000000
2627.936523 1307.000000
2628.841309 1426.000000
2629.745361 1418.000000
2630.648438 1462.000000
2631.551514 1380.000000
2632.453613 1473.000000
2633.355713 1456.000000
2634.257568 1472.000000
2635.157715 1377.000000
2636.058105 1417.000000
2636.957764 1397.000000
2637.857178 1452.000000
2638.755127 1400.000000
2639.653564 1349.000000
2640.551514 1409.000000
2641.448730 1382.000000
2642.344727 1436.000000
2643.240723 1496.000000
2644.136475 1357.000000
2645.031494 1411.000000
2645.926270 1321.000000
2646.819580 1424.000000
2647.712891 1408.000000
2648.605957 1342.000000
2649.498779 1270.000000
2650.389893 1333.000000
2651.281250 1196.000000
2652.172119 1276.000000
2653.062256 1359.000000
2653.952148 1284.000000
2654.840820 1389.000000
2655.729736 1287.000000
2656.618164 1276.000000
2657.505615 1254.000000
2658.392090 1256.000000
2659.279053 1259.000000
2660.165283 1310.000000
2661.051025 1232.000000
2661.935547 1204.000000
2662.820068 1277.000000
2663.704346 1370.000000
2664.587891 1196.000000
2665.470947 1399.000000
2666.353271 1233.000000
2667.235107 1233.000000
2668.116211 1284.000000
2668.997559 1221.000000
2669.877441 1407.000000
2670.757568 1274.000000
2671.636963 1265.000000
2672.516357 1260.000000
2673.395020 1262.000000
2674.271973 1241.000000
2675.149658 1269.000000
2676.026611 1258.000000
2676.902832 1184.000000
2677.778564 1232.000000
2678.653564 1310.000000
2679.528809 1278.000000
2680.403076 1220.000000
2681.276855 1245.000000
2682.149902 1288.000000
2683.022705 1188.000000
2683.895264 1287.000000
2684.767090 1265.000000
2685.638184 1130.000000
2686.509033 1153.000000
2687.379395 1128.000000
2688.249512 1085.000000
2689.117920 1182.000000
2689.987061 1092.000000
2690.855469 1194.000000
2691.723633 1203.000000
2692.591064 1122.000000
2693.457275 1173.000000
2694.323975 1201.000000
2695.189697 1148.000000
2696.055420 1058.000000
2696.919678 1228.000000
2697.784668 1110.000000
2698.648193 1158.000000
2699.511963 1160.000000
2700.374268 1232.000000
2701.237061 1164.000000
2702.098877 1156.000000
2702.960205 1171.000000
2703.821533 1200.000000
2704.681641 1084.000000
2705.541748 960.000000
2706.401367 1121.000000
2707.260742 1206.000000
2708.118408 1057.000000
2708.976318 1095.000000
2709.834717 1047.000000
2710.691895 1021.000000
2711.548340 1075.000000
2712.404297 1095.000000
2713.260254 1078.000000
2714.115479 1149.000000
2714.969971 1098.000000
2715.823975 959.000000
2716.677979 1161.000000
2717.531006 1060.000000
2718.384277 943.000000
2719.235840 989.000000
2720.087891 966.000000
2720.939697 1069.000000
2721.790283 1039.000000
2722.640869 1010.000000
2723.490967 967.000000
2724.340332 1200.000000
2725.189697 982.000000
2726.037842 1089.000000
2726.885498 996.000000
2727.733643 1055.000000
2728.580566 1039.000000
2729.427979 1065.000000
2730.273926 1090.000000
2731.119141 988.000000
2731.964844 1038.000000
2732.809570 1051.000000
2733.654297 931.000000
2734.497803 932.000000
2735.341553 948.000000
2736.184570 957.000000
2737.027100 989.000000
2737.868652 999.000000
2738.710693 1011.000000
2739.551758 932.000000
2740.392578 1054.000000
2741.233154 965.000000
2742.072510 975.000000
2742.911865 1085.000000
2743.751221 1019.000000
2744.589355 972.000000
2745.427002 881.000000
2746.264648 997.000000
2747.101807 969.000000
2747.938721 849.000000
2748.775146 972.000000
2749.610352 1010.000000
2750.445801 930.000000
2751.280762 1066.000000
2752.114990 998.000000
2752.948975 996.000000
2753.782471 1005.000000
2754.615967 949.000000
2755.448486 932.000000
2756.280518 915.000000
2757.112061 956.000000
2757.943604 939.000000
2758.774170 914.000000
2759.604980 907.000000
2760.434570 893.000000
2761.264160 948.000000
2762.093506 882.000000
2762.922119 820.000000
2763.750244 939.000000
2764.577881 837.000000
2765.405518 748.000000
2766.232666 976.000000
2767.059082 864.000000
2767.885010 859.000000
2768.710449 943.000000
2769.535645 784.000000
2770.360840 809.000000
2771.184814 875.000000
2772.008789 990.000000
2772.832764 839.000000
2773.655518 795.000000
2774.478516 873.000000
2775.300293 966.000000
2776.122070 889.000000
2776.943848 818.000000
2777.764648 818.000000
2778.584717 902.000000
2779.405029 900.000000
2780.224854 849.000000
2781.044678 819.000000
2781.862549 868.000000
2782.681641 751.000000
2783.499512 817.000000
2784.317139 891.000000
2785.134277 882.000000
2785.950928 927.000000
2786.767334 881.000000
2787.583252 842.000000
2788.398926 902.000000
2789.213623 892.000000
2790.028809 762.000000
2790.843262 841.000000
2791.657227 777.000000
2792.470947 840.000000
2793.283447 880.000000
2794.096191 764.000000
2794.908447 709.000000
2795.720215 782.000000
2796.531250 811.000000
2797.343018 827.000000
2798.153564 740.000000
2798.964111 785.000000
2799.773193 781.000000
2800.583008 803.000000
2801.392090 738.000000
2802.200928 753.000000
2803.009277 710.000000
2803.816650 671.000000
2804.624512 730.000000
2805.431641 788.000000
2806.238525 858.000000
2807.044189 719.000000
2807.850342 850.000000
2808.655762 804.000000
2809.461182 741.000000
2810.265869 840.000000
2811.069580 761.000000
2811.873779 720.000000
2812.677490 612.000000
2813.480957 795.000000
2814.282959 792.000000
2815.085693 693.000000
2815.887695 767.000000
2816.689453 741.000000
2817.490723 726.000000
2818.291504 745.000000
2819.091797 726.000000
2819.892334 679.000000
2820.691895 730.000000
2821.490967 708.000000
2822.290039 746.000000
2823.088867 772.000000
2823.887207 721.000000
2824.684570 732.000000
2825.482178 796.000000
2826.279053 721.000000
2827.076172 743.000000
2827.872559 778.000000
2828.668213 793.000000
2829.463867 660.000000
2830.259277 630.000000
2831.054199 650.000000
2831.848389 876.000000
2832.642578 746.000000
2833.436523 739.000000
2834.229980 684.000000
2835.022705 757.000000
2835.815186 680.000000
2836.607666 773.000000
2837.399902 727.000000
2838.191650 765.000000
2838.982422 761.000000
2839.773193 608.000000
2840.564209 731.000000
2841.354248 699.000000
2842.143799 638.000000
2842.933594 721.000000
2843.722412 716.000000
2844.511230 678.000000
2845.300049 605.000000
2846.087891 539.000000
2846.875244 633.000000
2847.662842 685.000000
2848.449951 632.000000
2849.236328 735.000000
2850.022705 617.000000
2850.808838 730.000000
2851.594482 725.000000
2852.379150 685.000000
2853.164307 613.000000
2853.949219 685.000000
2854.733398 768.000000
2855.517578 701.000000
2856.300537 642.000000
2857.083740 683.000000
2857.866699 742.000000
2858.649170 669.000000
2859.431396 639.000000
2860.213135 687.000000
2860.994629 570.000000
2861.776367 649.000000
2862.557373 694.000000
2863.337646 666.000000
2864.117676 715.000000
2864.897705 627.000000
2865.677490 567.000000
2866.456299 664.000000
2867.235352 620.000000
2868.013916 665.000000
2868.792236 689.000000
2869.570068 651.000000
2870.347656 703.000000
2871.125000 568.000000
2871.902100 706.000000
2872.678711 686.000000
2873.454834 661.000000
2874.230957 662.000000
2875.006592 591.000000
2875.781982 701.000000
2876.556885 649.000000
2877.331543 667.000000
2878.106201 732.000000
2878.880615 666.000000
2879.654297 746.000000
2880.427246 586.000000
2881.200928 635.000000
2881.973633 692.000000
2882.746338 668.000000
2883.518311 632.000000
2884.290039 661.000000
2885.062256 613.000000
2885.833252 692.000000
2886.603760 763.000000
2887.374756 552.000000
2888.145752 611.000000
2888.916016 598.000000
2889.685303 719.000000
2890.454834 631.000000
2891.224365 636.000000
2891.993408 577.000000
2892.761963 640.000000
2893.530518 694.000000
2894.298096 630.000000
2895.066162 639.000000
2895.833740 593.000000
2896.601318 625.000000
2897.367676 679.000000
2898.135010 715.000000
2898.901123 649.000000
2899.667480 533.000000
2900.432373 582.000000
2901.197754 643.000000
2901.963623 611.000000
2902.728027 574.000000
2903.492432 594.000000
2904.257080 616.000000
2905.020752 590.000000
2905.785156 641.000000
2906.548828 552.000000
2907.311768 577.000000
2908.074463 577.000000
2908.837646 581.000000
2909.600342 650.000000
2910.361816 539.000000
2911.123779 539.000000
spectrumdark 2048
-97.107063 6153.000000
-94.480194 6153.000000
-91.855202 6055.000000
-89.232101 6498.000000
-86.610870 5855.000000
-83.991539 6253.000000
-81.374069 6054.000000
-78.758476 6379.000000
-76.144760 6200.000000
-73.532921 6091.000000
-70.922943 6074.000000
-68.314850 5932.000000
-65.708603 5995.000000
-63.104229 6028.000000
-60.501720 6091.000000
-57.901066 5652.000000
-55.302273 6300.000000
-52.705338 6863.000000
-50.110256 6472.000000
-47.517029 6558.000000
-44.925652 6265.000000
-42.336121 6741.000000
-39.748432 5906.000000
-37.162594 6037.000000
-34.578598 6497.000000
-31.996441 5683.000000
-29.416128 6399.000000
-26.837643 5741.000000
-24.261000 6150.000000
-21.686182 6267.000000
-19.113205 6479.000000
-16.542048 6543.000000
-13.972723 6863.000000
-11.405226 7756.000000
-8.839546 6367.000000
-6.275692 6418.000000
-3.713651 5979.000000
-1.153435 5819.000000
1.404973 6261.000000
3.961560 6955.000000
6.516342 6696.000000
9.069307 5962.000000
11.620472 6763.000000
14.169823 6527.000000
16.717379 6735.000000
19.263123 6045.000000
21.807074 5737.000000
24.349220 6758.000000
26.889570 6791.000000
29.428135 6895.000000
31.964903 6238.000000
34.499870 5835.000000
37.033058 7213.000000
39.564465 6275.000000
42.094078 7151.000000
44.621895 6513.000000
47.147953 7823.000000
49.672222 5679.000000
52.194721 6270.000000
54.715424 6727.000000
57.234371 6354.000000
59.751545 6406.000000
62.266941 6687.000000
64.780556 5644.000000
67.292419 5754.000000
69.802536 6488.000000
72.310860 6533.000000
74.817429 5926.000000
77.322250 6368.000000
79.825317 6425.000000
82.326607 6348.000000
84.826157 6110.000000
87.323952 6392.000000
89.820015 5768.000000
92.314301 7242.000000
94.806847 5829.000000
97.297676 6928.000000
99.786736 7204.000000
102.274048 6397.000000
104.759636 6240.000000
107.243484 6466.000000
109.725586 5853.000000
112.205963 6740.000000
114.684616 6247.000000
117.161545 6541.000000
119.636719 7273.000000
122.110184 6842.000000
124.581917 5965.000000
127.051941 6766.000000
129.520218 6327.000000
131.986816 6282.000000
134.451660 5792.000000
136.914810 6266.000000
139.376221 7309.000000
141.835938 6886.000000
144.293930 6405.000000
146.750229 6000.000000
149.204819 5789.000000
151.657684 6826.000000
154.108871 6421.000000
156.558365 6647.000000
159.006134 6013.000000
161.452194 6710.000000
163.896576 8689.000000
166.339279 6378.000000
168.780289 6751.000000
171.219589 6283.000000
173.657181 7261.000000
176.093140 6635.000000
178.527359 6921.000000
180.959900 7151.000000
183.390793 6702.000000
185.819962 7159.000000
188.247482 6714.000000
190.673325 6310.000000
193.097488 6682.000000
195.519989 7177.000000
197.940796 7423.000000
200.359940 6540.000000
202.777420 6000.000000
205.193207 7641.000000
207.607346 7071.000000
210.019852 6322.000000
212.430679 6084.000000
214.839828 6245.000000
217.247345 7402.000000
219.653152 6242.000000
222.057373 6528.000000
224.459885 6684.000000
226.860779 6983.000000
229.260025 6468.000000
231.657608 6884.000000
234.053528 7269.000000
236.447830 6540.000000
238.840469 6202.000000
241.231491 6869.000000
243.620850 6593.000000
246.008591 6354.000000
248.394684 7020.000000
250.779144 6140.000000
253.161957 7875.000000
255.543198 6690.000000
257.922729 6740.000000
260.300690 6452.000000
262.676971 7549.000000
265.051697 7586.000000
267.424774 7924.000000
269.796204 6176.000000
272.165985 6461.000000
274.534210 5978.000000
276.900787 6349.000000
279.265778 6512.000000
281.629150 6005.000000
283.990875 6306.000000
286.351013 7100.000000
288.709534 5938.000000
291.066467 6529.000000
293.421783 6414.000000
295.775513 5969.000000
298.127594 5964.000000
300.478119 6316.000000
302.827057 6399.000000
305.174347 6857.000000
307.520111 6503.000000
309.864197 6504.000000
312.206757 7373.000000
314.547699 7630.000000
316.887024 7215.000000
319.224792 7058.000000
321.561005 8128.000000
323.895569 6306.000000
326.228577 6537.000000
328.560028 6047.000000
330.889893 6656.000000
333.218170 6456.000000
335.544830 7261.000000
337.869995 6387.000000
340.193542 6274.000000
342.515533 6052.000000
344.835968 7536.000000
347.154785 7747.000000
349.472046 6082.000000
351.787781 5853.000000
354.101929 6937.000000
356.414490 6365.000000
358.725494 6250.000000
361.034973 7045.000000
363.342926 6343.000000
365.649261 5698.000000
367.954010 6518.000000
370.257294 6469.000000
372.558960 6323.000000
374.859131 6390.000000
377.157745 6300.000000
379.454803 5768.000000
381.750305 6131.000000
384.044281 5902.000000
386.336670 5232.000000
388.627563 5624.000000
390.916931 6205.000000
393.204712 6246.000000
395.490967 6500.000000
397.775726 7060.000000
400.058868 6161.000000
402.340576 6463.000000
404.620758 6132.000000
406.899353 7332.000000
409.176422 6529.000000
411.451965 6870.000000
413.725983 6634.000000
415.998566 6588.000000
418.269531 6456.000000
420.539001 6458.000000
422.806976 7169.000000
425.073395 7253.000000
427.338318 6276.000000
429.601776 6293.000000
431.863647 6476.000000
434.124054 5991.000000
436.382904 6458.000000
438.640289 6100.000000
440.896179 5730.000000
443.150574 5797.000000
445.403442 5471.000000
447.654755 6952.000000
449.904663 6092.000000
452.152985 6280.000000
454.399872 5651.000000
456.645294 6562.000000
458.889160 6504.000000
461.131531 6560.000000
463.372406 5633.000000
465.611877 6718.000000
467.849762 5437.000000
470.086212 5940.000000
472.321136 6129.000000
474.554596 7182.000000
476.786621 6725.000000
479.017120 5707.000000
481.246124 6496.000000
483.473663 6358.000000
485.699707 5977.000000
487.924316 6571.000000
490.147461 5882.000000
492.369141 6396.000000
494.589264 6700.000000
496.807983 5679.000000
499.025208 6274.000000
501.241058 5628.000000
503.455292 6092.000000
505.668213 6473.000000
507.879547 6467.000000
510.089447 6956.000000
512.297913 6508.000000
514.505005 6556.000000
516.710510 6511.000000
518.914612 6626.000000
521.117188 6189.000000
523.318359 6597.000000
525.518188 6685.000000
527.716492 6955.000000
529.913269 5348.000000
532.108704 5875.000000
534.302612 5591.000000
536.495178 7567.000000
538.686218 6706.000000
540.875854 6037.000000
543.064087 6951.000000
545.250793 7139.000000
547.436035 6862.000000
549.619995 6220.000000
551.802368 6467.000000
553.983398 6207.000000
556.162903 6035.000000
558.341125 5924.000000
560.517822 6057.000000
562.693115 6371.000000
564.867004 6507.000000
567.039429 5954.000000
569.210449 6064.000000
571.380005 6407.000000
573.548279 5315.000000
575.715027 6414.000000
577.880310 6285.000000
580.044189 6197.000000
582.206787 5790.000000
584.367859 6026.000000
586.527527 5629.000000
588.685852 5874.000000
590.842651 6182.000000
592.998108 6588.000000
595.152161 5764.000000
597.304871 6150.000000
599.456055 7272.000000
601.605896 6837.000000
603.754395 6741.000000
605.901306 6024.000000
608.046997 6557.000000
610.191284 6449.000000
612.334106 7087.000000
614.475464 6235.000000
616.615601 6485.000000
618.754211 7691.000000
620.891541 5718.000000
623.027405 6602.000000
625.161865 6927.000000
627.294861 7218.000000
629.426697 6691.000000
631.557068 6589.000000
633.686035 6808.000000
635.813538 6558.000000
637.939758 6252.000000
640.064453 7354.000000
642.187927 6415.000000
644.310059 6825.000000
646.430725 6837.000000
648.550049 6584.000000
650.667969 5740.000000
652.784546 5702.000000
654.899719 6446.000000
657.013550 6478.000000
659.125916 5825.000000
661.237061 6144.000000
663.346802 5428.000000
665.455078 6061.000000
667.562195 6272.000000
669.667847 6850.000000
671.772034 5881.000000
673.875000 5721.000000
675.976563 7043.000000
678.076782 5321.000000
680.175598 6756.000000
682.273071 6207.000000
684.369263 7031.000000
686.463989 6255.000000
688.557495 6974.000000
690.649658 6724.000000
692.740295 7978.000000
694.829712 6686.000000
696.917847 6506.000000
699.004517 6028.000000
701.089966 6709.000000
703.173889 5153.000000
705.256592 5917.000000
707.338013 5996.000000
709.417969 7572.000000
711.496704 6191.000000
713.573975 5515.000000
715.649963 6619.000000
717.724670 6081.000000
719.798096 7064.000000
721.869995 6370.000000
723.940735 7439.000000
726.010132 5858.000000
728.078125 6578.000000
730.144775 6373.000000
732.210205 7045.000000
734.274292 5826.000000
736.337036 6145.000000
738.398438 6545.000000
740.458557 6611.000000
742.517273 6082.000000
744.574768 6680.000000
746.630981 6534.000000
748.685791 6703.000000
750.739319 6383.000000
752.791443 7500.000000
754.842346 5789.000000
756.892029 6689.000000
758.940247 6359.000000
760.987244 6166.000000
763.032959 7021.000000
765.077271 5379.000000
767.120300 5734.000000
769.162109 6487.000000
771.202576 7240.000000
773.241638 6395.000000
775.279541 6095.000000
777.316101 6021.000000
779.351440 5410.000000
781.385437 5845.000000
783.418030 6943.000000
785.449463 5563.000000
787.479492 5852.000000
789.508240 6141.000000
791.535828 6371.000000
793.562073 6374.000000
795.586914 5882.000000
797.610657 5530.000000
799.632996 6422.000000
801.654114 5922.000000
803.673889 6757.000000
805.692383 4928.000000
807.709656 6708.000000
809.725525 6801.000000
811.740234 5769.000000
813.753601 6462.000000
815.765747 6309.000000
817.776672 6112.000000
819.786255 6602.000000
821.794617 5342.000000
823.801575 5728.000000
825.807312 6074.000000
827.811829 5712.000000
829.815063 5653.000000
831.817017 6572.000000
833.817688 6112.000000
835.817139 5949.000000
837.815247 6368.000000
839.812256 6986.000000
841.807861 6277.000000
843.802307 5969.000000
845.795410 6223.000000
847.787292 6880.000000
849.777832 5616.000000
851.767090 6902.000000
853.755310 6022.000000
855.742126 5759.000000
857.727722 6477.000000
859.712036 7324.000000
861.695251 6337.000000
863.677063 6384.000000
865.657654 5894.000000
867.636963 7746.000000
869.615112 7129.000000
871.591919 6259.000000
873.567444 6249.000000
875.541931 6152.000000
877.514954 6060.000000
879.486938 5475.000000
881.457581 6407.000000
883.427063 6159.000000
885.395203 5629.000000
887.362183 5224.000000
889.327820 6210.000000
891.292297 5891.000000
893.255554 6050.000000
895.217590 6546.000000
897.178345 5788.000000
899.137878 6405.000000
901.096130 6703.000000
903.053284 6345.000000
905.009277 6001.000000
906.963867 6937.000000
908.917236 6590.000000
910.869446 6459.000000
912.820435 6442.000000
914.770142 7079.000000
916.718689 6286.000000
918.666016 6200.000000
920.612061 6107.000000
922.556824 6124.000000
924.500549 6243.000000
926.443115 6032.000000
928.384399 5600.000000
930.324341 6559.000000
932.263184 5728.000000
934.200745 5482.000000
936.137085 5996.000000
938.072266 5853.000000
940.006165 6214.000000
941.938965 5877.000000
943.870544 6820.000000
945.800964 5241.000000
947.730164 6451.000000
949.658020 7068.000000
951.584839 6627.000000
953.510376 6045.000000
955.434631 5398.000000
957.357788 6090.000000
959.279785 6773.000000
961.200500 7227.000000
963.120056 6514.000000
965.038452 5328.000000
966.955811 6432.000000
968.871704 6502.000000
970.786499 6167.000000
972.700073 5956.000000
974.612488 6413.000000
976.523682 6440.000000
978.433716 5464.000000
980.342468 6254.000000
982.250183 6121.000000
984.156677 6403.000000
986.061951 5792.000000
987.966125 6904.000000
989.869080 6193.000000
991.770813 6807.000000
993.671387 6442.000000
995.570801 6693.000000
997.468994 5264.000000
999.366028 6662.000000
1001.261841 6635.000000
1003.156494 7785.000000
1005.050049 5611.000000
1006.942322 7237.000000
1008.833679 6053.000000
1010.723694 5338.000000
1012.612488 6622.000000
1014.500122 6318.000000
1016.386597 6951.000000
1018.271912 6806.000000
1020.156067 6021.000000
1022.039001 5853.000000
1023.920898 6289.000000
1025.801514 5254.000000
1027.681030 5808.000000
1029.559570 6135.000000
1031.436768 5490.000000
1033.312622 6235.000000
1035.187500 5884.000000
1037.061401 6644.000000
1038.933838 7131.000000
1040.805298 6741.000000
1042.675415 5486.000000
1044.544556 5548.000000
1046.412476 5780.000000
1048.279297 7130.000000
1050.145020 6742.000000
1052.009521 6480.000000
1053.872925 6556.000000
1055.734985 6484.000000
1057.596069 5933.000000
1059.456055 6577.000000
1061.314697 6641.000000
1063.172241 5773.000000
1065.028687 6772.000000
1066.884033 5955.000000
1068.738159 5795.000000
1070.591431 6274.000000
1072.443237 6462.000000
1074.294067 6200.000000
1076.143677 6214.000000
1077.992065 5775.000000
1079.839600 7964.000000
1081.685791 5621.000000
1083.530762 6216.000000
1085.374878 5412.000000
1087.217651 5579.000000
1089.059204 6569.000000
1090.900024 5491.000000
1092.739258 5844.000000
1094.577759 6052.000000
1096.414917 6046.000000
1098.250854 6811.000000
1100.085815 6603.000000
1101.919556 5441.000000
1103.752319 5677.000000
1105.583740 6185.000000
1107.414307 7327.000000
1109.243530 6535.000000
1111.071777 6478.000000
1112.898804 7167.000000
1114.724854 5427.000000
1116.549683 6355.000000
1118.373413 7238.000000
1120.195923 6092.000000
1122.017334 5918.000000
1123.837891 5942.000000
1125.656982 6579.000000
1127.475220 7168.000000
1129.292114 7057.000000
1131.108154 6660.000000
1132.922974 6456.000000
1134.736694 5667.000000
1136.549316 5804.000000
1138.360718 5631.000000
1140.171143 6168.000000
1141.980469 6801.000000
1143.788452 7031.000000
1145.595703 5996.000000
1147.401489 6007.000000
1149.206421 5469.000000
1151.010254 5450.000000
1152.812866 6175.000000
1154.614624 6133.000000
1156.414917 6059.000000
1158.214233 6071.000000
1160.012573 5861.000000
1161.809570 5471.000000
1163.605835 5890.000000
1165.400757 6090.000000
1167.194580 6330.000000
1168.987549 7755.000000
1170.779175 5814.000000
1172.569824 6525.000000
1174.359497 6041.000000
1176.147705 5825.000000
1177.935059 7486.000000
1179.721313 6861.000000
1181.506470 5750.000000
1183.290527 6034.000000
1185.073486 7738.000000
1186.855469 5924.000000
1188.636230 5910.000000
1190.416016 6369.000000
1192.194702 6968.000000
1193.972412 6664.000000
1195.748901 7220.000000
1197.524292 6620.000000
1199.298584 6546.000000
1201.071777 6716.000000
1202.844116 6532.000000
1204.615112 6744.000000
1206.385254 5748.000000
1208.154175 6157.000000
1209.921997 6369.000000
1211.688965 5869.000000
1213.454590 5949.000000
1215.219238 6936.000000
1216.982788 6523.000000
1218.745239 5951.000000
1220.506836 6754.000000
1222.267212 5906.000000
1224.026489 6349.000000
1225.784912 6095.000000
1227.542114 7307.000000
1229.298218 6516.000000
1231.053223 5520.000000
1232.807373 6046.000000
1234.560181 5790.000000
1236.312012 6047.000000
1238.062988 5969.000000
1239.812622 4933.000000
1241.561401 7080.000000
1243.308838 6548.000000
1245.055542 6602.000000
1246.801025 6539.000000
1248.545654 6511.000000
1250.288940 6801.000000
1252.031250 6729.000000
1253.772461 5385.000000
1255.512817 5123.000000
1257.252075 5791.000000
1258.990112 6626.000000
1260.727295 7123.000000
1262.463257 6191.000000
1264.198242 6419.000000
1265.932251 7314.000000
1267.665283 5965.000000
1269.397095 6243.000000
1271.127930 6446.000000
1272.857544 7282.000000
1274.586304 5912.000000
1276.313965 5719.000000
1278.040527 5623.000000
1279.766235 5612.000000
1281.490601 6529.000000
1283.214111 5229.000000
1284.936646 6943.000000
1286.658203 6654.000000
1288.378540 6424.000000
1290.097900 6703.000000
1291.816162 7246.000000
1293.533447 6466.000000
1295.249756 5785.000000
1296.964844 6460.000000
1298.678955 6174.000000
1300.392090 5825.000000
1302.104370 6449.000000
1303.815430 8310.000000
1305.525513 5289.000000
1307.234497 6593.000000
1308.942261 6631.000000
1310.649414 6987.000000
1312.355103 5881.000000
1314.060059 6866.000000
1315.764038 6214.000000
1317.466797 5986.000000
1319.168579 6590.000000
1320.869507 6042.000000
1322.569092 10205.000000
1324.267822 7910.500000
1325.965820 5616.000000
1327.662476 6537.000000
1329.358032 7149.000000
1331.052734 6935.000000
1332.746216 5749.000000
1334.438843 5440.000000
1336.130615 7306.000000
1337.821045 6339.000000
1339.510742 6603.000000
1341.199341 6139.000000
1342.886841 7669.000000
1344.573364 5725.000000
1346.258789 6814.000000
1347.943237 6075.000000
1349.626831 7331.000000
1351.309204 6386.000000
1352.990601 5975.000000
1354.671143 6489.000000
1356.350464 6755.000000
1358.029175 5966.000000
1359.706543 6672.000000
1361.382813 5802.000000
1363.058105 5583.000000
1364.732666 6666.000000
1366.406006 6445.000000
1368.078369 6840.000000
1369.749756 5228.000000
1371.420166 6799.000000
1373.089478 6196.000000
1374.757813 5722.000000
1376.425293 6004.000000
1378.091675 6501.000000
1379.757080 6150.000000
1381.421509 5948.000000
1383.084717 5953.000000
1384.747314 5784.000000
1386.408569 6478.000000
1388.068970 6604.000000
1389.728271 6412.000000
1391.386597 6522.000000
1393.044189 6873.000000
1394.700562 6596.000000
1396.356079 7044.000000
1398.010376 6389.000000
1399.663818 5869.000000
1401.316162 6111.000000
1402.967773 6476.000000
1404.618164 7197.000000
1406.267456 6254.000000
1407.916016 7506.000000
1409.563477 7906.000000
1411.209961 6249.000000
1412.855591 6266.000000
1414.500244 5965.000000
1416.143677 7048.000000
1417.786255 7229.000000
1419.427734 6875.000000
1421.068359 6513.000000
1422.708008 6506.000000
1424.346558 6025.000000
1425.984253 6690.000000
1427.620850 6375.000000
1429.256470 5974.000000
1430.891357 6369.000000
1432.525146 5898.000000
1434.157837 6148.000000
1435.789551 5722.000000
1437.420410 6109.000000
1439.050171 6122.000000
1440.678833 7900.000000
1442.306885 6013.000000
1443.933838 6553.000000
1445.559570 6210.000000
1447.184692 6176.000000
1448.808716 6492.000000
1450.431763 6039.000000
1452.053833 6054.000000
1453.674805 7385.000000
1455.294800 6281.000000
1456.914063 6937.000000
1458.531982 5783.000000
1460.149292 17145.000000
1461.765625 5547.000000
1463.380737 7302.000000
1464.994995 6367.000000
1466.608398 5234.000000
1468.220703 5610.000000
1469.832153 6322.000000
1471.442749 6400.000000
1473.052124 6063.000000
1474.660522 6005.000000
1476.268066 6177.000000
1477.874634 6729.000000
1479.480469 5364.000000
1481.085083 6274.000000
1482.688843 5515.000000
1484.291382 6754.000000
1485.893311 5571.000000
1487.494019 5472.000000
1489.093994 5597.000000
1490.692871 6279.000000
1492.290894 6569.000000
1493.887817 6679.000000
1495.483887 6361.000000
1497.078979 5971.000000
1498.673096 5487.000000
1500.266479 6627.000000
1501.858765 5575.000000
1503.449829 6230.000000
1505.040405 6715.000000
1506.629639 6498.000000
1508.218262 6239.000000
1509.805786 6458.000000
1511.392212 6901.000000
1512.977905 6287.000000
1514.562500 6648.000000
1516.146240 6427.000000
1517.728882 6185.000000
1519.310791 6647.000000
1520.891602 6718.000000
1522.471680 6089.000000
1524.050537 6266.000000
1525.628540 6442.000000
1527.205811 6278.000000
1528.781860 5692.000000
1530.357178 6018.000000
1531.931396 6240.000000
1533.504883 5464.000000
1535.077148 5948.000000
1536.648682 6420.000000
1538.219238 6496.000000
1539.788940 6376.000000
1541.357422 5424.000000
1542.925171 6661.000000
1544.492065 5672.000000
1546.057739 6881.000000
1547.622681 6001.000000
1549.186523 5101.000000
1550.749756 7539.000000
1552.311646 6305.000000
1553.872925 6010.000000
1555.433105 5731.000000
1556.992554 5791.000000
1558.550903 5882.000000
1560.108521 6278.000000
1561.665039 7049.000000
1563.220337 5903.000000
1564.775024 6363.000000
1566.328979 5664.000000
1567.881958 6308.000000
1569.433594 5718.000000
1570.984497 5839.000000
1572.534668 6223.000000
1574.083862 6353.000000
1575.631714 5784.000000
1577.179077 5532.000000
1578.725464 5702.000000
1580.270996 5123.000000
1581.815552 6694.000000
1583.358887 6397.000000
1584.901611 6589.000000
1586.443481 6448.000000
1587.984253 6791.000000
1589.524048 5837.000000
1591.063110 6758.000000
1592.601074 5866.000000
1594.138550 6165.000000
1595.674683 5902.000000
1597.209717 6687.000000
1598.744263 6248.000000
1600.277832 6056.000000
1601.810547 6183.000000
1603.341675 6280.000000
1604.872559 6247.000000
1606.402588 5752.000000
1607.931396 6141.000000
1609.459106 6179.000000
1610.986206 6032.000000
1612.512573 6003.000000
1614.037964 6208.000000
1615.562500 5807.000000
1617.085693 5806.000000
1618.608154 5584.000000
1620.129883 6618.000000
1621.650757 7020.000000
1623.170166 15586.000000
1624.689087 6261.000000
1626.207275 6112.000000
1627.724609 5888.000000
1629.240845 6456.000000
1630.755737 7037.000000
1632.270142 6802.000000
1633.783813 5821.000000
1635.296387 6877.000000
1636.807739 6013.000000
1638.318726 6494.000000
1639.828613 6193.000000
1641.337646 6162.000000
1642.845337 5546.000000
1644.352661 6138.000000
1645.859131 7136.000000
1647.364624 6266.000000
1648.869263 6845.000000
1650.372437 6176.000000
1651.875000 6601.000000
1653.377197 6409.000000
1654.878052 6697.000000
1656.377808 7574.000000
1657.876709 6164.000000
1659.375244 6466.000000
1660.872559 6307.000000
1662.369141 5974.000000
1663.864136 6509.000000
1665.358887 6336.000000
1666.852783 5285.000000
1668.345703 5867.000000
1669.837280 20633.000000
1671.328369 6539.000000
1672.818848 6137.000000
1674.308228 5979.000000
1675.796143 7022.000000
1677.283813 6883.000000
1678.770508 6086.000000
1680.256348 5487.000000
1681.741333 6062.000000
1683.224854 6173.000000
1684.708130 6238.000000
1686.190552 5872.000000
1687.671875 6250.000000
1689.151733 6168.000000
1690.631348 5550.000000
1692.110229 6596.000000
1693.588135 6033.000000
1695.065063 6129.000000
1696.540771 5777.000000
1698.016113 6101.000000
1699.490234 6324.000000
1700.963745 5527.000000
1702.435791 5594.000000
1703.907593 6966.000000
1705.378418 6451.000000
1706.848389 7112.000000
1708.317017 5210.000000
1709.785156 5837.000000
1711.252563 6412.000000
1712.718872 5475.000000
1714.184570 5825.000000
1715.648560 6189.000000
1717.112427 6027.000000
1718.575439 6988.000000
1720.037476 6375.000000
1721.498291 6650.000000
1722.958496 5559.000000
1724.417969 6418.000000
1725.876587 6333.000000
1727.334229 6034.000000
1728.790527 6297.000000
1730.246582 6139.000000
1731.701660 6540.000000
1733.155762 6019.000000
1734.608643 6893.000000
1736.061279 6023.000000
1737.512817 6783.000000
1738.963623 6024.000000
1740.413452 6598.000000
1741.861938 5903.000000
1743.310059 7631.000000
1744.757324 6575.000000
1746.203857 6689.000000
1747.648804 6712.000000
1749.093506 6219.000000
1750.537354 6047.000000
1751.980347 5518.000000
1753.421875 6575.000000
1754.863159 6420.000000
1756.303589 19614.000000
1757.743042 6246.000000
1759.181519 5328.000000
1760.619019 6083.000000
1762.056030 7616.000000
1763.492065 5837.000000
1764.927246 7093.000000
1766.360962 6212.000000
1767.794556 6550.000000
1769.227173 6673.000000
1770.658936 5786.000000
1772.089844 5942.000000
1773.519531 6369.000000
1774.948486 6121.000000
1776.376953 6295.000000
1777.804443 6789.000000
1779.230591 6253.000000
1780.656494 5631.000000
1782.081299 6947.000000
1783.505493 5566.000000
1784.928223 6623.000000
1786.350464 6535.000000
1787.771973 6859.000000
1789.192749 5879.000000
1790.612549 6232.000000
1792.031006 6198.000000
1793.448975 6914.000000
1794.866333 5491.000000
1796.282837 6094.000000
1797.697876 6605.000000
1799.112549 5877.000000
1800.526611 6656.000000
1801.939453 6014.000000
1803.351685 7032.000000
1804.762573 7162.000000
1806.172974 7811.000000
1807.582642 6549.000000
1808.991333 6004.000000
1810.398926 5389.000000
1811.806030 6381.000000
1813.212280 6426.000000
1814.617554 6779.000000
1816.021729 6033.000000
1817.425537 5978.000000
1818.828369 6290.000000
1820.230347 6081.000000
1821.631714 5850.000000
1823.031616 6386.000000
1824.430908 6485.000000
1825.829712 6605.000000
1827.227661 7487.000000
1828.624268 5880.000000
1830.020264 6825.000000
1831.415527 5938.000000
1832.810181 8074.000000
1834.203857 6027.000000
1835.596191 6825.000000
1836.988037 6455.000000
1838.379272 5884.000000
1839.769531 7204.000000
1841.158569 6127.000000
1842.547241 6090.000000
1843.934937 5975.000000
1845.321899 5853.000000
1846.707520 6940.000000
1848.092896 5850.000000
1849.477417 6361.000000
1850.861206 6318.000000
1852.243896 6427.000000
1853.625366 5420.000000
1855.006348 6524.000000
1856.386841 6334.000000
1857.766357 5741.000000
1859.144409 5966.000000
1860.522339 6272.000000
1861.899292 7933.000000
1863.275513 6109.000000
1864.650879 6082.000000
1866.024780 5688.000000
1867.398560 5820.000000
1868.771484 6278.000000
1870.143311 6014.000000
1871.514160 6928.000000
1872.884644 5485.000000
1874.254028 6121.000000
1875.622925 6100.000000
1876.990234 7196.000000
1878.357422 6089.000000
1879.723633 6066.000000
1881.089111 6827.000000
1882.453857 7504.000000
1883.817017 6828.000000
1885.180054 7002.000000
1886.542236 6336.000000
1887.903564 6567.000000
1889.263550 5673.000000
1890.623169 5857.000000
1891.982178 6157.000000
1893.340210 6636.000000
1894.697388 7306.000000
1896.053345 5967.000000
1897.409058 7590.000000
1898.763794 5879.000000
1900.117676 5608.000000
1901.470459 5973.000000
1902.822754 6042.000000
1904.174316 5969.000000
1905.525024 7014.000000
1906.874512 6608.000000
1908.223511 6675.000000
1909.571655 5901.000000
1910.919189 6203.000000
1912.265991 6405.000000
1913.611206 6836.000000
1914.956177 6135.000000
1916.300415 5426.000000
1917.643799 6511.000000
1918.985840 6014.000000
1920.327637 6645.000000
1921.668579 7035.000000
1923.008789 6200.000000
1924.348022 6339.000000
1925.686279 6357.000000
1927.023926 6479.000000
1928.360840 7078.000000
1929.696899 6801.000000
1931.031738 5662.000000
1932.366211 6758.000000
1933.699951 7342.000000
1935.032837 6248.000000
1936.364258 5735.000000
1937.695801 6372.000000
1939.026001 6789.000000
1940.355713 5752.000000
1941.684570 6156.000000
1943.012207 5919.000000
1944.339355 5052.000000
1945.665771 5846.000000
1946.991455 6500.000000
1948.315796 5836.000000
1949.639893 6711.000000
1950.963135 6392.000000
1952.285645 6449.000000
1953.607056 5837.000000
1954.927490 7496.000000
1956.247314 6030.000000
1957.566772 5605.000000
1958.885254 6830.000000
1960.202393 5866.000000
1961.519165 5844.000000
1962.835205 6552.000000
1964.150513 6611.000000
1965.464355 6337.000000
1966.777954 5653.000000
1968.090820 6284.000000
1969.402832 6017.000000
1970.714233 6066.000000
1972.024292 6278.000000
1973.333862 5862.000000
1974.642700 6209.000000
1975.950928 6606.000000
1977.257813 6129.000000
1978.564087 7272.000000
1979.869995 5601.000000
1981.174683 6474.000000
1982.478882 5900.000000
1983.781860 5746.000000
1985.084473 7648.000000
1986.386108 6154.000000
1987.687134 6793.000000
1988.986572 6069.000000
1990.286133 6648.000000
1991.584595 5292.000000
1992.882568 6088.000000
1994.178955 6139.000000
1995.475342 5863.000000
1996.770752 5616.000000
1998.065430 6541.000000
1999.359253 5713.000000
2000.651855 6615.000000
2001.943970 5747.000000
2003.235596 7256.000000
2004.526489 6446.000000
2005.815796 6274.000000
2007.104858 6770.000000
2008.393188 5931.000000
2009.680786 6012.000000
2010.967529 6701.000000
2012.253174 5697.000000
2013.538452 6433.000000
2014.822754 5990.000000
2016.106445 5588.000000
2017.388794 6110.000000
2018.670776 6475.000000
2019.952271 6766.000000
2021.232788 5916.000000
2022.512573 6108.000000
2023.791260 6833.000000
2025.069214 5851.000000
2026.346680 5972.000000
2027.623535 6377.000000
2028.898682 5876.000000
2030.173950 6582.000000
2031.448242 6319.000000
2032.721558 5948.000000
2033.994019 5982.000000
2035.266113 6176.000000
2036.537109 6993.000000
2037.807861 6599.000000
2039.077271 6081.000000
2040.345581 6785.000000
2041.613892 6620.000000
2042.881226 5915.000000
2044.147827 5999.000000
2045.413208 5626.000000
2046.677979 5850.000000
2047.942505 5476.000000
2049.205811 5939.000000
2050.468750 6478.000000
2051.729736 6201.000000
2052.991211 6116.000000
2054.251465 5985.000000
2055.510986 6703.000000
2056.769775 6308.000000
2058.027588 6962.000000
2059.284912 5941.000000
2060.541504 6055.000000
2061.796631 6503.000000
2063.051758 5669.000000
2064.305908 5584.000000
2065.559326 5650.000000
2066.812012 6858.000000
2068.063477 6254.000000
2069.314697 6402.000000
2070.565186 5648.000000
2071.814941 5500.000000
2073.063232 6561.000000
2074.311523 6604.000000
2075.558838 7464.000000
2076.805420 5680.000000
2078.051270 6101.000000
2079.295898 7015.000000
2080.540039 7692.000000
2081.783691 5544.000000
2083.026367 6073.000000
2084.267822 6967.000000
2085.509033 5966.000000
2086.749756 6373.000000
2087.989502 6816.000000
2089.228027 7119.000000
2090.466064 6167.000000
2091.703369 5812.000000
2092.940430 6735.000000
2094.176025 6069.000000
2095.410889 6251.000000
2096.645508 6154.000000
2097.879150 5612.000000
2099.111816 6150.000000
2100.343750 6975.000000
2101.575195 6459.000000
2102.805664 6801.000000
2104.035400 5993.000000
2105.264893 5952.000000
2106.492432 6070.000000
2107.720215 6006.000000
2108.947266 6378.000000
2110.173340 5546.000000
2111.397949 6441.000000
2112.622803 6965.000000
2113.846436 7056.000000
2115.069580 6253.000000
2116.291504 7616.000000
2117.513184 6046.000000
2118.733887 6874.000000
2119.953857 5980.000000
2121.173340 6158.000000
2122.391357 6661.000000
2123.609375 7076.000000
2124.826416 5772.000000
2126.042969 5849.000000
2127.257813 6569.000000
2128.472900 6351.000000
2129.687012 7012.000000
2130.900391 5669.000000
2132.113037 6119.000000
2133.324219 5850.000000
2134.535645 6535.000000
2135.745850 6844.000000
2136.955566 5879.000000
2138.163818 6366.000000
2139.372070 5705.000000
2140.579590 5862.000000
2141.785889 7524.000000
2142.991455 5863.000000
2144.196777 5753.000000
2145.401123 5498.000000
2146.604736 6356.000000
2147.807861 6232.000000
2149.009521 6503.000000
2150.210938 5395.000000
2151.411621 6369.000000
2152.611572 6117.000000
2153.810303 6044.000000
2155.008789 6966.000000
2156.206787 6151.000000
2157.403809 6030.000000
2158.600098 5210.000000
2159.795166 5304.000000
2160.989990 6184.000000
2162.184082 5586.000000
2163.377197 6061.000000
2164.569336 6964.000000
2165.761230 5925.000000
2166.952393 6305.000000
2168.142578 6365.000000
2169.332031 6435.000000
2170.520996 6856.000000
2171.708984 6066.000000
2172.896729 5755.000000
2174.083008 5962.000000
2175.268555 6591.000000
2176.453857 5968.000000
2177.638672 5925.000000
2178.822266 6375.000000
2180.005127 7536.000000
2181.187012 6331.000000
2182.368652 5969.000000
2183.549805 6591.000000
2184.729736 5774.000000
2185.908691 5593.000000
2187.087158 6406.000000
2188.265381 6915.000000
2189.442383 7246.000000
2190.618408 6797.000000
2191.794189 6110.000000
2192.969482 5700.000000
2194.143311 6730.000000
2195.316650 6232.000000
2196.489746 6238.000000
2197.661621 6612.000000
2198.833008 7124.000000
2200.003906 6329.000000
2201.173096 6917.000000
2202.342285 7628.000000
2203.510986 6236.000000
2204.678711 5877.000000
2205.845459 5687.000000
2207.011475 7178.000000
2208.177002 6673.000000
2209.342285 5976.000000
2210.506104 6690.000000
2211.669434 5579.000000
2212.831543 6248.000000
2213.993896 6199.000000
2215.155029 6717.000000
2216.315186 6709.000000
2217.474854 6323.000000
2218.634277 6556.000000
2219.792480 6447.000000
2220.949707 6310.000000
2222.106689 6815.000000
2223.262939 6594.000000
2224.418457 6817.000000
2225.573242 6270.000000
2226.727051 6429.000000
2227.879883 6214.000000
2229.033203 6896.000000
2230.184570 6187.000000
2231.335693 6173.000000
2232.486084 6455.000000
2233.635986 7705.000000
2234.784912 6353.000000
2235.933350 5186.000000
2237.080322 6843.000000
2238.227539 7102.000000
2239.373535 6091.000000
2240.519287 7283.000000
2241.663330 7357.000000
2242.807617 6779.000000
2243.950928 6269.000000
2245.093506 6051.000000
2246.235107 5823.000000
2247.376465 5834.000000
2248.516846 6391.000000
2249.656494 6446.000000
2250.795654 5882.000000
2251.933594 5866.000000
2253.071533 6204.000000
2254.208496 5343.000000
2255.344727 6380.000000
2256.479980 6125.000000
2257.614502 7276.000000
2258.748779 6412.000000
2259.882568 5483.000000
2261.014893 6160.000000
2262.146729 6822.000000
2263.278076 6357.000000
2264.408447 6517.000000
2265.538574 8162.000000
2266.667480 6700.000000
2267.795898 6101.000000
2268.923828 5514.000000
2270.050781 6162.000000
2271.177002 5945.000000
2272.302246 6772.000000
2273.427490 6510.000000
2274.552002 6537.000000
2275.675293 5977.000000
2276.797852 6346.000000
2277.919922 6188.000000
2279.041504 7448.000000
2280.162354 6375.000000
2281.281982 6491.000000
2282.401123 7164.000000
2283.520020 7716.000000
2284.638184 7245.000000
2285.755371 5947.000000
2286.871582 6463.000000
2287.987549 7057.000000
2289.102783 6960.000000
2290.217285 7450.000000
2291.330566 5811.000000
2292.443848 6342.000000
2293.556396 5967.000000
2294.668213 5336.000000
2295.779297 6808.000000
2296.889160 6466.000000
2297.998535 6177.000000
2299.107666 6658.000000
2300.215820 6333.000000
2301.322998 6764.000000
2302.429932 5880.000000
2303.536133 6367.000000
2304.641846 6601.000000
2305.746094 6695.000000
2306.850098 5520.000000
2307.953613 5753.000000
2309.056641 6595.000000
2310.158447 7463.000000
2311.259521 7298.000000
2312.360107 6561.000000
2313.460205 5535.000000
2314.559570 6426.000000
2315.657471 6599.000000
2316.755859 7032.000000
2317.852783 8255.000000
2318.949463 6891.000000
2320.045654 5773.000000
2321.140137 6967.000000
2322.234619 7612.000000
2323.328369 5870.000000
2324.421875 6034.000000
2325.513672 6466.000000
2326.605469 7159.000000
2327.696533 6092.000000
2328.786865 6293.000000
2329.876221 6992.000000
2330.965576 6000.000000
2332.053711 6351.000000
2333.141357 7000.000000
2334.228760 6587.000000
2335.314453 6789.000000
2336.399902 7840.000000
2337.485107 6343.000000
2338.569336 6796.000000
2339.652588 5898.000000
2340.735596 6443.000000
2341.817627 7145.000000
2342.899414 6010.000000
2343.980469 7456.000000
2345.060303 6669.000000
2346.139648 5730.000000
2347.218506 6806.000000
2348.296875 6605.000000
2349.373779 6333.000000
2350.450439 6963.000000
2351.526855 6140.000000
2352.602295 6468.000000
2353.676758 6003.000000
2354.750977 6351.000000
2355.824463 6778.000000
2356.897461 6372.000000
2357.969238 7012.000000
2359.040771 6286.000000
2360.111328 6831.000000
2361.181641 7444.000000
2362.250977 7512.000000
2363.319336 6864.000000
2364.387451 6816.000000
2365.454834 7175.000000
2366.521729 7173.000000
2367.587891 6120.000000
2368.652832 6901.000000
2369.717773 7008.000000
2370.781982 6343.000000
2371.845459 6947.000000
2372.907715 5813.000000
2373.969971 6298.000000
2375.031250 6365.000000
2376.092285 5939.000000
2377.152100 6314.000000
2378.211182 7942.000000
2379.270264 6536.000000
2380.328369 7642.000000
2381.385742 6942.000000
2382.442139 8125.000000
2383.498291 7833.000000
2384.553955 6257.000000
2385.608887 7076.000000
2386.662354 6717.000000
2387.716064 6602.000000
2388.768799 6335.000000
2389.821045 6746.000000
2390.872559 6193.000000
2391.923096 6587.000000
2392.973389 6472.000000
2394.022705 6322.000000
2395.072021 6181.000000
2396.119873 6923.000000
2397.167236 7030.000000
2398.214355 6293.000000
2399.260498 6697.000000
2400.305908 6159.000000
2401.350586 6823.000000
2402.395264 7757.000000
2403.438477 7462.000000
2404.481689 6598.000000
2405.523438 5894.000000
2406.565430 6759.000000
2407.606689 7123.000000
2408.646973 6152.000000
2409.686523 6521.000000
2410.725098 6353.000000
2411.763916 6039.000000
2412.801514 6579.000000
2413.838867 6868.000000
2414.875000 7319.000000
2415.910889 6270.000000
2416.946045 6302.000000
2417.980713 6879.000000
2419.013916 7245.000000
2420.047363 6503.000000
2421.079834 6709.000000
2422.112061 6813.000000
2423.142822 7110.000000
2424.173584 6435.000000
2425.203857 6823.000000
2426.232910 6866.000000
2427.261963 6727.000000
2428.289307 7401.000000
2429.317139 6687.000000
2430.343750 7342.000000
2431.370117 6992.000000
2432.395020 7783.000000
2433.420166 6598.000000
2434.444336 7203.000000
2435.468262 6721.000000
2436.490967 5848.000000
2437.512939 6355.000000
2438.534668 6653.000000
2439.555664 6691.000000
2440.576172 6035.000000
2441.595459 6672.000000
2442.614746 6574.000000
2443.633057 8443.000000
2444.651123 6282.000000
2445.667725 6514.000000
2446.684326 6641.000000
2447.700195 6000.000000
2448.716064 7019.000000
2449.730469 6841.000000
2450.744141 5568.000000
2451.757324 7358.000000
2452.770264 6061.000000
2453.782471 7254.000000
2454.793701 6698.000000
2455.804688 7688.000000
2456.814941 6361.000000
2457.824707 7674.000000
2458.833496 5893.000000
2459.841553 5957.000000
2460.849609 6368.000000
2461.856445 7382.000000
2462.863037 5425.000000
2463.868408 7390.000000
2464.873535 6970.000000
2465.878418 5845.000000
2466.882080 6517.000000
2467.885498 6467.000000
2468.887939 7657.000000
2469.890137 7296.000000
2470.891846 6882.000000
2471.892578 6583.000000
2472.892334 6867.000000
2473.892090 6758.000000
2474.890869 5709.000000
2475.889160 6564.000000
2476.886475 7047.000000
2477.883545 6127.000000
2478.880615 7033.000000
2479.876221 5846.000000
2480.871826 7160.000000
2481.865723 6731.000000
2482.859619 8155.000000
2483.853027 6902.000000
2484.845947 6753.000000
2485.837891 7500.000000
2486.829102 7275.000000
2487.820068 6731.000000
2488.810547 5933.000000
2489.800049 6682.000000
2490.788818 6525.000000
2491.777588 5667.000000
2492.765381 6810.000000
2493.751953 6707.000000
2494.738525 8068.000000
2495.724609 6759.000000
2496.709961 7051.000000
2497.694336 8212.000000
2498.678467 6118.000000
2499.662598 6865.000000
2500.645264 5807.000000
2501.627441 6966.000000
2502.609131 6873.000000
2503.590088 7249.000000
2504.570557 6555.000000
2505.550781 5702.000000
2506.529541 6317.000000
2507.508057 7619.000000
2508.486084 6815.000000
2509.463623 7047.000000
2510.440186 6076.000000
2511.416504 5959.000000
2512.392090 6459.000000
2513.367188 6230.000000
2514.341797 6486.000000
2515.315186 7609.000000
2516.288330 6822.000000
2517.261230 6983.000000
2518.233154 6213.000000
2519.204346 6821.000000
2520.175049 6931.000000
2521.145508 7821.000000
2522.115234 8038.000000
2523.083984 6170.000000
2524.052002 6143.000000
2525.020020 7778.000000
2525.987061 6287.000000
2526.953857 5549.000000
2527.919434 7240.000000
2528.885010 7063.000000
2529.849854 7800.000000
2530.814209 6306.000000
2531.777344 6379.000000
2532.740723 5892.000000
2533.703125 6102.000000
2534.665283 6780.000000
2535.626221 6420.000000
2536.586426 6142.000000
2537.546875 6169.000000
2538.506348 6733.000000
2539.465088 6840.000000
2540.422852 6708.000000
2541.380859 6209.000000
2542.338135 6714.000000
2543.294434 6122.000000
2544.250488 7121.000000
2545.205322 6260.000000
2546.160400 7623.000000
2547.114746 7060.000000
2548.068359 6588.000000
2549.020996 7338.000000
2549.973389 6788.000000
2550.925293 6946.000000
2551.876465 6449.000000
2552.826904 7780.000000
2553.776855 7125.000000
2554.726563 7376.000000
2555.675537 6664.000000
2556.624023 6274.000000
2557.571289 7141.000000
2558.518555 6367.000000
2559.465088 6533.000000
2560.411133 6772.000000
2561.356201 7409.000000
2562.301025 6751.000000
2563.245361 7223.000000
2564.189209 6830.000000
2565.132568 6661.000000
2566.074463 6634.000000
2567.016602 6571.000000
2567.958008 6163.000000
2568.898682 7193.000000
2569.838623 7279.000000
2570.778564 5760.000000
2571.717529 6150.000000
2572.656250 7510.000000
2573.593994 7219.000000
2574.531494 5507.000000
2575.468262 6988.000000
2576.404297 6772.000000
2577.339844 7489.000000
2578.274658 6419.000000
2579.209473 6011.000000
2580.143311 7116.000000
2581.076660 7193.000000
2582.009277 5859.000000
2582.941650 6942.000000
2583.873291 5430.000000
2584.804443 7053.000000
2585.735107 6998.000000
2586.664551 6934.000000
2587.593994 7248.000000
2588.522949 6448.000000
2589.451660 7511.000000
2590.378662 7356.000000
2591.305908 5960.000000
2592.232666 6853.000000
2593.158691 6340.000000
2594.084473 5691.000000
2595.009033 7612.000000
2595.933350 7637.000000
2596.857178 5387.000000
2597.780518 7472.000000
2598.702881 6258.000000
2599.625000 6892.000000
2600.546631 8338.000000
2601.467529 6378.000000
2602.387695 5988.000000
2603.307617 6409.000000
2604.227051 6420.000000
2605.146240 6476.000000
2606.064453 5832.000000
2606.981445 5957.000000
2607.898682 7314.000000
2608.815674 5841.000000
2609.731689 7616.000000
2610.646484 6621.000000
2611.561768 6678.000000
2612.476318 6548.000000
2613.389893 6598.000000
2614.303467 6405.000000
2615.215820 7674.000000
2616.128174 7105.000000
2617.039551 6813.000000
2617.950684 5749.000000
2618.861084 7247.000000
2619.771240 6621.000000
2620.680664 6186.000000
2621.589600 6718.000000
2622.497559 6190.000000
2623.405762 6879.000000
2624.312988 6731.000000
2625.219727 7049.000000
2626.125732 6025.000000
2627.031494 6660.000000
2627.936523 6526.000000
2628.841309 7830.000000
2629.745361 6502.000000
2630.648438 6395.000000
2631.551514 6452.000000
2632.453613 5593.000000
2633.355713 6797.000000
2634.257568 7005.000000
2635.157715 6842.000000
2636.058105 6456.000000
2636.957764 6447.000000
2637.857178 5991.000000
2638.755127 6910.000000
2639.653564 6821.000000
2640.551514 6445.000000
2641.448730 6134.000000
2642.344727 6107.000000
2643.240723 6788.000000
2644.136475 6055.000000
2645.031494 6474.000000
2645.926270 6708.000000
2646.819580 7247.000000
2647.712891 6344.000000
2648.605957 6794.000000
2649.498779 6504.000000
2650.389893 7481.000000
2651.281250 6515.000000
2652.172119 7657.000000
2653.062256 7265.000000
2653.952148 6584.000000
2654.840820 7243.000000
2655.729736 6651.000000
2656.618164 6630.000000
2657.505615 7354.000000
2658.392090 6468.000000
2659.279053 7122.000000
2660.165283 6886.000000
2661.051025 6917.000000
2661.935547 6524.000000
2662.820068 6400.000000
2663.704346 6172.000000
2664.587891 7128.000000
2665.470947 7795.000000
2666.353271 7348.000000
2667.235107 6249.000000
2668.116211 6616.000000
2668.997559 6104.000000
2669.877441 6526.000000
2670.757568 7413.000000
2671.636963 7219.000000
2672.516357 6388.000000
2673.395020 6149.000000
2674.271973 6441.000000
2675.149658 6790.000000
2676.026611 6402.000000
2676.902832 8185.000000
2677.778564 7238.000000
2678.653564 6247.000000
2679.528809 7740.000000
2680.403076 6941.000000
2681.276855 7394.000000
2682.149902 6981.000000
2683.022705 6215.000000
2683.895264 6093.000000
2684.767090 6974.000000
2685.638184 6568.000000
2686.509033 6974.000000
2687.379395 7162.000000
2688.249512 6771.000000
2689.117920 6364.000000
2689.987061 7405.000000
2690.855469 7092.000000
2691.723633 6701.000000
2692.591064 6971.000000
2693.457275 5876.000000
2694.323975 7198.000000
2695.189697 7465.000000
2696.055420 7274.000000
2696.919678 7927.000000
2697.784668 6664.000000
2698.648193 7260.000000
2699.511963 5866.000000
2700.374268 7440.000000
2701.237061 6763.000000
2702.098877 5964.000000
2702.960205 6877.000000
2703.821533 6717.000000
2704.681641 7476.000000
2705.541748 7403.000000
2706.401367 6596.000000
2707.260742 6843.000000
2708.118408 7190.000000
2708.976318 6905.000000
2709.834717 7383.000000
2710.691895 6805.000000
2711.548340 6007.000000
2712.404297 6880.000000
2713.260254 6099.000000
2714.115479 6923.000000
2714.969971 6135.000000
2715.823975 6870.000000
2716.677979 7253.000000
2717.531006 6274.000000
2718.384277 6694.000000
2719.235840 7734.000000
2720.087891 6829.000000
2720.939697 6331.000000
2721.790283 6533.000000
2722.640869 6493.000000
2723.490967 7172.000000
2724.340332 6935.000000
2725.189697 7051.000000
2726.037842 6647.000000
2726.885498 6551.000000
2727.733643 7008.000000
2728.580566 6859.000000
2729.427979 5514.000000
2730.273926 7462.000000
2731.119141 7051.000000
2731.964844 6452.000000
2732.809570 7110.000000
2733.654297 7428.000000
2734.497803 6960.000000
2735.341553 7826.000000
2736.184570 7200.000000
2737.027100 6053.000000
2737.868652 6232.000000
2738.710693 6821.000000
2739.551758 6924.000000
2740.392578 5817.000000
2741.233154 5919.000000
2742.072510 7800.000000
2742.911865 6851.000000
2743.751221 6921.000000
2744.589355 6811.000000
2745.427002 7883.000000
2746.264648 6369.000000
2747.101807 7207.000000
2747.938721 6287.000000
2748.775146 6006.000000
2749.610352 6683.000000
2750.445801 6322.000000
2751.280762 6283.000000
2752.114990 6275.000000
2752.948975 6873.000000
2753.782471 6858.000000
2754.615967 8000.000000
2755.448486 6782.000000
2756.280518 7307.000000
2757.112061 6791.000000
2757.943604 7132.000000
2758.774170 7396.000000
2759.604980 7245.000000
2760.434570 7319.000000
2761.264160 6778.000000
2762.093506 7317.000000
2762.922119 6896.000000
2763.750244 6766.000000
2764.577881 6991.000000
2765.405518 6760.000000
2766.232666 8002.000000
2767.059082 5857.000000
2767.885010 7544.000000
2768.710449 6874.000000
2769.535645 7856.000000
2770.360840 7176.000000
2771.184814 6811.000000
2772.008789 6520.000000
2772.832764 7684.000000
2773.655518 6709.000000
2774.478516 6993.000000
2775.300293 6875.000000
2776.122070 6972.000000
2776.943848 6553.000000
2777.764648 8051.000000
2778.584717 6571.000000
2779.405029 7002.000000
2780.224854 7305.000000
2781.044678 6471.000000
2781.862549 5975.000000
2782.681641 8151.000000
2783.499512 6556.000000
2784.317139 6734.000000
2785.134277 7135.000000
2785.950928 7227.000000
2786.767334 7211.000000
2787.583252 6301.000000
2788.398926 5952.000000
2789.213623 6338.000000
2790.028809 6982.000000
2790.843262 7171.000000
2791.657227 6662.000000
2792.470947 7381.000000
2793.283447 8772.000000
2794.096191 6944.000000
2794.908447 7467.000000
2795.720215 7276.000000
2796.531250 7379.000000
2797.343018 6521.000000
2798.153564 7272.000000
2798.964111 6999.000000
2799.773193 7432.000000
2800.583008 8210.000000
2801.392090 7851.000000
2802.200928 6672.000000
2803.009277 7226.000000
2803.816650 6208.000000
2804.624512 6589.000000
2805.431641 6750.000000
2806.238525 6940.000000
2807.044189 7229.000000
2807.850342 6624.000000
2808.655762 6479.000000
2809.461182 7328.000000
2810.265869 6185.000000
2811.069580 7655.000000
2811.873779 7549.000000
2812.677490 6451.000000
2813.480957 6104.000000
2814.282959 6574.000000
2815.085693 7411.000000
2815.887695 7791.000000
2816.689453 6186.000000
2817.490723 6569.000000
2818.291504 7276.000000
2819.091797 6538.000000
2819.892334 6782.000000
2820.691895 8109.000000
2821.490967 7194.000000
2822.290039 6681.000000
2823.088867 6892.000000
2823.887207 6377.000000
2824.684570 7043.000000
2825.482178 7033.000000
2826.279053 6686.000000
2827.076172 7369.000000
2827.872559 7926.000000
2828.668213 6982.000000
2829.463867 7386.000000
2830.259277 7704.000000
2831.054199 7426.000000
2831.848389 6592.000000
2832.642578 6908.000000
2833.436523 5613.000000
2834.229980 6949.000000
2835.022705 7128.000000
2835.815186 8149.000000
2836.607666 7652.000000
2837.399902 7798.000000
2838.191650 6466.000000
2838.982422 6781.000000
2839.773193 8843.000000
2840.564209 7456.000000
2841.354248 6260.000000
2842.143799 7705.000000
2842.933594 7183.000000
2843.722412 7370.000000
2844.511230 7817.000000
2845.300049 7765.000000
2846.087891 7619.000000
2846.875244 7239.000000
2847.662842 7548.000000
2848.449951 7406.000000
2849.236328 6662.000000
2850.022705 7499.000000
2850.808838 7231.000000
2851.594482 7557.000000
2852.379150 7144.000000
2853.164307 6961.000000
2853.949219 7511.000000
2854.733398 7099.000000
2855.517578 6907.000000
2856.300537 8360.000000
2857.083740 6838.000000
2857.866699 6734.000000
2858.649170 7826.000000
2859.431396 6314.000000
2860.213135 6725.000000
2860.994629 7665.000000
2861.776367 7440.000000
2862.557373 7609.000000
2863.337646 6596.000000
2864.117676 6762.000000
2864.897705 8255.000000
2865.677490 7536.000000
2866.456299 8138.000000
2867.235352 7672.000000
2868.013916 6805.000000
2868.792236 7011.000000
2869.570068 7204.000000
2870.347656 6929.000000
2871.125000 7609.000000
2871.902100 7015.000000
2872.678711 6411.000000
2873.454834 7573.000000
2874.230957 7235.000000
2875.006592 8371.000000
2875.781982 7310.000000
2876.556885 6754.000000
2877.331543 8146.000000
2878.106201 6715.000000
2878.880615 7983.000000
2879.654297 6940.000000
2880.427246 7309.000000
2881.200928 6824.000000
2881.973633 7630.000000
2882.746338 7954.000000
2883.518311 8305.000000
2884.290039 6266.000000
2885.062256 6813.000000
2885.833252 6928.000000
2886.603760 6125.000000
2887.374756 8459.000000
2888.145752 7464.000000
2888.916016 8086.000000
2889.685303 7601.000000
2890.454834 6946.000000
2891.224365 7286.000000
2891.993408 7349.000000
2892.761963 7972.000000
2893.530518 7702.000000
2894.298096 7017.000000
2895.066162 6657.000000
2895.833740 7487.000000
2896.601318 8380.000000
2897.367676 7377.000000
2898.135010 6491.000000
2898.901123 7195.000000
2899.667480 7055.000000
2900.432373 8340.000000
2901.197754 6958.000000
2901.963623 6490.000000
2902.728027 7810.000000
2903.492432 7895.000000
2904.257080 8448.000000
2905.020752 6681.000000
2905.785156 8485.000000
2906.548828 6740.000000
2907.311768 8410.000000
2908.074463 6560.000000
2908.837646 9146.000000
2909.600342 6935.000000
2910.361816 6837.000000
2911.123779 6837.000000
