scanname Analyse003
timestamp 2017-02-10 19:49:48
ccdbias 909.924805
ccdgain 3.473401
sigmaread 8.960639
laserwavenum -0.634123
wavenumcorrection -0.111159
scancount 1
totalexposurems 10000
singleexposurems 10000
measurementstate Unknown
scanmode Manual
snr 51.557632 0.445611 0.218949
replacelist 0
peaks 2
810.021790 0.116036 0.000000 0.416062 0.000056
1318.815796 0.102210 0.000000 3.704516 0.001073
finalresult GLS_Multiple 90
A7387	4-Hydroxypiperidine	3.970566e-001
A10944	Glyphosate-isopropyl-ammonium salt	3.825738e-001
A4025	2,4-Dimethylpentane	3.824163e-001
A1871	Methyl salicylate	3.822460e-001
A9546	4-Methoxy-alpha-methylbenzyl alcohol	3.767710e-001
A10222	CHES	3.757213e-001
A12082	Dipotassium tris(1,2-benzenediolato-O,O')germanate	3.706983e-001
A2017	Isopropylamine	3.696227e-001
A3949	3-Butyn-2-ol	3.685242e-001
A12955	2-Chloro-1,3,2-dioxaphospholane	3.684345e-001
A4860	1-Bromo-6-tetrahydropyranyloxyhexane	3.675169e-001
A9321	Methyl 2-hydroxyisobutyrate	3.675169e-001
A3222	Potassium nitrite	3.667020e-001
A13184	Piperidine hydrochloride	3.660161e-001
A3285	4,N,N-Trimethylaniline	3.645456e-001
A10529	1-Formylpiperazine	3.627128e-001
A1149	Methyl 2-aminobenzoate	3.625489e-001
A11768	Methyl (S)-(-)-3-Boc-2,2-dimethyl-4-oxazolidinecarboxylate	3.612770e-001
A8180	Tetrahydro-2-(2-propynyloxy)-2H-pyran	3.608998e-001
A0098	Roundup (weed and grass killer)	3.606611e-001
A1676	Trifluoroacetic acid	3.604853e-001
A3362	2-Nitro-para-xylene	3.602091e-001
A11482	Methyl 5-methoxysalicylate	3.588803e-001
A4881	2-(2-Chloroethoxy)tetrahydro-2H-pyran	3.564709e-001
A5377	4-Methyl-2-nitroanisole	3.560352e-001
A9092	p-Tolyl ether	3.556498e-001
A11366	4-Isopropylanisole	3.555505e-001
A2619	1,3-Dichloroacetone	3.549663e-001
A5380	4-(Trifluoromethoxy)benzyl alcohol	3.540983e-001
A9660	3-(4-Methoxybenzoyl)propionic acid	3.536770e-001
A10301	2-Methoxytetrahydropyran	3.536524e-001
A4807	2-(2-Nitroethoxy)tetrahydropyran	3.531820e-001
A4812	2-(3-Butynyloxy)tetrahydro-2H-pyran	3.531325e-001
A6700	4'-Methoxypropiophenone	3.530956e-001
A12067	4-Ethoxyphenylboronic acid	3.520085e-001
A10169	4-(Dimethylamino)benzoic acid	3.520085e-001
A7907	4-Fluorophenyl isothiocyanate	3.518111e-001
A7633	2-Nitro-p-cymene	3.510226e-001
A3779	4-Methoxyphenethyl alcohol	3.508748e-001
A12587	4-Chloro-3-nitrotoluene	3.500143e-001
A1754	N,N-Dimethylhydrazine	3.494616e-001
A8620	Undecanoic gamma-lactone	3.494003e-001
A12733	Tri-tert-butyl borate	3.492531e-001
A4645	1-Bromo-4-(trifluoromethoxy)benzene	3.484687e-001
A5911	4-Chloro-3-nitrobenzyl alcohol	3.484198e-001
A10773	Butylate	3.482605e-001
A11376	2-Bromo-6-chloro-4-nitroaniline	3.474532e-001
A11872	Poly(methyl methacrylate)	3.474170e-001
A11598	p-Tolylboronic acid	3.467575e-001
A9420	1-Bromo-3,4-(methylenedioxy)benzene	3.459285e-001
A4722	1,3-Dicyclohexylurea	3.456365e-001
A3573	Ammonium tartrate dibasic	3.451988e-001
A7515	Methyl 3-hydroxy-2-methylenebutyrate	3.448097e-001
A1300	p-Cymene	3.447856e-001
A10296	Tri(ethylene glycol) divinyl ether	3.440696e-001
A1544	1,3-Dimethylbutylamine	3.440209e-001
A11767	Di(ethylene glycol) vinyl ether	3.439237e-001
A7284	4-Chloro-3,5-dinitrobenzoic acid	3.432939e-001
A9290	2,5-Dihydro-2,5-dimethoxyfurfuryl alcohol	3.424227e-001
A10210	tert-Butyl isothiocyanate	3.421450e-001
A4543	1,4-Butanediol divinyl ether	3.420120e-001
A4269	2,4-Dibromoanisole	3.419278e-001
A14340	Titanium(IV) fluoride	3.416623e-001
A4934	1-Fluoro-2-nitrobenzene	3.414209e-001
A4925	1-Piperonylpiperazine	3.412162e-001
A0007	Cyclohexane	3.411559e-001
A3653	(R)-(+)-3-Methylcyclopentanone	3.408547e-001
A3135	2-Methoxy-5-nitroaniline	3.407583e-001
A4675	1,4-Butanediol vinyl ether	3.406981e-001
A5310	4-Methyl-3-nitroanisole	3.405536e-001
A8415	2-Chloro-6-methoxy-3-nitropyridine	3.402531e-001
A11885	Poly(methyl methacrylate-co-butyl methacrylate)	3.401325e-001
A11593	4-(Trifluoromethoxy)phenyl isocyanate	3.400005e-001
A7564	2-Nitroterephthalic acid	3.398200e-001
A5890	5-Nitroisoquinoline	3.397599e-001
A12512	4-Methyl-1-pentanol	3.395798e-001
A10581	Piperidine	3.395677e-001
A5139	2,2,7,7-Tetramethyl-3,5-octadiyne	3.395677e-001
A11658	2-(2-Nitrovinyl)furan	3.394836e-001
A0199	Isobutyric acid	3.391715e-001
A3132	4-Methyl-3-nitrobenzoic acid	3.389798e-001
A6663	4-Hydroxypiperidine hydrochloride	3.383805e-001
A14098	1,2,4-Triazole-3-carboxylic acid	3.383568e-001
A15973	Silver azide	3.381770e-001
A2703	Acetaldehyde dimethyl acetal	3.380572e-001
A0027	2-Propanol	3.379616e-001
A12575	2-Methyl-2-nitropropane	3.379019e-001
A2709	Diglycidyl 1,2-cyclohexanedicarboxylate	3.374474e-001
A11696	1-(4-Methylphenyl)piperazine	3.373997e-001
A8054	Cyclohexyl isothiocyanate	3.371963e-001
spectrum 2048
-96.967331 44950.000000
-94.340462 44950.000000
-91.715469 45705.000000
-89.092369 45843.000000
-86.471138 46811.000000
-83.851807 46645.000000
-81.234337 47035.000000
-78.618744 46807.000000
-76.005028 47134.000000
-73.393188 47486.000000
-70.783211 47426.000000
-68.175117 47622.000000
-65.568871 47617.000000
-62.964500 47599.000000
-60.361992 47559.000000
-57.761337 48007.000000
-55.162544 47392.000000
-52.565609 46726.000000
-49.970528 47111.000000
-47.377300 47118.000000
-44.785923 47350.000000
-42.196392 46924.000000
-39.608704 47713.000000
-37.022865 47454.000000
-34.438869 47104.000000
-31.856712 47840.000000
-29.276400 47236.000000
-26.697914 47817.000000
-24.121271 47397.000000
-21.546453 47249.000000
-18.973476 46996.000000
-16.402319 46880.000000
-13.832995 46542.000000
-11.265497 45566.000000
-8.699818 47006.000000
-6.135963 46740.000000
-3.573923 47124.000000
-1.013707 47199.000000
1.544701 46621.000000
4.101288 45815.000000
6.656070 45824.000000
9.209035 46155.000000
11.760200 44905.000000
14.309551 44535.000000
16.857107 43795.000000
19.402851 44055.000000
21.946802 43595.000000
24.488949 41274.000000
27.029299 39211.000000
29.567863 36419.000000
32.104633 32030.000000
34.639599 21369.000000
37.172787 11476.000000
39.704193 8057.000000
42.233807 7518.000000
44.761623 7300.000000
47.287682 6479.000000
49.811951 5616.000000
52.334450 4962.000000
54.855152 4457.000000
57.374100 4704.000000
59.891273 5406.000000
62.406670 6684.000000
64.920288 7589.000000
67.432152 7399.000000
69.942268 5772.000000
72.450592 3744.000000
74.957161 3140.000000
77.461983 2533.000000
79.965050 2145.000000
82.466339 1985.000000
84.965889 1836.000000
87.463684 1851.000000
89.959747 2062.000000
92.454033 2393.000000
94.946579 2723.000000
97.437408 2579.000000
99.926468 2411.000000
102.413780 1808.000000
104.899368 1459.000000
107.383217 1337.000000
109.865318 1293.000000
112.345695 1121.000000
114.824348 1069.000000
117.301277 1054.000000
119.776451 853.000000
122.249916 953.000000
124.721649 874.000000
127.191673 1030.000000
129.659943 976.000000
132.126541 962.000000
134.591385 910.000000
137.054535 936.000000
139.515945 1037.000000
141.975662 1107.000000
144.433655 1329.000000
146.889954 1383.000000
149.344543 1600.000000
151.797409 1699.000000
154.248596 2018.000000
156.698090 2331.000000
159.145859 2614.000000
161.591919 2829.000000
164.036301 3165.000000
166.479004 3679.000000
168.920013 3942.000000
171.359314 4216.000000
173.796906 4214.000000
176.232864 4509.000000
178.667084 4498.000000
181.099625 4443.000000
183.530518 4384.000000
185.959686 4448.000000
188.387207 4363.000000
190.813049 4500.000000
193.237213 4546.000000
195.659714 4577.000000
198.080521 4736.000000
200.499664 4663.000000
202.917145 4912.000000
205.332932 4891.000000
207.747070 5070.000000
210.159576 5492.000000
212.570404 5838.000000
214.979553 5980.000000
217.387070 6361.000000
219.792877 6864.000000
222.197098 7211.000000
224.599609 7604.000000
227.000504 7803.000000
229.399750 7987.000000
231.797333 8084.000000
234.193253 8305.000000
236.587555 8312.000000
238.980194 8406.000000
241.371216 8346.000000
243.760574 8464.000000
246.148315 8498.000000
248.534409 8461.000000
250.918869 8628.000000
253.301682 8396.000000
255.682922 8596.000000
258.062439 8472.000000
260.440399 8583.000000
262.816681 8372.000000
265.191406 8525.000000
267.564484 8439.000000
269.935913 8468.000000
272.305695 8437.000000
274.673920 8577.000000
277.040497 8513.000000
279.405487 8441.000000
281.768860 8516.000000
284.130585 8397.000000
286.490723 8410.000000
288.849243 8245.000000
291.206177 8485.000000
293.561493 8359.000000
295.915222 8423.000000
298.267303 8477.000000
300.617828 8461.000000
302.966766 8409.000000
305.314056 8415.000000
307.659821 8286.000000
310.003906 8293.000000
312.346466 8091.000000
314.687408 8314.000000
317.026733 8371.000000
319.364502 8200.000000
321.700714 8178.000000
324.035278 8238.000000
326.368286 8219.000000
328.699738 8226.000000
331.029602 8175.000000
333.357880 8068.000000
335.684540 8051.000000
338.009705 8206.000000
340.333252 8136.000000
342.655243 8150.000000
344.975677 8088.000000
347.294495 8013.000000
349.611755 7967.000000
351.927490 8111.000000
354.241638 8124.000000
356.554199 8040.000000
358.865204 8074.000000
361.174683 7991.000000
363.482635 7861.000000
365.788971 7964.000000
368.093719 7956.000000
370.397003 7940.000000
372.698669 8030.000000
374.998840 8025.000000
377.297455 8064.000000
379.594513 8160.000000
381.890015 8051.000000
384.183990 8053.000000
386.476379 8110.000000
388.767273 7988.000000
391.056641 8007.000000
393.344421 8213.000000
395.630676 8254.000000
397.915436 8351.000000
400.198578 8359.000000
402.480286 8322.000000
404.760468 8218.000000
407.039063 8088.000000
409.316132 8165.000000
411.591675 8222.000000
413.865692 8128.000000
416.138275 8151.000000
418.409241 8155.000000
420.678711 8103.000000
422.946686 8153.000000
425.213104 7961.000000
427.478027 7953.000000
429.741486 7887.000000
432.003357 7970.000000
434.263763 7951.000000
436.522614 7971.000000
438.779999 7891.000000
441.035889 7774.000000
443.290283 7805.000000
445.543152 7835.000000
447.794464 7733.000000
450.044373 7698.000000
452.292694 7637.000000
454.539581 7686.000000
456.785004 7659.000000
459.028870 7643.000000
461.271240 7580.000000
463.512115 7691.000000
465.751587 7588.000000
467.989471 7686.000000
470.225922 7685.000000
472.460846 7549.000000
474.694305 7511.000000
476.926331 7692.000000
479.156830 7596.000000
481.385834 7470.000000
483.613373 7351.000000
485.839417 7343.000000
488.064026 7392.000000
490.287170 7500.000000
492.508850 7456.000000
494.728973 7401.000000
496.947693 7598.000000
499.164917 7461.000000
501.380768 7584.000000
503.595001 7487.000000
505.807922 7485.000000
508.019257 7615.000000
510.229156 7449.000000
512.437622 7552.000000
514.644714 7554.000000
516.850220 7445.000000
519.054321 7605.000000
521.256897 7662.000000
523.458069 7473.000000
525.657898 7596.000000
527.856201 7539.000000
530.052979 7426.000000
532.248413 7440.000000
534.442322 7495.000000
536.634888 7412.000000
538.825928 7441.000000
541.015564 7368.000000
543.203796 7352.000000
545.390503 7345.000000
547.575745 7208.000000
549.759705 7143.000000
551.942078 6971.000000
554.123108 7085.000000
556.302612 7077.000000
558.480835 7172.000000
560.657532 7090.000000
562.832825 7134.000000
565.006714 7033.000000
567.179138 7042.000000
569.350159 7072.000000
571.519714 6920.000000
573.687988 6975.000000
575.854736 6978.000000
578.020020 7001.000000
580.183899 6911.000000
582.346497 7015.000000
584.507568 6927.000000
586.667236 7053.000000
588.825562 7062.000000
590.982361 6975.000000
593.137817 7046.000000
595.291870 7038.000000
597.444580 7109.000000
599.595764 7049.000000
601.745605 6994.000000
603.894104 7104.000000
606.041016 7072.000000
608.186707 7041.000000
610.330994 6919.000000
612.473816 7024.000000
614.615173 7177.000000
616.755310 7001.000000
618.893921 6871.000000
621.031250 7031.000000
623.167114 6955.000000
625.301575 6883.000000
627.434570 6906.000000
629.566406 6855.000000
631.696777 6794.000000
633.825745 6899.000000
635.953247 6758.000000
638.079468 6733.000000
640.204163 6718.000000
642.327637 6676.000000
644.449768 6750.000000
646.570435 6600.000000
648.689758 6714.000000
650.807678 6655.000000
652.924255 6471.000000
655.039429 6516.000000
657.153259 6533.000000
659.265625 6549.000000
661.376770 6541.000000
663.486511 6606.000000
665.594788 6475.000000
667.701904 6534.000000
669.807556 6443.000000
671.911743 6570.000000
674.014709 6431.000000
676.116272 6498.000000
678.216492 6531.000000
680.315308 6571.000000
682.412781 6527.000000
684.508972 6605.000000
686.603699 6616.000000
688.697205 6587.000000
690.789368 6398.000000
692.880005 6434.000000
694.969421 6643.000000
697.057556 6600.000000
699.144226 6694.000000
701.229675 6591.000000
703.313599 6617.000000
705.396301 6543.000000
707.477722 6475.000000
709.557678 6376.000000
711.636414 6274.000000
713.713684 6198.000000
715.789673 6274.000000
717.864380 6241.000000
719.937805 6276.000000
722.009705 6409.000000
724.080444 6261.000000
726.149841 6257.000000
728.217834 6337.000000
730.284485 6024.000000
732.349915 6206.000000
734.414001 6186.000000
736.476746 6083.000000
738.538147 6158.000000
740.598267 6101.000000
742.656982 6095.000000
744.714478 6080.000000
746.770691 6030.000000
748.825500 6113.000000
750.879028 5978.000000
752.931152 6009.000000
754.982056 6032.000000
757.031738 5987.000000
759.079956 5962.000000
761.126953 5876.000000
763.172668 5869.000000
765.216980 5944.000000
767.260010 6054.000000
769.301819 5616.000000
771.342285 5936.000000
773.381348 5811.000000
775.419250 5997.000000
777.455811 5899.000000
779.491150 5944.000000
781.525146 6063.000000
783.557739 6049.000000
785.589172 6118.000000
787.619202 5930.000000
789.647949 5967.000000
791.675537 5945.000000
793.701782 6067.000000
795.726624 6103.000000
797.750366 6039.000000
799.772705 6190.000000
801.793823 6175.000000
803.813599 6298.000000
805.832092 6350.000000
807.849365 6418.000000
809.865234 6320.000000
811.879944 6450.000000
813.893311 6237.000000
815.905457 6204.000000
817.916382 6104.000000
819.925964 5933.000000
821.934326 5776.000000
823.941284 5915.000000
825.947021 5864.000000
827.951538 5889.000000
829.954773 5825.000000
831.956726 5643.000000
833.957397 5778.000000
835.956848 5697.000000
837.954956 5667.000000
839.951965 5907.000000
841.947571 5830.000000
843.942017 5684.000000
845.935120 5766.000000
847.927002 5691.000000
849.917542 5522.000000
851.906799 5427.000000
853.895020 5453.000000
855.881836 5544.000000
857.867432 5443.000000
859.851746 5417.000000
861.834961 5426.000000
863.816772 5494.000000
865.797363 5433.000000
867.776672 5370.000000
869.754822 5415.000000
871.731628 5487.000000
873.707153 5429.000000
875.681641 5395.000000
877.654663 5548.000000
879.626648 5646.000000
881.597290 5614.000000
883.566772 5670.000000
885.534912 5581.000000
887.501892 5567.000000
889.467529 5533.000000
891.432007 5593.000000
893.395264 5543.000000
895.357300 5501.000000
897.318054 5554.000000
899.277588 5453.000000
901.235840 5382.000000
903.192993 5479.000000
905.148987 5421.000000
907.103577 5473.000000
909.056946 5374.000000
911.009155 5355.000000
912.960144 5259.000000
914.909851 5339.000000
916.858398 5241.000000
918.805725 5248.000000
920.751770 5230.000000
922.696533 5186.000000
924.640259 5115.000000
926.582825 4978.000000
928.524109 4920.000000
930.464050 4831.000000
932.402893 4932.000000
934.340454 4781.000000
936.276794 4932.000000
938.211975 4781.000000
940.145874 4834.000000
942.078674 4807.000000
944.010254 4834.000000
945.940674 4864.000000
947.869873 4874.000000
949.797729 4768.000000
951.724548 4809.000000
953.650085 4887.000000
955.574341 4967.000000
957.497498 4899.000000
959.419495 4820.000000
961.340210 4902.000000
963.259766 4878.000000
965.178162 4917.000000
967.095520 5018.000000
969.011414 5008.000000
970.926208 5121.000000
972.839783 5159.000000
974.752197 5050.000000
976.663391 4985.000000
978.573425 5028.000000
980.482178 5030.000000
982.389893 4994.000000
984.296387 4908.000000
986.201660 4987.000000
988.105835 4884.000000
990.008789 4879.000000
991.910522 4935.000000
993.811096 4868.000000
995.710510 4861.000000
997.608704 4837.000000
999.505737 4839.000000
1001.401550 4814.000000
1003.296204 4708.000000
1005.189758 4626.000000
1007.082031 4554.000000
1008.973389 4622.000000
1010.863403 4576.000000
1012.752197 4479.000000
1014.639832 4536.000000
1016.526306 4432.000000
1018.411621 4408.000000
1020.295776 4449.000000
1022.178711 4446.000000
1024.060669 4499.000000
1025.941284 4513.000000
1027.820801 4452.000000
1029.699341 4555.000000
1031.576538 4417.000000
1033.452393 4395.000000
1035.327271 4387.000000
1037.201172 4476.000000
1039.073608 4598.000000
1040.945068 4437.000000
1042.815186 4459.000000
1044.684326 4385.000000
1046.552246 4396.000000
1048.419067 4457.000000
1050.284790 4435.000000
1052.149292 4474.000000
1054.012695 4459.000000
1055.874756 4449.000000
1057.735840 4554.000000
1059.595825 4466.000000
1061.454468 4427.000000
1063.312012 4458.000000
1065.168457 4562.000000
1067.023804 4432.000000
1068.877930 4432.000000
1070.731201 4437.000000
1072.583008 4475.000000
1074.433838 4392.000000
1076.283447 4388.000000
1078.131836 4324.000000
1079.979370 4479.000000
1081.825562 4465.000000
1083.670532 4440.000000
1085.514648 4375.000000
1087.357422 4388.000000
1089.198975 4395.000000
1091.039795 4306.000000
1092.879028 4208.000000
1094.717529 4270.000000
1096.554688 4229.000000
1098.390625 4206.000000
1100.225586 4085.000000
1102.059326 4108.000000
1103.892090 4164.000000
1105.723511 4037.000000
1107.554077 4199.000000
1109.383301 4066.000000
1111.211548 3927.000000
1113.038574 3833.000000
1114.864624 3862.000000
1116.689453 3898.000000
1118.513184 3896.000000
1120.335693 3998.000000
1122.157104 3934.000000
1123.977661 3884.000000
1125.796753 3955.000000
1127.614990 3969.000000
1129.431885 3816.000000
1131.247925 4016.000000
1133.062744 4033.000000
1134.876465 4039.000000
1136.689087 4042.000000
1138.500488 4119.000000
1140.310913 4081.000000
1142.120239 4159.000000
1143.928223 4111.000000
1145.735474 4084.000000
1147.541260 4215.000000
1149.346191 4221.000000
1151.150024 4189.000000
1152.952637 4206.000000
1154.754395 4169.000000
1156.554688 4282.000000
1158.354004 4285.000000
1160.152344 4197.000000
1161.949341 4048.000000
1163.745605 4175.000000
1165.540527 4189.000000
1167.334351 4034.000000
1169.127319 4007.000000
1170.918945 3988.000000
1172.709595 3949.000000
1174.499268 3943.000000
1176.287476 3852.000000
1178.074829 3854.000000
1179.861084 3740.000000
1181.646240 3798.000000
1183.430298 3815.000000
1185.213257 3809.000000
1186.995239 3863.000000
1188.776001 3748.000000
1190.555786 3789.000000
1192.334473 3746.000000
1194.112183 3737.000000
1195.888672 3750.000000
1197.664063 3656.000000
1199.438354 3614.000000
1201.211548 3592.000000
1202.983887 3673.000000
1204.754883 3589.000000
1206.525024 3624.000000
1208.293945 3584.000000
1210.061768 3540.000000
1211.828735 3610.000000
1213.594360 3601.000000
1215.359009 3584.000000
1217.122559 3615.000000
1218.885010 3708.000000
1220.646606 3624.000000
1222.406982 3627.000000
1224.166260 3652.000000
1225.924683 3550.000000
1227.681885 3624.000000
1229.437988 3547.000000
1231.192993 3559.000000
1232.947144 3628.000000
1234.699951 3604.000000
1236.451782 3567.000000
1238.202759 3629.000000
1239.952393 3582.000000
1241.701172 3671.000000
1243.448608 3733.000000
1245.195313 3642.000000
1246.940796 3682.000000
1248.685425 3780.000000
1250.428711 3674.000000
1252.171021 3694.000000
1253.912231 3600.000000
1255.652588 3604.000000
1257.391846 3525.000000
1259.129883 3460.000000
1260.867065 3383.000000
1262.603027 3415.000000
1264.338013 3420.000000
1266.072021 3494.000000
1267.805054 3493.000000
1269.536865 3602.000000
1271.267700 3546.000000
1272.997314 3644.000000
1274.726074 3621.000000
1276.453735 3602.000000
1278.180298 3580.000000
1279.906006 3676.000000
1281.630371 3525.000000
1283.353882 3690.000000
1285.076416 3709.000000
1286.797974 3720.000000
1288.518311 3644.000000
1290.237671 3563.000000
1291.955933 3604.000000
1293.673218 3634.000000
1295.389526 3663.000000
1297.104614 3544.000000
1298.818726 3602.000000
1300.531860 3556.000000
1302.244141 3504.000000
1303.955200 3367.000000
1305.665283 3501.000000
1307.374268 3480.000000
1309.082031 3535.000000
1310.789185 3484.000000
1312.494873 3350.000000
1314.199829 3495.000000
1315.903809 3380.000000
1317.606567 3451.000000
1319.308350 3527.000000
1321.009277 3480.000000
1322.708862 5553.000000
1324.407593 1268.000000
1326.105591 3418.000000
1327.802246 3374.000000
1329.497803 3460.000000
1331.192505 3402.000000
1332.885986 3427.000000
1334.578613 3440.000000
1336.270386 3168.000000
1337.960815 3244.000000
1339.650513 3220.000000
1341.339111 3318.000000
1343.026611 3180.000000
1344.713135 3304.000000
1346.398560 3141.000000
1348.083008 3219.000000
1349.766602 3168.000000
1351.448975 3308.000000
1353.130371 3319.000000
1354.810913 3322.000000
1356.490234 3365.000000
1358.168945 3485.000000
1359.846313 3497.000000
1361.522583 3402.000000
1363.197876 3443.000000
1364.872437 3426.000000
1366.545776 3386.000000
1368.218140 3355.000000
1369.889526 3380.000000
1371.559937 3430.000000
1373.229248 3417.000000
1374.897583 3347.000000
1376.565063 3466.000000
1378.231445 3399.000000
1379.896851 3327.000000
1381.561279 3402.000000
1383.224487 3221.000000
1384.887085 3305.000000
1386.548340 3166.000000
1388.208740 3266.000000
1389.868042 3140.000000
1391.526367 3218.000000
1393.183960 3122.000000
1394.840332 3209.000000
1396.495850 3232.000000
1398.150146 3195.000000
1399.803589 3120.000000
1401.455933 3237.000000
1403.107544 3217.000000
1404.757935 3055.000000
1406.407227 3085.000000
1408.055786 2969.000000
1409.703247 3046.000000
1411.349731 2925.000000
1412.995361 2947.000000
1414.640015 2933.000000
1416.283447 2878.000000
1417.926025 2855.000000
1419.567505 2814.000000
1421.208130 2573.000000
1422.847778 2849.000000
1424.486328 2791.000000
1426.124023 2934.000000
1427.760620 2835.000000
1429.396240 2839.000000
1431.031128 2818.000000
1432.664917 2821.000000
1434.297607 2865.000000
1435.929321 2839.000000
1437.560181 2853.000000
1439.189941 2884.000000
1440.818604 2955.000000
1442.446655 2870.000000
1444.073608 2791.000000
1445.699341 2746.000000
1447.324463 2889.000000
1448.948486 2862.000000
1450.571533 2856.000000
1452.193604 2982.000000
1453.814575 2885.000000
1455.434570 2957.000000
1457.053833 3124.000000
1458.671753 3000.000000
1460.289063 2539.000000
1461.905396 2987.000000
1463.520508 3051.000000
1465.134766 2984.000000
1466.748169 2923.000000
1468.360474 2938.000000
1469.971924 2951.000000
1471.582520 2945.000000
1473.191895 2829.000000
1474.800293 2890.000000
1476.407837 2840.000000
1478.014404 2826.000000
1479.620239 2746.000000
1481.224854 2809.000000
1482.828613 2824.000000
1484.431152 2639.000000
1486.033081 2581.000000
1487.633789 2677.000000
1489.233765 2605.000000
1490.832642 2669.000000
1492.430664 2581.000000
1494.027588 2566.000000
1495.623657 2706.000000
1497.218750 2739.000000
1498.812866 2786.000000
1500.406250 2771.000000
1501.998535 2740.000000
1503.589600 2585.000000
1505.180176 2747.000000
1506.769409 2659.000000
1508.358032 2697.000000
1509.945557 2652.000000
1511.531982 2574.000000
1513.117676 2458.000000
1514.702271 2546.000000
1516.286011 2526.000000
1517.868652 2584.000000
1519.450562 2572.000000
1521.031372 2545.000000
1522.611450 2508.000000
1524.190308 2573.000000
1525.768311 2504.000000
1527.345581 2505.000000
1528.921631 2430.000000
1530.496948 2533.000000
1532.071167 2538.000000
1533.644653 2464.000000
1535.216919 2481.000000
1536.788452 2427.000000
1538.359009 2458.000000
1539.928711 2336.000000
1541.497192 2403.000000
1543.064941 2411.000000
1544.631836 2453.000000
1546.197510 2380.000000
1547.762451 2344.000000
1549.326294 2361.000000
1550.889526 2394.000000
1552.451416 2374.000000
1554.012695 2411.000000
1555.572876 2464.000000
1557.132324 2378.000000
1558.690674 2525.000000
1560.248291 2347.000000
1561.804810 2282.000000
1563.360107 2312.000000
1564.914795 2275.000000
1566.468750 2331.000000
1568.021729 2326.000000
1569.573364 2156.000000
1571.124268 2287.000000
1572.674438 2326.000000
1574.223633 2355.000000
1575.771484 2372.000000
1577.318848 2384.000000
1578.865234 2281.000000
1580.410767 2267.000000
1581.955322 2277.000000
1583.498657 2276.000000
1585.041382 2307.000000
1586.583252 2343.000000
1588.124023 2485.000000
1589.663818 2269.000000
1591.202881 2249.000000
1592.740845 2406.000000
1594.278320 2235.000000
1595.814453 2231.000000
1597.349487 2283.000000
1598.884033 2186.000000
1600.417603 2189.000000
1601.950317 2219.000000
1603.481445 2139.000000
1605.012329 2242.000000
1606.542358 2279.000000
1608.071167 2221.000000
1609.598877 2213.000000
1611.125977 2235.000000
1612.652344 2256.000000
1614.177734 2225.000000
1615.702271 2229.000000
1617.225464 2223.000000
1618.747925 2258.000000
1620.269653 2216.000000
1621.790527 2231.000000
1623.309937 2093.000000
1624.828857 2219.000000
1626.347046 2184.000000
1627.864380 2172.000000
1629.380615 2090.000000
1630.895508 2094.000000
1632.409912 2047.000000
1633.923584 2133.000000
1635.436157 2179.000000
1636.947510 2151.000000
1638.458496 2168.000000
1639.968384 2014.000000
1641.477417 2134.000000
1642.985107 2118.000000
1644.492432 2031.000000
1645.998901 2109.000000
1647.504395 2063.000000
1649.009033 2076.000000
1650.512207 1939.000000
1652.014771 2026.000000
1653.516968 2037.000000
1655.017822 1942.000000
1656.517578 2008.000000
1658.016479 2041.000000
1659.515015 1971.000000
1661.012329 2033.000000
1662.508911 1976.000000
1664.003906 2009.000000
1665.498657 1905.000000
1666.992554 1870.000000
1668.485474 1941.000000
1669.977051 1916.000000
1671.468140 1921.000000
1672.958618 1878.000000
1674.447998 1909.000000
1675.935913 1881.000000
1677.423584 1944.000000
1678.910278 1857.000000
1680.396118 1823.000000
1681.881104 1849.000000
1683.364624 1810.000000
1684.847900 1864.000000
1686.330322 1797.000000
1687.811646 1875.000000
1689.291504 1886.000000
1690.771118 1772.000000
1692.250000 1867.000000
1693.727905 1462.000000
1695.204834 1829.000000
1696.680542 1880.000000
1698.155884 1815.000000
1699.630005 1651.000000
1701.103516 1841.000000
1702.575562 1658.000000
1704.047363 1811.000000
1705.518188 1766.000000
1706.988159 1802.000000
1708.456787 1814.000000
1709.924927 1908.000000
1711.392334 1857.000000
1712.858643 1815.000000
1714.324341 1804.000000
1715.788330 1780.000000
1717.252197 1776.000000
1718.715210 1817.000000
1720.177246 1814.000000
1721.638062 1832.000000
1723.098267 1696.000000
1724.557739 1823.000000
1726.016357 1890.000000
1727.473999 1740.000000
1728.930298 1824.000000
1730.386353 1708.000000
1731.841431 1705.000000
1733.295532 1704.000000
1734.748413 1731.000000
1736.201050 1708.000000
1737.652588 1533.000000
1739.103394 1765.000000
1740.553223 1725.000000
1742.001709 1717.000000
1743.449829 1673.000000
1744.897095 1807.000000
1746.343628 1719.000000
1747.788574 1734.000000
1749.233276 1706.000000
1750.677124 1679.000000
1752.120117 1622.000000
1753.561646 1690.000000
1755.002930 1588.000000
1756.443359 1556.000000
1757.882813 1606.000000
1759.321289 1616.000000
1760.758789 1675.000000
1762.195801 1564.000000
1763.631836 1636.000000
1765.067017 1659.000000
1766.500732 1572.000000
1767.934326 1671.000000
1769.366943 1627.000000
1770.798706 1581.000000
1772.229614 1633.000000
1773.659302 1572.000000
1775.088257 1586.000000
1776.516724 1498.000000
1777.944214 1519.000000
1779.370361 1437.000000
1780.796265 1539.000000
1782.221069 1552.000000
1783.645264 1509.000000
1785.067993 1567.000000
1786.490234 1495.000000
1787.911743 1553.000000
1789.332520 1419.000000
1790.752319 1429.000000
1792.170776 1465.000000
1793.588745 1515.000000
1795.006104 1431.000000
1796.422607 1502.000000
1797.837646 1537.000000
1799.252319 1509.000000
1800.666382 1489.000000
1802.079224 1527.000000
1803.491455 1372.000000
1804.902344 1442.000000
1806.312744 1482.000000
1807.722412 1487.000000
1809.131104 1530.000000
1810.538696 1456.000000
1811.945801 1395.000000
1813.352051 1443.000000
1814.757324 1503.000000
1816.161499 1460.000000
1817.565308 1479.000000
1818.968140 1510.000000
1820.370117 1427.000000
1821.771484 1498.000000
1823.171387 1443.000000
1824.570679 1470.000000
1825.969482 1449.000000
1827.367432 1398.000000
1828.764038 1391.000000
1830.160034 1470.000000
1831.555298 1416.000000
1832.949951 1462.000000
1834.343628 1523.000000
1835.735962 1393.000000
1837.127808 1481.000000
1838.519043 1429.000000
1839.909302 1419.000000
1841.298340 1443.000000
1842.687012 1390.000000
1844.074707 1387.000000
1845.461670 1353.000000
1846.847290 1369.000000
1848.232666 1314.000000
1849.617188 1420.000000
1851.000977 1345.000000
1852.383667 1403.000000
1853.765137 1310.000000
1855.146118 1256.000000
1856.526611 1435.000000
1857.906128 1191.000000
1859.284180 1322.000000
1860.662109 1384.000000
1862.039063 1301.000000
1863.415283 1341.000000
1864.790649 1338.000000
1866.164551 1317.000000
1867.538330 1295.000000
1868.911255 1359.000000
1870.283081 1210.000000
1871.653931 1340.000000
1873.024414 1190.000000
1874.393799 1179.000000
1875.762695 1281.000000
1877.130005 1232.000000
1878.497192 1228.000000
1879.863403 1252.000000
1881.228882 1205.000000
1882.593628 1190.000000
1883.956787 1284.000000
1885.319824 1216.000000
1886.682007 1199.000000
1888.043335 1230.000000
1889.403320 1232.000000
1890.762939 1240.000000
1892.121948 1173.000000
1893.479980 1258.000000
1894.837158 1156.000000
1896.193115 1156.000000
1897.548828 1129.000000
1898.903564 1146.000000
1900.257446 1149.000000
1901.610229 1208.000000
1902.962524 1161.000000
1904.314087 1253.000000
1905.664795 1232.000000
1907.014282 1115.000000
1908.363281 1188.000000
1909.711426 1177.000000
1911.058960 1155.000000
1912.405762 1096.000000
1913.750977 1105.000000
1915.095947 1200.000000
1916.440186 1194.000000
1917.783569 1207.000000
1919.125610 1244.000000
1920.467407 1253.000000
1921.808350 1185.000000
1923.148560 1176.000000
1924.487793 1093.000000
1925.826050 1140.000000
1927.163696 1138.000000
1928.500610 1119.000000
1929.836670 1192.000000
1931.171509 1149.000000
1932.505981 1149.000000
1933.839722 1129.000000
1935.172607 1051.000000
1936.504028 1116.000000
1937.835571 1118.000000
1939.165771 1119.000000
1940.495483 1023.000000
1941.824341 1102.000000
1943.151978 1248.000000
1944.479126 1132.000000
1945.805542 1102.000000
1947.131226 1151.000000
1948.455566 1060.000000
1949.779663 1132.000000
1951.102905 1112.000000
1952.425415 1028.000000
1953.746826 1035.000000
1955.067261 1141.000000
1956.387085 1080.000000
1957.706543 1148.000000
1959.025024 1017.000000
1960.342163 986.000000
1961.658936 1089.000000
1962.974976 1097.000000
1964.290283 997.000000
1965.604126 1026.000000
1966.917725 992.000000
1968.230591 1078.000000
1969.542603 982.000000
1970.854004 998.000000
1972.164063 997.000000
1973.473633 1051.000000
1974.782471 956.000000
1976.090698 967.000000
1977.397583 935.000000
1978.703857 1006.000000
1980.009766 938.000000
1981.314453 953.000000
1982.618652 994.000000
1983.921631 914.000000
1985.224243 945.000000
1986.525879 1003.000000
1987.826904 925.000000
1989.126343 929.000000
1990.425903 961.000000
1991.724365 1006.000000
1993.022339 989.000000
1994.318726 898.000000
1995.615112 897.000000
1996.910522 906.000000
1998.205200 900.000000
1999.499023 941.000000
2000.791626 884.000000
2002.083740 806.000000
2003.375366 865.000000
2004.666260 971.000000
2005.955566 971.000000
2007.244629 943.000000
2008.532959 908.000000
2009.820557 886.000000
2011.107300 893.000000
2012.392944 830.000000
2013.678223 785.000000
2014.962524 789.000000
2016.246216 944.000000
2017.528564 834.000000
2018.810547 920.000000
2020.092041 961.000000
2021.372559 969.000000
2022.652344 843.000000
2023.931030 837.000000
2025.208984 820.000000
2026.486450 867.000000
2027.763306 898.000000
2029.038452 818.000000
2030.313721 879.000000
2031.588013 885.000000
2032.861328 818.000000
2034.133789 835.000000
2035.405884 824.000000
2036.676880 965.000000
2037.947632 766.000000
2039.217041 775.000000
2040.485352 849.000000
2041.753662 748.000000
2043.020996 826.000000
2044.287598 833.000000
2045.552979 809.000000
2046.817749 695.000000
2048.082275 893.000000
2049.345459 817.000000
2050.608398 737.000000
2051.869385 786.000000
2053.130859 826.000000
2054.391113 814.000000
2055.650635 857.000000
2056.909424 850.000000
2058.167236 777.000000
2059.424561 813.000000
2060.681152 820.000000
2061.936279 810.000000
2063.191406 760.000000
2064.445557 722.000000
2065.698975 761.000000
2066.951660 816.000000
2068.203125 799.000000
2069.454346 789.000000
2070.704834 851.000000
2071.954590 794.000000
2073.202881 793.000000
2074.451172 717.000000
2075.698486 799.000000
2076.945068 722.000000
2078.190918 728.000000
2079.435547 746.000000
2080.679688 757.000000
2081.923340 751.000000
2083.166016 700.000000
2084.407471 745.000000
2085.648682 741.000000
2086.889404 779.000000
2088.129150 609.000000
2089.367676 688.000000
2090.605713 710.000000
2091.843018 705.000000
2093.080078 822.000000
2094.315674 762.000000
2095.550537 763.000000
2096.785156 651.000000
2098.018799 734.000000
2099.251465 756.000000
2100.483398 576.000000
2101.714844 665.000000
2102.945313 662.000000
2104.175049 771.000000
2105.404541 696.000000
2106.632080 677.000000
2107.859863 631.000000
2109.086914 704.000000
2110.312988 687.000000
2111.537598 656.000000
2112.762451 685.000000
2113.986084 613.000000
2115.209229 703.000000
2116.431152 718.000000
2117.652832 692.000000
2118.873535 646.000000
2120.093506 750.000000
2121.312988 594.000000
2122.531006 655.000000
2123.749023 676.000000
2124.966064 708.000000
2126.182617 676.000000
2127.397461 657.000000
2128.612549 686.000000
2129.826660 600.000000
2131.040039 711.000000
2132.252686 677.000000
2133.463867 682.000000
2134.675293 628.000000
2135.885498 605.000000
2137.095215 631.000000
2138.303467 759.000000
2139.511719 619.000000
2140.719238 708.000000
2141.925537 561.000000
2143.131104 686.000000
2144.336426 621.000000
2145.540771 662.000000
2146.744385 704.000000
2147.947510 555.000000
2149.149170 556.000000
2150.350586 578.000000
2151.551270 587.000000
2152.751221 675.000000
2153.949951 610.000000
2155.148438 637.000000
2156.346436 639.000000
2157.543457 593.000000
2158.739746 549.000000
2159.934814 579.000000
2161.129639 578.000000
2162.323730 558.000000
2163.516846 537.000000
2164.708984 578.000000
2165.900879 529.000000
2167.092041 592.000000
2168.282227 549.000000
2169.471680 530.000000
2170.660645 608.000000
2171.848633 558.000000
2173.036377 596.000000
2174.222656 559.000000
2175.408203 540.000000
2176.593506 544.000000
2177.778320 616.000000
2178.961914 436.000000
2180.144775 558.000000
2181.326660 575.000000
2182.508301 573.000000
2183.689453 480.000000
2184.869385 540.000000
2186.048340 540.000000
2187.226807 633.000000
2188.405029 631.000000
2189.582031 517.000000
2190.758057 431.000000
2191.933838 567.000000
2193.109131 530.000000
2194.282959 501.000000
2195.456299 590.000000
2196.629395 570.000000
2197.801270 486.000000
2198.972656 512.000000
2200.143555 426.000000
2201.312744 448.000000
2202.481934 576.000000
2203.650635 499.000000
2204.818359 576.000000
2205.985107 560.000000
2207.151123 427.000000
2208.316650 420.000000
2209.481934 614.000000
2210.645752 484.000000
2211.809082 585.000000
2212.971191 498.000000
2214.133545 436.000000
2215.294678 515.000000
2216.454834 451.000000
2217.614502 505.000000
2218.773926 412.000000
2219.932129 480.000000
2221.089355 486.000000
2222.246338 538.000000
2223.402588 629.000000
2224.558105 428.000000
2225.712891 460.000000
2226.866699 541.000000
2228.019531 524.000000
2229.172852 566.000000
2230.324219 585.000000
2231.475342 456.000000
2232.625732 551.000000
2233.775635 427.000000
2234.924561 400.000000
2236.072998 550.000000
2237.219971 787.000000
2238.367188 438.000000
2239.513184 482.000000
2240.658936 388.000000
2241.802979 384.000000
2242.947266 470.000000
2244.090576 389.000000
2245.233154 449.000000
2246.374756 495.000000
2247.516113 311.000000
2248.656494 429.000000
2249.796143 401.000000
2250.935303 413.000000
2252.073242 354.000000
2253.211182 525.000000
2254.348145 425.000000
2255.484375 493.000000
2256.619629 437.000000
2257.754150 417.000000
2258.888428 430.000000
2260.022217 421.000000
2261.154541 426.000000
2262.286377 379.000000
2263.417725 411.000000
2264.548096 384.000000
2265.678223 454.000000
2266.807129 367.000000
2267.935547 466.000000
2269.063477 434.000000
2270.190430 381.000000
2271.316650 432.000000
2272.441895 467.000000
2273.567139 364.000000
2274.691650 391.000000
2275.814941 474.000000
2276.937500 401.000000
2278.059570 450.000000
2279.181152 373.000000
2280.302002 341.000000
2281.421631 403.000000
2282.540771 330.000000
2283.659668 424.000000
2284.777832 422.000000
2285.895020 381.000000
2287.011230 314.000000
2288.127197 347.000000
2289.242432 267.000000
2290.356934 315.000000
2291.470215 294.000000
2292.583496 377.000000
2293.696045 363.000000
2294.807861 447.000000
2295.918945 291.000000
2297.028809 321.000000
2298.138184 422.000000
2299.247314 367.000000
2300.355469 398.000000
2301.462646 370.000000
2302.569580 446.000000
2303.675781 408.000000
2304.781494 439.000000
2305.885742 364.000000
2306.989746 411.000000
2308.093262 340.000000
2309.196289 317.000000
2310.298096 303.000000
2311.399170 408.000000
2312.499756 323.000000
2313.599854 336.000000
2314.699219 366.000000
2315.797119 362.000000
2316.895508 341.000000
2317.992432 373.000000
2319.089111 424.000000
2320.185303 368.000000
2321.279785 368.000000
2322.374268 327.000000
2323.468018 367.000000
2324.561523 383.000000
2325.653320 325.000000
2326.745117 504.000000
2327.836182 393.000000
2328.926514 435.000000
2330.015869 434.000000
2331.105225 503.000000
2332.193359 384.000000
2333.281006 422.000000
2334.368408 342.000000
2335.454102 328.000000
2336.539551 299.000000
2337.624756 415.000000
2338.708984 296.000000
2339.792236 372.000000
2340.875244 313.000000
2341.957275 290.000000
2343.039063 282.000000
2344.120117 308.000000
2345.199951 291.000000
2346.279297 314.000000
2347.358154 256.000000
2348.436523 353.000000
2349.513428 271.000000
2350.590088 263.000000
2351.666504 360.000000
2352.741943 292.000000
2353.816406 275.000000
2354.890625 287.000000
2355.964111 281.000000
2357.037109 419.000000
2358.108887 328.000000
2359.180420 353.000000
2360.250977 241.000000
2361.321289 326.000000
2362.390625 331.000000
2363.458984 284.000000
2364.527100 227.000000
2365.594482 255.000000
2366.661377 304.000000
2367.727539 310.000000
2368.792480 321.000000
2369.857422 322.000000
2370.921631 262.000000
2371.985107 232.000000
2373.047363 264.000000
2374.109619 282.000000
2375.170898 319.000000
2376.231934 277.000000
2377.291748 369.000000
2378.350830 309.000000
2379.409912 307.000000
2380.468018 334.000000
2381.525391 302.000000
2382.581787 290.000000
2383.637939 349.000000
2384.693604 254.000000
2385.748535 335.000000
2386.802002 304.000000
2387.855713 324.000000
2388.908447 230.000000
2389.960693 264.000000
2391.012207 189.000000
2392.062744 231.000000
2393.113037 284.000000
2394.162354 339.000000
2395.211670 284.000000
2396.259521 266.000000
2397.306885 189.000000
2398.354004 308.000000
2399.400146 262.000000
2400.445557 251.000000
2401.490234 263.000000
2402.534912 301.000000
2403.578125 272.000000
2404.621338 288.000000
2405.663086 258.000000
2406.705078 234.000000
2407.746338 198.000000
2408.786621 332.000000
2409.826172 269.000000
2410.864746 200.000000
2411.903564 199.000000
2412.941162 309.000000
2413.978516 340.000000
2415.014648 215.000000
2416.050537 287.000000
2417.085693 321.000000
2418.120361 270.000000
2419.153564 291.000000
2420.187012 278.000000
2421.219482 226.000000
2422.251709 229.000000
2423.282471 319.000000
2424.313232 226.000000
2425.343506 213.000000
2426.372559 272.000000
2427.401611 241.000000
2428.428955 282.000000
2429.456787 308.000000
2430.483398 147.000000
2431.509766 280.000000
2432.534668 342.000000
2433.559814 287.000000
2434.583984 260.000000
2435.607910 183.000000
2436.630615 285.000000
2437.652588 309.000000
2438.674316 222.000000
2439.695313 257.000000
2440.715820 234.000000
2441.735107 205.000000
2442.754395 202.000000
2443.772705 124.000000
2444.790771 218.000000
2445.807373 180.000000
2446.823975 322.000000
2447.839844 267.000000
2448.855713 153.000000
2449.870117 212.000000
2450.883789 200.000000
2451.896973 265.000000
2452.909912 199.000000
2453.922119 190.000000
2454.933350 207.000000
2455.944336 188.000000
2456.954590 210.000000
2457.964355 269.000000
2458.973145 159.000000
2459.981201 226.000000
2460.989258 220.000000
2461.996094 120.000000
2463.002686 243.000000
2464.008057 310.000000
2465.013184 215.000000
2466.018066 257.000000
2467.021729 133.000000
2468.025146 263.000000
2469.027588 223.000000
2470.029785 187.000000
2471.031494 117.000000
2472.032227 127.000000
2473.031982 170.000000
2474.031738 278.000000
2475.030518 257.000000
2476.028809 158.000000
2477.026123 193.000000
2478.023193 216.000000
2479.020264 220.000000
2480.015869 166.000000
2481.011475 228.000000
2482.005371 270.000000
2482.999268 163.000000
2483.992676 177.000000
2484.985596 88.000000
2485.977539 125.000000
2486.968750 115.000000
2487.959717 205.000000
2488.950195 185.000000
2489.939697 176.000000
2490.928467 206.000000
2491.917236 218.000000
2492.905029 119.000000
2493.891602 175.000000
2494.878174 179.000000
2495.864258 208.000000
2496.849609 160.000000
2497.833984 211.000000
2498.818115 258.000000
2499.802246 165.000000
2500.784912 169.000000
2501.767090 235.000000
2502.748779 135.000000
2503.729736 137.000000
2504.710205 89.000000
2505.690430 225.000000
2506.669189 193.000000
2507.647705 94.000000
2508.625732 166.000000
2509.603271 139.000000
2510.579834 147.000000
2511.556152 123.000000
2512.531738 136.000000
2513.506836 212.000000
2514.481445 119.000000
2515.454834 198.000000
2516.427979 122.000000
2517.400879 160.000000
2518.372803 233.000000
2519.343994 165.000000
2520.314697 136.000000
2521.285156 261.000000
2522.254883 132.000000
2523.223633 194.000000
2524.191650 162.000000
2525.159668 223.000000
2526.126709 127.000000
2527.093506 199.000000
2528.059082 56.000000
2529.024658 120.000000
2529.989502 78.000000
2530.953857 139.000000
2531.916992 154.000000
2532.880371 224.000000
2533.842773 112.000000
2534.804932 131.000000
2535.765869 113.000000
2536.726074 188.000000
2537.686523 221.000000
2538.645996 96.000000
2539.604736 162.000000
2540.562500 135.000000
2541.520508 184.000000
2542.477783 213.000000
2543.434082 152.000000
2544.390137 80.000000
2545.344971 182.000000
2546.300049 208.000000
2547.254395 202.000000
2548.208008 -92.000000
2549.160645 183.000000
2550.113037 171.000000
2551.064941 155.000000
2552.016113 81.000000
2552.966553 41.000000
2553.916504 117.000000
2554.866211 134.000000
2555.815186 73.000000
2556.763672 99.000000
2557.710938 134.000000
2558.658203 142.000000
2559.604736 164.000000
2560.550781 146.000000
2561.495850 167.000000
2562.440674 248.000000
2563.385010 204.000000
2564.328857 284.000000
2565.272217 80.000000
2566.214111 117.000000
2567.156250 64.000000
2568.097656 128.000000
2569.038330 29.000000
2569.978271 96.000000
2570.918213 150.000000
2571.857178 117.000000
2572.795898 93.000000
2573.733643 53.000000
2574.671143 216.000000
2575.607910 208.000000
2576.543945 126.000000
2577.479492 91.000000
2578.414307 94.000000
2579.349121 81.000000
2580.282959 124.000000
2581.216309 -16.000000
2582.148926 23.000000
2583.081299 16.000000
2584.012939 94.000000
2584.944092 184.000000
2585.874756 148.000000
2586.804199 158.000000
2587.733643 200.000000
2588.662598 152.000000
2589.591309 173.000000
2590.518311 232.000000
2591.445557 184.000000
2592.372314 108.000000
2593.298340 200.000000
2594.224121 142.000000
2595.148682 149.000000
2596.072998 81.000000
2596.996826 193.000000
2597.920166 111.000000
2598.842529 93.000000
2599.764648 117.000000
2600.686279 142.000000
2601.607178 99.000000
2602.527344 146.000000
2603.447266 102.000000
2604.366699 147.000000
2605.285889 115.000000
2606.204102 126.000000
2607.121094 143.000000
2608.038330 151.000000
2608.955322 38.000000
2609.871338 111.000000
2610.786133 187.000000
2611.701416 106.000000
2612.615967 70.000000
2613.529541 145.000000
2614.443115 102.000000
2615.355469 150.000000
2616.267822 77.000000
2617.179199 68.000000
2618.090332 183.000000
2619.000732 -92.000000
2619.910889 99.000000
2620.820313 130.000000
2621.729248 169.000000
2622.637207 150.000000
2623.545410 124.000000
2624.452637 186.000000
2625.359375 192.000000
2626.265381 186.000000
2627.171143 141.000000
2628.076172 113.000000
2628.980957 104.000000
2629.885010 148.000000
2630.788086 128.000000
2631.691162 114.000000
2632.593262 109.000000
2633.495361 181.000000
2634.397217 28.000000
2635.297363 87.000000
2636.197754 200.000000
2637.097412 142.000000
2637.996826 41.000000
2638.894775 77.000000
2639.793213 114.000000
2640.691162 124.000000
2641.588379 129.000000
2642.484375 93.000000
2643.380371 194.000000
2644.276123 84.000000
2645.171143 215.000000
2646.065918 170.000000
2646.959229 54.000000
2647.852539 93.000000
2648.745605 172.000000
2649.638428 163.000000
2650.529541 124.000000
2651.420898 64.000000
2652.311768 177.000000
2653.201904 96.000000
2654.091797 -54.000000
2654.980469 92.000000
2655.869385 55.000000
2656.757813 98.000000
2657.645264 139.000000
2658.531738 75.000000
2659.418701 128.000000
2660.304932 78.000000
2661.190674 40.000000
2662.075195 66.000000
2662.959717 166.000000
2663.843994 75.000000
2664.727539 91.000000
2665.610596 24.000000
2666.492920 47.000000
2667.374756 124.000000
2668.255859 106.000000
2669.137207 37.000000
2670.017090 37.000000
2670.897217 38.000000
2671.776611 76.000000
2672.656006 193.000000
2673.534668 166.000000
2674.411621 71.000000
2675.289307 51.000000
2676.166260 116.000000
2677.042480 95.000000
2677.918213 140.000000
2678.793213 110.000000
2679.668457 70.000000
2680.542725 147.000000
2681.416504 18.000000
2682.289551 104.000000
2683.162354 129.000000
2684.034912 108.000000
2684.906738 142.000000
2685.777832 124.000000
2686.648682 77.000000
2687.519043 138.000000
2688.389160 109.000000
2689.257568 141.000000
2690.126709 140.000000
2690.995117 74.000000
2691.863281 80.000000
2692.730713 30.000000
2693.596924 -38.000000
2694.463623 45.000000
2695.329346 52.000000
2696.195068 201.000000
2697.059326 260.000000
2697.924316 -12.000000
2698.787842 70.000000
2699.651611 68.000000
2700.513916 66.000000
2701.376709 80.000000
2702.238525 129.000000
2703.099854 116.000000
2703.961182 124.000000
2704.821289 96.000000
2705.681396 36.000000
2706.541016 66.000000
2707.400391 20.000000
2708.258057 103.000000
2709.115967 -36.000000
2709.974365 51.000000
2710.831543 36.000000
2711.687988 44.000000
2712.543945 91.000000
2713.399902 108.000000
2714.255127 82.000000
2715.109619 65.000000
2715.963623 55.000000
2716.817627 134.000000
2717.670654 96.000000
2718.523926 185.000000
2719.375488 130.000000
2720.227539 70.000000
2721.079346 51.000000
2721.929932 176.000000
2722.780518 102.000000
2723.630615 64.000000
2724.479980 24.000000
2725.329346 34.000000
2726.177490 88.000000
2727.025146 112.000000
2727.873291 68.000000
2728.720215 104.000000
2729.567627 37.000000
2730.413574 32.000000
2731.258789 3.000000
2732.104492 11.000000
2732.949219 -36.000000
2733.793945 78.000000
2734.637451 169.000000
2735.481201 70.000000
2736.324219 9.000000
2737.166748 68.000000
2738.008301 92.000000
2738.850342 41.000000
2739.691406 95.000000
2740.532227 102.000000
2741.372803 7.000000
2742.212158 -24.000000
2743.051514 150.000000
2743.890869 119.000000
2744.729004 16.000000
2745.566650 26.000000
2746.404297 -1.000000
2747.241455 68.000000
2748.078369 118.000000
2748.914795 113.000000
2749.750000 76.000000
2750.585449 29.000000
2751.420410 -11.000000
2752.254639 139.000000
2753.088623 -22.000000
2753.922119 15.000000
2754.755615 23.000000
2755.588135 115.000000
2756.420166 21.000000
2757.251709 92.000000
2758.083252 5.000000
2758.913818 35.000000
2759.744629 115.000000
2760.574219 6.000000
2761.403809 97.000000
2762.233154 34.000000
2763.061768 34.000000
2763.889893 87.000000
2764.717529 123.000000
2765.545166 54.000000
2766.372314 17.000000
2767.198730 44.000000
2768.024658 86.000000
2768.850098 13.000000
2769.675293 -39.000000
2770.500488 -14.000000
2771.324463 28.000000
2772.148438 8.000000
2772.972412 75.000000
2773.795166 42.000000
2774.618164 155.000000
2775.439941 148.000000
2776.261719 13.000000
2777.083496 54.000000
2777.904297 72.000000
2778.724365 66.000000
2779.544678 161.000000
2780.364502 -3.000000
2781.184326 64.000000
2782.002197 88.000000
2782.821289 105.000000
2783.639160 110.000000
2784.456787 19.000000
2785.273926 88.000000
2786.090576 16.000000
2786.906982 26.000000
2787.722900 44.000000
2788.538574 -78.000000
2789.353271 127.000000
2790.168457 23.000000
2790.982910 96.000000
2791.796875 107.000000
2792.610596 67.000000
2793.423096 7.000000
2794.235840 93.000000
2795.048096 -60.000000
2795.859863 -69.000000
2796.670898 2.000000
2797.482666 74.000000
2798.293213 65.000000
2799.103760 32.000000
2799.912842 55.000000
2800.722656 188.000000
2801.531738 80.000000
2802.340576 -29.000000
2803.148926 45.000000
2803.956299 14.000000
2804.764160 124.000000
2805.571289 11.000000
2806.378174 30.000000
2807.183838 34.000000
2807.989990 33.000000
2808.795410 72.000000
2809.600830 17.000000
2810.405518 44.000000
2811.209229 24.000000
2812.013428 -30.000000
2812.817139 149.000000
2813.620605 141.000000
2814.422607 55.000000
2815.225342 25.000000
2816.027344 -16.000000
2816.829102 -9.000000
2817.630371 35.000000
2818.431152 51.000000
2819.231445 47.000000
2820.031982 104.000000
2820.831543 15.000000
2821.630615 101.000000
2822.429688 55.000000
2823.228516 54.000000
2824.026855 59.000000
2824.824219 79.000000
2825.621826 73.000000
2826.418701 -35.000000
2827.215820 33.000000
2828.012207 170.000000
2828.807861 11.000000
2829.603516 150.000000
2830.398926 42.000000
2831.193848 9.000000
2831.988037 120.000000
2832.782227 67.000000
2833.576172 76.000000
2834.369629 25.000000
2835.162354 34.000000
2835.954834 28.000000
2836.747314 -114.000000
2837.539551 65.000000
2838.331299 49.000000
2839.122070 93.000000
2839.912842 49.000000
2840.703857 112.000000
2841.493896 58.000000
2842.283447 26.000000
2843.073242 130.000000
2843.862061 95.000000
2844.650879 45.000000
2845.439697 9.000000
2846.227539 84.000000
2847.014893 16.000000
2847.802490 85.000000
2848.589600 93.000000
2849.375977 114.000000
2850.162354 75.000000
2850.948486 32.000000
2851.734131 30.000000
2852.518799 82.000000
2853.303955 60.000000
2854.088867 159.000000
2854.873047 -28.000000
2855.657227 112.000000
2856.440186 29.000000
2857.223389 123.000000
2858.006348 -1.000000
2858.788818 -20.000000
2859.571045 112.000000
2860.352783 65.000000
2861.134277 42.000000
2861.916016 6.000000
2862.697021 117.000000
2863.477295 59.000000
2864.257324 89.000000
2865.037354 40.000000
2865.817139 73.000000
2866.595947 69.000000
2867.375000 49.000000
2868.153564 -2.000000
2868.931885 53.000000
2869.709717 26.000000
2870.487305 26.000000
2871.264648 -57.000000
2872.041748 96.000000
2872.818359 46.000000
2873.594482 -8.000000
2874.370605 56.000000
2875.146240 106.000000
2875.921631 -15.000000
2876.696533 27.000000
2877.471191 53.000000
2878.245850 61.000000
2879.020264 49.000000
2879.793945 94.000000
2880.566895 85.000000
2881.340576 33.000000
2882.113281 37.000000
2882.885986 98.000000
2883.657959 52.000000
2884.429688 89.000000
2885.201904 -77.000000
2885.972900 137.000000
2886.743408 112.000000
2887.514404 59.000000
2888.285400 -82.000000
2889.055664 46.000000
2889.824951 87.000000
2890.594482 63.000000
2891.364014 46.000000
2892.133057 103.000000
2892.901611 39.000000
2893.670166 106.000000
2894.437744 21.000000
2895.205811 140.000000
2895.973389 55.000000
2896.740967 94.000000
2897.507324 135.000000
2898.274658 46.000000
2899.040771 48.000000
2899.807129 130.000000
2900.572021 51.000000
2901.337402 97.000000
2902.103271 96.000000
2902.867676 43.000000
2903.632080 76.000000
2904.396729 -25.000000
2905.160400 34.000000
2905.924805 0.000000
2906.688477 38.000000
2907.451416 44.000000
2908.214111 42.000000
2908.977295 -57.000000
2909.739990 9.000000
2910.501465 8.000000
2911.263428 8.000000
spectrumdark 2048
-96.967331 6169.000000
-94.340462 6169.000000
-91.715469 6099.000000
-89.092369 6473.000000
-86.471138 5843.000000
-83.851807 6279.000000
-81.234337 6091.000000
-78.618744 6462.000000
-76.005028 6239.000000
-73.393188 5974.000000
-70.783211 6098.000000
-68.175117 5947.000000
-65.568871 5985.000000
-62.964500 6015.000000
-60.361992 6121.000000
-57.761337 5613.000000
-55.162544 6290.000000
-52.565609 6923.000000
-49.970528 6554.000000
-47.377300 6538.000000
-44.785923 6251.000000
-42.196392 6713.000000
-39.608704 5942.000000
-37.022865 6124.000000
-34.438869 6477.000000
-31.856712 5742.000000
-29.276400 6318.000000
-26.697914 5701.000000
-24.121271 6132.000000
-21.546453 6254.000000
-18.973476 6465.000000
-16.402319 6512.000000
-13.832995 6815.000000
-11.265497 7817.000000
-8.699818 6341.000000
-6.135963 6522.000000
-3.573923 5997.000000
-1.013707 5803.000000
1.544701 6298.000000
4.101288 6975.000000
6.656070 6713.000000
9.209035 6015.000000
11.760200 6771.000000
14.309551 6512.000000
16.857107 6742.000000
19.402851 6015.000000
21.946802 5730.000000
24.488949 6699.000000
27.029299 6804.000000
29.567863 6848.000000
32.104633 6474.000000
34.639599 5837.000000
37.172787 7322.000000
39.704193 6333.000000
42.233807 7128.000000
44.761623 6540.000000
47.287682 7878.000000
49.811951 5700.000000
52.334450 6242.000000
54.855152 6792.000000
57.374100 6317.000000
59.891273 6456.000000
62.406670 6660.000000
64.920288 5640.000000
67.432152 5720.000000
69.942268 6578.000000
72.450592 6688.000000
74.957161 5960.000000
77.461983 6393.000000
79.965050 6501.000000
82.466339 6316.000000
84.965889 6208.000000
87.463684 6341.000000
89.959747 5783.000000
92.454033 7235.000000
94.946579 5792.000000
97.437408 6989.000000
99.926468 7178.000000
102.413780 6418.000000
104.899368 6182.000000
107.383217 6401.000000
109.865318 5835.000000
112.345695 6753.000000
114.824348 6328.000000
117.301277 6580.000000
119.776451 7271.000000
122.249916 6855.000000
124.721649 5963.000000
127.191673 6724.000000
129.659943 6304.000000
132.126541 6318.000000
134.591385 5755.000000
137.054535 6279.000000
139.515945 7300.000000
141.975662 7029.000000
144.433655 6380.000000
146.889954 6035.000000
149.344543 5811.000000
151.797409 6884.000000
154.248596 6399.000000
156.698090 6624.000000
159.145859 6098.000000
161.591919 6746.000000
164.036301 8765.000000
166.479004 6407.000000
168.920013 6780.000000
171.359314 6261.000000
173.796906 7293.000000
176.232864 6603.000000
178.667084 6982.000000
181.099625 7237.000000
183.530518 6723.000000
185.959686 7142.000000
188.387207 6754.000000
190.813049 6368.000000
193.237213 6767.000000
195.659714 7206.000000
198.080521 7388.000000
200.499664 6560.000000
202.917145 5988.000000
205.332932 7647.000000
207.747070 7152.000000
210.159576 6376.000000
212.570404 6084.000000
214.979553 6304.000000
217.387070 7471.000000
219.792877 6189.000000
222.197098 6561.000000
224.599609 6681.000000
227.000504 6997.000000
229.399750 6590.000000
231.797333 6927.000000
234.193253 7251.000000
236.587555 6498.000000
238.980194 6134.000000
241.371216 6917.000000
243.760574 6582.000000
246.148315 6435.000000
248.534409 7036.000000
250.918869 6133.000000
253.301682 8031.000000
255.682922 6613.000000
258.062439 6694.000000
260.440399 6524.000000
262.816681 7686.000000
265.191406 7590.000000
267.564484 7891.000000
269.935913 6249.000000
272.305695 6525.000000
274.673920 5924.000000
277.040497 6345.000000
279.405487 6491.000000
281.768860 6038.000000
284.130585 6299.000000
286.490723 7125.000000
288.849243 6167.000000
291.206177 6587.000000
293.561493 6517.000000
295.915222 6018.000000
298.267303 6046.000000
300.617828 6423.000000
302.966766 6403.000000
305.314056 6866.000000
307.659821 6520.000000
310.003906 6557.000000
312.346466 7530.000000
314.687408 7638.000000
317.026733 7128.000000
319.364502 7033.000000
321.700714 8175.000000
324.035278 6309.000000
326.368286 6529.000000
328.699738 5973.000000
331.029602 6719.000000
333.357880 6570.000000
335.684540 7331.000000
338.009705 6399.000000
340.333252 6263.000000
342.655243 6031.000000
344.975677 7545.000000
347.294495 7811.000000
349.611755 6043.000000
351.927490 5815.000000
354.241638 6910.000000
356.554199 6362.000000
358.865204 6311.000000
361.174683 7082.000000
363.482635 6487.000000
365.788971 5676.000000
368.093719 6604.000000
370.397003 6490.000000
372.698669 6305.000000
374.998840 6427.000000
377.297455 6296.000000
379.594513 5709.000000
381.890015 6077.000000
384.183990 5914.000000
386.476379 5239.000000
388.767273 5625.000000
391.056641 6263.000000
393.344421 6355.000000
395.630676 6569.000000
397.915436 7139.000000
400.198578 6127.000000
402.480286 6467.000000
404.760468 6239.000000
407.039063 7367.000000
409.316132 6607.000000
411.591675 6954.000000
413.865692 6810.000000
416.138275 6731.000000
418.409241 6543.000000
420.678711 6562.000000
422.946686 7140.000000
425.213104 7256.000000
427.478027 6327.000000
429.741486 6354.000000
432.003357 6488.000000
434.263763 6024.000000
436.522614 6672.000000
438.779999 6162.000000
441.035889 5765.000000
443.290283 5768.000000
445.543152 5524.000000
447.794464 6941.000000
450.044373 6148.000000
452.292694 6266.000000
454.539581 5717.000000
456.785004 6516.000000
459.028870 6554.000000
461.271240 6549.000000
463.512115 5676.000000
465.751587 6758.000000
467.989471 5468.000000
470.225922 5781.000000
472.460846 6130.000000
474.694305 7408.000000
476.926331 6704.000000
479.156830 5637.000000
481.385834 6515.000000
483.613373 6360.000000
485.839417 5996.000000
488.064026 6596.000000
490.287170 5899.000000
492.508850 6403.000000
494.728973 6745.000000
496.947693 5665.000000
499.164917 6324.000000
501.380768 5526.000000
503.595001 6223.000000
505.807922 6483.000000
508.019257 6431.000000
510.229156 6961.000000
512.437622 6568.000000
514.644714 6586.000000
516.850220 6451.000000
519.054321 6571.000000
521.256897 6191.000000
523.458069 6720.000000
525.657898 6713.000000
527.856201 6930.000000
530.052979 5387.000000
532.248413 5946.000000
534.442322 5600.000000
536.634888 7599.000000
538.825928 6745.000000
541.015564 6151.000000
543.203796 7016.000000
545.390503 7141.000000
547.575745 6843.000000
549.759705 6262.000000
551.942078 6523.000000
554.123108 6256.000000
556.302612 6079.000000
558.480835 5895.000000
560.657532 6088.000000
562.832825 6383.000000
565.006714 6473.000000
567.179138 5903.000000
569.350159 6046.000000
571.519714 6357.000000
573.687988 5287.000000
575.854736 6422.000000
578.020020 6322.000000
580.183899 6245.000000
582.346497 5787.000000
584.507568 6102.000000
586.667236 5668.000000
588.825562 5900.000000
590.982361 6250.000000
593.137817 6626.000000
595.291870 5812.000000
597.444580 6125.000000
599.595764 7264.000000
601.745605 6844.000000
603.894104 6672.000000
606.041016 6136.000000
608.186707 6499.000000
610.330994 6500.000000
612.473816 7044.000000
614.615173 6244.000000
616.755310 6492.000000
618.893921 7798.000000
621.031250 5764.000000
623.167114 6657.000000
625.301575 6936.000000
627.434570 7240.000000
629.566406 6724.000000
631.696777 6629.000000
633.825745 6822.000000
635.953247 6588.000000
638.079468 6300.000000
640.204163 7581.000000
642.327637 6507.000000
644.449768 6733.000000
646.570435 6884.000000
648.689758 6544.000000
650.807678 5723.000000
652.924255 5707.000000
655.039429 6507.000000
657.153259 6476.000000
659.265625 5884.000000
661.376770 6167.000000
663.486511 5399.000000
665.594788 6131.000000
667.701904 6340.000000
669.807556 6940.000000
671.911743 5878.000000
674.014709 5751.000000
676.116272 7026.000000
678.216492 5369.000000
680.315308 6804.000000
682.412781 6277.000000
684.508972 7087.000000
686.603699 6461.000000
688.697205 7094.000000
690.789368 6768.000000
692.880005 8063.000000
694.969421 6706.000000
697.057556 6546.000000
699.144226 6060.000000
701.229675 6709.000000
703.313599 5294.000000
705.396301 5992.000000
707.477722 5997.000000
709.557678 7641.000000
711.636414 6259.000000
713.713684 5581.000000
715.789673 6625.000000
717.864380 6095.000000
719.937805 7042.000000
722.009705 6390.000000
724.080444 7514.000000
726.149841 5826.000000
728.217834 6499.000000
730.284485 6420.000000
732.349915 7021.000000
734.414001 5789.000000
736.476746 6184.000000
738.538147 6555.000000
740.598267 6616.000000
742.656982 6111.000000
744.714478 6675.000000
746.770691 6601.000000
748.825500 6698.000000
750.879028 6456.000000
752.931152 7527.000000
754.982056 5767.000000
757.031738 6759.000000
759.079956 6397.000000
761.126953 6245.000000
763.172668 7019.000000
765.216980 5351.000000
767.260010 5751.000000
769.301819 15079.000000
771.342285 7214.000000
773.381348 6406.000000
775.419250 6114.000000
777.455811 5991.000000
779.491150 5390.000000
781.525146 5801.000000
783.557739 6941.000000
785.589172 5512.000000
787.619202 11726.000000
789.647949 6097.000000
791.675537 6379.000000
793.701782 6442.000000
795.726624 5829.000000
797.750366 5577.000000
799.772705 6371.000000
801.793823 5926.000000
803.813599 6681.000000
805.832092 4943.000000
807.849365 6786.000000
809.865234 6859.000000
811.879944 5729.000000
813.893311 6442.000000
815.905457 6283.000000
817.916382 6025.000000
819.925964 6642.000000
821.934326 5390.000000
823.941284 5928.000000
825.947021 6099.000000
827.951538 5738.000000
829.954773 5649.000000
831.956726 6537.000000
833.957397 6140.000000
835.956848 6022.000000
837.954956 6352.000000
839.951965 6978.000000
841.947571 6234.000000
843.942017 6085.000000
845.935120 6256.000000
847.927002 6848.000000
849.917542 5685.000000
851.906799 6881.000000
853.895020 6050.000000
855.881836 5793.000000
857.867432 6444.000000
859.851746 7354.000000
861.834961 6351.000000
863.816772 6377.000000
865.797363 5890.000000
867.776672 7841.000000
869.754822 7124.000000
871.731628 6263.000000
873.707153 6098.000000
875.681641 6244.000000
877.654663 6070.000000
879.626648 5464.000000
881.597290 6406.000000
883.566772 6145.000000
885.534912 5613.000000
887.501892 5265.000000
889.467529 6152.000000
891.432007 5804.000000
893.395264 6067.000000
895.357300 6503.000000
897.318054 5887.000000
899.277588 6501.000000
901.235840 6745.000000
903.192993 6354.000000
905.148987 6035.000000
907.103577 6934.000000
909.056946 6515.000000
911.009155 6447.000000
912.960144 6456.000000
914.909851 7178.000000
916.858398 6377.000000
918.805725 6151.000000
920.751770 6146.000000
922.696533 6088.000000
924.640259 6328.000000
926.582825 6007.000000
928.524109 5623.000000
930.464050 6465.000000
932.402893 5725.000000
934.340454 5597.000000
936.276794 5931.000000
938.211975 5938.000000
940.145874 6114.000000
942.078674 5967.000000
944.010254 6830.000000
945.940674 5226.000000
947.869873 6461.000000
949.797729 7056.000000
951.724548 6763.000000
953.650085 5973.000000
955.574341 5357.000000
957.497498 6047.000000
959.419495 6817.000000
961.340210 7350.000000
963.259766 6502.000000
965.178162 5347.000000
967.095520 6434.000000
969.011414 6523.000000
970.926208 6132.000000
972.839783 5969.000000
974.752197 6447.000000
976.663391 6540.000000
978.573425 5515.000000
980.482178 6289.000000
982.389893 6190.000000
984.296387 6439.000000
986.201660 5796.000000
988.105835 6879.000000
990.008789 6243.000000
991.910522 6853.000000
993.811096 6426.000000
995.710510 6889.000000
997.608704 5366.000000
999.505737 6574.000000
1001.401550 6579.000000
1003.296204 7712.000000
1005.189758 5650.000000
1007.082031 7265.000000
1008.973389 6109.000000
1010.863403 5343.000000
1012.752197 6637.000000
1014.639832 6352.000000
1016.526306 6943.000000
1018.411621 6786.000000
1020.295776 5990.000000
1022.178711 5879.000000
1024.060669 6229.000000
1025.941284 5206.000000
1027.820801 5857.000000
1029.699341 6080.000000
1031.576538 5498.000000
1033.452393 6214.000000
1035.327271 5952.000000
1037.201172 6642.000000
1039.073608 7176.000000
1040.945068 6749.000000
1042.815186 5528.000000
1044.684326 5577.000000
1046.552246 5808.000000
1048.419067 7080.000000
1050.284790 6786.000000
1052.149292 6513.000000
1054.012695 6486.000000
1055.874756 6504.000000
1057.735840 5889.000000
1059.595825 6596.000000
1061.454468 6663.000000
1063.312012 5869.000000
1065.168457 6781.000000
1067.023804 5978.000000
1068.877930 5837.000000
1070.731201 6287.000000
1072.583008 6375.000000
1074.433838 6195.000000
1076.283447 6204.000000
1078.131836 5854.000000
1079.979370 7950.000000
1081.825562 5595.000000
1083.670532 6219.000000
1085.514648 5465.000000
1087.357422 5577.000000
1089.198975 6588.000000
1091.039795 5527.000000
1092.879028 5758.000000
1094.717529 6099.000000
1096.554688 6114.000000
1098.390625 6868.000000
1100.225586 6678.000000
1102.059326 5501.000000
1103.892090 5690.000000
1105.723511 6233.000000
1107.554077 7269.000000
1109.383301 6576.000000
1111.211548 6475.000000
1113.038574 7208.000000
1114.864624 5442.000000
1116.689453 6391.000000
1118.513184 7216.000000
1120.335693 6070.000000
1122.157104 5944.000000
1123.977661 5973.000000
1125.796753 6631.000000
1127.614990 7112.000000
1129.431885 7049.000000
1131.247925 6717.000000
1133.062744 6486.000000
1134.876465 5670.000000
1136.689087 5845.000000
1138.500488 5551.000000
1140.310913 6174.000000
1142.120239 6740.000000
1143.928223 7028.000000
1145.735474 6059.000000
1147.541260 5978.000000
1149.346191 5405.000000
1151.150024 5449.000000
1152.952637 6164.000000
1154.754395 6222.000000
1156.554688 6109.000000
1158.354004 6127.000000
1160.152344 5927.000000
1161.949341 5525.000000
1163.745605 5956.000000
1165.540527 6118.000000
1167.334351 6418.000000
1169.127319 7798.000000
1170.918945 5762.000000
1172.709595 6545.000000
1174.499268 6004.000000
1176.287476 5924.000000
1178.074829 7560.000000
1179.861084 6929.000000
1181.646240 5802.000000
1183.430298 6052.000000
1185.213257 7712.000000
1186.995239 5889.000000
1188.776001 5939.000000
1190.555786 6408.000000
1192.334473 6944.000000
1194.112183 6717.000000
1195.888672 7230.000000
1197.664063 6647.000000
1199.438354 6536.000000
1201.211548 6700.000000
1202.983887 6551.000000
1204.754883 6732.000000
1206.525024 5750.000000
1208.293945 6196.000000
1210.061768 6413.000000
1211.828735 5803.000000
1213.594360 5961.000000
1215.359009 7076.000000
1217.122559 6581.000000
1218.885010 5910.000000
1220.646606 6743.000000
1222.406982 5918.000000
1224.166260 6364.000000
1225.924683 6066.000000
1227.681885 7185.000000
1229.437988 6503.000000
1231.192993 5548.000000
1232.947144 5997.000000
1234.699951 5908.000000
1236.451782 6059.000000
1238.202759 6011.000000
1239.952393 4957.000000
1241.701172 7015.000000
1243.448608 6504.000000
1245.195313 6662.000000
1246.940796 6515.000000
1248.685425 6379.000000
1250.428711 6775.000000
1252.171021 6672.000000
1253.912231 5401.000000
1255.652588 5159.000000
1257.391846 5870.000000
1259.129883 6562.000000
1260.867065 7169.000000
1262.603027 6119.000000
1264.338013 6490.000000
1266.072021 7308.000000
1267.805054 6008.000000
1269.536865 6215.000000
1271.267700 6490.000000
1272.997314 7300.000000
1274.726074 5952.000000
1276.453735 5764.000000
1278.180298 5579.000000
1279.906006 5528.000000
1281.630371 6516.000000
1283.353882 5201.000000
1285.076416 7080.000000
1286.797974 6615.000000
1288.518311 6408.000000
1290.237671 6736.000000
1291.955933 7299.000000
1293.673218 6444.000000
1295.389526 5755.000000
1297.104614 6389.000000
1298.818726 6164.000000
1300.531860 5770.000000
1302.244141 6480.000000
1303.955200 8406.000000
1305.665283 5310.000000
1307.374268 6573.000000
1309.082031 6681.000000
1310.789185 7049.000000
1312.494873 5801.000000
1314.199829 6932.000000
1315.903809 6226.000000
1317.606567 6070.000000
1319.308350 6611.000000
1321.009277 6078.000000
1322.708862 9281.000000
1324.407593 30932.000000
1326.105591 5616.000000
1327.802246 6554.000000
1329.497803 7176.000000
1331.192505 6943.000000
1332.885986 5769.000000
1334.578613 5424.000000
1336.270386 7508.000000
1337.960815 6293.000000
1339.650513 6602.000000
1341.339111 6179.000000
1343.026611 7732.000000
1344.713135 5645.000000
1346.398560 6902.000000
1348.083008 6041.000000
1349.766602 7383.000000
1351.448975 6380.000000
1353.130371 5947.000000
1354.810913 6593.000000
1356.490234 6783.000000
1358.168945 5894.000000
1359.846313 6632.000000
1361.522583 5847.000000
1363.197876 5619.000000
1364.872437 6630.000000
1366.545776 6504.000000
1368.218140 6884.000000
1369.889526 5195.000000
1371.559937 6859.000000
1373.229248 6172.000000
1374.897583 5757.000000
1376.565063 5984.000000
1378.231445 6503.000000
1379.896851 6207.000000
1381.561279 5873.000000
1383.224487 5987.000000
1384.887085 5728.000000
1386.548340 6483.000000
1388.208740 6610.000000
1389.868042 6474.000000
1391.526367 6555.000000
1393.183960 6941.000000
1394.840332 6510.000000
1396.495850 7029.000000
1398.150146 6457.000000
1399.803589 5967.000000
1401.455933 6182.000000
1403.107544 6465.000000
1404.757935 7243.000000
1406.407227 6291.000000
1408.055786 7606.000000
1409.703247 7932.000000
1411.349731 6303.000000
1412.995361 6238.000000
1414.640015 6031.000000
1416.283447 7041.000000
1417.926025 7261.000000
1419.567505 6931.000000
1421.208130 6853.000000
1422.847778 6603.000000
1424.486328 6067.000000
1426.124023 6674.000000
1427.760620 6419.000000
1429.396240 6022.000000
1431.031128 6471.000000
1432.664917 5887.000000
1434.297607 6240.000000
1435.929321 5714.000000
1437.560181 6173.000000
1439.189941 6094.000000
1440.818604 7814.000000
1442.446655 6016.000000
1444.073608 6620.000000
1445.699341 6274.000000
1447.324463 6216.000000
1448.948486 6633.000000
1450.571533 6117.000000
1452.193604 5992.000000
1453.814575 7456.000000
1455.434570 6293.000000
1457.053833 6906.000000
1458.671753 5774.000000
1460.289063 16437.000000
1461.905396 5576.000000
1463.520508 7298.000000
1465.134766 6421.000000
1466.748169 5265.000000
1468.360474 5670.000000
1469.971924 6292.000000
1471.582520 6373.000000
1473.191895 6042.000000
1474.800293 5979.000000
1476.407837 6220.000000
1478.014404 6696.000000
1479.620239 5398.000000
1481.224854 6277.000000
1482.828613 5583.000000
1484.431152 6721.000000
1486.033081 5568.000000
1487.633789 5504.000000
1489.233765 5675.000000
1490.832642 6242.000000
1492.430664 6507.000000
1494.027588 6736.000000
1495.623657 6364.000000
1497.218750 5994.000000
1498.812866 5513.000000
1500.406250 6606.000000
1501.998535 5513.000000
1503.589600 6260.000000
1505.180176 6740.000000
1506.769409 6523.000000
1508.358032 6225.000000
1509.945557 6575.000000
1511.531982 6865.000000
1513.117676 6220.000000
1514.702271 6671.000000
1516.286011 6486.000000
1517.868652 6279.000000
1519.450562 6822.000000
1521.031372 6724.000000
1522.611450 6139.000000
1524.190308 6264.000000
1525.768311 6415.000000
1527.345581 6360.000000
1528.921631 5724.000000
1530.496948 5970.000000
1532.071167 6340.000000
1533.644653 5507.000000
1535.216919 5981.000000
1536.788452 6493.000000
1538.359009 6505.000000
1539.928711 6464.000000
1541.497192 5559.000000
1543.064941 6650.000000
1544.631836 5639.000000
1546.197510 6899.000000
1547.762451 6012.000000
1549.326294 5111.000000
1550.889526 7593.000000
1552.451416 6311.000000
1554.012695 6011.000000
1555.572876 5732.000000
1557.132324 5783.000000
1558.690674 6030.000000
1560.248291 6343.000000
1561.804810 7123.000000
1563.360107 5917.000000
1564.914795 6459.000000
1566.468750 5704.000000
1568.021729 6318.000000
1569.573364 5794.000000
1571.124268 5947.000000
1572.674438 6266.000000
1574.223633 6392.000000
1575.771484 5805.000000
1577.318848 5524.000000
1578.865234 5695.000000
1580.410767 5093.000000
1581.955322 6721.000000
1583.498657 6427.000000
1585.041382 6629.000000
1586.583252 6470.000000
1588.124023 6655.000000
1589.663818 5847.000000
1591.202881 6718.000000
1592.740845 5903.000000
1594.278320 6228.000000
1595.814453 5986.000000
1597.349487 6678.000000
1598.884033 6332.000000
1600.417603 6086.000000
1601.950317 6244.000000
1603.481445 6440.000000
1605.012329 6349.000000
1606.542358 5769.000000
1608.071167 6173.000000
1609.598877 6205.000000
1611.125977 6020.000000
1612.652344 5846.000000
1614.177734 6327.000000
1615.702271 5819.000000
1617.225464 5782.000000
1618.747925 5641.000000
1620.269653 6593.000000
1621.790527 6954.000000
1623.309937 15663.000000
1624.828857 6244.000000
1626.347046 6142.000000
1627.864380 5887.000000
1629.380615 6473.000000
1630.895508 7098.000000
1632.409912 6880.000000
1633.923584 5780.000000
1635.436157 6899.000000
1636.947510 5967.000000
1638.458496 6489.000000
1639.968384 6332.000000
1641.477417 6228.000000
1642.985107 5631.000000
1644.492432 6198.000000
1645.998901 7166.000000
1647.504395 6285.000000
1649.009033 6889.000000
1650.512207 6235.000000
1652.014771 6625.000000
1653.516968 6409.000000
1655.017822 6722.000000
1656.517578 7595.000000
1658.016479 6179.000000
1659.515015 6539.000000
1661.012329 6267.000000
1662.508911 5968.000000
1664.003906 6550.000000
1665.498657 6531.000000
1666.992554 5294.000000
1668.485474 5795.000000
1669.977051 21084.000000
1671.468140 6521.000000
1672.958618 6147.000000
1674.447998 6008.000000
1675.935913 6995.000000
1677.423584 6940.000000
1678.910278 6079.000000
1680.396118 5527.000000
1681.881104 6113.000000
1683.364624 6274.000000
1684.847900 6253.000000
1686.330322 5959.000000
1687.811646 6238.000000
1689.291504 6195.000000
1690.771118 5621.000000
1692.250000 6619.000000
1693.727905 6103.000000
1695.204834 6173.000000
1696.680542 5763.000000
1698.155884 6027.000000
1699.630005 6442.000000
1701.103516 5506.000000
1702.575562 5671.000000
1704.047363 6947.000000
1705.518188 6402.000000
1706.988159 7128.000000
1708.456787 5137.000000
1709.924927 5870.000000
1711.392334 6419.000000
1712.858643 5525.000000
1714.324341 5829.000000
1715.788330 6227.000000
1717.252197 6013.000000
1718.715210 7095.000000
1720.177246 6406.000000
1721.638062 6603.000000
1723.098267 5559.000000
1724.557739 6423.000000
1726.016357 6299.000000
1727.473999 6041.000000
1728.930298 6287.000000
1730.386353 6103.000000
1731.841431 6555.000000
1733.295532 6091.000000
1734.748413 6931.000000
1736.201050 6018.000000
1737.652588 6946.000000
1739.103394 5999.000000
1740.553223 6626.000000
1742.001709 5983.000000
1743.449829 7572.000000
1744.897095 6568.000000
1746.343628 6698.000000
1747.788574 6680.000000
1749.233276 6194.000000
1750.677124 6024.000000
1752.120117 5576.000000
1753.561646 6560.000000
1755.002930 6408.000000
1756.443359 19629.000000
1757.882813 6316.000000
1759.321289 5284.000000
1760.758789 6157.000000
1762.195801 7676.000000
1763.631836 5882.000000
1765.067017 7165.000000
1766.500732 6244.000000
1767.934326 6490.000000
1769.366943 6741.000000
1770.798706 5812.000000
1772.229614 5923.000000
1773.659302 6400.000000
1775.088257 6208.000000
1776.516724 6378.000000
1777.944214 6796.000000
1779.370361 6255.000000
1780.796265 5625.000000
1782.221069 6933.000000
1783.645264 5600.000000
1785.067993 6676.000000
1786.490234 6586.000000
1787.911743 6907.000000
1789.332520 5947.000000
1790.752319 6181.000000
1792.170776 6229.000000
1793.588745 6880.000000
1795.006104 5582.000000
1796.422607 6123.000000
1797.837646 6515.000000
1799.252319 5699.000000
1800.666382 6637.000000
1802.079224 5928.000000
1803.491455 7082.000000
1804.902344 7223.000000
1806.312744 7799.000000
1807.722412 6522.000000
1809.131104 5976.000000
1810.538696 5432.000000
1811.945801 6555.000000
1813.352051 6403.000000
1814.757324 6732.000000
1816.161499 6061.000000
1817.565308 5969.000000
1818.968140 6239.000000
1820.370117 6042.000000
1821.771484 5868.000000
1823.171387 6419.000000
1824.570679 6590.000000
1825.969482 6610.000000
1827.367432 7469.000000
1828.764038 5825.000000
1830.160034 6839.000000
1831.555298 5989.000000
1832.949951 8125.000000
1834.343628 5995.000000
1835.735962 6903.000000
1837.127808 6414.000000
1838.519043 5902.000000
1839.909302 7155.000000
1841.298340 6034.000000
1842.687012 6127.000000
1844.074707 6000.000000
1845.461670 5881.000000
1846.847290 6943.000000
1848.232666 5932.000000
1849.617188 6406.000000
1851.000977 6377.000000
1852.383667 6426.000000
1853.765137 5414.000000
1855.146118 6636.000000
1856.526611 6269.000000
1857.906128 5838.000000
1859.284180 6065.000000
1860.662109 6240.000000
1862.039063 7888.000000
1863.415283 6151.000000
1864.790649 6084.000000
1866.164551 5658.000000
1867.538330 5793.000000
1868.911255 6216.000000
1870.283081 5998.000000
1871.653931 6960.000000
1873.024414 5489.000000
1874.393799 6122.000000
1875.762695 6177.000000
1877.130005 7181.000000
1878.497192 6117.000000
1879.863403 6075.000000
1881.228882 6845.000000
1882.593628 7642.000000
1883.956787 6790.000000
1885.319824 6971.000000
1886.682007 6399.000000
1888.043335 6511.000000
1889.403320 5624.000000
1890.762939 5893.000000
1892.121948 6190.000000
1893.479980 6662.000000
1894.837158 7342.000000
1896.193115 6037.000000
1897.548828 7686.000000
1898.903564 5913.000000
1900.257446 5624.000000
1901.610229 5948.000000
1902.962524 6026.000000
1904.314087 5921.000000
1905.664795 6943.000000
1907.014282 6656.000000
1908.363281 6728.000000
1909.711426 5829.000000
1911.058960 6254.000000
1912.405762 6366.000000
1913.750977 6901.000000
1915.095947 6108.000000
1916.440186 5491.000000
1917.783569 6532.000000
1919.125610 6004.000000
1920.467407 6639.000000
1921.808350 7064.000000
1923.148560 6271.000000
1924.487793 6457.000000
1925.826050 6385.000000
1927.163696 6498.000000
1928.500610 7056.000000
1929.836670 6783.000000
1931.171509 5603.000000
1932.505981 6794.000000
1933.839722 7368.000000
1935.172607 6328.000000
1936.504028 5815.000000
1937.835571 6398.000000
1939.165771 6712.000000
1940.495483 5856.000000
1941.824341 6189.000000
1943.151978 5814.000000
1944.479126 5069.000000
1945.805542 5904.000000
1947.131226 6608.000000
1948.455566 5762.000000
1949.779663 6708.000000
1951.102905 6387.000000
1952.425415 6489.000000
1953.746826 5800.000000
1955.067261 7492.000000
1956.387085 6057.000000
1957.706543 5550.000000
1959.025024 6906.000000
1960.342163 5972.000000
1961.658936 5881.000000
1962.974976 6542.000000
1964.290283 6700.000000
1965.604126 6412.000000
1966.917725 5765.000000
1968.230591 6267.000000
1969.542603 6112.000000
1970.854004 6092.000000
1972.164063 6316.000000
1973.473633 5839.000000
1974.782471 6274.000000
1976.090698 6669.000000
1977.397583 6185.000000
1978.703857 7273.000000
1980.009766 5622.000000
1981.314453 6560.000000
1982.618652 5962.000000
1983.921631 5794.000000
1985.224243 7642.000000
1986.525879 6141.000000
1987.826904 6661.000000
1989.126343 6108.000000
1990.425903 6652.000000
1991.724365 5356.000000
1993.022339 6127.000000
1994.318726 6230.000000
1995.615112 5893.000000
1996.910522 5620.000000
1998.205200 6585.000000
1999.499023 5743.000000
2000.791626 6644.000000
2002.083740 5866.000000
2003.375366 7244.000000
2004.666260 6463.000000
2005.955566 6234.000000
2007.244629 6809.000000
2008.532959 6009.000000
2009.820557 6036.000000
2011.107300 6727.000000
2012.392944 5752.000000
2013.678223 6427.000000
2014.962524 6126.000000
2016.246216 5609.000000
2017.528564 6158.000000
2018.810547 6516.000000
2020.092041 6803.000000
2021.372559 5909.000000
2022.652344 6143.000000
2023.931030 6804.000000
2025.208984 5905.000000
2026.486450 5962.000000
2027.763306 6318.000000
2029.038452 5890.000000
2030.313721 6660.000000
2031.588013 6322.000000
2032.861328 6041.000000
2034.133789 6033.000000
2035.405884 6201.000000
2036.676880 6941.000000
2037.947632 6644.000000
2039.217041 6103.000000
2040.485352 6803.000000
2041.753662 6715.000000
2043.020996 6027.000000
2044.287598 6064.000000
2045.552979 5691.000000
2046.817749 5786.000000
2048.082275 5430.000000
2049.345459 5930.000000
2050.608398 6501.000000
2051.869385 6266.000000
2053.130859 6120.000000
2054.391113 5925.000000
2055.650635 6697.000000
2056.909424 6266.000000
2058.167236 7044.000000
2059.424561 5944.000000
2060.681152 6015.000000
2061.936279 6599.000000
2063.191406 5721.000000
2064.445557 5697.000000
2065.698975 5737.000000
2066.951660 6843.000000
2068.203125 6327.000000
2069.454346 6414.000000
2070.704834 5603.000000
2071.954590 5459.000000
2073.202881 6178.000000
2074.451172 6571.000000
2075.698486 7444.000000
2076.945068 5678.000000
2078.190918 6090.000000
2079.435547 7053.000000
2080.679688 7675.000000
2081.923340 5508.000000
2083.166016 6084.000000
2084.407471 6984.000000
2085.648682 6026.000000
2086.889404 6390.000000
2088.129150 6841.000000
2089.367676 7157.000000
2090.605713 6245.000000
2091.843018 5813.000000
2093.080078 6665.000000
2094.315674 6079.000000
2095.550537 6227.000000
2096.785156 6135.000000
2098.018799 5663.000000
2099.251465 6071.000000
2100.483398 7054.000000
2101.714844 6471.000000
2102.945313 6879.000000
2104.175049 5963.000000
2105.404541 6035.000000
2106.632080 6044.000000
2107.859863 6066.000000
2109.086914 6394.000000
2110.312988 5514.000000
2111.537598 6446.000000
2112.762451 7001.000000
2113.986084 7157.000000
2115.209229 6225.000000
2116.431152 7556.000000
2117.652832 6064.000000
2118.873535 6935.000000
2120.093506 6042.000000
2121.312988 6222.000000
2122.531006 6653.000000
2123.749023 7108.000000
2124.966064 5754.000000
2126.182617 5849.000000
2127.397461 6648.000000
2128.612549 6418.000000
2129.826660 7045.000000
2131.040039 5753.000000
2132.252686 6082.000000
2133.463867 5905.000000
2134.675293 6621.000000
2135.885498 6702.000000
2137.095215 6002.000000
2138.303467 6144.000000
2139.511719 5735.000000
2140.719238 5887.000000
2141.925537 7785.000000
2143.131104 5921.000000
2144.336426 5765.000000
2145.540771 5603.000000
2146.744385 6338.000000
2147.947510 6294.000000
2149.149170 6523.000000
2150.350586 5371.000000
2151.551270 6323.000000
2152.751221 6109.000000
2153.949951 6004.000000
2155.148438 6958.000000
2156.346436 6211.000000
2157.543457 6123.000000
2158.739746 5215.000000
2159.934814 5365.000000
2161.129639 6193.000000
2162.323730 5650.000000
2163.516846 6187.000000
2164.708984 6991.000000
2165.900879 5987.000000
2167.092041 6390.000000
2168.282227 6384.000000
2169.471680 6571.000000
2170.660645 6870.000000
2171.848633 6314.000000
2173.036377 5777.000000
2174.222656 5980.000000
2175.408203 6626.000000
2176.593506 6080.000000
2177.778320 5865.000000
2178.961914 6450.000000
2180.144775 7536.000000
2181.326660 6357.000000
2182.508301 5960.000000
2183.689453 6683.000000
2184.869385 5720.000000
2186.048340 5584.000000
2187.226807 6359.000000
2188.405029 6892.000000
2189.582031 7258.000000
2190.758057 6833.000000
2191.933838 6137.000000
2193.109131 5638.000000
2194.282959 6769.000000
2195.456299 6217.000000
2196.629395 6195.000000
2197.801270 6570.000000
2198.972656 7141.000000
2200.143555 6434.000000
2201.312744 6999.000000
2202.481934 7631.000000
2203.650635 6317.000000
2204.818359 5946.000000
2205.985107 5688.000000
2207.151123 7259.000000
2208.316650 6759.000000
2209.481934 6011.000000
2210.645752 6789.000000
2211.809082 5572.000000
2212.971191 6251.000000
2214.133545 6246.000000
2215.294678 6735.000000
2216.454834 6719.000000
2217.614502 6345.000000
2218.773926 6670.000000
2219.932129 6405.000000
2221.089355 6387.000000
2222.246338 6767.000000
2223.402588 6571.000000
2224.558105 6797.000000
2225.712891 6331.000000
2226.866699 6478.000000
2228.019531 6075.000000
2229.172852 6886.000000
2230.324219 6218.000000
2231.475342 6243.000000
2232.625732 6548.000000
2233.775635 7751.000000
2234.924561 6404.000000
2236.072998 5224.000000
2237.219971 6499.000000
2238.367188 7104.000000
2239.513184 6082.000000
2240.658936 7336.000000
2241.802979 7436.000000
2242.947266 6783.000000
2244.090576 6248.000000
2245.233154 6072.000000
2246.374756 5793.000000
2247.516113 5937.000000
2248.656494 6446.000000
2249.796143 6481.000000
2250.935303 5893.000000
2252.073242 5910.000000
2253.211182 6191.000000
2254.348145 5341.000000
2255.484375 6371.000000
2256.619629 6203.000000
2257.754150 7324.000000
2258.888428 6442.000000
2260.022217 5463.000000
2261.154541 6191.000000
2262.286377 6862.000000
2263.417725 6272.000000
2264.548096 6528.000000
2265.678223 8146.000000
2266.807129 6747.000000
2267.935547 6097.000000
2269.063477 5569.000000
2270.190430 6120.000000
2271.316650 5965.000000
2272.441895 6738.000000
2273.567139 6603.000000
2274.691650 6439.000000
2275.814941 5968.000000
2276.937500 6350.000000
2278.059570 6157.000000
2279.181152 7430.000000
2280.302002 6459.000000
2281.421631 6421.000000
2282.540771 7212.000000
2283.659668 7711.000000
2284.777832 7261.000000
2285.895020 5991.000000
2287.011230 6494.000000
2288.127197 7089.000000
2289.242432 7011.000000
2290.356934 7451.000000
2291.470215 5902.000000
2292.583496 6428.000000
2293.696045 6054.000000
2294.807861 5394.000000
2295.918945 6826.000000
2297.028809 6488.000000
2298.138184 6209.000000
2299.247314 6736.000000
2300.355469 6385.000000
2301.462646 6825.000000
2302.569580 5872.000000
2303.675781 6398.000000
2304.781494 6612.000000
2305.885742 6642.000000
2306.989746 5491.000000
2308.093262 5788.000000
2309.196289 6616.000000
2310.298096 7504.000000
2311.399170 7356.000000
2312.499756 6646.000000
2313.599854 5592.000000
2314.699219 6457.000000
2315.797119 6628.000000
2316.895508 7044.000000
2317.992432 8257.000000
2319.089111 6889.000000
2320.185303 5859.000000
2321.279785 6912.000000
2322.374268 7672.000000
2323.468018 5906.000000
2324.561523 6091.000000
2325.653320 6562.000000
2326.745117 7177.000000
2327.836182 6237.000000
2328.926514 6316.000000
2330.015869 7018.000000
2331.105225 6032.000000
2332.193359 6423.000000
2333.281006 7007.000000
2334.368408 6564.000000
2335.454102 6820.000000
2336.539551 7816.000000
2337.624756 6299.000000
2338.708984 6851.000000
2339.792236 5885.000000
2340.875244 6476.000000
2341.957275 7229.000000
2343.039063 6074.000000
2344.120117 7475.000000
2345.199951 6707.000000
2346.279297 5728.000000
2347.358154 6835.000000
2348.436523 6572.000000
2349.513428 6347.000000
2350.590088 7038.000000
2351.666504 6072.000000
2352.741943 6458.000000
2353.816406 5976.000000
2354.890625 6346.000000
2355.964111 6869.000000
2357.037109 6241.000000
2358.108887 7049.000000
2359.180420 6301.000000
2360.250977 6869.000000
2361.321289 7514.000000
2362.390625 7582.000000
2363.458984 6862.000000
2364.527100 6826.000000
2365.594482 7158.000000
2366.661377 7188.000000
2367.727539 6089.000000
2368.792480 6904.000000
2369.857422 7029.000000
2370.921631 6381.000000
2371.985107 6992.000000
2373.047363 5862.000000
2374.109619 6385.000000
2375.170898 6295.000000
2376.231934 5946.000000
2377.291748 6296.000000
2378.350830 7980.000000
2379.409912 6507.000000
2380.468018 7587.000000
2381.525391 6945.000000
2382.581787 8057.000000
2383.637939 7833.000000
2384.693604 6279.000000
2385.748535 7015.000000
2386.802002 6819.000000
2387.855713 6542.000000
2388.908447 6318.000000
2389.960693 6766.000000
2391.012207 6231.000000
2392.062744 6647.000000
2393.113037 6529.000000
2394.162354 6285.000000
2395.211670 6236.000000
2396.259521 6931.000000
2397.306885 7115.000000
2398.354004 6315.000000
2399.400146 6678.000000
2400.445557 6233.000000
2401.490234 6819.000000
2402.534912 7767.000000
2403.578125 7518.000000
2404.621338 6584.000000
2405.663086 5943.000000
2406.705078 6786.000000
2407.746338 7146.000000
2408.786621 6137.000000
2409.826172 6492.000000
2410.864746 6406.000000
2411.903564 6133.000000
2412.941162 6532.000000
2413.978516 6963.000000
2415.014648 7436.000000
2416.050537 6257.000000
2417.085693 6283.000000
2418.120361 6904.000000
2419.153564 7231.000000
2420.187012 6489.000000
2421.219482 6727.000000
2422.251709 6863.000000
2423.282471 7093.000000
2424.313232 6443.000000
2425.343506 6898.000000
2426.372559 6891.000000
2427.401611 6663.000000
2428.428955 7406.000000
2429.456787 6710.000000
2430.483398 7388.000000
2431.509766 6998.000000
2432.534668 7723.000000
2433.559814 6561.000000
2434.583984 7144.000000
2435.607910 6780.000000
2436.630615 5876.000000
2437.652588 6346.000000
2438.674316 6651.000000
2439.695313 6700.000000
2440.715820 6057.000000
2441.735107 6569.000000
2442.754395 6660.000000
2443.772705 8534.000000
2444.790771 6341.000000
2445.807373 6514.000000
2446.823975 6554.000000
2447.839844 5957.000000
2448.855713 7100.000000
2449.870117 6902.000000
2450.883789 5624.000000
2451.896973 7256.000000
2452.909912 6062.000000
2453.922119 7221.000000
2454.933350 6677.000000
2455.944336 7749.000000
2456.954590 6424.000000
2457.964355 7617.000000
2458.973145 5955.000000
2459.981201 6003.000000
2460.989258 6338.000000
2461.996094 7468.000000
2463.002686 5430.000000
2464.008057 7418.000000
2465.013184 6983.000000
2466.018066 5884.000000
2467.021729 6612.000000
2468.025146 6416.000000
2469.027588 7677.000000
2470.029785 7346.000000
2471.031494 6957.000000
2472.032227 6680.000000
2473.031982 7056.000000
2474.031738 6714.000000
2475.030518 5689.000000
2476.028809 6659.000000
2477.026123 7089.000000
2478.023193 6128.000000
2479.020264 7037.000000
2480.015869 5847.000000
2481.011475 7174.000000
2482.005371 6682.000000
2482.999268 8129.000000
2483.992676 6906.000000
2484.985596 6966.000000
2485.977539 7536.000000
2486.968750 7289.000000
2487.959717 6787.000000
2488.950195 5873.000000
2489.939697 6605.000000
2490.928467 6524.000000
2491.917236 5666.000000
2492.905029 6882.000000
2493.891602 6670.000000
2494.878174 8115.000000
2495.864258 6804.000000
2496.849609 7125.000000
2497.833984 8292.000000
2498.818115 6061.000000
2499.802246 6903.000000
2500.784912 5800.000000
2501.767090 6991.000000
2502.748779 6944.000000
2503.729736 7322.000000
2504.710205 6615.000000
2505.690430 5793.000000
2506.669189 6339.000000
2507.647705 7685.000000
2508.625732 6768.000000
2509.603271 7150.000000
2510.579834 6114.000000
2511.556152 6010.000000
2512.531738 6514.000000
2513.506836 6296.000000
2514.481445 6528.000000
2515.454834 7637.000000
2516.427979 6889.000000
2517.400879 7009.000000
2518.372803 6216.000000
2519.343994 6853.000000
2520.314697 6990.000000
2521.285156 7818.000000
2522.254883 8130.000000
2523.223633 6112.000000
2524.191650 6186.000000
2525.159668 7725.000000
2526.126709 6344.000000
2527.093506 5481.000000
2528.059082 7352.000000
2529.024658 7056.000000
2529.989502 7819.000000
2530.953857 6380.000000
2531.916992 6398.000000
2532.880371 5868.000000
2533.842773 6041.000000
2534.804932 6787.000000
2535.765869 6453.000000
2536.726074 6196.000000
2537.686523 6172.000000
2538.645996 6778.000000
2539.604736 6850.000000
2540.562500 6774.000000
2541.520508 6232.000000
2542.477783 6817.000000
2543.434082 6108.000000
2544.390137 7173.000000
2545.344971 6232.000000
2546.300049 7833.000000
2547.254395 7038.000000
2548.208008 6973.000000
2549.160645 7267.000000
2550.113037 6761.000000
2551.064941 7003.000000
2552.016113 6504.000000
2552.966553 7786.000000
2553.916504 7119.000000
2554.866211 7383.000000
2555.815186 6723.000000
2556.763672 6308.000000
2557.710938 7165.000000
2558.658203 6323.000000
2559.604736 6590.000000
2560.550781 6790.000000
2561.495850 7440.000000
2562.440674 6727.000000
2563.385010 7199.000000
2564.328857 6817.000000
2565.272217 6756.000000
2566.214111 6645.000000
2567.156250 6626.000000
2568.097656 6214.000000
2569.038330 7262.000000
2569.978271 7356.000000
2570.918213 5703.000000
2571.857178 6192.000000
2572.795898 7576.000000
2573.733643 7257.000000
2574.671143 5508.000000
2575.607910 6951.000000
2576.543945 6872.000000
2577.479492 7588.000000
2578.414307 6323.000000
2579.349121 6052.000000
2580.282959 7131.000000
2581.216309 7321.000000
2582.148926 5960.000000
2583.081299 6974.000000
2584.012939 5440.000000
2584.944092 7075.000000
2585.874756 7010.000000
2586.804199 6924.000000
2587.733643 7233.000000
2588.662598 6481.000000
2589.591309 7658.000000
2590.518311 7332.000000
2591.445557 5892.000000
2592.372314 6879.000000
2593.298340 6259.000000
2594.224121 5640.000000
2595.148682 7704.000000
2596.072998 7684.000000
2596.996826 5358.000000
2597.920166 7403.000000
2598.842529 6304.000000
2599.764648 6877.000000
2600.686279 8336.000000
2601.607178 6436.000000
2602.527344 6042.000000
2603.447266 6396.000000
2604.366699 6394.000000
2605.285889 6441.000000
2606.204102 5869.000000
2607.121094 6009.000000
2608.038330 7277.000000
2608.955322 5956.000000
2609.871338 7590.000000
2610.786133 6647.000000
2611.701416 6682.000000
2612.615967 6635.000000
2613.529541 6572.000000
2614.443115 6469.000000
2615.355469 7627.000000
2616.267822 7132.000000
2617.179199 6854.000000
2618.090332 5740.000000
2619.000732 7483.000000
2619.910889 6643.000000
2620.820313 6224.000000
2621.729248 6708.000000
2622.637207 6249.000000
2623.545410 6959.000000
2624.452637 6583.000000
2625.359375 7020.000000
2626.265381 5988.000000
2627.171143 6626.000000
2628.076172 6570.000000
2628.980957 7878.000000
2629.885010 6496.000000
2630.788086 6436.000000
2631.691162 6453.000000
2632.593262 5673.000000
2633.495361 6728.000000
2634.397217 7040.000000
2635.297363 6869.000000
2636.197754 6391.000000
2637.097412 6458.000000
2637.996826 6077.000000
2638.894775 6888.000000
2639.793213 6839.000000
2640.691162 6390.000000
2641.588379 6144.000000
2642.484375 6163.000000
2643.380371 6757.000000
2644.276123 6123.000000
2645.171143 6457.000000
2646.065918 6653.000000
2646.959229 7311.000000
2647.852539 6334.000000
2648.745605 6754.000000
2649.638428 6434.000000
2650.529541 7527.000000
2651.420898 6463.000000
2652.311768 7665.000000
2653.201904 7348.000000
2654.091797 6701.000000
2654.980469 7351.000000
2655.869385 6671.000000
2656.757813 6682.000000
2657.645264 7381.000000
2658.531738 6539.000000
2659.418701 7167.000000
2660.304932 6947.000000
2661.190674 6848.000000
2662.075195 6563.000000
2662.959717 6386.000000
2663.843994 6255.000000
2664.727539 7095.000000
2665.610596 7840.000000
2666.492920 7359.000000
2667.374756 6217.000000
2668.255859 6642.000000
2669.137207 6139.000000
2670.017090 6684.000000
2670.897217 7455.000000
2671.776611 7246.000000
2672.656006 6256.000000
2673.534668 6147.000000
2674.411621 6460.000000
2675.289307 6807.000000
2676.166260 6397.000000
2677.042480 8108.000000
2677.918213 7199.000000
2678.793213 6280.000000
2679.668457 7786.000000
2680.542725 6927.000000
2681.416504 7416.000000
2682.289551 7050.000000
2683.162354 6232.000000
2684.034912 6068.000000
2684.906738 7023.000000
2685.777832 6524.000000
2686.648682 6944.000000
2687.519043 7136.000000
2688.389160 6748.000000
2689.257568 6302.000000
2690.126709 7341.000000
2690.995117 7164.000000
2691.863281 6725.000000
2692.730713 6953.000000
2693.596924 5953.000000
2694.463623 7170.000000
2695.329346 7481.000000
2696.195068 7150.000000
2697.059326 7934.000000
2697.924316 6671.000000
2698.787842 7321.000000
2699.651611 5906.000000
2700.513916 7532.000000
2701.376709 6832.000000
2702.238525 5958.000000
2703.099854 6899.000000
2703.961182 6733.000000
2704.821289 7461.000000
2705.681396 7384.000000
2706.541016 6653.000000
2707.400391 6914.000000
2708.258057 7187.000000
2709.115967 6970.000000
2709.974365 7353.000000
2710.831543 6790.000000
2711.687988 6016.000000
2712.543945 6906.000000
2713.399902 6080.000000
2714.255127 6962.000000
2715.109619 6172.000000
2715.963623 6997.000000
2716.817627 7332.000000
2717.670654 6281.000000
2718.523926 6592.000000
2719.375488 7728.000000
2720.227539 6767.000000
2721.079346 6381.000000
2721.929932 6491.000000
2722.780518 6468.000000
2723.630615 7192.000000
2724.479980 7075.000000
2725.329346 7066.000000
2726.177490 6682.000000
2727.025146 6588.000000
2727.873291 7064.000000
2728.720215 6871.000000
2729.567627 5640.000000
2730.413574 7525.000000
2731.258789 7077.000000
2732.104492 6505.000000
2732.949219 7170.000000
2733.793945 7388.000000
2734.637451 6862.000000
2735.481201 7751.000000
2736.324219 7123.000000
2737.166748 6132.000000
2738.008301 6276.000000
2738.850342 6757.000000
2739.691406 6907.000000
2740.532227 5843.000000
2741.372803 5957.000000
2742.212158 7881.000000
2743.051514 6823.000000
2743.890869 6962.000000
2744.729004 6874.000000
2745.566650 7903.000000
2746.404297 6399.000000
2747.241455 7187.000000
2748.078369 6224.000000
2748.914795 5992.000000
2749.750000 6687.000000
2750.585449 6363.000000
2751.420410 6390.000000
2752.254639 6265.000000
2753.088623 7005.000000
2753.922119 6903.000000
2754.755615 8026.000000
2755.588135 6780.000000
2756.420166 7319.000000
2757.251709 6862.000000
2758.083252 7175.000000
2758.913818 7304.000000
2759.744629 7248.000000
2760.574219 7347.000000
2761.403809 6772.000000
2762.233154 7358.000000
2763.061768 6869.000000
2763.889893 6776.000000
2764.717529 6919.000000
2765.545166 6772.000000
2766.372314 8008.000000
2767.198730 5851.000000
2768.024658 7536.000000
2768.850098 6951.000000
2769.675293 7872.000000
2770.500488 7212.000000
2771.324463 6851.000000
2772.148438 6537.000000
2772.972412 7722.000000
2773.795166 6653.000000
2774.618164 6741.000000
2775.439941 6887.000000
2776.261719 7034.000000
2777.083496 6541.000000
2777.904297 8022.000000
2778.724365 6558.000000
2779.544678 7006.000000
2780.364502 7345.000000
2781.184326 6522.000000
2782.002197 5993.000000
2782.821289 8088.000000
2783.639160 6520.000000
2784.456787 6750.000000
2785.273926 7148.000000
2786.090576 7315.000000
2786.906982 7269.000000
2787.722900 6332.000000
2788.538574 6044.000000
2789.353271 6361.000000
2790.168457 7091.000000
2790.982910 7187.000000
2791.796875 6589.000000
2792.610596 7429.000000
2793.423096 8814.000000
2794.235840 7015.000000
2795.048096 7527.000000
2795.859863 7238.000000
2796.670898 7454.000000
2797.482666 6533.000000
2798.293213 7243.000000
2799.103760 7043.000000
2799.912842 7404.000000
2800.722656 8141.000000
2801.531738 7826.000000
2802.340576 6726.000000
2803.148926 7250.000000
2803.956299 6233.000000
2804.764160 6451.000000
2805.571289 6993.000000
2806.378174 7021.000000
2807.183838 7233.000000
2807.989990 6718.000000
2808.795410 6502.000000
2809.600830 7411.000000
2810.405518 6210.000000
2811.209229 7698.000000
2812.013428 7565.000000
2812.817139 6316.000000
2813.620605 6111.000000
2814.422607 6645.000000
2815.225342 7380.000000
2816.027344 7906.000000
2816.829102 6212.000000
2817.630371 6566.000000
2818.431152 7266.000000
2819.231445 6544.000000
2820.031982 6753.000000
2820.831543 8112.000000
2821.630615 7161.000000
2822.429688 6676.000000
2823.228516 6881.000000
2824.026855 6359.000000
2824.824219 7068.000000
2825.621826 7427.000000
2826.418701 6777.000000
2827.215820 7426.000000
2828.012207 8018.000000
2828.807861 7052.000000
2829.603516 7314.000000
2830.398926 7631.000000
2831.193848 7497.000000
2831.988037 6684.000000
2832.782227 6912.000000
2833.576172 5653.000000
2834.369629 6922.000000
2835.162354 7195.000000
2835.954834 8180.000000
2836.747314 7865.000000
2837.539551 7486.000000
2838.331299 6457.000000
2839.122070 6770.000000
2839.912842 8920.000000
2840.703857 7450.000000
2841.493896 6288.000000
2842.283447 7747.000000
2843.073242 7172.000000
2843.862061 7376.000000
2844.650879 7844.000000
2845.439697 7736.000000
2846.227539 7558.000000
2847.014893 7285.000000
2847.802490 7509.000000
2848.589600 7333.000000
2849.375977 6628.000000
2850.162354 7457.000000
2850.948486 7215.000000
2851.734131 7559.000000
2852.518799 7178.000000
2853.303955 6933.000000
2854.088867 7410.000000
2854.873047 7238.000000
2855.657227 6910.000000
2856.440186 8260.000000
2857.223389 6803.000000
2858.006348 6796.000000
2858.788818 7861.000000
2859.571045 6244.000000
2860.352783 6685.000000
2861.134277 7618.000000
2861.916016 7536.000000
2862.697021 7678.000000
2863.477295 6637.000000
2864.257324 6735.000000
2865.037354 8277.000000
2865.817139 7500.000000
2866.595947 8153.000000
2867.375000 7703.000000
2868.153564 6902.000000
2868.931885 7050.000000
2869.709717 7265.000000
2870.487305 7046.000000
2871.264648 7602.000000
2872.041748 6996.000000
2872.818359 6484.000000
2873.594482 7623.000000
2874.370605 7273.000000
2875.146240 8425.000000
2875.921631 7436.000000
2876.696533 6897.000000
2877.471191 8302.000000
2878.245850 6882.000000
2879.020264 8150.000000
2879.793945 7076.000000
2880.566895 7547.000000
2881.340576 6969.000000
2882.113281 7797.000000
2882.885986 7977.000000
2883.657959 8433.000000
2884.429688 6315.000000
2885.201904 6962.000000
2885.972900 6951.000000
2886.743408 6163.000000
2887.514404 8463.000000
2888.285400 7514.000000
2889.055664 7989.000000
2889.824951 7678.000000
2890.594482 7039.000000
2891.364014 7278.000000
2892.133057 7357.000000
2892.901611 7999.000000
2893.670166 7724.000000
2894.437744 6987.000000
2895.205811 6596.000000
2895.973389 7466.000000
2896.740967 8362.000000
2897.507324 7425.000000
2898.274658 6571.000000
2899.040771 7265.000000
2899.807129 6937.000000
2900.572021 8317.000000
2901.337402 7015.000000
2902.103271 6491.000000
2902.867676 7827.000000
2903.632080 7959.000000
2904.396729 8550.000000
2905.160400 6639.000000
2905.924805 8527.000000
2906.688477 6726.000000
2907.451416 8462.000000
2908.214111 6585.000000
2908.977295 9207.000000
2909.739990 7074.000000
2910.501465 6884.000000
2911.263428 6884.000000
