scanname Analyse040
timestamp 2017-02-10 20:51:29
ccdbias 899.286621
ccdgain 3.473401
sigmaread 8.960639
laserwavenum -0.519282
wavenumcorrection 0.003682
scancount 1
totalexposurems 10000
singleexposurems 10000
measurementstate Unknown
scanmode Manual
snr 71.842957 0.924348 0.556087
replacelist 0
peaks 6
809.485168 0.161552 0.000000 0.166188 0.000045
841.088928 0.158913 0.000000 0.109656 0.000012
879.565613 0.167216 0.000000 0.665020 0.000125
1150.262695 0.136562 0.000000 0.153564 0.000022
1316.677368 0.140885 0.000000 3.249624 0.000675
1454.559692 0.132503 0.000000 0.250171 0.000117
finalresult GLS_Multiple 84
A12040	Ethanol w/ sweetener	2.817733e-001
A8461	Ethanol	2.798690e-001
A11101	Hydrogen peroxide, 70%	2.509415e-001
A0251	Ethylamine	2.431951e-001
A0273	Denatured Solvent Alcohol	2.384495e-001
A2782	Acetamide	2.344769e-001
A0113	Hydrogen peroxide	2.342808e-001
A0969	Diethylene glycol monopropyl ether	2.223688e-001
A11100	Hydrogen peroxide, 50%	2.181569e-001
A3082	Methyl n-propyl ether	2.135871e-001
A4972	Boric acid	2.133378e-001
A11925	Butyl (S)-(-)-2-pyrrolidone-5-carboxylate	2.071426e-001
A2943	Potassium binoxalate	2.044250e-001
A3164	Ammonium chromate	1.957514e-001
A1351	Sodium propionate	1.948698e-001
A0138	Dibutyl ether	1.896883e-001
A2453	Calcium chromate	1.891622e-001
A13180	Polypropylene (lot B)	1.830345e-001
A2793	Sodium oxalate	1.825302e-001
A1531	Ethyl formate	1.788376e-001
A14069	(R)-(-)-1,2-Propanediol	1.783144e-001
A14031	Methyl (S)-(+)-2-pyrrolidone-5-carboxylate	1.782766e-001
A0518	Propylene glycol	1.780791e-001
A1519	Butyl vinyl ether	1.778516e-001
A9092	p-Tolyl ether	1.774850e-001
A4807	2-(2-Nitroethoxy)tetrahydropyran	1.767641e-001
A7387	4-Hydroxypiperidine	1.766090e-001
A9919	Sodium hydrogentartrate	1.750198e-001
A1270	Methyl DL-lactate	1.735293e-001
A1901	Ethyl cellulose	1.733311e-001
A13507	Poly(methyl methacrylate-co-ethyl acrylate)	1.728042e-001
A0292	Hydrazine	1.723150e-001
A1754	N,N-Dimethylhydrazine	1.721937e-001
A2098	Diethylene glycol dibutyl ether	1.721664e-001
A9546	4-Methoxy-alpha-methylbenzyl alcohol	1.720939e-001
A2721	Formaldehyde diethyl acetal	1.720488e-001
A7119	2-Deoxy-D-ribose	1.714721e-001
A13820	(-)-Methyl L-lactate	1.713352e-001
A11872	Poly(methyl methacrylate)	1.710437e-001
A2313	Barium peroxide	1.703706e-001
A0400	Potassium permanganate	1.702050e-001
A2703	Acetaldehyde dimethyl acetal	1.700282e-001
A1224	Poly(ethylene glycol) butyl ether	1.697211e-001
A2017	Isopropylamine	1.696804e-001
A6290	Bis(2,2,2-trifluoroethyl) phosphite	1.696539e-001
A0587	Triethylene glycol monobutyl ether	1.694681e-001
A5708	Methyl 3,5-dibromo-4-hydroxybenzoate	1.694282e-001
A8360	5-Chloro-2-nitroaniline	1.685103e-001
A1547	Isovaleric acid	1.681119e-001
A0369	2,4,6-Tribromophenol	1.677040e-001
A6278	6-Methylnicotinamide	1.676568e-001
A1676	Trifluoroacetic acid	1.672059e-001
A3573	Ammonium tartrate dibasic	1.669318e-001
A10674	Dibutyl succinate	1.659941e-001
A3222	Potassium nitrite	1.658679e-001
A8610	5-Methyl-2-pyrrolidinone	1.657717e-001
A2210	Calcium peroxide hydrate	1.654054e-001
A4881	2-(2-Chloroethoxy)tetrahydro-2H-pyran	1.650104e-001
A3285	4,N,N-Trimethylaniline	1.649138e-001
A0503	Pentaethylene glycol	1.644668e-001
A2727	Acrolein diethyl acetal	1.641032e-001
A0761	N,N,N',N'-Tetrakis(2-Hydroxypropyl)ethylenediamine	1.640447e-001
A1550	Nitroethane	1.638527e-001
A0098	Roundup (weed and grass killer)	1.633738e-001
A0524	Propionic acid	1.632280e-001
A1149	Methyl 2-aminobenzoate	1.630134e-001
A10296	Tri(ethylene glycol) divinyl ether	1.625307e-001
A2413	Sodium selenate	1.614359e-001
A5382	3-Methoxypropionic acid	1.613728e-001
A4543	1,4-Butanediol divinyl ether	1.612000e-001
A6013	Glycine methyl ester hydrochloride	1.611841e-001
A6889	Pyrazole	1.608525e-001
A5310	4-Methyl-3-nitroanisole	1.606350e-001
A4025	2,4-Dimethylpentane	1.605820e-001
A4722	1,3-Dicyclohexylurea	1.603069e-001
A8580	Sodium permanganate solution	1.600928e-001
A3574	Sodium hexanitrocobaltate(III)	1.599190e-001
A11145	1,3-Cyclopentanediol	1.599027e-001
A4269	2,4-Dibromoanisole	1.598191e-001
A1748	3,4-Dihydro-2H-pyran	1.591519e-001
A5890	5-Nitroisoquinoline	1.590788e-001
A9459	1-(4-Nitrophenyl)-3-pyrrolidino-2-pyrazolin-5-one	1.590704e-001
A6700	4'-Methoxypropiophenone	1.589843e-001
A2146	Potassium dioxide	1.588163e-001
spectrum 2048
-97.082176 45907.000000
-94.455307 45907.000000
-91.830315 46362.000000
-89.207214 46247.000000
-86.585983 47043.000000
-83.966652 46733.000000
-81.349182 47053.000000
-78.733589 46764.000000
-76.119873 46965.000000
-73.508034 47398.000000
-70.898056 47242.000000
-68.289963 47422.000000
-65.683716 47515.000000
-63.079342 47377.000000
-60.476833 47369.000000
-57.876179 47820.000000
-55.277386 47291.000000
-52.680450 46570.000000
-50.085369 47003.000000
-47.492142 46906.000000
-44.900764 47151.000000
-42.311234 46682.000000
-39.723545 47563.000000
-37.137707 47338.000000
-34.553711 47008.000000
-31.971554 47669.000000
-29.391241 47077.000000
-26.812756 47626.000000
-24.236113 47156.000000
-21.661295 47056.000000
-19.088318 46829.000000
-16.517160 46763.000000
-13.947836 46428.000000
-11.380338 45352.000000
-8.814658 46881.000000
-6.250804 46606.000000
-3.688764 47014.000000
-1.128548 47088.000000
1.429860 46663.000000
3.986447 45697.000000
6.541229 45932.000000
9.094194 46328.000000
11.645359 45075.000000
14.194711 44857.000000
16.742266 44142.000000
19.288010 44228.000000
21.831961 43513.000000
24.374107 40845.000000
26.914457 38402.000000
29.453022 35723.000000
31.989790 32336.000000
34.524757 24351.000000
37.057945 14115.000000
39.589352 9236.000000
42.118965 8617.000000
44.646782 8296.000000
47.172840 7205.000000
49.697109 6201.000000
52.219608 5544.000000
54.740311 5182.000000
57.259258 5351.000000
59.776432 6306.000000
62.291828 7990.000000
64.805443 8416.000000
67.317307 8271.000000
69.827423 6466.000000
72.335747 4332.000000
74.842316 3588.000000
77.347137 3005.000000
79.850204 2518.000000
82.351494 2308.000000
84.851044 2120.000000
87.348839 2135.000000
89.844902 2270.000000
92.339188 2699.000000
94.831734 3063.000000
97.322563 2893.000000
99.811623 2622.000000
102.298935 2037.000000
104.784523 1610.000000
107.268372 1622.000000
109.750473 1422.000000
112.230850 1233.000000
114.709503 1210.000000
117.186432 1136.000000
119.661606 1100.000000
122.135071 960.000000
124.606804 1094.000000
127.076828 1132.000000
129.545105 1017.000000
132.011703 1220.000000
134.476547 1232.000000
136.939697 1285.000000
139.401108 1315.000000
141.860825 1486.000000
144.318817 1693.000000
146.775116 1947.000000
149.229706 2215.000000
151.682571 2527.000000
154.133759 2960.000000
156.583252 3402.000000
159.031021 3942.000000
161.477081 4486.000000
163.921463 5045.000000
166.364166 5652.000000
168.805176 6012.000000
171.244476 6329.000000
173.682068 6495.000000
176.118027 6742.000000
178.552246 6865.000000
180.984787 6845.000000
183.415680 6974.000000
185.844849 6875.000000
188.272369 6791.000000
190.698212 6949.000000
193.122375 6901.000000
195.544876 7017.000000
197.965683 7002.000000
200.384827 7238.000000
202.802307 7441.000000
205.218094 7501.000000
207.632233 7909.000000
210.044739 8148.000000
212.455566 8660.000000
214.864716 9169.000000
217.272232 9690.000000
219.678040 10146.000000
222.082260 10853.000000
224.484772 11319.000000
226.885666 11654.000000
229.284912 11839.000000
231.682495 12052.000000
234.078415 12025.000000
236.472717 12141.000000
238.865356 12207.000000
241.256378 12234.000000
243.645737 12349.000000
246.033478 12358.000000
248.419571 12319.000000
250.804031 12342.000000
253.186844 12225.000000
255.568085 12150.000000
257.947601 12152.000000
260.325562 12251.000000
262.701843 12235.000000
265.076569 12273.000000
267.449646 12044.000000
269.821075 12177.000000
272.190857 12051.000000
274.559082 12107.000000
276.925659 11931.000000
279.290649 12119.000000
281.654022 11954.000000
284.015747 12082.000000
286.375885 12001.000000
288.734406 12013.000000
291.091339 12070.000000
293.446655 11944.000000
295.800385 11932.000000
298.152466 12073.000000
300.502991 11846.000000
302.851929 11781.000000
305.199219 11785.000000
307.544983 11723.000000
309.889069 11857.000000
312.231628 11656.000000
314.572571 11661.000000
316.911896 11629.000000
319.249664 11587.000000
321.585876 11454.000000
323.920441 11560.000000
326.253448 11549.000000
328.584900 11551.000000
330.914764 11499.000000
333.243042 11456.000000
335.569702 11400.000000
337.894867 11522.000000
340.218414 11382.000000
342.540405 11470.000000
344.860840 11421.000000
347.179657 11365.000000
349.496918 11232.000000
351.812653 11253.000000
354.126801 11197.000000
356.439362 11235.000000
358.750366 11297.000000
361.059845 11292.000000
363.367798 11238.000000
365.674133 11378.000000
367.978882 11297.000000
370.282166 11258.000000
372.583832 11303.000000
374.884003 11116.000000
377.182617 11349.000000
379.479675 11301.000000
381.775177 11280.000000
384.069153 11410.000000
386.361542 11356.000000
388.652435 11419.000000
390.941803 11486.000000
393.229584 11572.000000
395.515839 11511.000000
397.800598 11644.000000
400.083740 11642.000000
402.365448 11532.000000
404.645630 11679.000000
406.924225 11586.000000
409.201294 11559.000000
411.476837 11492.000000
413.750854 11487.000000
416.023438 11542.000000
418.294403 11396.000000
420.563873 11489.000000
422.831848 11608.000000
425.098267 11247.000000
427.363190 11331.000000
429.626648 11251.000000
431.888519 11307.000000
434.148926 11212.000000
436.407776 11182.000000
438.665161 11259.000000
440.921051 11286.000000
443.175446 11170.000000
445.428314 11112.000000
447.679626 11076.000000
449.929535 11014.000000
452.177856 10955.000000
454.424744 10884.000000
456.670166 10752.000000
458.914032 10841.000000
461.156403 10753.000000
463.397278 10918.000000
465.636749 10760.000000
467.874634 10799.000000
470.111084 10747.000000
472.346008 10758.000000
474.579468 10753.000000
476.811493 10700.000000
479.041992 10610.000000
481.270996 10566.000000
483.498535 10801.000000
485.724579 10535.000000
487.949188 10737.000000
490.172333 10523.000000
492.394012 10589.000000
494.614136 10646.000000
496.832855 10737.000000
499.050079 10729.000000
501.265930 10754.000000
503.480164 10601.000000
505.693085 10743.000000
507.904419 10625.000000
510.114319 10795.000000
512.322815 10779.000000
514.529907 10658.000000
516.735413 10698.000000
518.939514 10607.000000
521.142090 10606.000000
523.343262 10705.000000
525.543091 10680.000000
527.741394 10524.000000
529.938171 10650.000000
532.133606 10640.000000
534.327515 10434.000000
536.520081 10440.000000
538.711121 10419.000000
540.900757 10525.000000
543.088989 10439.000000
545.275696 10308.000000
547.460938 10176.000000
549.644897 10141.000000
551.827271 10085.000000
554.008301 10009.000000
556.187805 10015.000000
558.366028 9928.000000
560.542725 9998.000000
562.718018 9830.000000
564.891907 9947.000000
567.064331 9757.000000
569.235352 9764.000000
571.404907 9881.000000
573.573181 9804.000000
575.739929 9850.000000
577.905212 9850.000000
580.069092 9844.000000
582.231689 9962.000000
584.392761 9956.000000
586.552429 9812.000000
588.710754 9824.000000
590.867554 10008.000000
593.023010 9887.000000
595.177063 9933.000000
597.329773 10169.000000
599.480957 9827.000000
601.630798 10033.000000
603.779297 9862.000000
605.926208 9978.000000
608.071899 9902.000000
610.216187 10055.000000
612.359009 9978.000000
614.500366 9968.000000
616.640503 10105.000000
618.779114 9769.000000
620.916443 9995.000000
623.052307 9923.000000
625.186768 9768.000000
627.319763 9841.000000
629.451599 9691.000000
631.581970 9610.000000
633.710938 9655.000000
635.838440 9653.000000
637.964661 9518.000000
640.089355 9531.000000
642.212830 9561.000000
644.334961 9594.000000
646.455627 9330.000000
648.574951 9424.000000
650.692871 9291.000000
652.809448 9219.000000
654.924622 9381.000000
657.038452 9183.000000
659.150818 9089.000000
661.261963 9329.000000
663.371704 9262.000000
665.479980 9207.000000
667.587097 9103.000000
669.692749 9121.000000
671.796936 9174.000000
673.899902 9076.000000
676.001465 9158.000000
678.101685 9226.000000
680.200500 9233.000000
682.297974 9485.000000
684.394165 9284.000000
686.488892 9304.000000
688.582397 9368.000000
690.674561 9150.000000
692.765198 9305.000000
694.854614 9441.000000
696.942749 9484.000000
699.029419 9449.000000
701.114868 9325.000000
703.198792 9483.000000
705.281494 9474.000000
707.362915 9320.000000
709.442871 9066.000000
711.521606 8715.000000
713.598877 8941.000000
715.674866 8916.000000
717.749573 8860.000000
719.822998 8772.000000
721.894897 9201.000000
723.965637 9074.000000
726.035034 8976.000000
728.103027 8903.000000
730.169678 8788.000000
732.235107 8815.000000
734.299194 8708.000000
736.361938 8692.000000
738.423340 8669.000000
740.483459 8580.000000
742.542175 8718.000000
744.599670 8584.000000
746.655884 8687.000000
748.710693 8658.000000
750.764221 8569.000000
752.816345 8508.000000
754.867249 8471.000000
756.916931 8535.000000
758.965149 8492.000000
761.012146 8471.000000
763.057861 8304.000000
765.102173 8407.000000
767.145203 8415.000000
769.187012 8160.000000
771.227478 8369.000000
773.266541 8380.000000
775.304443 8382.000000
777.341003 8399.000000
779.376343 8561.000000
781.410339 8466.000000
783.442932 8588.000000
785.474365 8659.000000
787.504395 8458.000000
789.533142 8461.000000
791.560730 8629.000000
793.586975 8712.000000
795.611816 8661.000000
797.635559 8660.000000
799.657898 8702.000000
801.679016 8690.000000
803.698792 8880.000000
805.717285 8863.000000
807.734558 8943.000000
809.750427 8856.000000
811.765137 8892.000000
813.778503 8859.000000
815.790649 8605.000000
817.801575 8515.000000
819.811157 8483.000000
821.819519 8324.000000
823.826477 8269.000000
825.832214 8349.000000
827.836731 8307.000000
829.839966 8142.000000
831.841919 8119.000000
833.842590 8207.000000
835.842041 8235.000000
837.840149 8135.000000
839.837158 8424.000000
841.832764 8238.000000
843.827209 8159.000000
845.820313 8227.000000
847.812195 7974.000000
849.802734 7927.000000
851.791992 7907.000000
853.780212 7834.000000
855.767029 7850.000000
857.752625 7904.000000
859.736938 7754.000000
861.720154 7818.000000
863.701965 7839.000000
865.682556 7835.000000
867.661865 7907.000000
869.640015 7968.000000
871.616821 8071.000000
873.592346 8146.000000
875.566833 8469.000000
877.539856 8638.000000
879.511841 8720.000000
881.482483 8610.000000
883.451965 8627.000000
885.420105 8545.000000
887.387085 8417.000000
889.352722 8161.000000
891.317200 8123.000000
893.280457 8050.000000
895.242493 7906.000000
897.203247 7931.000000
899.162781 8033.000000
901.121033 7881.000000
903.078186 7815.000000
905.034180 7825.000000
906.988770 7833.000000
908.942139 7793.000000
910.894348 7721.000000
912.845337 7698.000000
914.795044 7498.000000
916.743591 7414.000000
918.690918 7606.000000
920.636963 7429.000000
922.581726 7284.000000
924.525452 7219.000000
926.468018 7201.000000
928.409302 7032.000000
930.349243 7001.000000
932.288086 6988.000000
934.225647 6967.000000
936.161987 6958.000000
938.097168 6835.000000
940.031067 6870.000000
941.963867 6928.000000
943.895447 6961.000000
945.825867 6983.000000
947.755066 6943.000000
949.682922 6832.000000
951.609741 6984.000000
953.535278 6906.000000
955.459534 6905.000000
957.382690 6929.000000
959.304688 7039.000000
961.225403 7211.000000
963.144958 6931.000000
965.063354 7057.000000
966.980713 7201.000000
968.896606 7190.000000
970.811401 7225.000000
972.724976 7226.000000
974.637390 7123.000000
976.548584 7227.000000
978.458618 7135.000000
980.367371 7317.000000
982.275085 7048.000000
984.181580 7159.000000
986.086853 7126.000000
987.991028 7002.000000
989.893982 7053.000000
991.795715 6891.000000
993.696289 6991.000000
995.595703 6960.000000
997.493896 6943.000000
999.390930 6867.000000
1001.286743 6726.000000
1003.181396 6530.000000
1005.074951 6676.000000
1006.967224 6523.000000
1008.858582 6597.000000
1010.748596 6409.000000
1012.637390 6436.000000
1014.525024 6328.000000
1016.411499 6427.000000
1018.296814 6371.000000
1020.180969 6430.000000
1022.063904 6368.000000
1023.945801 6388.000000
1025.826416 6445.000000
1027.705933 6473.000000
1029.584473 6328.000000
1031.461670 6508.000000
1033.337524 6443.000000
1035.212402 6518.000000
1037.086304 6407.000000
1038.958740 6440.000000
1040.830200 6499.000000
1042.700317 6601.000000
1044.569458 6503.000000
1046.437378 6558.000000
1048.304199 6573.000000
1050.169922 6581.000000
1052.034424 6666.000000
1053.897827 6650.000000
1055.759888 6532.000000
1057.620972 6675.000000
1059.480957 6534.000000
1061.339600 6572.000000
1063.197144 6520.000000
1065.053589 6679.000000
1066.908936 6542.000000
1068.763062 6584.000000
1070.616333 6587.000000
1072.468140 6627.000000
1074.318970 6513.000000
1076.168579 6555.000000
1078.016968 6629.000000
1079.864502 6586.000000
1081.710693 6527.000000
1083.555664 6574.000000
1085.399780 6590.000000
1087.242554 6610.000000
1089.084106 6647.000000
1090.924927 6489.000000
1092.764160 6316.000000
1094.602661 6384.000000
1096.439819 6296.000000
1098.275757 6286.000000
1100.110718 6150.000000
1101.944458 6012.000000
1103.777222 5897.000000
1105.608643 5960.000000
1107.439209 6180.000000
1109.268433 5961.000000
1111.096680 5775.000000
1112.923706 5770.000000
1114.749756 5809.000000
1116.574585 5732.000000
1118.398315 5769.000000
1120.220825 5802.000000
1122.042236 5731.000000
1123.862793 5682.000000
1125.681885 5772.000000
1127.500122 5738.000000
1129.317017 5772.000000
1131.133057 5806.000000
1132.947876 5784.000000
1134.761597 5809.000000
1136.574219 5825.000000
1138.385620 5896.000000
1140.196045 6043.000000
1142.005371 5993.000000
1143.813354 6118.000000
1145.620605 6119.000000
1147.426392 6169.000000
1149.231323 6171.000000
1151.035156 6115.000000
1152.837769 6109.000000
1154.639526 6050.000000
1156.439819 6302.000000
1158.239136 6007.000000
1160.037476 5955.000000
1161.834473 5926.000000
1163.630737 5920.000000
1165.425659 5935.000000
1167.219482 5867.000000
1169.012451 5718.000000
1170.804077 5593.000000
1172.594727 5547.000000
1174.384399 5462.000000
1176.172607 5605.000000
1177.959961 5523.000000
1179.746216 5649.000000
1181.531372 5558.000000
1183.315430 5459.000000
1185.098389 5430.000000
1186.880371 5417.000000
1188.661133 5521.000000
1190.440918 5501.000000
1192.219604 5350.000000
1193.997314 5452.000000
1195.773804 5534.000000
1197.549194 5445.000000
1199.323486 5174.000000
1201.096680 5164.000000
1202.869019 5116.000000
1204.640015 5279.000000
1206.410156 5234.000000
1208.179077 5292.000000
1209.946899 5132.000000
1211.713867 5161.000000
1213.479492 5126.000000
1215.244141 5181.000000
1217.007690 5084.000000
1218.770142 5144.000000
1220.531738 5082.000000
1222.292114 5117.000000
1224.051392 5031.000000
1225.809814 5024.000000
1227.567017 5096.000000
1229.323120 5261.000000
1231.078125 5209.000000
1232.832275 5091.000000
1234.585083 5304.000000
1236.336914 5265.000000
1238.087891 5297.000000
1239.837524 5286.000000
1241.586304 5354.000000
1243.333740 5281.000000
1245.080444 5386.000000
1246.825928 5210.000000
1248.570557 5396.000000
1250.313843 5316.000000
1252.056152 5202.000000
1253.797363 5236.000000
1255.537720 5171.000000
1257.276978 5124.000000
1259.015015 4947.000000
1260.752197 4881.000000
1262.488159 4924.000000
1264.223145 5075.000000
1265.957153 5072.000000
1267.690186 5161.000000
1269.421997 5151.000000
1271.152832 5212.000000
1272.882446 5270.000000
1274.611206 5320.000000
1276.338867 5349.000000
1278.065430 5294.000000
1279.791138 5339.000000
1281.515503 5380.000000
1283.239014 5352.000000
1284.961548 5239.000000
1286.683105 5257.000000
1288.403442 5190.000000
1290.122803 5185.000000
1291.841064 5163.000000
1293.558350 5098.000000
1295.274658 5211.000000
1296.989746 5245.000000
1298.703857 5203.000000
1300.416992 5095.000000
1302.129272 5084.000000
1303.840332 4922.000000
1305.550415 4985.000000
1307.259399 4953.000000
1308.967163 4974.000000
1310.674316 4980.000000
1312.380005 4968.000000
1314.084961 4942.000000
1315.788940 4806.000000
1317.491699 5056.000000
1319.193481 5049.000000
1320.894409 4984.000000
1322.593994 7943.000000
1324.292725 1473.000000
1325.990723 4792.000000
1327.687378 4838.000000
1329.382935 4768.000000
1331.077637 4802.000000
1332.771118 4853.000000
1334.463745 4779.000000
1336.155518 4648.000000
1337.845947 4720.000000
1339.535645 4748.000000
1341.224243 4679.000000
1342.911743 4649.000000
1344.598267 4612.000000
1346.283691 4633.000000
1347.968140 4652.000000
1349.651733 4517.000000
1351.334106 4751.000000
1353.015503 4688.000000
1354.696045 4807.000000
1356.375366 4851.000000
1358.054077 4834.000000
1359.731445 4899.000000
1361.407715 4956.000000
1363.083008 4874.000000
1364.757568 4918.000000
1366.430908 4819.000000
1368.103271 4930.000000
1369.774658 4868.000000
1371.445068 4943.000000
1373.114380 4836.000000
1374.782715 4793.000000
1376.450195 4896.000000
1378.116577 4820.000000
1379.781982 4887.000000
1381.446411 4828.000000
1383.109619 4741.000000
1384.772217 4620.000000
1386.433472 4644.000000
1388.093872 4486.000000
1389.753174 4604.000000
1391.411499 4607.000000
1393.069092 4619.000000
1394.725464 4676.000000
1396.380981 4680.000000
1398.035278 4576.000000
1399.688721 4618.000000
1401.341064 4583.000000
1402.992676 4564.000000
1404.643066 4592.000000
1406.292358 4451.000000
1407.940918 4385.000000
1409.588379 4342.000000
1411.234863 4243.000000
1412.880493 4256.000000
1414.525146 4314.000000
1416.168579 4178.000000
1417.811157 4112.000000
1419.452637 4162.000000
1421.093262 4141.000000
1422.732910 4120.000000
1424.371460 4117.000000
1426.009155 4175.000000
1427.645752 4064.000000
1429.281372 4125.000000
1430.916260 4113.000000
1432.550049 4157.000000
1434.182739 4194.000000
1435.814453 4239.000000
1437.445313 4109.000000
1439.075073 4094.000000
1440.703735 4097.000000
1442.331787 4140.000000
1443.958740 4222.000000
1445.584473 4111.000000
1447.209595 4237.000000
1448.833618 4261.000000
1450.456665 4319.000000
1452.078735 4464.000000
1453.699707 4519.000000
1455.319702 4481.000000
1456.938965 4610.000000
1458.556885 4445.000000
1460.174194 4129.000000
1461.790527 4325.000000
1463.405640 4301.000000
1465.019897 4200.000000
1466.633301 4238.000000
1468.245605 4235.000000
1469.857056 4165.000000
1471.467651 4247.000000
1473.077026 4192.000000
1474.685425 4135.000000
1476.292969 4106.000000
1477.899536 4091.000000
1479.505371 4205.000000
1481.109985 4109.000000
1482.713745 4069.000000
1484.316284 4149.000000
1485.918213 3890.000000
1487.518921 3778.000000
1489.118896 3822.000000
1490.717773 3817.000000
1492.315796 3754.000000
1493.912720 3683.000000
1495.508789 3892.000000
1497.103882 3896.000000
1498.697998 3918.000000
1500.291382 3929.000000
1501.883667 3947.000000
1503.474731 3887.000000
1505.065308 3861.000000
1506.654541 3809.000000
1508.243164 3810.000000
1509.830688 3882.000000
1511.417114 3750.000000
1513.002808 3702.000000
1514.587402 3827.000000
1516.171143 3776.000000
1517.753784 3741.000000
1519.335693 3744.000000
1520.916504 3791.000000
1522.496582 3718.000000
1524.075439 3655.000000
1525.653442 3601.000000
1527.230713 3540.000000
1528.806763 3499.000000
1530.382080 3532.000000
1531.956299 3462.000000
1533.529785 3506.000000
1535.102051 3480.000000
1536.673584 3602.000000
1538.244141 3560.000000
1539.813843 3453.000000
1541.382324 3411.000000
1542.950073 3469.000000
1544.516968 3440.000000
1546.082642 3400.000000
1547.647583 3453.000000
1549.211426 3550.000000
1550.774658 3506.000000
1552.336548 3431.000000
1553.897827 3483.000000
1555.458008 3462.000000
1557.017456 3540.000000
1558.575806 3405.000000
1560.133423 3377.000000
1561.689941 3338.000000
1563.245239 3284.000000
1564.799927 3324.000000
1566.353882 3326.000000
1567.906860 3345.000000
1569.458496 3304.000000
1571.009399 3444.000000
1572.559570 3333.000000
1574.108765 3272.000000
1575.656616 3334.000000
1577.203979 3239.000000
1578.750366 3485.000000
1580.295898 3439.000000
1581.840454 3368.000000
1583.383789 3361.000000
1584.926514 3389.000000
1586.468384 3331.000000
1588.009155 3409.000000
1589.548950 3401.000000
1591.088013 3326.000000
1592.625977 3282.000000
1594.163452 3427.000000
1595.699585 3310.000000
1597.234619 3423.000000
1598.769165 3356.000000
1600.302734 3244.000000
1601.835449 3273.000000
1603.366577 3368.000000
1604.897461 3250.000000
1606.427490 3264.000000
1607.956299 3312.000000
1609.484009 3246.000000
1611.011108 3337.000000
1612.537476 3500.000000
1614.062866 3340.000000
1615.587402 3344.000000
1617.110596 3351.000000
1618.633057 3305.000000
1620.154785 3312.000000
1621.675659 3328.000000
1623.195068 3068.000000
1624.713989 3331.000000
1626.232178 3167.000000
1627.749512 3201.000000
1629.265747 3303.000000
1630.780640 3177.000000
1632.295044 3130.000000
1633.808716 3105.000000
1635.321289 3218.000000
1636.832642 3066.000000
1638.343628 3121.000000
1639.853516 3135.000000
1641.362549 3142.000000
1642.870239 3083.000000
1644.377563 3155.000000
1645.884033 3046.000000
1647.389526 3057.000000
1648.894165 3028.000000
1650.397339 2938.000000
1651.899902 3119.000000
1653.402100 2992.000000
1654.902954 3121.000000
1656.402710 3020.000000
1657.901611 3020.000000
1659.400146 2927.000000
1660.897461 2972.000000
1662.394043 2991.000000
1663.889038 2948.000000
1665.383789 2903.000000
1666.877686 2890.000000
1668.370605 2821.000000
1669.862183 3585.000000
1671.353271 2705.000000
1672.843750 2843.000000
1674.333130 2841.000000
1675.821045 2794.000000
1677.308716 2798.000000
1678.795410 2835.000000
1680.281250 2863.000000
1681.766235 2743.000000
1683.249756 2671.000000
1684.733032 2736.000000
1686.215454 2737.000000
1687.696777 2681.000000
1689.176636 2709.000000
1690.656250 2697.000000
1692.135132 2708.000000
1693.613037 2779.000000
1695.089966 2733.000000
1696.565674 2703.000000
1698.041016 2733.000000
1699.515137 2720.000000
1700.988647 2587.000000
1702.460693 2666.000000
1703.932495 2638.000000
1705.403320 2718.000000
1706.873291 2727.000000
1708.341919 2603.000000
1709.810059 2701.000000
1711.277466 2744.000000
1712.743774 2611.000000
1714.209473 2661.000000
1715.673462 2701.000000
1717.137329 2670.000000
1718.600342 2684.000000
1720.062378 2638.000000
1721.523193 2626.000000
1722.983398 2691.000000
1724.442871 2699.000000
1725.901489 2759.000000
1727.359131 2720.000000
1728.815430 2623.000000
1730.271484 2662.000000
1731.726563 2563.000000
1733.180664 2602.000000
1734.633545 2625.000000
1736.086182 2541.000000
1737.537720 2531.000000
1738.988525 2535.000000
1740.438354 2575.000000
1741.886841 2641.000000
1743.334961 2542.000000
1744.782227 2442.000000
1746.228760 2614.000000
1747.673706 2486.000000
1749.118408 2499.000000
1750.562256 2573.000000
1752.005249 2515.000000
1753.446777 2491.000000
1754.888062 2483.000000
1756.328491 2365.000000
1757.767944 2401.000000
1759.206421 2486.000000
1760.643921 2434.000000
1762.080933 2462.000000
1763.516968 2434.000000
1764.952148 2461.000000
1766.385864 2512.000000
1767.819458 2421.000000
1769.252075 2409.000000
1770.683838 2535.000000
1772.114746 2370.000000
1773.544434 2440.000000
1774.973389 2362.000000
1776.401855 2295.000000
1777.829346 2163.000000
1779.255493 2136.000000
1780.681396 2275.000000
1782.106201 2263.000000
1783.530396 2282.000000
1784.953125 2282.000000
1786.375366 2280.000000
1787.796875 2181.000000
1789.217651 2267.000000
1790.637451 2141.000000
1792.055908 2276.000000
1793.473877 2212.000000
1794.891235 2201.000000
1796.307739 2214.000000
1797.722778 2202.000000
1799.137451 2331.000000
1800.551514 2243.000000
1801.964355 2166.000000
1803.376587 2104.000000
1804.787476 2204.000000
1806.197876 2073.000000
1807.607544 2086.000000
1809.016235 2100.000000
1810.423828 2073.000000
1811.830933 2117.000000
1813.237183 2143.000000
1814.642456 2025.000000
1816.046631 2116.000000
1817.450439 2178.000000
1818.853271 2203.000000
1820.255249 2082.000000
1821.656616 2206.000000
1823.056519 2192.000000
1824.455811 2181.000000
1825.854614 2159.000000
1827.252563 2104.000000
1828.649170 2139.000000
1830.045166 2236.000000
1831.440430 2162.000000
1832.835083 2123.000000
1834.228760 2085.000000
1835.621094 2095.000000
1837.012939 2093.000000
1838.404175 2151.000000
1839.794434 2145.000000
1841.183472 2082.000000
1842.572144 2121.000000
1843.959839 2093.000000
1845.346802 2065.000000
1846.732422 2070.000000
1848.117798 2064.000000
1849.502319 2070.000000
1850.886108 1986.000000
1852.268799 2098.000000
1853.650269 1943.000000
1855.031250 2020.000000
1856.411743 1972.000000
1857.791260 2009.000000
1859.169312 2013.000000
1860.547241 1967.000000
1861.924194 1967.000000
1863.300415 1984.000000
1864.675781 2049.000000
1866.049683 1963.000000
1867.423462 1885.000000
1868.796387 1854.000000
1870.168213 1936.000000
1871.539063 1898.000000
1872.909546 1879.000000
1874.278931 1829.000000
1875.647827 1828.000000
1877.015137 1780.000000
1878.382324 1908.000000
1879.748535 1837.000000
1881.114014 1838.000000
1882.478760 1844.000000
1883.841919 1821.000000
1885.204956 1788.000000
1886.567139 1946.000000
1887.928467 1820.000000
1889.288452 1800.000000
1890.648071 1742.000000
1892.007080 1743.000000
1893.365112 1821.000000
1894.722290 1787.000000
1896.078247 1800.000000
1897.433960 1871.000000
1898.788696 1746.000000
1900.142578 1787.000000
1901.495361 1786.000000
1902.847656 1708.000000
1904.199219 1743.000000
1905.549927 1808.000000
1906.899414 1817.000000
1908.248413 1696.000000
1909.596558 1852.000000
1910.944092 1743.000000
1912.290894 1768.000000
1913.636108 1735.000000
1914.981079 1757.000000
1916.325317 1856.000000
1917.668701 1754.000000
1919.010742 1729.000000
1920.352539 1778.000000
1921.693481 1738.000000
1923.033691 1753.000000
1924.372925 1852.000000
1925.711182 1731.000000
1927.048828 1852.000000
1928.385742 1695.000000
1929.721802 1771.000000
1931.056641 1767.000000
1932.391113 1861.000000
1933.724854 1688.000000
1935.057739 1797.000000
1936.389160 1739.000000
1937.720703 1703.000000
1939.050903 1739.000000
1940.380615 1784.000000
1941.709473 1733.000000
1943.037109 1761.000000
1944.364258 1737.000000
1945.690674 1647.000000
1947.016357 1700.000000
1948.340698 1650.000000
1949.664795 1715.000000
1950.988037 1622.000000
1952.310547 1657.000000
1953.631958 1643.000000
1954.952393 1664.000000
1956.272217 1662.000000
1957.591675 1611.000000
1958.910156 1643.000000
1960.227295 1530.000000
1961.544067 1596.000000
1962.860107 1584.000000
1964.175415 1539.000000
1965.489258 1661.000000
1966.802856 1576.000000
1968.115723 1560.000000
1969.427734 1608.000000
1970.739136 1551.000000
1972.049194 1533.000000
1973.358765 1516.000000
1974.667603 1620.000000
1975.975830 1572.000000
1977.282715 1581.000000
1978.588989 1505.000000
1979.894897 1528.000000
1981.199585 1557.000000
1982.503784 1520.000000
1983.806763 1514.000000
1985.109375 1470.000000
1986.411011 1505.000000
1987.712036 1470.000000
1989.011475 1524.000000
1990.311035 1468.000000
1991.609497 1389.000000
1992.907471 1446.000000
1994.203857 1516.000000
1995.500244 1497.000000
1996.795654 1399.000000
1998.090332 1479.000000
1999.384155 1445.000000
2000.676758 1405.000000
2001.968872 1341.000000
2003.260498 1438.000000
2004.551392 1326.000000
2005.840698 1413.000000
2007.129761 1466.000000
2008.418091 1290.000000
2009.705688 1368.000000
2010.992432 1373.000000
2012.278076 1438.000000
2013.563354 1325.000000
2014.847656 1359.000000
2016.131348 1432.000000
2017.413696 1361.000000
2018.695679 1204.000000
2019.977173 1346.000000
2021.257690 1241.000000
2022.537476 1348.000000
2023.816162 1335.000000
2025.094116 1417.000000
2026.371582 1328.000000
2027.648438 1350.000000
2028.923584 1332.000000
2030.198853 1345.000000
2031.473145 1307.000000
2032.746460 1411.000000
2034.018921 1332.000000
2035.291016 1445.000000
2036.562012 1383.000000
2037.832764 1209.000000
2039.102173 1373.000000
2040.370483 1335.000000
2041.638794 1377.000000
2042.906128 1230.000000
2044.172729 1329.000000
2045.438110 1266.000000
2046.702881 1279.000000
2047.967407 1405.000000
2049.230713 1281.000000
2050.493652 1385.000000
2051.754639 1287.000000
2053.016113 1302.000000
2054.276367 1237.000000
2055.535889 1342.000000
2056.794678 1229.000000
2058.052490 1347.000000
2059.309814 1248.000000
2060.566406 1279.000000
2061.821533 1248.000000
2063.076660 1333.000000
2064.330811 1218.000000
2065.584229 1300.000000
2066.836914 1302.000000
2068.088379 1231.000000
2069.339600 1251.000000
2070.590088 1245.000000
2071.839844 1228.000000
2073.088135 1240.000000
2074.336426 1193.000000
2075.583740 1329.000000
2076.830322 1238.000000
2078.076172 1160.000000
2079.320801 1264.000000
2080.564941 1247.000000
2081.808594 1179.000000
2083.051270 1139.000000
2084.292725 1239.000000
2085.533936 1196.000000
2086.774658 1207.000000
2088.014404 1190.000000
2089.252930 1201.000000
2090.490967 1209.000000
2091.728271 1161.000000
2092.965332 1243.000000
2094.200928 1216.000000
2095.435791 1181.000000
2096.670410 1149.000000
2097.904053 1226.000000
2099.136719 1158.000000
2100.368652 1120.000000
2101.600098 1141.000000
2102.830566 1158.000000
2104.060303 1120.000000
2105.289795 1144.000000
2106.517334 1131.000000
2107.745117 1086.000000
2108.972168 1104.000000
2110.198242 1159.000000
2111.422852 1125.000000
2112.647705 1077.000000
2113.871338 1172.000000
2115.094482 1216.000000
2116.316406 1023.000000
2117.538086 1043.000000
2118.758789 1054.000000
2119.978760 1128.000000
2121.198242 1140.000000
2122.416260 1193.000000
2123.634277 1073.000000
2124.851318 1076.000000
2126.067871 1136.000000
2127.282715 1008.000000
2128.497803 1134.000000
2129.711914 1038.000000
2130.925293 1136.000000
2132.137939 1059.000000
2133.349121 1120.000000
2134.560547 1152.000000
2135.770752 1151.000000
2136.980469 1127.000000
2138.188721 1082.000000
2139.396973 1093.000000
2140.604492 1172.000000
2141.810791 1253.000000
2143.016357 1118.000000
2144.221680 1128.000000
2145.426025 983.000000
2146.629639 1079.000000
2147.832764 1019.000000
2149.034424 1051.000000
2150.235840 1077.000000
2151.436523 1061.000000
2152.636475 1086.000000
2153.835205 1190.000000
2155.033691 1027.000000
2156.231689 982.000000
2157.428711 1082.000000
2158.625000 989.000000
2159.820068 984.000000
2161.014893 1010.000000
2162.208984 1024.000000
2163.402100 976.000000
2164.594238 942.000000
2165.786133 933.000000
2166.977295 991.000000
2168.167480 948.000000
2169.356934 932.000000
2170.545898 931.000000
2171.733887 969.000000
2172.921631 990.000000
2174.107910 831.000000
2175.293457 876.000000
2176.478760 911.000000
2177.663574 874.000000
2178.847168 937.000000
2180.030029 862.000000
2181.211914 933.000000
2182.393555 851.000000
2183.574707 956.000000
2184.754639 842.000000
2185.933594 865.000000
2187.112061 918.000000
2188.290283 839.000000
2189.467285 897.000000
2190.643311 876.000000
2191.819092 845.000000
2192.994385 917.000000
2194.168213 878.000000
2195.341553 946.000000
2196.514648 900.000000
2197.686523 906.000000
2198.857910 870.000000
2200.028809 909.000000
2201.197998 849.000000
2202.367188 856.000000
2203.535889 944.000000
2204.703613 891.000000
2205.870361 919.000000
2207.036377 922.000000
2208.201904 908.000000
2209.367188 865.000000
2210.531006 911.000000
2211.694336 933.000000
2212.856445 859.000000
2214.018799 837.000000
2215.179932 906.000000
2216.340088 949.000000
2217.499756 870.000000
2218.659180 817.000000
2219.817383 825.000000
2220.974609 783.000000
2222.131592 874.000000
2223.287842 877.000000
2224.443359 831.000000
2225.598145 774.000000
2226.751953 821.000000
2227.904785 871.000000
2229.058105 895.000000
2230.209473 778.000000
2231.360596 839.000000
2232.510986 753.000000
2233.660889 715.000000
2234.809814 806.000000
2235.958252 779.000000
2237.105225 1017.000000
2238.252441 829.000000
2239.398438 770.000000
2240.544189 732.000000
2241.688232 850.000000
2242.832520 721.000000
2243.975830 782.000000
2245.118408 723.000000
2246.260010 719.000000
2247.401367 717.000000
2248.541748 710.000000
2249.681396 624.000000
2250.820557 793.000000
2251.958496 755.000000
2253.096436 743.000000
2254.233398 787.000000
2255.369629 720.000000
2256.504883 786.000000
2257.639404 666.000000
2258.773682 766.000000
2259.907471 755.000000
2261.039795 849.000000
2262.171631 681.000000
2263.302979 707.000000
2264.433350 760.000000
2265.563477 602.000000
2266.692383 674.000000
2267.820801 678.000000
2268.948730 714.000000
2270.075684 636.000000
2271.201904 651.000000
2272.327148 588.000000
2273.452393 727.000000
2274.576904 780.000000
2275.700195 689.000000
2276.822754 757.000000
2277.944824 648.000000
2279.066406 762.000000
2280.187256 696.000000
2281.306885 731.000000
2282.426025 795.000000
2283.544922 664.000000
2284.663086 591.000000
2285.780273 771.000000
2286.896484 750.000000
2288.012451 734.000000
2289.127686 680.000000
2290.242188 615.000000
2291.355469 643.000000
2292.468750 636.000000
2293.581299 719.000000
2294.693115 697.000000
2295.804199 702.000000
2296.914063 651.000000
2298.023438 685.000000
2299.132568 797.000000
2300.240723 731.000000
2301.347900 672.000000
2302.454834 701.000000
2303.561035 670.000000
2304.666748 723.000000
2305.770996 665.000000
2306.875000 652.000000
2307.978516 633.000000
2309.081543 636.000000
2310.183350 629.000000
2311.284424 657.000000
2312.385010 685.000000
2313.485107 646.000000
2314.584473 655.000000
2315.682373 645.000000
2316.780762 638.000000
2317.877686 686.000000
2318.974365 664.000000
2320.070557 634.000000
2321.165039 603.000000
2322.259521 799.000000
2323.353271 628.000000
2324.446777 744.000000
2325.538574 628.000000
2326.630371 523.000000
2327.721436 731.000000
2328.811768 796.000000
2329.901123 712.000000
2330.990479 725.000000
2332.078613 643.000000
2333.166260 747.000000
2334.253662 655.000000
2335.339355 596.000000
2336.424805 597.000000
2337.510010 586.000000
2338.594238 551.000000
2339.677490 618.000000
2340.760498 640.000000
2341.842529 590.000000
2342.924316 521.000000
2344.005371 518.000000
2345.085205 616.000000
2346.164551 607.000000
2347.243408 508.000000
2348.321777 663.000000
2349.398682 688.000000
2350.475342 640.000000
2351.551758 535.000000
2352.627197 472.000000
2353.701660 461.000000
2354.775879 572.000000
2355.849365 536.000000
2356.922363 659.000000
2357.994141 549.000000
2359.065674 493.000000
2360.136230 584.000000
2361.206543 592.000000
2362.275879 459.000000
2363.344238 457.000000
2364.412354 570.000000
2365.479736 468.000000
2366.546631 449.000000
2367.612793 606.000000
2368.677734 518.000000
2369.742676 480.000000
2370.806885 528.000000
2371.870361 542.000000
2372.932617 487.000000
2373.994873 520.000000
2375.056152 539.000000
2376.117188 511.000000
2377.177002 400.000000
2378.236084 546.000000
2379.295166 505.000000
2380.353271 467.000000
2381.410645 534.000000
2382.467041 547.000000
2383.523193 536.000000
2384.578857 493.000000
2385.633789 542.000000
2386.687256 492.000000
2387.740967 591.000000
2388.793701 553.000000
2389.845947 505.000000
2390.897461 579.000000
2391.947998 433.000000
2392.998291 446.000000
2394.047607 447.000000
2395.096924 437.000000
2396.144775 350.000000
2397.192139 507.000000
2398.239258 461.000000
2399.285400 567.000000
2400.330811 459.000000
2401.375488 476.000000
2402.420166 498.000000
2403.463379 489.000000
2404.506592 410.000000
2405.548340 433.000000
2406.590332 520.000000
2407.631592 412.000000
2408.671875 514.000000
2409.711426 496.000000
2410.750000 411.000000
2411.788818 420.000000
2412.826416 440.000000
2413.863770 456.000000
2414.899902 521.000000
2415.935791 503.000000
2416.970947 511.000000
2418.005615 516.000000
2419.038818 403.000000
2420.072266 478.000000
2421.104736 501.000000
2422.136963 483.000000
2423.167725 471.000000
2424.198486 458.000000
2425.228760 520.000000
2426.257813 446.000000
2427.286865 490.000000
2428.314209 490.000000
2429.342041 409.000000
2430.368652 496.000000
2431.395020 349.000000
2432.419922 427.000000
2433.445068 448.000000
2434.469238 455.000000
2435.493164 469.000000
2436.515869 453.000000
2437.537842 423.000000
2438.559570 423.000000
2439.580566 437.000000
2440.601074 438.000000
2441.620361 434.000000
2442.639648 430.000000
2443.657959 526.000000
2444.676025 403.000000
2445.692627 368.000000
2446.709229 483.000000
2447.725098 448.000000
2448.740967 369.000000
2449.755371 427.000000
2450.769043 468.000000
2451.782227 389.000000
2452.795166 429.000000
2453.807373 358.000000
2454.818604 430.000000
2455.829590 425.000000
2456.839844 377.000000
2457.849609 367.000000
2458.858398 379.000000
2459.866455 368.000000
2460.874512 454.000000
2461.881348 402.000000
2462.887939 385.000000
2463.893311 361.000000
2464.898438 391.000000
2465.903320 335.000000
2466.906982 341.000000
2467.910400 321.000000
2468.912842 405.000000
2469.915039 434.000000
2470.916748 387.000000
2471.917480 358.000000
2472.917236 478.000000
2473.916992 414.000000
2474.915771 373.000000
2475.914063 258.000000
2476.911377 403.000000
2477.908447 428.000000
2478.905518 364.000000
2479.901123 359.000000
2480.896729 381.000000
2481.890625 359.000000
2482.884521 444.000000
2483.877930 368.000000
2484.870850 253.000000
2485.862793 274.000000
2486.854004 342.000000
2487.844971 364.000000
2488.835449 347.000000
2489.824951 323.000000
2490.813721 407.000000
2491.802490 392.000000
2492.790283 408.000000
2493.776855 434.000000
2494.763428 378.000000
2495.749512 369.000000
2496.734863 340.000000
2497.719238 336.000000
2498.703369 367.000000
2499.687500 297.000000
2500.670166 438.000000
2501.652344 372.000000
2502.634033 425.000000
2503.614990 382.000000
2504.595459 347.000000
2505.575684 392.000000
2506.554443 321.000000
2507.532959 419.000000
2508.510986 308.000000
2509.488525 318.000000
2510.465088 405.000000
2511.441406 346.000000
2512.416992 326.000000
2513.392090 416.000000
2514.366699 389.000000
2515.340088 291.000000
2516.313232 440.000000
2517.286133 351.000000
2518.258057 397.000000
2519.229248 270.000000
2520.199951 310.000000
2521.170410 349.000000
2522.140137 330.000000
2523.108887 345.000000
2524.076904 344.000000
2525.044922 256.000000
2526.011963 305.000000
2526.978760 293.000000
2527.944336 246.000000
2528.909912 280.000000
2529.874756 345.000000
2530.839111 369.000000
2531.802246 341.000000
2532.765625 303.000000
2533.728027 313.000000
2534.690186 186.000000
2535.651123 329.000000
2536.611328 277.000000
2537.571777 330.000000
2538.531250 414.000000
2539.489990 292.000000
2540.447754 294.000000
2541.405762 295.000000
2542.363037 355.000000
2543.319336 372.000000
2544.275391 317.000000
2545.230225 332.000000
2546.185303 246.000000
2547.139648 358.000000
2548.093262 160.000000
2549.045898 370.000000
2549.998291 249.000000
2550.950195 275.000000
2551.901367 336.000000
2552.851807 211.000000
2553.801758 196.000000
2554.751465 255.000000
2555.700439 294.000000
2556.648926 257.000000
2557.596191 262.000000
2558.543457 392.000000
2559.489990 274.000000
2560.436035 375.000000
2561.381104 254.000000
2562.325928 308.000000
2563.270264 357.000000
2564.214111 284.000000
2565.157471 339.000000
2566.099365 268.000000
2567.041504 292.000000
2567.982910 270.000000
2568.923584 248.000000
2569.863525 278.000000
2570.803467 312.000000
2571.742432 252.000000
2572.681152 340.000000
2573.618896 275.000000
2574.556396 285.000000
2575.493164 232.000000
2576.429199 244.000000
2577.364746 215.000000
2578.299561 215.000000
2579.234375 270.000000
2580.168213 240.000000
2581.101563 141.000000
2582.034180 222.000000
2582.966553 250.000000
2583.898193 308.000000
2584.829346 312.000000
2585.760010 254.000000
2586.689453 327.000000
2587.618896 300.000000
2588.547852 285.000000
2589.476563 461.000000
2590.403564 244.000000
2591.330811 267.000000
2592.257568 233.000000
2593.183594 310.000000
2594.109375 225.000000
2595.033936 263.000000
2595.958252 226.000000
2596.882080 242.000000
2597.805420 276.000000
2598.727783 262.000000
2599.649902 278.000000
2600.571533 261.000000
2601.492432 271.000000
2602.412598 320.000000
2603.332520 251.000000
2604.251953 288.000000
2605.171143 262.000000
2606.089355 305.000000
2607.006348 256.000000
2607.923584 258.000000
2608.840576 323.000000
2609.756592 231.000000
2610.671387 210.000000
2611.586670 276.000000
2612.501221 284.000000
2613.414795 222.000000
2614.328369 145.000000
2615.240723 243.000000
2616.153076 296.000000
2617.064453 204.000000
2617.975586 212.000000
2618.885986 230.000000
2619.796143 170.000000
2620.705566 168.000000
2621.614502 176.000000
2622.522461 236.000000
2623.430664 179.000000
2624.337891 233.000000
2625.244629 252.000000
2626.150635 160.000000
2627.056396 263.000000
2627.961426 302.000000
2628.866211 177.000000
2629.770264 331.000000
2630.673340 148.000000
2631.576416 174.000000
2632.478516 236.000000
2633.380615 190.000000
2634.282471 134.000000
2635.182617 152.000000
2636.083008 260.000000
2636.982666 201.000000
2637.882080 121.000000
2638.780029 192.000000
2639.678467 173.000000
2640.576416 193.000000
2641.473633 154.000000
2642.369629 143.000000
2643.265625 243.000000
2644.161377 182.000000
2645.056396 223.000000
2645.951172 180.000000
2646.844482 273.000000
2647.737793 195.000000
2648.630859 296.000000
2649.523682 210.000000
2650.414795 191.000000
2651.306152 273.000000
2652.197021 177.000000
2653.087158 231.000000
2653.977051 247.000000
2654.865723 289.000000
2655.754639 213.000000
2656.643066 219.000000
2657.530518 135.000000
2658.416992 175.000000
2659.303955 218.000000
2660.190186 146.000000
2661.075928 191.000000
2661.960449 171.000000
2662.844971 179.000000
2663.729248 253.000000
2664.612793 68.000000
2665.495850 122.000000
2666.378174 281.000000
2667.260010 247.000000
2668.141113 214.000000
2669.022461 208.000000
2669.902344 240.000000
2670.782471 174.000000
2671.661865 86.000000
2672.541260 203.000000
2673.419922 217.000000
2674.296875 195.000000
2675.174561 256.000000
2676.051514 204.000000
2676.927734 170.000000
2677.803467 205.000000
2678.678467 177.000000
2679.553711 169.000000
2680.427979 160.000000
2681.301758 123.000000
2682.174805 155.000000
2683.047607 149.000000
2683.920166 210.000000
2684.791992 152.000000
2685.663086 238.000000
2686.533936 162.000000
2687.404297 238.000000
2688.274414 273.000000
2689.142822 151.000000
2690.011963 120.000000
2690.880371 185.000000
2691.748535 163.000000
2692.615967 158.000000
2693.482178 159.000000
2694.348877 208.000000
2695.214600 289.000000
2696.080322 254.000000
2696.944580 500.000000
2697.809570 151.000000
2698.673096 144.000000
2699.536865 181.000000
2700.399170 156.000000
2701.261963 235.000000
2702.123779 163.000000
2702.985107 89.000000
2703.846436 130.000000
2704.706543 232.000000
2705.566650 141.000000
2706.426270 202.000000
2707.285645 194.000000
2708.143311 125.000000
2709.001221 188.000000
2709.859619 127.000000
2710.716797 140.000000
2711.573242 196.000000
2712.429199 146.000000
2713.285156 221.000000
2714.140381 210.000000
2714.994873 193.000000
2715.848877 161.000000
2716.702881 145.000000
2717.555908 121.000000
2718.409180 153.000000
2719.260742 178.000000
2720.112793 167.000000
2720.964600 162.000000
2721.815186 90.000000
2722.665771 138.000000
2723.515869 199.000000
2724.365234 157.000000
2725.214600 108.000000
2726.062744 209.000000
2726.910400 220.000000
2727.758545 170.000000
2728.605469 207.000000
2729.452881 165.000000
2730.298828 122.000000
2731.144043 228.000000
2731.989746 79.000000
2732.834473 126.000000
2733.679199 214.000000
2734.522705 168.000000
2735.366455 76.000000
2736.209473 315.000000
2737.052002 95.000000
2737.893555 101.000000
2738.735596 304.000000
2739.576660 188.000000
2740.417480 187.000000
2741.258057 205.000000
2742.097412 138.000000
2742.936768 215.000000
2743.776123 181.000000
2744.614258 169.000000
2745.451904 186.000000
2746.289551 169.000000
2747.126709 262.000000
2747.963623 162.000000
2748.800049 145.000000
2749.635254 107.000000
2750.470703 119.000000
2751.305664 153.000000
2752.139893 111.000000
2752.973877 150.000000
2753.807373 157.000000
2754.640869 145.000000
2755.473389 146.000000
2756.305420 209.000000
2757.136963 120.000000
2757.968506 177.000000
2758.799072 150.000000
2759.629883 228.000000
2760.459473 95.000000
2761.289063 159.000000
2762.118408 205.000000
2762.947021 149.000000
2763.775146 212.000000
2764.602783 10.000000
2765.430420 114.000000
2766.257568 102.000000
2767.083984 145.000000
2767.909912 204.000000
2768.735352 96.000000
2769.560547 108.000000
2770.385742 115.000000
2771.209717 75.000000
2772.033691 189.000000
2772.857666 144.000000
2773.680420 223.000000
2774.503418 174.000000
2775.325195 41.000000
2776.146973 233.000000
2776.968750 141.000000
2777.789551 123.000000
2778.609619 124.000000
2779.429932 117.000000
2780.249756 163.000000
2781.069580 135.000000
2781.887451 122.000000
2782.706543 92.000000
2783.524414 130.000000
2784.342041 86.000000
2785.159180 182.000000
2785.975830 96.000000
2786.792236 128.000000
2787.608154 91.000000
2788.423828 84.000000
2789.238525 236.000000
2790.053711 87.000000
2790.868164 145.000000
2791.682129 111.000000
2792.495850 72.000000
2793.308350 165.000000
2794.121094 42.000000
2794.933350 82.000000
2795.745117 98.000000
2796.556152 17.000000
2797.367920 127.000000
2798.178467 139.000000
2798.989014 113.000000
2799.798096 52.000000
2800.607910 126.000000
2801.416992 58.000000
2802.225830 122.000000
2803.034180 142.000000
2803.841553 168.000000
2804.649414 100.000000
2805.456543 80.000000
2806.263428 48.000000
2807.069092 208.000000
2807.875244 175.000000
2808.680664 60.000000
2809.486084 108.000000
2810.290771 116.000000
2811.094482 77.000000
2811.898682 89.000000
2812.702393 164.000000
2813.505859 104.000000
2814.307861 305.000000
2815.110596 170.000000
2815.912598 158.000000
2816.714355 48.000000
2817.515625 87.000000
2818.316406 175.000000
2819.116699 141.000000
2819.917236 273.000000
2820.716797 75.000000
2821.515869 171.000000
2822.314941 105.000000
2823.113770 49.000000
2823.912109 151.000000
2824.709473 83.000000
2825.507080 285.000000
2826.303955 137.000000
2827.101074 157.000000
2827.897461 146.000000
2828.693115 133.000000
2829.488770 67.000000
2830.284180 270.000000
2831.079102 98.000000
2831.873291 20.000000
2832.667480 134.000000
2833.461426 194.000000
2834.254883 239.000000
2835.047607 92.000000
2835.840088 96.000000
2836.632568 63.000000
2837.424805 -141.000000
2838.216553 111.000000
2839.007324 128.000000
2839.798096 176.000000
2840.589111 86.000000
2841.379150 169.000000
2842.168701 159.000000
2842.958496 77.000000
2843.747314 36.000000
2844.536133 96.000000
2845.324951 82.000000
2846.112793 127.000000
2846.900146 97.000000
2847.687744 12.000000
2848.474854 192.000000
2849.261230 12.000000
2850.047607 98.000000
2850.833740 122.000000
2851.619385 124.000000
2852.404053 216.000000
2853.189209 140.000000
2853.974121 75.000000
2854.758301 116.000000
2855.542480 84.000000
2856.325439 156.000000
2857.108643 63.000000
2857.891602 153.000000
2858.674072 168.000000
2859.456299 149.000000
2860.238037 157.000000
2861.019531 211.000000
2861.801270 134.000000
2862.582275 212.000000
2863.362549 169.000000
2864.142578 158.000000
2864.922607 170.000000
2865.702393 168.000000
2866.481201 187.000000
2867.260254 14.000000
2868.038818 148.000000
2868.817139 165.000000
2869.594971 212.000000
2870.372559 162.000000
2871.149902 149.000000
2871.927002 132.000000
2872.703613 98.000000
2873.479736 104.000000
2874.255859 108.000000
2875.031494 138.000000
2875.806885 180.000000
2876.581787 157.000000
2877.356445 99.000000
2878.131104 180.000000
2878.905518 196.000000
2879.679199 168.000000
2880.452148 155.000000
2881.225830 202.000000
2881.998535 96.000000
2882.771240 240.000000
2883.543213 236.000000
2884.314941 202.000000
2885.087158 136.000000
2885.858154 171.000000
2886.628662 236.000000
2887.399658 176.000000
2888.170654 192.000000
2888.940918 168.000000
2889.710205 182.000000
2890.479736 195.000000
2891.249268 92.000000
2892.018311 164.000000
2892.786865 185.000000
2893.555420 192.000000
2894.322998 90.000000
2895.091064 227.000000
2895.858643 239.000000
2896.626221 183.000000
2897.392578 191.000000
2898.159912 103.000000
2898.926025 189.000000
2899.692383 114.000000
2900.457275 137.000000
2901.222656 179.000000
2901.988525 194.000000
2902.752930 149.000000
2903.517334 125.000000
2904.281982 106.000000
2905.045654 222.000000
2905.810059 153.000000
2906.573730 90.000000
2907.336670 6.000000
2908.099365 191.000000
2908.862549 104.000000
2909.625244 139.000000
2910.386719 123.000000
2911.148682 123.000000
spectrumdark 2048
-97.082176 6150.000000
-94.455307 6150.000000
-91.830315 6047.000000
-89.207214 6418.000000
-86.585983 5827.000000
-83.966652 6286.000000
-81.349182 6069.000000
-78.733589 6422.000000
-76.119873 6269.000000
-73.508034 5931.000000
-70.898056 6105.000000
-68.289963 5934.000000
-65.683716 5909.000000
-63.079342 6043.000000
-60.476833 6078.000000
-57.876179 5635.000000
-55.277386 6189.000000
-52.680450 6863.000000
-50.085369 6414.000000
-47.492142 6521.000000
-44.900764 6255.000000
-42.311234 6754.000000
-39.723545 5855.000000
-37.137707 6049.000000
-34.553711 6386.000000
-31.971554 5667.000000
-29.391241 6288.000000
-26.812756 5706.000000
-24.236113 6154.000000
-21.661295 6244.000000
-19.088318 6455.000000
-16.517160 6468.000000
-13.947836 6789.000000
-11.380338 7797.000000
-8.814658 6268.000000
-6.250804 6463.000000
-3.688764 5996.000000
-1.128548 5826.000000
1.429860 6127.000000
3.986447 6965.000000
6.541229 6614.000000
9.094194 5957.000000
11.645359 6805.000000
14.194711 6467.000000
16.742266 6675.000000
19.288010 6033.000000
21.831961 5750.000000
24.374107 6691.000000
26.914457 6771.000000
29.453022 6847.000000
31.989790 6203.000000
34.524757 5732.000000
37.057945 7230.000000
39.589352 6358.000000
42.118965 7115.000000
44.646782 6470.000000
47.172840 7817.000000
49.697109 5701.000000
52.219608 6192.000000
54.740311 6706.000000
57.259258 6273.000000
59.776432 6387.000000
62.291828 6651.000000
64.805443 5589.000000
67.317307 5669.000000
69.827423 6490.000000
72.335747 6563.000000
74.842316 5967.000000
77.347137 6318.000000
79.850204 6391.000000
82.351494 6265.000000
84.851044 6139.000000
87.348839 6279.000000
89.844902 5713.000000
92.339188 7219.000000
94.831734 5831.000000
97.322563 6946.000000
99.811623 7198.000000
102.298935 6334.000000
104.784523 6186.000000
107.268372 6323.000000
109.750473 5772.000000
112.230850 6576.000000
114.709503 6152.000000
117.186432 6497.000000
119.661606 7234.000000
122.135071 6844.000000
124.606804 5881.000000
127.076828 6708.000000
129.545105 6330.000000
132.011703 6232.000000
134.476547 5668.000000
136.939697 6202.000000
139.401108 7249.000000
141.860825 6880.000000
144.318817 6324.000000
146.775116 5929.000000
149.229706 5852.000000
151.682571 6862.000000
154.133759 6341.000000
156.583252 6576.000000
159.031021 6051.000000
161.477081 6612.000000
163.921463 8713.000000
166.364166 6398.000000
168.805176 6748.000000
171.244476 6198.000000
173.682068 7225.000000
176.118027 6563.000000
178.552246 6912.000000
180.984787 7180.000000
183.415680 6588.000000
185.844849 7126.000000
188.272369 6723.000000
190.698212 6297.000000
193.122375 6605.000000
195.544876 7180.000000
197.965683 7384.000000
200.384827 6519.000000
202.802307 5975.000000
205.218094 7599.000000
207.632233 7061.000000
210.044739 6384.000000
212.455566 6050.000000
214.864716 6243.000000
217.272232 7375.000000
219.678040 6178.000000
222.082260 6496.000000
224.484772 6709.000000
226.885666 6911.000000
229.284912 6467.000000
231.682495 6848.000000
234.078415 7281.000000
236.472717 6639.000000
238.865356 5923.000000
241.256378 6850.000000
243.645737 6520.000000
246.033478 6334.000000
248.419571 6918.000000
250.804031 6106.000000
253.186844 7804.000000
255.568085 6601.000000
257.947601 6697.000000
260.325562 6512.000000
262.701843 7501.000000
265.076569 7541.000000
267.449646 7894.000000
269.821075 6166.000000
272.190857 6400.000000
274.559082 5882.000000
276.925659 6378.000000
279.290649 6705.000000
281.654022 6037.000000
284.015747 6180.000000
286.375885 7113.000000
288.734406 5929.000000
291.091339 6495.000000
293.446655 6379.000000
295.800385 5941.000000
298.152466 5955.000000
300.502991 6302.000000
302.851929 6354.000000
305.199219 6802.000000
307.544983 6419.000000
309.889069 6491.000000
312.231628 7421.000000
314.572571 7569.000000
316.911896 7157.000000
319.249664 6982.000000
321.585876 8043.000000
323.920441 6239.000000
326.253448 6487.000000
328.584900 5954.000000
330.914764 6672.000000
333.243042 6402.000000
335.569702 7255.000000
337.894867 6306.000000
340.218414 6288.000000
342.540405 5968.000000
344.860840 7460.000000
347.179657 7710.000000
349.496918 5936.000000
351.812653 5848.000000
354.126801 6984.000000
356.439362 6296.000000
358.750366 6409.000000
361.059845 6981.000000
363.367798 6349.000000
365.674133 5637.000000
367.978882 6389.000000
370.282166 6383.000000
372.583832 6231.000000
374.884003 6391.000000
377.182617 6218.000000
379.479675 5975.000000
381.775177 6091.000000
384.069153 5798.000000
386.361542 5226.000000
388.652435 5592.000000
390.941803 6179.000000
393.229584 6298.000000
395.515839 6577.000000
397.800598 6984.000000
400.083740 6069.000000
402.365448 6498.000000
404.645630 6149.000000
406.924225 7238.000000
409.201294 6449.000000
411.476837 6690.000000
413.750854 6477.000000
416.023438 6427.000000
418.294403 6460.000000
420.563873 6367.000000
422.831848 7017.000000
425.098267 7302.000000
427.363190 6215.000000
429.626648 6325.000000
431.888519 6446.000000
434.148926 6026.000000
436.407776 6645.000000
438.665161 6158.000000
440.921051 5763.000000
443.175446 5748.000000
445.428314 5461.000000
447.679626 6903.000000
449.929535 6065.000000
452.177856 6235.000000
454.424744 5648.000000
456.670166 6467.000000
458.914032 6478.000000
461.156403 6834.000000
463.397278 5626.000000
465.636749 6760.000000
467.874634 5487.000000
470.111084 5956.000000
472.346008 6032.000000
474.579468 7316.000000
476.811493 6684.000000
479.041992 5670.000000
481.270996 6441.000000
483.498535 6264.000000
485.724579 5936.000000
487.949188 6540.000000
490.172333 5873.000000
492.394012 6394.000000
494.614136 6621.000000
496.832855 5653.000000
499.050079 6249.000000
501.265930 5503.000000
503.480164 6173.000000
505.693085 6379.000000
507.904419 6435.000000
510.114319 6826.000000
512.322815 6375.000000
514.529907 6562.000000
516.735413 6383.000000
518.939514 6586.000000
521.142090 6145.000000
523.343262 6551.000000
525.543091 6657.000000
527.741394 6962.000000
529.938171 5324.000000
532.133606 5834.000000
534.327515 5547.000000
536.520081 7514.000000
538.711121 6677.000000
540.900757 5992.000000
543.088989 6933.000000
545.275696 7155.000000
547.460938 6841.000000
549.644897 6267.000000
551.827271 6397.000000
554.008301 6211.000000
556.187805 6019.000000
558.366028 5867.000000
560.542725 5987.000000
562.718018 6423.000000
564.891907 6402.000000
567.064331 5875.000000
569.235352 6010.000000
571.404907 6350.000000
573.573181 5238.000000
575.739929 6404.000000
577.905212 6310.000000
580.069092 6148.000000
582.231689 5761.000000
584.392761 6021.000000
586.552429 5685.000000
588.710754 5821.000000
590.867554 6124.000000
593.023010 6587.000000
595.177063 5758.000000
597.329773 6066.000000
599.480957 7283.000000
601.630798 6772.000000
603.779297 6658.000000
605.926208 6069.000000
608.071899 6512.000000
610.216187 6346.000000
612.359009 6985.000000
614.500366 6212.000000
616.640503 6398.000000
618.779114 7724.000000
620.916443 5724.000000
623.052307 6531.000000
625.186768 6857.000000
627.319763 7201.000000
629.451599 6668.000000
631.581970 6608.000000
633.710938 6794.000000
635.838440 6438.000000
637.964661 6230.000000
640.089355 7304.000000
642.212830 6380.000000
644.334961 6749.000000
646.455627 6816.000000
648.574951 6549.000000
650.692871 5676.000000
652.809448 5708.000000
654.924622 6394.000000
657.038452 6429.000000
659.150818 5886.000000
661.261963 6089.000000
663.371704 5360.000000
665.479980 6048.000000
667.587097 6262.000000
669.692749 6825.000000
671.796936 5839.000000
673.899902 5685.000000
676.001465 7009.000000
678.101685 5321.000000
680.200500 6727.000000
682.297974 6206.000000
684.394165 7038.000000
686.488892 6174.000000
688.582397 7003.000000
690.674561 6667.000000
692.765198 7961.000000
694.854614 6624.000000
696.942749 6397.000000
699.029419 5974.000000
701.114868 6686.000000
703.198792 5102.000000
705.281494 5877.000000
707.362915 5907.000000
709.442871 7612.000000
711.521606 6312.000000
713.598877 5509.000000
715.674866 6559.000000
717.749573 6047.000000
719.822998 7004.000000
721.894897 6265.000000
723.965637 7343.000000
726.035034 5742.000000
728.103027 6451.000000
730.169678 6345.000000
732.235107 7042.000000
734.299194 5770.000000
736.361938 6152.000000
738.423340 6507.000000
740.483459 6606.000000
742.542175 6000.000000
744.599670 6685.000000
746.655884 6489.000000
748.710693 6606.000000
750.764221 6304.000000
752.816345 7512.000000
754.867249 5723.000000
756.916931 6650.000000
758.965149 6312.000000
761.012146 6144.000000
763.057861 7053.000000
765.102173 5318.000000
767.145203 5712.000000
769.187012 14929.000000
771.227478 6937.000000
773.266541 6378.000000
775.304443 6105.000000
777.341003 6040.000000
779.376343 5326.000000
781.410339 5763.000000
783.442932 6861.000000
785.474365 5523.000000
787.504395 11656.000000
789.533142 6053.000000
791.560730 6286.000000
793.586975 6347.000000
795.611816 5835.000000
797.635559 5496.000000
799.657898 6318.000000
801.679016 5908.000000
803.698792 6639.000000
805.717285 4882.000000
807.734558 6689.000000
809.750427 6788.000000
811.765137 5737.000000
813.778503 6383.000000
815.790649 6281.000000
817.801575 6050.000000
819.811157 6533.000000
821.819519 5267.000000
823.826477 5715.000000
825.832214 6007.000000
827.836731 5664.000000
829.839966 5662.000000
831.841919 6487.000000
833.842590 6114.000000
835.842041 5878.000000
837.840149 6332.000000
839.837158 6912.000000
841.832764 6219.000000
843.827209 6060.000000
845.820313 6164.000000
847.812195 6756.000000
849.802734 5577.000000
851.791992 6731.000000
853.780212 5980.000000
855.767029 5756.000000
857.752625 6377.000000
859.736938 7243.000000
861.720154 6254.000000
863.701965 6373.000000
865.682556 5821.000000
867.661865 7711.000000
869.640015 7039.000000
871.616821 6161.000000
873.592346 6015.000000
875.566833 6151.000000
877.539856 6030.000000
879.511841 5422.000000
881.482483 6383.000000
883.451965 6127.000000
885.420105 5515.000000
887.387085 5188.000000
889.352722 6140.000000
891.317200 5775.000000
893.280457 5987.000000
895.242493 6487.000000
897.203247 5828.000000
899.162781 6333.000000
901.121033 6699.000000
903.078186 6327.000000
905.034180 6014.000000
906.988770 6873.000000
908.942139 6499.000000
910.894348 6435.000000
912.845337 6339.000000
914.795044 7129.000000
916.743591 6383.000000
918.690918 6131.000000
920.636963 6083.000000
922.581726 6075.000000
924.525452 6319.000000
926.468018 5982.000000
928.409302 5554.000000
930.349243 6443.000000
932.288086 5706.000000
934.225647 5478.000000
936.161987 5980.000000
938.097168 5869.000000
940.031067 6050.000000
941.963867 5884.000000
943.895447 6785.000000
945.825867 5157.000000
947.755066 6382.000000
949.682922 7041.000000
951.609741 6561.000000
953.535278 5915.000000
955.459534 5355.000000
957.382690 5929.000000
959.304688 6747.000000
961.225403 7179.000000
963.144958 6531.000000
965.063354 5331.000000
966.980713 6391.000000
968.896606 6431.000000
970.811401 6091.000000
972.724976 5931.000000
974.637390 6394.000000
976.548584 6450.000000
978.458618 5487.000000
980.367371 6147.000000
982.275085 6155.000000
984.181580 6408.000000
986.086853 5693.000000
987.991028 6810.000000
989.893982 6175.000000
991.795715 6807.000000
993.696289 6588.000000
995.595703 6514.000000
997.493896 5249.000000
999.390930 6702.000000
1001.286743 6514.000000
1003.181396 7697.000000
1005.074951 5500.000000
1006.967224 7226.000000
1008.858582 6037.000000
1010.748596 5364.000000
1012.637390 6554.000000
1014.525024 6317.000000
1016.411499 6824.000000
1018.296814 6754.000000
1020.180969 5921.000000
1022.063904 5889.000000
1023.945801 6203.000000
1025.826416 5177.000000
1027.705933 5845.000000
1029.584473 6139.000000
1031.461670 5358.000000
1033.337524 6163.000000
1035.212402 5918.000000
1037.086304 6634.000000
1038.958740 7003.000000
1040.830200 6693.000000
1042.700317 5479.000000
1044.569458 5505.000000
1046.437378 5776.000000
1048.304199 6974.000000
1050.169922 6675.000000
1052.034424 6503.000000
1053.897827 6475.000000
1055.759888 6477.000000
1057.620972 5852.000000
1059.480957 6490.000000
1061.339600 6587.000000
1063.197144 5819.000000
1065.053589 6687.000000
1066.908936 5941.000000
1068.763062 5757.000000
1070.616333 6203.000000
1072.468140 6267.000000
1074.318970 6139.000000
1076.168579 6143.000000
1078.016968 5714.000000
1079.864502 7947.000000
1081.710693 5554.000000
1083.555664 6199.000000
1085.399780 5435.000000
1087.242554 5516.000000
1089.084106 6479.000000
1090.924927 5425.000000
1092.764160 5759.000000
1094.602661 6026.000000
1096.439819 6065.000000
1098.275757 6799.000000
1100.110718 6558.000000
1101.944458 5415.000000
1103.777222 5704.000000
1105.608643 6159.000000
1107.439209 7251.000000
1109.268433 6512.000000
1111.096680 6435.000000
1112.923706 7085.000000
1114.749756 5394.000000
1116.574585 6327.000000
1118.398315 7145.000000
1120.220825 6110.000000
1122.042236 5859.000000
1123.862793 5848.000000
1125.681885 6522.000000
1127.500122 7102.000000
1129.317017 6904.000000
1131.133057 6682.000000
1132.947876 6481.000000
1134.761597 5588.000000
1136.574219 5820.000000
1138.385620 5665.000000
1140.196045 6081.000000
1142.005371 6746.000000
1143.813354 6901.000000
1145.620605 5952.000000
1147.426392 5910.000000
1149.231323 5370.000000
1151.035156 5424.000000
1152.837769 6170.000000
1154.639526 6109.000000
1156.439819 5820.000000
1158.239136 6128.000000
1160.037476 5908.000000
1161.834473 5452.000000
1163.630737 5882.000000
1165.425659 6037.000000
1167.219482 6296.000000
1169.012451 7733.000000
1170.804077 5784.000000
1172.594727 6509.000000
1174.384399 6018.000000
1176.172607 5829.000000
1177.959961 7471.000000
1179.746216 6785.000000
1181.531372 5786.000000
1183.315430 5973.000000
1185.098389 7723.000000
1186.880371 5839.000000
1188.661133 5859.000000
1190.440918 6336.000000
1192.219604 6990.000000
1193.997314 6642.000000
1195.773804 7087.000000
1197.549194 6531.000000
1199.323486 6580.000000
1201.096680 6692.000000
1202.869019 6540.000000
1204.640015 6687.000000
1206.410156 5663.000000
1208.179077 6125.000000
1209.946899 6333.000000
1211.713867 5844.000000
1213.479492 5903.000000
1215.244141 6970.000000
1217.007690 6550.000000
1218.770142 5986.000000
1220.531738 6748.000000
1222.292114 5882.000000
1224.051392 6296.000000
1225.809814 6073.000000
1227.567017 7052.000000
1229.323120 6364.000000
1231.078125 5485.000000
1232.832275 6040.000000
1234.585083 5839.000000
1236.336914 6012.000000
1238.087891 5917.000000
1239.837524 4919.000000
1241.586304 6964.000000
1243.333740 6502.000000
1245.080444 6464.000000
1246.825928 6499.000000
1248.570557 6446.000000
1250.313843 6748.000000
1252.056152 6645.000000
1253.797363 5388.000000
1255.537720 5099.000000
1257.276978 5777.000000
1259.015015 6589.000000
1260.752197 7082.000000
1262.488159 6076.000000
1264.223145 6438.000000
1265.957153 7251.000000
1267.690186 5995.000000
1269.421997 6188.000000
1271.152832 6428.000000
1272.882446 7208.000000
1274.611206 5850.000000
1276.338867 5695.000000
1278.065430 5568.000000
1279.791138 5537.000000
1281.515503 6421.000000
1283.239014 5148.000000
1284.961548 6838.000000
1286.683105 6604.000000
1288.403442 6175.000000
1290.122803 6650.000000
1291.841064 7229.000000
1293.558350 6452.000000
1295.274658 5764.000000
1296.989746 6326.000000
1298.703857 6136.000000
1300.416992 5730.000000
1302.129272 6388.000000
1303.840332 8313.000000
1305.550415 5233.000000
1307.259399 6293.000000
1308.967163 6649.000000
1310.674316 6989.000000
1312.380005 5766.000000
1314.084961 6854.000000
1315.788940 6198.000000
1317.491699 5975.000000
1319.193481 6554.000000
1320.894409 6053.000000
1322.593994 10085.000000
1324.292725 31412.000000
1325.990723 5602.000000
1327.687378 6504.000000
1329.382935 7187.000000
1331.077637 6842.000000
1332.771118 5741.000000
1334.463745 5417.000000
1336.155518 7481.000000
1337.845947 6262.000000
1339.535645 6556.000000
1341.224243 6046.000000
1342.911743 7599.000000
1344.598267 5627.000000
1346.283691 6748.000000
1347.968140 5909.000000
1349.651733 7257.000000
1351.334106 6310.000000
1353.015503 5951.000000
1354.696045 6524.000000
1356.375366 6687.000000
1358.054077 5946.000000
1359.731445 6620.000000
1361.407715 5770.000000
1363.083008 5572.000000
1364.757568 6550.000000
1366.430908 6441.000000
1368.103271 6773.000000
1369.774658 5193.000000
1371.445068 6693.000000
1373.114380 6208.000000
1374.782715 5691.000000
1376.450195 5951.000000
1378.116577 6466.000000
1379.781982 6142.000000
1381.446411 5868.000000
1383.109619 5907.000000
1384.772217 5710.000000
1386.433472 6368.000000
1388.093872 6628.000000
1389.753174 6384.000000
1391.411499 6470.000000
1393.069092 6869.000000
1394.725464 6416.000000
1396.380981 6941.000000
1398.035278 6337.000000
1399.688721 5873.000000
1401.341064 6114.000000
1402.992676 6420.000000
1404.643066 7150.000000
1406.292358 6239.000000
1407.940918 7518.000000
1409.588379 7852.000000
1411.234863 6157.000000
1412.880493 6200.000000
1414.525146 5947.000000
1416.168579 6977.000000
1417.811157 7192.000000
1419.452637 6830.000000
1421.093262 6496.000000
1422.732910 6499.000000
1424.371460 6010.000000
1426.009155 6585.000000
1427.645752 6368.000000
1429.281372 6021.000000
1430.916260 6362.000000
1432.550049 5873.000000
1434.182739 6087.000000
1435.814453 5641.000000
1437.445313 6087.000000
1439.075073 6101.000000
1440.703735 7723.000000
1442.331787 5962.000000
1443.958740 6190.000000
1445.584473 6174.000000
1447.209595 6106.000000
1448.833618 6515.000000
1450.456665 5997.000000
1452.078735 6060.000000
1453.699707 7300.000000
1455.319702 6233.000000
1456.938965 6862.000000
1458.556885 5659.000000
1460.174194 19192.000000
1461.790527 5565.000000
1463.405640 7239.000000
1465.019897 6357.000000
1466.633301 5187.000000
1468.245605 5604.000000
1469.857056 6319.000000
1471.467651 6342.000000
1473.077026 5954.000000
1474.685425 6023.000000
1476.292969 6248.000000
1477.899536 6830.000000
1479.505371 5329.000000
1481.109985 6208.000000
1482.713745 5503.000000
1484.316284 6832.000000
1485.918213 5501.000000
1487.518921 5490.000000
1489.118896 5584.000000
1490.717773 6255.000000
1492.315796 6477.000000
1493.912720 6695.000000
1495.508789 6337.000000
1497.103882 6036.000000
1498.697998 5535.000000
1500.291382 6590.000000
1501.883667 5526.000000
1503.474731 6167.000000
1505.065308 6756.000000
1506.654541 6506.000000
1508.243164 6160.000000
1509.830688 6472.000000
1511.417114 6863.000000
1513.002808 6157.000000
1514.587402 6592.000000
1516.171143 6256.000000
1517.753784 6180.000000
1519.335693 6598.000000
1520.916504 6623.000000
1522.496582 6032.000000
1524.075439 6225.000000
1525.653442 6357.000000
1527.230713 6297.000000
1528.806763 5742.000000
1530.382080 5853.000000
1531.956299 6291.000000
1533.529785 5442.000000
1535.102051 5955.000000
1536.673584 6244.000000
1538.244141 6426.000000
1539.813843 6362.000000
1541.382324 5469.000000
1542.950073 6566.000000
1544.516968 5633.000000
1546.082642 6792.000000
1547.647583 6009.000000
1549.211426 5018.000000
1550.774658 7408.000000
1552.336548 6271.000000
1553.897827 5909.000000
1555.458008 5703.000000
1557.017456 5728.000000
1558.575806 6040.000000
1560.133423 6283.000000
1561.689941 7039.000000
1563.245239 5878.000000
1564.799927 6369.000000
1566.353882 5625.000000
1567.906860 6243.000000
1569.458496 5703.000000
1571.009399 5829.000000
1572.559570 6230.000000
1574.108765 6359.000000
1575.656616 5786.000000
1577.203979 5547.000000
1578.750366 5658.000000
1580.295898 5076.000000
1581.840454 6690.000000
1583.383789 6396.000000
1584.926514 6603.000000
1586.468384 6512.000000
1588.009155 6693.000000
1589.548950 5808.000000
1591.088013 6692.000000
1592.625977 5939.000000
1594.163452 6024.000000
1595.699585 5895.000000
1597.234619 6624.000000
1598.769165 6160.000000
1600.302734 6027.000000
1601.835449 6037.000000
1603.366577 6274.000000
1604.897461 6297.000000
1606.427490 5785.000000
1607.956299 6178.000000
1609.484009 6199.000000
1611.011108 5980.000000
1612.537476 5822.000000
1614.062866 6214.000000
1615.587402 5784.000000
1617.110596 5731.000000
1618.633057 5549.000000
1620.154785 6585.000000
1621.675659 6956.000000
1623.195068 15569.000000
1624.713989 6230.000000
1626.232178 6086.000000
1627.749512 5990.000000
1629.265747 6393.000000
1630.780640 6994.000000
1632.295044 6793.000000
1633.808716 5745.000000
1635.321289 6797.000000
1636.832642 5982.000000
1638.343628 6409.000000
1639.853516 6263.000000
1641.362549 6191.000000
1642.870239 5611.000000
1644.377563 6077.000000
1645.884033 7098.000000
1647.389526 6243.000000
1648.894165 6850.000000
1650.397339 6207.000000
1651.899902 6554.000000
1653.402100 6345.000000
1654.902954 6595.000000
1656.402710 7524.000000
1657.901611 5931.000000
1659.400146 6508.000000
1660.897461 6246.000000
1662.394043 5918.000000
1663.889038 6473.000000
1665.383789 6283.000000
1666.877686 5232.000000
1668.370605 5684.000000
1669.862183 20141.000000
1671.353271 6530.000000
1672.843750 6102.000000
1674.333130 5968.000000
1675.821045 6980.000000
1677.308716 6858.000000
1678.795410 6032.000000
1680.281250 5340.000000
1681.766235 6096.000000
1683.249756 6165.000000
1684.733032 6148.000000
1686.215454 5889.000000
1687.696777 6241.000000
1689.176636 6209.000000
1690.656250 5531.000000
1692.135132 6541.000000
1693.613037 5590.000000
1695.089966 6107.000000
1696.565674 5770.000000
1698.041016 5999.000000
1699.515137 6246.000000
1700.988647 5508.000000
1702.460693 5631.000000
1703.932495 6901.000000
1705.403320 6411.000000
1706.873291 7025.000000
1708.341919 5172.000000
1709.810059 5854.000000
1711.277466 6358.000000
1712.743774 5515.000000
1714.209473 5743.000000
1715.673462 6157.000000
1717.137329 5980.000000
1718.600342 6956.000000
1720.062378 6343.000000
1721.523193 6619.000000
1722.983398 5418.000000
1724.442871 6361.000000
1725.901489 6101.000000
1727.359131 5914.000000
1728.815430 6231.000000
1730.271484 6072.000000
1731.726563 6482.000000
1733.180664 6026.000000
1734.633545 6820.000000
1736.086182 6031.000000
1737.537720 6737.000000
1738.988525 5972.000000
1740.438354 6573.000000
1741.886841 5909.000000
1743.334961 7586.000000
1744.782227 6614.000000
1746.228760 6600.000000
1747.673706 6735.000000
1749.118408 6150.000000
1750.562256 5848.000000
1752.005249 5509.000000
1753.446777 6521.000000
1754.888062 6379.000000
1756.328491 19485.000000
1757.767944 6257.000000
1759.206421 5234.000000
1760.643921 6031.000000
1762.080933 7539.000000
1763.516968 5791.000000
1764.952148 7099.000000
1766.385864 6140.000000
1767.819458 6398.000000
1769.252075 6638.000000
1770.683838 5735.000000
1772.114746 5814.000000
1773.544434 6420.000000
1774.973389 6180.000000
1776.401855 6300.000000
1777.829346 6690.000000
1779.255493 6217.000000
1780.681396 5581.000000
1782.106201 6889.000000
1783.530396 5553.000000
1784.953125 6616.000000
1786.375366 6486.000000
1787.796875 6927.000000
1789.217651 5902.000000
1790.637451 5994.000000
1792.055908 6121.000000
1793.473877 6860.000000
1794.891235 5547.000000
1796.307739 6073.000000
1797.722778 6492.000000
1799.137451 5751.000000
1800.551514 6557.000000
1801.964355 5935.000000
1803.376587 6978.000000
1804.787476 7136.000000
1806.197876 7771.000000
1807.607544 6475.000000
1809.016235 5967.000000
1810.423828 5420.000000
1811.830933 6460.000000
1813.237183 6382.000000
1814.642456 6754.000000
1816.046631 5946.000000
1817.450439 5960.000000
1818.853271 6216.000000
1820.255249 6029.000000
1821.656616 5873.000000
1823.056519 6348.000000
1824.455811 6488.000000
1825.854614 6540.000000
1827.252563 7438.000000
1828.649170 5843.000000
1830.045166 6692.000000
1831.440430 5864.000000
1832.835083 8104.000000
1834.228760 6036.000000
1835.621094 6834.000000
1837.012939 6368.000000
1838.404175 5857.000000
1839.794434 7061.000000
1841.183472 6060.000000
1842.572144 6077.000000
1843.959839 5969.000000
1845.346802 5831.000000
1846.732422 6930.000000
1848.117798 5928.000000
1849.502319 6414.000000
1850.886108 6335.000000
1852.268799 6327.000000
1853.650269 5401.000000
1855.031250 6537.000000
1856.411743 6345.000000
1857.791260 5690.000000
1859.169312 5962.000000
1860.547241 6210.000000
1861.924194 7903.000000
1863.300415 6154.000000
1864.675781 6069.000000
1866.049683 5616.000000
1867.423462 5741.000000
1868.796387 6234.000000
1870.168213 5937.000000
1871.539063 6890.000000
1872.909546 5476.000000
1874.278931 6067.000000
1875.647827 6129.000000
1877.015137 7226.000000
1878.382324 6037.000000
1879.748535 5977.000000
1881.114014 6787.000000
1882.478760 7490.000000
1883.841919 6768.000000
1885.204956 6943.000000
1886.567139 6286.000000
1887.928467 6446.000000
1889.288452 5609.000000
1890.648071 5776.000000
1892.007080 6131.000000
1893.365112 6628.000000
1894.722290 7309.000000
1896.078247 5911.000000
1897.433960 7585.000000
1898.788696 5831.000000
1900.142578 5524.000000
1901.495361 5915.000000
1902.847656 5926.000000
1904.199219 5954.000000
1905.549927 6850.000000
1906.899414 6529.000000
1908.248413 6714.000000
1909.596558 5808.000000
1910.944092 6144.000000
1912.290894 6300.000000
1913.636108 6834.000000
1914.981079 6060.000000
1916.325317 5369.000000
1917.668701 6509.000000
1919.010742 6004.000000
1920.352539 6704.000000
1921.693481 7008.000000
1923.033691 6190.000000
1924.372925 6255.000000
1925.711182 6328.000000
1927.048828 6425.000000
1928.385742 7057.000000
1929.721802 6732.000000
1931.056641 5583.000000
1932.391113 6705.000000
1933.724854 7291.000000
1935.057739 6203.000000
1936.389160 5740.000000
1937.720703 6346.000000
1939.050903 6614.000000
1940.380615 5766.000000
1941.709473 6055.000000
1943.037109 5789.000000
1944.364258 4993.000000
1945.690674 5860.000000
1947.016357 6476.000000
1948.340698 5786.000000
1949.664795 6674.000000
1950.988037 6298.000000
1952.310547 6445.000000
1953.631958 5769.000000
1954.952393 7401.000000
1956.272217 5984.000000
1957.591675 5565.000000
1958.910156 6858.000000
1960.227295 5934.000000
1961.544067 5847.000000
1962.860107 6565.000000
1964.175415 6662.000000
1965.489258 6229.000000
1966.802856 5641.000000
1968.115723 6258.000000
1969.427734 6010.000000
1970.739136 6044.000000
1972.049194 6319.000000
1973.358765 5811.000000
1974.667603 6164.000000
1975.975830 6621.000000
1977.282715 6069.000000
1978.588989 7255.000000
1979.894897 5546.000000
1981.199585 6344.000000
1982.503784 5874.000000
1983.806763 5703.000000
1985.109375 7590.000000
1986.411011 6068.000000
1987.712036 6797.000000
1989.011475 6045.000000
1990.311035 6598.000000
1991.609497 5392.000000
1992.907471 6112.000000
1994.203857 6074.000000
1995.500244 5726.000000
1996.795654 5553.000000
1998.090332 6468.000000
1999.384155 5724.000000
2000.676758 6520.000000
2001.968872 5781.000000
2003.260498 7131.000000
2004.551392 6496.000000
2005.840698 6193.000000
2007.129761 6784.000000
2008.418091 5966.000000
2009.705688 6043.000000
2010.992432 6688.000000
2012.278076 5627.000000
2013.563354 6240.000000
2014.847656 6013.000000
2016.131348 5551.000000
2017.413696 6033.000000
2018.695679 6558.000000
2019.977173 6821.000000
2021.257690 5915.000000
2022.537476 6107.000000
2023.816162 6762.000000
2025.094116 5852.000000
2026.371582 5886.000000
2027.648438 6311.000000
2028.923584 5778.000000
2030.198853 6617.000000
2031.473145 6072.000000
2032.746460 5961.000000
2034.018921 5919.000000
2035.291016 6056.000000
2036.562012 6946.000000
2037.832764 6661.000000
2039.102173 5991.000000
2040.370483 6983.000000
2041.638794 6581.000000
2042.906128 5956.000000
2044.172729 5987.000000
2045.438110 5638.000000
2046.702881 5502.000000
2047.967407 5423.000000
2049.230713 5908.000000
2050.493652 6367.000000
2051.754639 6193.000000
2053.016113 6108.000000
2054.276367 5875.000000
2055.535889 6408.000000
2056.794678 6259.000000
2058.052490 6838.000000
2059.309814 6192.000000
2060.566406 5994.000000
2061.821533 6508.000000
2063.076660 5583.000000
2064.330811 5664.000000
2065.584229 5612.000000
2066.836914 6804.000000
2068.088379 6273.000000
2069.339600 6366.000000
2070.590088 5604.000000
2071.839844 5429.000000
2073.088135 6156.000000
2074.336426 6503.000000
2075.583740 7345.000000
2076.830322 5581.000000
2078.076172 6058.000000
2079.320801 6981.000000
2080.564941 7602.000000
2081.808594 5522.000000
2083.051270 6079.000000
2084.292725 6953.000000
2085.533936 5982.000000
2086.774658 6328.000000
2088.014404 6789.000000
2089.252930 7047.000000
2090.490967 6151.000000
2091.728271 5788.000000
2092.965332 6584.000000
2094.200928 6043.000000
2095.435791 6251.000000
2096.670410 6119.000000
2097.904053 5592.000000
2099.136719 6037.000000
2100.368652 6894.000000
2101.600098 6399.000000
2102.830566 6727.000000
2104.060303 6049.000000
2105.289795 5951.000000
2106.517334 6013.000000
2107.745117 6011.000000
2108.972168 6250.000000
2110.198242 5451.000000
2111.422852 6386.000000
2112.647705 6955.000000
2113.871338 6979.000000
2115.094482 6156.000000
2116.316406 7542.000000
2117.538086 6052.000000
2118.758789 6846.000000
2119.978760 6018.000000
2121.198242 6144.000000
2122.416260 6545.000000
2123.634277 7085.000000
2124.851318 5720.000000
2126.067871 5793.000000
2127.282715 6637.000000
2128.497803 6339.000000
2129.711914 7019.000000
2130.925293 5620.000000
2132.137939 6139.000000
2133.349121 5803.000000
2134.560547 6526.000000
2135.770752 6691.000000
2136.980469 5881.000000
2138.188721 6154.000000
2139.396973 5646.000000
2140.604492 5797.000000
2141.810791 7443.000000
2143.016357 5838.000000
2144.221680 5633.000000
2145.426025 5560.000000
2146.629639 6303.000000
2147.832764 6218.000000
2149.034424 6401.000000
2150.235840 5342.000000
2151.436523 6317.000000
2152.636475 6087.000000
2153.835205 5904.000000
2155.033691 6898.000000
2156.231689 6169.000000
2157.428711 5970.000000
2158.625000 5166.000000
2159.820068 5317.000000
2161.014893 6121.000000
2162.208984 5574.000000
2163.402100 6077.000000
2164.594238 6952.000000
2165.786133 5946.000000
2166.977295 6343.000000
2168.167480 6289.000000
2169.356934 6527.000000
2170.545898 6765.000000
2171.733887 5937.000000
2172.921631 5710.000000
2174.107910 5955.000000
2175.293457 6562.000000
2176.478760 6018.000000
2177.663574 5858.000000
2178.847168 6344.000000
2180.030029 7543.000000
2181.211914 6312.000000
2182.393555 5964.000000
2183.574707 6540.000000
2184.754639 5761.000000
2185.933594 5586.000000
2187.112061 6345.000000
2188.290283 6900.000000
2189.467285 7192.000000
2190.643311 6759.000000
2191.819092 6105.000000
2192.994385 5654.000000
2194.168213 6664.000000
2195.341553 6144.000000
2196.514648 6174.000000
2197.686523 6374.000000
2198.857910 7104.000000
2200.028809 6324.000000
2201.197998 6924.000000
2202.367188 7605.000000
2203.535889 6244.000000
2204.703613 5917.000000
2205.870361 5640.000000
2207.036377 7141.000000
2208.201904 6654.000000
2209.367188 5988.000000
2210.531006 6778.000000
2211.694336 5405.000000
2212.856445 6195.000000
2214.018799 6196.000000
2215.179932 6640.000000
2216.340088 6633.000000
2217.499756 6311.000000
2218.659180 6579.000000
2219.817383 6365.000000
2220.974609 6353.000000
2222.131592 6774.000000
2223.287842 6558.000000
2224.443359 6734.000000
2225.598145 6279.000000
2226.751953 6411.000000
2227.904785 6021.000000
2229.058105 6856.000000
2230.209473 6200.000000
2231.360596 6175.000000
2232.510986 6527.000000
2233.660889 7702.000000
2234.809814 6280.000000
2235.958252 5221.000000
2237.105225 6567.000000
2238.252441 7071.000000
2239.398438 6032.000000
2240.544189 7305.000000
2241.688232 7271.000000
2242.832520 6727.000000
2243.975830 6218.000000
2245.118408 6009.000000
2246.260010 5779.000000
2247.401367 5822.000000
2248.541748 6419.000000
2249.681396 6449.000000
2250.820557 5791.000000
2251.958496 5854.000000
2253.096436 6196.000000
2254.233398 5279.000000
2255.369629 6346.000000
2256.504883 6150.000000
2257.639404 7292.000000
2258.773682 6321.000000
2259.907471 5394.000000
2261.039795 6080.000000
2262.171631 6784.000000
2263.302979 6273.000000
2264.433350 6490.000000
2265.563477 8132.000000
2266.692383 6689.000000
2267.820801 6089.000000
2268.948730 5550.000000
2270.075684 6169.000000
2271.201904 5973.000000
2272.327148 6763.000000
2273.452393 6535.000000
2274.576904 6333.000000
2275.700195 5918.000000
2276.822754 6303.000000
2277.944824 5983.000000
2279.066406 7318.000000
2280.187256 6382.000000
2281.306885 6428.000000
2282.426025 7018.000000
2283.544922 7639.000000
2284.663086 7313.000000
2285.780273 5837.000000
2286.896484 6385.000000
2288.012451 7012.000000
2289.127686 6842.000000
2290.242188 7410.000000
2291.355469 5862.000000
2292.468750 6363.000000
2293.581299 5969.000000
2294.693115 5352.000000
2295.804199 6729.000000
2296.914063 6448.000000
2298.023438 6142.000000
2299.132568 6595.000000
2300.240723 6312.000000
2301.347900 6742.000000
2302.454834 5865.000000
2303.561035 6265.000000
2304.666748 6550.000000
2305.770996 6629.000000
2306.875000 5476.000000
2307.978516 5791.000000
2309.081543 6562.000000
2310.183350 7401.000000
2311.284424 7311.000000
2312.385010 6596.000000
2313.485107 5519.000000
2314.584473 6365.000000
2315.682373 6579.000000
2316.780762 6998.000000
2317.877686 8216.000000
2318.974365 6878.000000
2320.070557 5786.000000
2321.165039 6838.000000
2322.259521 7437.000000
2323.353271 5828.000000
2324.446777 6013.000000
2325.538574 6460.000000
2326.630371 7020.000000
2327.721436 6118.000000
2328.811768 6241.000000
2329.901123 6950.000000
2330.990479 6072.000000
2332.078613 6344.000000
2333.166260 6796.000000
2334.253662 6491.000000
2335.339355 6748.000000
2336.424805 7801.000000
2337.510010 6297.000000
2338.594238 6800.000000
2339.677490 5918.000000
2340.760498 6437.000000
2341.842529 7098.000000
2342.924316 6042.000000
2344.005371 7468.000000
2345.085205 6613.000000
2346.164551 5711.000000
2347.243408 6813.000000
2348.321777 6452.000000
2349.398682 6253.000000
2350.475342 6918.000000
2351.551758 6026.000000
2352.627197 6454.000000
2353.701660 6037.000000
2354.775879 6267.000000
2355.849365 6772.000000
2356.922363 6184.000000
2357.994141 6976.000000
2359.065674 6299.000000
2360.136230 6787.000000
2361.206543 7528.000000
2362.275879 7608.000000
2363.344238 6905.000000
2364.412354 6710.000000
2365.479736 7087.000000
2366.546631 7184.000000
2367.612793 6032.000000
2368.677734 6886.000000
2369.742676 7013.000000
2370.806885 6315.000000
2371.870361 6928.000000
2372.932617 5829.000000
2373.994873 6317.000000
2375.056152 6307.000000
2376.117188 5935.000000
2377.177002 6320.000000
2378.236084 7842.000000
2379.295166 6462.000000
2380.353271 7570.000000
2381.410645 6874.000000
2382.467041 8001.000000
2383.523193 7753.000000
2384.578857 6273.000000
2385.633789 6961.000000
2386.687256 6765.000000
2387.740967 6530.000000
2388.793701 6310.000000
2389.845947 6747.000000
2390.897461 6107.000000
2391.947998 6674.000000
2392.998291 6548.000000
2394.047607 6336.000000
2395.096924 6239.000000
2396.144775 6950.000000
2397.192139 6992.000000
2398.239258 6264.000000
2399.285400 6676.000000
2400.330811 6150.000000
2401.375488 6784.000000
2402.420166 7712.000000
2403.463379 7469.000000
2404.506592 6609.000000
2405.548340 5773.000000
2406.590332 6684.000000
2407.631592 7136.000000
2408.671875 6131.000000
2409.711426 6398.000000
2410.750000 6354.000000
2411.788818 5985.000000
2412.826416 6552.000000
2413.863770 6855.000000
2414.899902 7296.000000
2415.935791 6168.000000
2416.970947 6295.000000
2418.005615 6669.000000
2419.038818 7215.000000
2420.072266 6408.000000
2421.104736 6685.000000
2422.136963 6798.000000
2423.167725 7071.000000
2424.198486 6334.000000
2425.228760 6813.000000
2426.257813 6858.000000
2427.286865 6581.000000
2428.314209 7418.000000
2429.342041 6748.000000
2430.368652 7251.000000
2431.395020 7032.000000
2432.419922 7763.000000
2433.445068 6524.000000
2434.469238 7108.000000
2435.493164 6698.000000
2436.515869 5841.000000
2437.537842 6310.000000
2438.559570 6629.000000
2439.580566 6645.000000
2440.601074 5993.000000
2441.620361 6494.000000
2442.639648 6553.000000
2443.657959 8427.000000
2444.676025 6242.000000
2445.692627 6466.000000
2446.709229 6525.000000
2447.725098 5935.000000
2448.740967 6998.000000
2449.755371 6788.000000
2450.769043 5521.000000
2451.782227 7199.000000
2452.795166 5982.000000
2453.807373 7248.000000
2454.818604 6700.000000
2455.829590 7642.000000
2456.839844 6335.000000
2457.849609 7700.000000
2458.858398 5897.000000
2459.866455 5972.000000
2460.874512 6309.000000
2461.881348 7291.000000
2462.887939 5441.000000
2463.893311 7403.000000
2464.898438 6917.000000
2465.903320 5851.000000
2466.906982 6538.000000
2467.910400 6419.000000
2468.912842 7579.000000
2469.915039 7295.000000
2470.916748 6854.000000
2471.917480 6573.000000
2472.917236 6963.000000
2473.916992 6703.000000
2474.915771 5642.000000
2475.914063 6613.000000
2476.911377 6995.000000
2477.908447 6107.000000
2478.905518 6986.000000
2479.901123 5804.000000
2480.896729 7126.000000
2481.890625 6710.000000
2482.884521 8035.000000
2483.877930 6864.000000
2484.870850 6945.000000
2485.862793 7529.000000
2486.854004 7248.000000
2487.844971 6711.000000
2488.835449 5817.000000
2489.824951 6602.000000
2490.813721 6507.000000
2491.802490 5604.000000
2492.790283 6762.000000
2493.776855 6575.000000
2494.763428 7996.000000
2495.749512 6727.000000
2496.734863 7025.000000
2497.719238 8056.000000
2498.703369 5971.000000
2499.687500 6892.000000
2500.670166 5738.000000
2501.652344 6975.000000
2502.634033 6792.000000
2503.614990 7239.000000
2504.595459 6528.000000
2505.575684 5709.000000
2506.554443 6346.000000
2507.532959 7580.000000
2508.510986 6762.000000
2509.488525 7104.000000
2510.465088 6074.000000
2511.441406 5969.000000
2512.416992 6444.000000
2513.392090 6184.000000
2514.366699 6456.000000
2515.340088 7616.000000
2516.313232 6735.000000
2517.286133 6925.000000
2518.258057 6072.000000
2519.229248 6872.000000
2520.199951 6937.000000
2521.170410 7826.000000
2522.140137 8031.000000
2523.108887 6081.000000
2524.076904 6165.000000
2525.044922 7714.000000
2526.011963 6329.000000
2526.978760 5546.000000
2527.944336 7302.000000
2528.909912 7002.000000
2529.874756 7736.000000
2530.839111 6283.000000
2531.802246 6333.000000
2532.765625 5889.000000
2533.728027 5964.000000
2534.690186 6744.000000
2535.651123 6343.000000
2536.611328 6099.000000
2537.571777 6143.000000
2538.531250 6728.000000
2539.489990 6824.000000
2540.447754 6687.000000
2541.405762 6238.000000
2542.363037 6731.000000
2543.319336 6072.000000
2544.275391 7060.000000
2545.230225 6190.000000
2546.185303 7756.000000
2547.139648 6974.000000
2548.093262 6564.000000
2549.045898 7177.000000
2549.998291 6780.000000
2550.950195 7017.000000
2551.901367 6404.000000
2552.851807 7725.000000
2553.801758 7286.000000
2554.751465 7380.000000
2555.700439 6615.000000
2556.648926 6260.000000
2557.596191 7115.000000
2558.543457 6308.000000
2559.489990 6580.000000
2560.436035 6695.000000
2561.381104 7416.000000
2562.325928 6695.000000
2563.270264 7156.000000
2564.214111 6824.000000
2565.157471 6562.000000
2566.099365 6592.000000
2567.041504 6515.000000
2567.982910 6161.000000
2568.923584 7181.000000
2569.863525 7280.000000
2570.803467 5628.000000
2571.742432 6170.000000
2572.681152 7478.000000
2573.618896 7187.000000
2574.556396 5464.000000
2575.493164 6969.000000
2576.429199 6829.000000
2577.364746 7513.000000
2578.299561 6414.000000
2579.234375 5993.000000
2580.168213 7074.000000
2581.101563 7150.000000
2582.034180 5886.000000
2582.966553 6945.000000
2583.898193 5382.000000
2584.829346 7009.000000
2585.760010 7029.000000
2586.689453 6821.000000
2587.618896 7226.000000
2588.547852 6480.000000
2589.476563 7466.000000
2590.403564 7318.000000
2591.330811 5902.000000
2592.257568 6804.000000
2593.183594 6225.000000
2594.109375 5621.000000
2595.033936 7637.000000
2595.958252 7580.000000
2596.882080 5373.000000
2597.805420 7290.000000
2598.727783 6254.000000
2599.649902 6883.000000
2600.571533 8300.000000
2601.492432 6407.000000
2602.412598 5713.000000
2603.332520 6313.000000
2604.251953 6374.000000
2605.171143 6400.000000
2606.089355 5831.000000
2607.006348 6003.000000
2607.923584 7242.000000
2608.840576 5857.000000
2609.756592 7549.000000
2610.671387 6687.000000
2611.586670 6614.000000
2612.501221 6520.000000
2613.414795 6586.000000
2614.328369 6207.000000
2615.240723 7607.000000
2616.153076 7004.000000
2617.064453 6829.000000
2617.975586 5705.000000
2618.885986 7211.000000
2619.796143 6675.000000
2620.705566 6152.000000
2621.614502 6658.000000
2622.522461 6231.000000
2623.430664 6867.000000
2624.337891 6634.000000
2625.244629 7037.000000
2626.150635 6025.000000
2627.056396 6647.000000
2627.961426 6578.000000
2628.866211 7841.000000
2629.770264 6411.000000
2630.673340 6447.000000
2631.576416 6439.000000
2632.478516 5617.000000
2633.380615 6751.000000
2634.282471 7026.000000
2635.182617 6742.000000
2636.083008 6398.000000
2636.982666 6454.000000
2637.882080 6034.000000
2638.780029 6917.000000
2639.678467 6748.000000
2640.576416 6456.000000
2641.473633 6141.000000
2642.369629 6200.000000
2643.265625 6791.000000
2644.161377 6048.000000
2645.056396 6448.000000
2645.951172 6675.000000
2646.844482 7225.000000
2647.737793 6282.000000
2648.630859 6705.000000
2649.523682 6485.000000
2650.414795 7467.000000
2651.306152 6331.000000
2652.197021 7569.000000
2653.087158 7295.000000
2653.977051 6527.000000
2654.865723 7219.000000
2655.754639 6611.000000
2656.643066 6546.000000
2657.530518 7366.000000
2658.416992 6474.000000
2659.303955 7107.000000
2660.190186 6859.000000
2661.075928 6816.000000
2661.960449 6552.000000
2662.844971 6448.000000
2663.729248 6162.000000
2664.612793 7159.000000
2665.495850 7836.000000
2666.378174 7253.000000
2667.260010 6136.000000
2668.141113 6576.000000
2669.022461 6031.000000
2669.902344 6489.000000
2670.782471 7398.000000
2671.661865 7245.000000
2672.541260 6345.000000
2673.419922 6146.000000
2674.296875 6407.000000
2675.174561 6733.000000
2676.051514 6410.000000
2676.927734 8147.000000
2677.803467 7181.000000
2678.678467 6275.000000
2679.553711 7762.000000
2680.427979 7004.000000
2681.301758 7395.000000
2682.174805 7014.000000
2683.047607 6231.000000
2683.920166 6076.000000
2684.791992 6961.000000
2685.663086 6498.000000
2686.533936 6884.000000
2687.404297 7090.000000
2688.274414 6648.000000
2689.142822 6283.000000
2690.011963 7393.000000
2690.880371 7060.000000
2691.748535 6745.000000
2692.615967 6932.000000
2693.482178 5850.000000
2694.348877 7159.000000
2695.214600 7345.000000
2696.080322 7146.000000
2696.944580 7865.000000
2697.809570 6552.000000
2698.673096 7282.000000
2699.536865 5811.000000
2700.399170 7420.000000
2701.261963 6763.000000
2702.123779 5872.000000
2702.985107 6924.000000
2703.846436 6718.000000
2704.706543 7392.000000
2705.566650 7295.000000
2706.426270 6580.000000
2707.285645 6833.000000
2708.143311 7204.000000
2709.001221 6889.000000
2709.859619 7330.000000
2710.716797 6732.000000
2711.573242 5939.000000
2712.429199 6877.000000
2713.285156 6086.000000
2714.140381 6936.000000
2714.994873 6104.000000
2715.848877 6830.000000
2716.702881 7310.000000
2717.555908 6257.000000
2718.409180 6608.000000
2719.260742 7685.000000
2720.112793 6736.000000
2720.964600 6308.000000
2721.815186 6530.000000
2722.665771 6732.000000
2723.515869 7099.000000
2724.365234 7057.000000
2725.214600 6981.000000
2726.062744 6640.000000
2726.910400 6569.000000
2727.758545 7006.000000
2728.605469 6754.000000
2729.452881 5566.000000
2730.298828 7504.000000
2731.144043 6979.000000
2731.989746 6489.000000
2732.834473 6988.000000
2733.679199 7285.000000
2734.522705 6864.000000
2735.366455 7771.000000
2736.209473 6982.000000
2737.052002 6077.000000
2737.893555 6294.000000
2738.735596 6748.000000
2739.576660 6882.000000
2740.417480 5800.000000
2741.258057 5859.000000
2742.097412 7769.000000
2742.936768 6873.000000
2743.776123 6900.000000
2744.614258 6793.000000
2745.451904 7879.000000
2746.289551 6330.000000
2747.126709 7038.000000
2747.963623 6165.000000
2748.800049 5995.000000
2749.635254 6663.000000
2750.470703 6300.000000
2751.305664 6324.000000
2752.139893 6327.000000
2752.973877 6882.000000
2753.807373 6831.000000
2754.640869 8001.000000
2755.473389 6777.000000
2756.305420 7255.000000
2757.136963 6816.000000
2757.968506 7075.000000
2758.799072 7206.000000
2759.629883 7167.000000
2760.459473 7354.000000
2761.289063 6673.000000
2762.118408 7247.000000
2762.947021 6828.000000
2763.775146 6719.000000
2764.602783 6900.000000
2765.430420 6634.000000
2766.257568 7875.000000
2767.083984 5817.000000
2767.909912 7463.000000
2768.735352 6885.000000
2769.560547 7797.000000
2770.385742 7083.000000
2771.209717 6810.000000
2772.033691 6466.000000
2772.857666 7587.000000
2773.680420 6551.000000
2774.503418 6918.000000
2775.325195 6961.000000
2776.146973 6913.000000
2776.968750 6474.000000
2777.789551 7998.000000
2778.609619 6533.000000
2779.429932 6963.000000
2780.249756 7286.000000
2781.069580 6412.000000
2781.887451 5941.000000
2782.706543 8054.000000
2783.524414 6467.000000
2784.342041 6749.000000
2785.159180 7201.000000
2785.975830 7242.000000
2786.792236 7193.000000
2787.608154 6291.000000
2788.423828 5934.000000
2789.238525 6355.000000
2790.053711 6997.000000
2790.868164 7150.000000
2791.682129 6562.000000
2792.495850 7448.000000
2793.308350 8758.000000
2794.121094 7010.000000
2794.933350 7429.000000
2795.745117 7212.000000
2796.556152 7424.000000
2797.367920 6520.000000
2798.178467 7189.000000
2798.989014 6962.000000
2799.798096 7440.000000
2800.607910 8156.000000
2801.416992 7789.000000
2802.225830 6630.000000
2803.034180 7129.000000
2803.841553 6081.000000
2804.649414 6416.000000
2805.456543 6907.000000
2806.263428 7040.000000
2807.069092 7146.000000
2807.875244 6627.000000
2808.680664 6517.000000
2809.486084 7298.000000
2810.290771 6225.000000
2811.094482 7648.000000
2811.898682 7523.000000
2812.702393 6326.000000
2813.505859 6097.000000
2814.307861 6334.000000
2815.110596 7256.000000
2815.912598 7826.000000
2816.714355 6189.000000
2817.515625 6559.000000
2818.316406 7204.000000
2819.116699 6480.000000
2819.917236 6572.000000
2820.716797 8067.000000
2821.515869 7142.000000
2822.314941 6461.000000
2823.113770 6889.000000
2823.912109 6312.000000
2824.709473 7034.000000
2825.507080 7049.000000
2826.303955 6671.000000
2827.101074 7343.000000
2827.897461 7977.000000
2828.693115 7009.000000
2829.488770 7354.000000
2830.284180 7487.000000
2831.079102 7446.000000
2831.873291 6722.000000
2832.667480 6806.000000
2833.461426 5620.000000
2834.254883 6771.000000
2835.047607 7181.000000
2835.840088 8153.000000
2836.632568 7657.000000
2837.424805 7749.000000
2838.216553 6390.000000
2839.007324 6762.000000
2839.798096 8814.000000
2840.589111 7462.000000
2841.379150 6199.000000
2842.168701 7640.000000
2842.958496 7196.000000
2843.747314 7400.000000
2844.536133 7853.000000
2845.324951 7734.000000
2846.112793 7484.000000
2846.900146 7241.000000
2847.687744 7576.000000
2848.474854 7282.000000
2849.261230 6704.000000
2850.047607 7408.000000
2850.833740 7155.000000
2851.619385 7553.000000
2852.404053 7149.000000
2853.189209 6912.000000
2853.974121 7449.000000
2854.758301 7087.000000
2855.542480 6942.000000
2856.325439 8227.000000
2857.108643 6861.000000
2857.891602 6739.000000
2858.674072 7770.000000
2859.456299 6248.000000
2860.238037 6626.000000
2861.019531 7566.000000
2861.801270 7491.000000
2862.582275 7613.000000
2863.362549 6553.000000
2864.142578 6689.000000
2864.922607 8184.000000
2865.702393 7438.000000
2866.481201 8039.000000
2867.260254 7707.000000
2868.038818 6751.000000
2868.817139 7000.000000
2869.594971 7112.000000
2870.372559 6943.000000
2871.149902 7466.000000
2871.927002 6946.000000
2872.703613 6436.000000
2873.479736 7472.000000
2874.255859 7202.000000
2875.031494 8357.000000
2875.806885 7144.000000
2876.581787 6648.000000
2877.356445 8033.000000
2878.131104 6601.000000
2878.905518 7799.000000
2879.679199 6776.000000
2880.452148 7152.000000
2881.225830 6719.000000
2881.998535 7662.000000
2882.771240 7774.000000
2883.543213 8181.000000
2884.314941 6181.000000
2885.087158 6839.000000
2885.858154 6845.000000
2886.628662 6113.000000
2887.399658 8263.000000
2888.170654 7322.000000
2888.940918 7982.000000
2889.710205 7591.000000
2890.479736 6903.000000
2891.249268 7271.000000
2892.018311 7304.000000
2892.786865 7924.000000
2893.555420 7662.000000
2894.322998 7002.000000
2895.091064 6527.000000
2895.858643 7413.000000
2896.626221 8348.000000
2897.392578 7389.000000
2898.159912 6569.000000
2898.926025 7187.000000
2899.692383 6990.000000
2900.457275 8345.000000
2901.222656 6942.000000
2901.988525 6383.000000
2902.752930 7771.000000
2903.517334 7756.000000
2904.281982 8411.000000
2905.045654 6569.000000
2905.810059 8450.000000
2906.573730 6763.000000
2907.336670 8472.000000
2908.099365 6451.000000
2908.862549 9055.000000
2909.625244 6976.000000
2910.386719 6811.000000
2911.148682 6811.000000
