scanname Analyse067
timestamp 2017-02-10 21:31:02
ccdbias 893.435059
ccdgain 3.473401
sigmaread 8.960639
laserwavenum -0.810908
wavenumcorrection -0.287944
scancount 1
totalexposurems 10000
singleexposurems 10000
measurementstate Unknown
scanmode Manual
snr 276.262299 8.785809 7.487680
replacelist 5
374 52338.000000 14994.000000
672 43882.000000 31103.000000
673 43216.000000 5564.000000
754 39334.000000 14483.000000
858 34597.000000 15493.000000
peaks 58
278.562500 0.714469 0.000000 1.428895 0.000184
285.452087 0.714426 0.000000 0.751974 0.000059
293.786560 0.716490 0.000000 0.643707 0.000029
302.709503 0.717326 0.000000 0.179752 0.000023
332.386017 0.736555 0.000000 0.827518 0.000141
342.906128 0.737850 0.000000 0.744553 0.000034
350.328735 0.741041 0.000000 0.613269 0.000023
360.890137 0.744288 0.000000 0.649582 0.000059
386.526581 0.745499 0.000000 1.537425 0.000320
460.798859 0.759372 0.000000 0.197492 0.000038
487.201813 0.770106 0.000000 0.505161 0.000057
535.039124 0.774250 0.000000 0.722593 0.000155
559.670776 0.812365 0.000000 1.336794 0.000232
573.119629 0.818013 0.000000 0.281821 0.000073
583.444641 0.812067 0.000000 0.652527 0.000105
660.589783 0.841556 0.000000 1.310549 0.000123
673.754028 0.839526 0.000000 1.479193 0.000280
680.492126 0.838279 0.000000 0.504896 0.000050
715.903503 0.856295 0.000000 5.485456 0.001147
723.635681 0.837930 0.000000 1.295913 0.000054
739.277344 0.858834 0.000000 1.196804 0.000176
752.869263 0.864570 0.000000 1.005803 0.000047
765.029175 0.879611 0.000000 1.317185 0.000440
777.528625 0.881787 0.000000 5.953582 0.000947
833.024597 0.881362 0.000000 0.299401 0.000146
842.853088 0.886040 0.000000 1.068544 0.000053
853.288025 0.911098 0.000000 1.175956 0.000294
869.514160 0.909113 0.000000 0.819739 0.000161
937.873291 0.965462 0.000000 0.685574 0.000392
954.634033 0.946943 0.000000 3.643960 0.001084
1005.366577 0.969300 0.000000 0.800263 0.000094
1013.714661 0.973991 0.000000 1.946487 0.000743
1020.500061 0.975678 0.000000 0.880211 0.000139
1027.656738 0.988113 0.000000 0.606711 0.000251
1044.496948 0.986054 0.000000 4.096195 0.001317
1103.964233 0.967573 0.000000 2.130148 0.000577
1119.736450 0.998498 0.000000 1.984051 0.000396
1134.820313 0.979654 0.000000 1.995804 0.000845
1150.096802 0.957784 0.000000 2.365812 0.000932
1172.787720 0.943775 0.000000 1.164930 0.000403
1211.423340 0.961139 0.000000 0.583746 0.000196
1226.410645 0.969038 0.000000 0.725627 0.000157
1233.902832 0.966445 0.000000 1.474545 0.000511
1260.144653 0.982726 0.000000 2.117085 0.001014
1278.423218 0.939468 0.000000 0.344832 0.000428
1315.577393 0.995906 0.000000 9.827889 0.001982
1339.027344 0.976000 0.000000 7.525940 0.001172
1350.731445 0.955917 0.000000 1.250723 0.000362
1387.151855 0.932000 0.000000 0.587742 0.000118
1415.882080 0.919068 0.000000 1.015952 0.000501
1451.098267 0.963564 0.000000 1.491200 0.000466
1458.852661 0.985368 0.000000 4.838400 0.002412
1490.377319 0.932958 0.000000 2.343085 0.001413
1532.615356 0.887679 0.000000 0.214228 0.000190
1579.269653 0.891314 0.000000 1.317071 0.001080
1619.676880 0.909113 0.000000 1.316316 0.001134
1663.250122 0.922221 0.000000 11.230744 0.004876
1750.061279 0.843087 0.000000 6.959308 0.003413
finalresult GLS_NoMatch 0
spectrum 2048
-96.790550 45999.000000
-94.163681 45999.000000
-91.538689 46459.000000
-88.915588 46362.000000
-86.294357 47169.000000
-83.675026 46820.000000
-81.057556 47134.000000
-78.441963 46757.000000
-75.828247 47004.000000
-73.216408 47450.000000
-70.606430 47308.000000
-67.998337 47513.000000
-65.392090 47509.000000
-62.787716 47475.000000
-60.185207 47327.000000
-57.584553 47853.000000
-54.985760 47226.000000
-52.388824 46602.000000
-49.793743 47021.000000
-47.200516 46913.000000
-44.609138 47275.000000
-42.019608 46725.000000
-39.431919 47564.000000
-36.846081 47422.000000
-34.262085 46934.000000
-31.679926 47682.000000
-29.099613 47047.000000
-26.521128 47707.000000
-23.944485 47260.000000
-21.369667 47072.000000
-18.796690 46789.000000
-16.225533 46714.000000
-13.656210 46551.000000
-11.088712 45389.000000
-8.523032 46888.000000
-5.959178 46649.000000
-3.397138 47132.000000
-0.836922 47217.000000
1.721486 46750.000000
4.278073 45931.000000
6.832855 46106.000000
9.385820 46732.000000
11.936985 45829.000000
14.486337 45853.000000
17.033894 45255.000000
19.579638 45332.000000
22.123589 44580.000000
24.665735 42185.000000
27.206085 39610.000000
29.744650 35394.000000
32.281418 31427.000000
34.816383 28057.000000
37.349571 18943.000000
39.880978 9923.000000
42.410591 8735.000000
44.938408 8226.000000
47.464466 7435.000000
49.988735 6530.000000
52.511234 5771.000000
55.031937 5495.000000
57.550884 5817.000000
60.068058 7491.000000
62.583454 8188.000000
65.097069 9427.000000
67.608932 10094.000000
70.119049 7522.000000
72.627373 5041.000000
75.133942 4389.000000
77.638763 3639.000000
80.141830 2736.000000
82.643120 2339.000000
85.142670 2283.000000
87.640465 2347.000000
90.136528 2377.000000
92.630814 2999.000000
95.123360 3378.000000
97.614189 3498.000000
100.103249 3346.000000
102.590561 2427.000000
105.076149 1911.000000
107.559998 1780.000000
110.042099 1644.000000
112.522476 1607.000000
115.001129 1645.000000
117.478058 1511.000000
119.953232 1520.000000
122.426697 1628.000000
124.898430 1557.000000
127.368454 1785.000000
129.836731 2118.000000
132.303329 2271.000000
134.768173 2636.000000
137.231323 3207.000000
139.692734 3754.000000
142.152451 4612.000000
144.610443 5782.000000
147.066742 13631.000000
149.521332 26857.000000
151.974197 32573.000000
154.425385 35716.000000
156.874878 37469.000000
159.322647 39677.000000
161.768707 40982.000000
164.213089 40270.000000
166.655792 43104.000000
169.096802 43234.000000
171.536102 44086.000000
173.973694 43429.000000
176.409653 44323.000000
178.843872 44205.000000
181.276413 44135.000000
183.707306 44753.000000
186.136475 44550.000000
188.563995 45094.000000
190.989838 45679.000000
193.414001 45407.000000
195.836502 45178.000000
198.257309 45096.000000
200.676453 45955.000000
203.093933 46570.000000
205.509720 45034.000000
207.923859 45732.000000
210.336365 46489.000000
212.747192 46777.000000
215.156342 46684.000000
217.563858 45536.000000
219.969666 46828.000000
222.373886 46490.000000
224.776398 46342.000000
227.177292 46152.000000
229.576538 46632.000000
231.974121 46184.000000
234.370041 45695.000000
236.764343 46569.000000
239.156982 47281.000000
241.548004 46288.000000
243.937363 46548.000000
246.325104 46617.000000
248.711197 46098.000000
251.095657 47011.000000
253.478470 45220.000000
255.859711 46456.000000
258.239227 46479.000000
260.617188 46497.000000
262.993469 45506.000000
265.368195 45563.000000
267.741272 45225.000000
270.112701 46913.000000
272.482483 46634.000000
274.850708 47193.000000
277.217285 46785.000000
279.582275 46242.000000
281.945648 47085.000000
284.307373 46795.000000
286.667511 45942.000000
289.026031 47131.000000
291.382965 46579.000000
293.738281 46695.000000
296.092010 47078.000000
298.444092 47104.000000
300.794617 46739.000000
303.143555 46678.000000
305.490845 46223.000000
307.836609 46629.000000
310.180695 46541.000000
312.523254 45701.000000
314.864197 45397.000000
317.203522 45906.000000
319.541290 46110.000000
321.877502 44925.000000
324.212067 46857.000000
326.545074 46529.000000
328.876526 47056.000000
331.206390 46423.000000
333.534668 46666.000000
335.861328 45809.000000
338.186493 46649.000000
340.510040 46849.000000
342.832031 47034.000000
345.152466 45553.000000
347.471283 45394.000000
349.788544 47025.000000
352.104279 47138.000000
354.418427 46120.000000
356.730988 46711.000000
359.041992 46605.000000
361.351471 46082.000000
363.659424 46680.000000
365.965759 47376.000000
368.270508 46511.000000
370.573792 46613.000000
372.875458 46785.000000
375.175629 46673.000000
377.474243 46717.000000
379.771301 47346.000000
382.066803 46986.000000
384.360779 47190.000000
386.653168 47842.000000
388.944061 47559.000000
391.233429 46888.000000
393.521210 46809.000000
395.807465 46532.000000
398.092224 46045.000000
400.375366 47031.000000
402.657074 46687.000000
404.937256 46915.000000
407.215851 45840.000000
409.492920 46593.000000
411.768463 46307.000000
414.042480 46517.000000
416.315063 46618.000000
418.586029 46529.000000
420.855499 46549.000000
423.123474 45926.000000
425.389893 45814.000000
427.654816 46788.000000
429.918274 46733.000000
432.180145 46519.000000
434.440552 47069.000000
436.699402 46405.000000
438.956787 46879.000000
441.212677 47297.000000
443.467072 47185.000000
445.719940 47550.000000
447.971252 46105.000000
450.221161 46858.000000
452.469482 46718.000000
454.716370 47274.000000
456.961792 46531.000000
459.205658 46517.000000
461.448029 46255.000000
463.688904 47285.000000
465.928375 46272.000000
468.166260 47406.000000
470.402710 47078.000000
472.637634 46850.000000
474.871094 45633.000000
477.103119 46305.000000
479.333618 47264.000000
481.562622 46443.000000
483.790161 46605.000000
486.016205 46961.000000
488.240814 46378.000000
490.463959 47100.000000
492.685638 46454.000000
494.905762 46303.000000
497.124481 47249.000000
499.341705 46725.000000
501.557556 47347.000000
503.771790 46804.000000
505.984711 46525.000000
508.196045 46533.000000
510.405945 46142.000000
512.614441 46442.000000
514.821533 46388.000000
517.027039 46507.000000
519.231140 46431.000000
521.433716 46708.000000
523.634888 46355.000000
525.834717 46247.000000
528.033020 45898.000000
530.229797 47530.000000
532.425232 47084.000000
534.619141 47370.000000
536.811707 45357.000000
539.002747 46199.000000
541.192383 46889.000000
543.380615 45889.000000
545.567322 45727.000000
547.752563 46041.000000
549.936523 46598.000000
552.118896 46474.000000
554.299927 46606.000000
556.479431 46785.000000
558.657654 46966.000000
560.834351 46833.000000
563.009644 46376.000000
565.183533 46452.000000
567.355957 46895.000000
569.526978 46820.000000
571.696533 46465.000000
573.864807 47512.000000
576.031555 46404.000000
578.196838 46434.000000
580.360718 46615.000000
582.523315 47014.000000
584.684387 46784.000000
586.844055 47121.000000
589.002380 46944.000000
591.159180 46705.000000
593.314636 46204.000000
595.468689 47069.000000
597.621399 46638.000000
599.772583 45573.000000
601.922424 45970.000000
604.070923 46184.000000
606.217834 46731.000000
608.363525 46300.000000
610.507813 46279.000000
612.650635 45817.000000
614.791992 46621.000000
616.932129 46303.000000
619.070740 45039.000000
621.208069 47062.000000
623.343933 46087.000000
625.478394 45810.000000
627.611389 45470.000000
629.743225 46011.000000
631.873596 46112.000000
634.002563 45989.000000
636.130066 46243.000000
638.256287 46420.000000
640.380981 45414.000000
642.504456 46259.000000
644.626587 45857.000000
646.747253 45798.000000
648.866577 46072.000000
650.984497 46905.000000
653.101074 46943.000000
655.216248 46170.000000
657.330078 46191.000000
659.442444 46792.000000
661.553589 46506.000000
663.663330 47226.000000
665.771606 46545.000000
667.878723 46307.000000
669.984375 45739.000000
672.088562 46816.000000
674.191528 46925.000000
676.293091 45690.000000
678.393311 47286.000000
680.492126 45943.000000
682.589600 46319.000000
684.685791 45658.000000
686.780518 46372.000000
688.874023 45580.000000
690.966187 45994.000000
693.056824 44582.000000
695.146240 45899.000000
697.234375 46113.000000
699.321045 46568.000000
701.406494 45897.000000
703.490417 47336.000000
705.573120 46631.000000
707.654541 46567.000000
709.734497 44975.000000
711.813232 46243.000000
713.890503 46917.000000
715.966492 45875.000000
718.041199 46346.000000
720.114624 45346.000000
722.186523 46098.000000
724.257263 45018.000000
726.326660 46555.000000
728.394653 45992.000000
730.461304 45984.000000
732.526733 45288.000000
734.590820 46651.000000
736.653564 46154.000000
738.714966 45824.000000
740.775085 45743.000000
742.833801 46228.000000
744.891296 45630.000000
746.947510 45844.000000
749.002319 45625.000000
751.055847 45850.000000
753.107971 44837.000000
755.158875 46637.000000
757.208557 45583.000000
759.256775 45978.000000
761.303772 46140.000000
763.349487 45258.000000
765.393799 46975.000000
767.436829 46621.000000
769.478638 46001.000000
771.519104 45381.000000
773.558167 45957.000000
775.596069 46226.000000
777.632629 46370.000000
779.667969 46933.000000
781.701965 46458.000000
783.734558 45342.000000
785.765991 46848.000000
787.796021 40680.000000
789.824768 46254.000000
791.852356 46001.000000
793.878601 45916.000000
795.903442 46512.000000
797.927185 46769.000000
799.949524 45927.000000
801.970642 46350.000000
803.990417 45556.000000
806.008911 47292.000000
808.026184 45463.000000
810.042053 45422.000000
812.056763 46436.000000
814.070129 45799.000000
816.082275 45873.000000
818.093201 45993.000000
820.102783 45525.000000
822.111145 46796.000000
824.118103 46362.000000
826.123840 45895.000000
828.128357 46258.000000
830.131592 46421.000000
832.133545 45545.000000
834.134216 45936.000000
836.133667 46063.000000
838.131775 45659.000000
840.128784 45066.000000
842.124390 45686.000000
844.118835 45977.000000
846.111938 45842.000000
848.103821 45179.000000
850.094360 46432.000000
852.083618 45236.000000
854.071838 45951.000000
856.058655 46184.000000
858.044250 45567.000000
860.028564 44689.000000
862.011780 45776.000000
863.993591 45674.000000
865.974182 46224.000000
867.953491 44353.000000
869.931641 45013.000000
871.908447 45924.000000
873.883972 46237.000000
875.858459 45968.000000
877.831482 46094.000000
879.803467 46750.000000
881.774109 45707.000000
883.743591 45982.000000
885.711731 46503.000000
887.678711 46776.000000
889.644348 45832.000000
891.608826 46081.000000
893.572083 45933.000000
895.534119 45334.000000
897.494873 45980.000000
899.454407 45395.000000
901.412659 45082.000000
903.369812 45393.000000
905.325806 45683.000000
907.280396 44797.000000
909.233765 45146.000000
911.185974 45127.000000
913.136963 45213.000000
915.086670 44414.000000
917.035217 45162.000000
918.982544 45168.000000
920.928589 45270.000000
922.873352 45283.000000
924.817078 45072.000000
926.759644 45308.000000
928.700928 45647.000000
930.640869 44745.000000
932.579712 45534.000000
934.517273 45728.000000
936.453613 45233.000000
938.388794 45374.000000
940.322693 45141.000000
942.255493 45360.000000
944.187073 44456.000000
946.117493 46139.000000
948.046692 44855.000000
949.974548 44198.000000
951.901367 44700.000000
953.826904 45332.000000
955.751160 45895.000000
957.674316 45346.000000
959.596313 44603.000000
961.517029 44024.000000
963.436584 44852.000000
965.354980 45945.000000
967.272339 44920.000000
969.188232 44882.000000
971.103027 45168.000000
973.016602 45316.000000
974.929016 44850.000000
976.840210 44777.000000
978.750244 45701.000000
980.658997 44928.000000
982.566711 44977.000000
984.473206 44752.000000
986.378479 45414.000000
988.282654 44294.000000
990.185608 44892.000000
992.087341 44178.000000
993.987915 44387.000000
995.887329 44371.000000
997.785522 45580.000000
999.682556 44249.000000
1001.578369 44247.000000
1003.473022 43011.000000
1005.366577 45175.000000
1007.258850 43560.000000
1009.150208 44561.000000
1011.040222 45245.000000
1012.929016 43973.000000
1014.816650 44287.000000
1016.703125 43691.000000
1018.588440 43827.000000
1020.472595 44659.000000
1022.355530 44727.000000
1024.237427 44358.000000
1026.118042 45450.000000
1027.997559 44779.000000
1029.876099 44611.000000
1031.753296 45322.000000
1033.629150 44445.000000
1035.504028 44779.000000
1037.377930 44098.000000
1039.250366 43651.000000
1041.121826 44052.000000
1042.991943 45201.000000
1044.861084 45167.000000
1046.729004 44865.000000
1048.595825 43710.000000
1050.461548 44032.000000
1052.326050 44334.000000
1054.189453 44202.000000
1056.051514 44277.000000
1057.912598 44815.000000
1059.772583 44231.000000
1061.631226 43968.000000
1063.488770 44776.000000
1065.345215 43818.000000
1067.200562 44661.000000
1069.054688 44703.000000
1070.907959 44256.000000
1072.759766 44139.000000
1074.610596 44224.000000
1076.460205 44149.000000
1078.308594 44481.000000
1080.156128 42173.000000
1082.002319 44418.000000
1083.847290 43767.000000
1085.691406 44498.000000
1087.534180 44266.000000
1089.375732 43166.000000
1091.216553 44133.000000
1093.055786 43579.000000
1094.894287 43212.000000
1096.731445 43265.000000
1098.567383 42417.000000
1100.402344 42558.000000
1102.236084 43614.000000
1104.068848 43256.000000
1105.900269 42697.000000
1107.730835 41646.000000
1109.560059 42308.000000
1111.388306 42345.000000
1113.215332 41651.000000
1115.041382 43289.000000
1116.866211 42343.000000
1118.689941 41480.000000
1120.512451 42649.000000
1122.333862 42834.000000
1124.154419 42813.000000
1125.973511 42146.000000
1127.791748 41804.000000
1129.608643 41938.000000
1131.424683 42156.000000
1133.239502 42326.000000
1135.053223 43140.000000
1136.865845 42939.000000
1138.677246 43061.000000
1140.487671 42568.000000
1142.296997 42012.000000
1144.104980 41764.000000
1145.912231 42674.000000
1147.718018 42530.000000
1149.522949 43124.000000
1151.326782 42951.000000
1153.129395 42284.000000
1154.931152 42168.000000
1156.731445 42064.000000
1158.530762 41803.000000
1160.329102 41865.000000
1162.126099 42193.000000
1163.922363 41587.000000
1165.717285 41304.000000
1167.511108 40791.000000
1169.304077 39282.000000
1171.095703 41174.000000
1172.886353 40175.000000
1174.676025 40604.000000
1176.464233 40698.000000
1178.251587 38985.000000
1180.037842 39456.000000
1181.822998 40457.000000
1183.607056 40132.000000
1185.390015 38296.000000
1187.171997 39975.000000
1188.952759 39764.000000
1190.732544 39278.000000
1192.511230 38541.000000
1194.288940 38616.000000
1196.065430 37989.000000
1197.840820 38365.000000
1199.615112 38220.000000
1201.388306 38075.000000
1203.160645 38216.000000
1204.931641 37827.000000
1206.701782 38926.000000
1208.470703 38405.000000
1210.238525 38131.000000
1212.005493 38765.000000
1213.771118 38595.000000
1215.535767 37595.000000
1217.299316 38058.000000
1219.061768 38587.000000
1220.823364 37841.000000
1222.583740 38643.000000
1224.343018 38287.000000
1226.101440 38576.000000
1227.858643 37579.000000
1229.614746 38327.000000
1231.369751 39167.000000
1233.123901 38751.000000
1234.876709 38917.000000
1236.628540 38734.000000
1238.379517 38885.000000
1240.129150 39954.000000
1241.877930 37923.000000
1243.625366 38363.000000
1245.372070 38155.000000
1247.117554 38225.000000
1248.862183 38220.000000
1250.605469 37881.000000
1252.347778 37778.000000
1254.088989 39059.000000
1255.829346 39242.000000
1257.568604 38515.000000
1259.306641 37814.000000
1261.043823 37280.000000
1262.779785 38342.000000
1264.514771 38065.000000
1266.248779 37329.000000
1267.981812 38695.000000
1269.713623 38557.000000
1271.444458 38272.000000
1273.174072 37398.000000
1274.902832 38674.000000
1276.630493 38793.000000
1278.357056 38837.000000
1280.082764 38820.000000
1281.807129 37920.000000
1283.530640 39085.000000
1285.253174 37287.000000
1286.974731 37647.000000
1288.695068 37896.000000
1290.414429 37416.000000
1292.132690 36791.000000
1293.849976 37479.000000
1295.566284 38050.000000
1297.281372 37388.000000
1298.995483 37599.000000
1300.708618 37865.000000
1302.420898 37126.000000
1304.131958 35253.000000
1305.842041 38233.000000
1307.551025 37125.000000
1309.258789 36782.000000
1310.965942 36488.000000
1312.671631 37814.000000
1314.376587 36770.000000
1316.080566 37558.000000
1317.783325 37744.000000
1319.485107 37283.000000
1321.186035 37823.000000
1322.885620 34496.000000
1324.584351 36074.000000
1326.282349 23794.000000
1327.979004 34809.000000
1329.674561 34190.000000
1331.369263 34224.000000
1333.062744 35127.000000
1334.755371 35479.000000
1336.447144 33523.000000
1338.137573 34617.000000
1339.827271 34231.000000
1341.515869 34758.000000
1343.203369 33322.000000
1344.889893 35143.000000
1346.575317 34061.000000
1348.259766 35077.000000
1349.943359 33924.000000
1351.625732 34981.000000
1353.307129 35507.000000
1354.987671 35078.000000
1356.666992 35011.000000
1358.345703 35885.000000
1360.023071 35154.000000
1361.699341 36026.000000
1363.374634 36184.000000
1365.049194 35222.000000
1366.722534 35331.000000
1368.394897 34968.000000
1370.066284 36391.000000
1371.736694 34795.000000
1373.406006 35344.000000
1375.074341 35630.000000
1376.741821 35328.000000
1378.408203 34979.000000
1380.073608 34981.000000
1381.738037 35031.000000
1383.401245 34747.000000
1385.063843 34933.000000
1386.725098 34314.000000
1388.385498 34042.000000
1390.044800 34130.000000
1391.703125 34010.000000
1393.360718 33723.000000
1395.017090 33947.000000
1396.672607 33396.000000
1398.326904 33908.000000
1399.980347 34228.000000
1401.632690 33822.000000
1403.284302 33526.000000
1404.934692 32544.000000
1406.583984 33108.000000
1408.232544 31539.000000
1409.880005 30956.000000
1411.526489 32225.000000
1413.172119 31968.000000
1414.816772 32148.000000
1416.460205 31169.000000
1418.102783 30992.000000
1419.744263 31039.000000
1421.384888 31328.000000
1423.024536 31203.000000
1424.663086 31538.000000
1426.300781 30881.000000
1427.937378 31075.000000
1429.572998 31236.000000
1431.207886 30809.000000
1432.841675 31273.000000
1434.474365 31029.000000
1436.106079 31574.000000
1437.736938 31281.000000
1439.366699 31485.000000
1440.995361 29886.000000
1442.623413 31705.000000
1444.250366 31485.000000
1445.876099 31714.000000
1447.501221 31883.000000
1449.125244 31844.000000
1450.748291 32518.000000
1452.370361 32730.000000
1453.991333 31812.000000
1455.611328 32766.000000
1457.230591 32203.000000
1458.848511 33408.000000
1460.465820 33245.500000
1462.082153 33083.000000
1463.697266 30449.000000
1465.311523 31315.000000
1466.924927 32280.000000
1468.537231 31914.000000
1470.148682 31333.000000
1471.759277 31155.000000
1473.368652 31407.000000
1474.977051 31308.000000
1476.584595 30989.000000
1478.191162 30346.000000
1479.796997 31477.000000
1481.401611 30265.000000
1483.005371 30675.000000
1484.607910 29210.000000
1486.209839 30141.000000
1487.810547 29954.000000
1489.410522 29926.000000
1491.009399 29449.000000
1492.607422 29432.000000
1494.204346 29510.000000
1495.800415 29933.000000
1497.395508 30405.000000
1498.989624 30862.000000
1500.583008 29824.000000
1502.175293 30700.000000
1503.766357 29915.000000
1505.356934 29305.000000
1506.946167 29488.000000
1508.534790 29569.000000
1510.122314 29088.000000
1511.708740 28687.000000
1513.294434 29210.000000
1514.879028 28652.000000
1516.462769 28946.000000
1518.045410 28884.000000
1519.627319 28453.000000
1521.208130 28143.000000
1522.788208 28507.000000
1524.367065 28077.000000
1525.945068 27688.000000
1527.522339 27687.000000
1529.098389 28063.000000
1530.673706 27707.000000
1532.247925 27385.000000
1533.821411 28151.000000
1535.393677 27698.000000
1536.965210 27342.000000
1538.535767 27253.000000
1540.105469 27218.000000
1541.673950 27806.000000
1543.241699 26768.000000
1544.808594 27533.000000
1546.374268 26354.000000
1547.939209 27179.000000
1549.503052 27817.000000
1551.066284 25689.000000
1552.628174 26661.000000
1554.189453 26769.000000
1555.749634 26991.000000
1557.309082 26913.000000
1558.867432 26902.000000
1560.425049 26546.000000
1561.981567 25990.000000
1563.536865 26825.000000
1565.091553 26334.000000
1566.645508 26989.000000
1568.198486 26360.000000
1569.750122 26857.000000
1571.301025 26734.000000
1572.851196 26441.000000
1574.400391 26399.000000
1575.948242 26848.000000
1577.495605 27130.000000
1579.041992 27031.000000
1580.587524 27750.000000
1582.132080 26566.000000
1583.675415 26860.000000
1585.218140 26576.000000
1586.760010 26653.000000
1588.300781 26331.000000
1589.840576 27093.000000
1591.379639 26188.000000
1592.917603 26848.000000
1594.455078 26462.000000
1595.991211 26765.000000
1597.526245 26074.000000
1599.060791 26252.000000
1600.594360 26367.000000
1602.127075 26443.000000
1603.658203 26322.000000
1605.189087 26200.000000
1606.719116 26569.000000
1608.247925 26265.000000
1609.775635 26422.000000
1611.302734 26624.000000
1612.829102 26824.000000
1614.354492 26498.000000
1615.879028 27066.000000
1617.402222 27241.000000
1618.924683 27748.000000
1620.446411 27260.000000
1621.967285 27323.000000
1623.486694 27047.000000
1625.005615 26771.000000
1626.523804 26100.000000
1628.041138 26197.000000
1629.557373 25827.000000
1631.072266 25224.000000
1632.586670 25315.000000
1634.100342 25908.000000
1635.612915 25058.000000
1637.124268 25661.000000
1638.635254 25097.000000
1640.145142 25247.000000
1641.654175 25289.000000
1643.161865 25491.000000
1644.669189 25238.000000
1646.175659 24494.000000
1647.681152 25105.000000
1649.185791 24514.000000
1650.688965 24822.000000
1652.191528 24415.000000
1653.693726 24628.000000
1655.194580 24327.000000
1656.694336 23527.000000
1658.193237 24228.000000
1659.691772 23930.000000
1661.189087 23899.000000
1662.685669 24043.000000
1664.180664 23774.000000
1665.675415 24212.000000
1667.169312 26228.000000
1668.662231 27342.000000
1670.153809 13373.000000
1671.644897 22948.000000
1673.135376 22828.000000
1674.624756 22868.000000
1676.112671 22435.000000
1677.600342 22549.000000
1679.087036 23001.000000
1680.572876 22908.000000
1682.057861 22631.000000
1683.541382 22169.000000
1685.024658 22013.000000
1686.507080 22205.000000
1687.988403 22187.000000
1689.468262 22014.000000
1690.947876 22135.000000
1692.426758 21930.000000
1693.904663 22085.000000
1695.381592 22007.000000
1696.857300 21980.000000
1698.332642 21906.000000
1699.806763 21792.000000
1701.280273 21982.000000
1702.752319 22114.000000
1704.224121 21880.000000
1705.694946 22024.000000
1707.164917 21621.000000
1708.633545 22036.000000
1710.101685 22040.000000
1711.569092 21837.000000
1713.035400 22041.000000
1714.501099 21985.000000
1715.965088 21972.000000
1717.428955 22081.000000
1718.891968 21666.000000
1720.354004 21941.000000
1721.814819 21710.000000
1723.275024 22015.000000
1724.734497 21914.000000
1726.193115 21908.000000
1727.650757 21862.000000
1729.107056 21768.000000
1730.563110 21803.000000
1732.018188 21747.000000
1733.472290 21784.000000
1734.925171 21609.000000
1736.377808 21743.000000
1737.829346 21474.000000
1739.280151 21385.000000
1740.729980 21303.000000
1742.178467 21390.000000
1743.626587 21090.000000
1745.073853 21121.000000
1746.520386 20966.000000
1747.965332 20789.000000
1749.410034 20872.000000
1750.853882 21001.000000
1752.296875 21217.000000
1753.738403 22133.000000
1755.179688 24939.000000
1756.620117 13984.000000
1758.059570 20457.000000
1759.498047 20458.000000
1760.935547 20474.000000
1762.372559 19959.000000
1763.808594 20236.000000
1765.243774 20002.000000
1766.677490 20164.000000
1768.111084 20407.000000
1769.543701 20090.000000
1770.975464 20453.000000
1772.406372 20408.000000
1773.836060 20128.000000
1775.265015 19726.000000
1776.693481 19435.000000
1778.120972 18586.000000
1779.547119 17968.000000
1780.973022 19244.000000
1782.397827 19124.000000
1783.822021 19089.000000
1785.244751 18848.000000
1786.666992 18837.000000
1788.088501 18972.000000
1789.509277 18963.000000
1790.929077 18722.000000
1792.347534 18796.000000
1793.765503 18518.000000
1795.182861 18600.000000
1796.599365 18546.000000
1798.014404 18385.000000
1799.429077 18300.000000
1800.843140 18428.000000
1802.255981 18545.000000
1803.668213 18437.000000
1805.079102 18274.000000
1806.489502 18124.000000
1807.899170 18353.000000
1809.307861 18166.000000
1810.715454 18422.000000
1812.122559 18180.000000
1813.528809 18284.000000
1814.934082 18286.000000
1816.338257 18440.000000
1817.742065 18536.000000
1819.144897 18457.000000
1820.546875 18460.000000
1821.948242 18237.000000
1823.348145 18309.000000
1824.747437 18381.000000
1826.146240 18303.000000
1827.544189 18165.000000
1828.940796 18099.000000
1830.336792 18089.000000
1831.732056 18307.000000
1833.126709 17938.000000
1834.520386 18051.000000
1835.912720 18145.000000
1837.304565 17915.000000
1838.695801 17958.000000
1840.086060 17969.000000
1841.475098 17791.000000
1842.863770 18003.000000
1844.251465 17945.000000
1845.638428 17943.000000
1847.024048 17797.000000
1848.409424 17717.000000
1849.793945 17627.000000
1851.177734 17673.000000
1852.560425 17521.000000
1853.941895 17326.000000
1855.322876 17115.000000
1856.703369 17174.000000
1858.082886 17163.000000
1859.460938 17142.000000
1860.838867 17075.000000
1862.215820 17034.000000
1863.592041 16825.000000
1864.967407 16774.000000
1866.341309 16637.000000
1867.715088 16699.000000
1869.088013 16537.000000
1870.459839 16426.000000
1871.830688 16408.000000
1873.201172 16315.000000
1874.570557 16309.000000
1875.939453 16207.000000
1877.306763 15996.000000
1878.673950 16100.000000
1880.040161 15942.000000
1881.405640 15833.000000
1882.770386 15969.000000
1884.133545 15883.000000
1885.496582 15808.000000
1886.858765 15768.000000
1888.220093 15669.000000
1889.580078 15695.000000
1890.939697 15474.000000
1892.298706 15796.000000
1893.656738 15741.000000
1895.013916 15455.000000
1896.369873 15494.000000
1897.725586 15452.000000
1899.080322 15513.000000
1900.434204 15477.000000
1901.786987 15543.000000
1903.139282 15572.000000
1904.490845 15545.000000
1905.841553 15499.000000
1907.191040 15671.000000
1908.540039 15598.000000
1909.888184 15552.000000
1911.235718 15559.000000
1912.582520 15318.000000
1913.927734 15478.000000
1915.272705 15580.000000
1916.616943 15629.000000
1917.960327 15467.000000
1919.302368 15440.000000
1920.644165 15493.000000
1921.985107 15392.000000
1923.325317 15541.000000
1924.664551 15489.000000
1926.002808 15344.000000
1927.340454 15474.000000
1928.677368 15276.000000
1930.013428 15278.000000
1931.348267 15426.000000
1932.682739 15211.000000
1934.016479 14985.000000
1935.349365 15127.000000
1936.680786 15087.000000
1938.012329 14968.000000
1939.342529 14910.000000
1940.672241 15030.000000
1942.001099 14906.000000
1943.328735 15034.000000
1944.655884 14951.000000
1945.982300 15032.000000
1947.307983 14864.000000
1948.632324 14853.000000
1949.956421 14893.000000
1951.279663 14803.000000
1952.602173 14727.000000
1953.923584 14824.000000
1955.244019 14621.000000
1956.563843 14658.000000
1957.883301 14585.000000
1959.201782 14485.000000
1960.518921 14392.000000
1961.835693 14351.000000
1963.151733 14225.000000
1964.467041 14298.000000
1965.780884 14294.000000
1967.094482 14260.000000
1968.407349 14089.000000
1969.719360 14155.000000
1971.030762 14148.000000
1972.340820 14093.000000
1973.650391 13963.000000
1974.959229 13854.000000
1976.267456 13765.000000
1977.574341 13692.000000
1978.880615 13542.000000
1980.186523 13649.000000
1981.491211 13841.000000
1982.795410 13717.000000
1984.098389 13644.000000
1985.401001 13688.000000
1986.702637 13541.000000
1988.003662 13359.000000
1989.303101 13178.000000
1990.602661 13148.000000
1991.901123 13108.000000
1993.199097 13070.000000
1994.495483 13115.000000
1995.791870 12943.000000
1997.087280 12936.000000
1998.381958 12831.000000
1999.675781 12807.000000
2000.968384 12857.000000
2002.260498 12754.000000
2003.552124 12787.000000
2004.843018 12594.000000
2006.132324 12883.000000
2007.421387 12571.000000
2008.709717 12665.000000
2009.997314 12695.000000
2011.284058 12563.000000
2012.569702 12578.000000
2013.854980 12418.000000
2015.139282 12570.000000
2016.422974 12474.000000
2017.705322 12310.000000
2018.987305 12335.000000
2020.268799 12445.000000
2021.549316 12332.000000
2022.829102 12231.000000
2024.107788 12311.000000
2025.385742 12298.000000
2026.663208 12310.000000
2027.940063 12444.000000
2029.215210 12486.000000
2030.490479 12571.000000
2031.764771 12575.000000
2033.038086 12503.000000
2034.310547 12547.000000
2035.582642 12672.000000
2036.853638 12431.000000
2038.124390 12370.000000
2039.393799 12527.000000
2040.662109 12614.000000
2041.930420 12527.000000
2043.197754 12362.000000
2044.464355 12464.000000
2045.729736 12305.000000
2046.994507 12008.000000
2048.259033 12198.000000
2049.522217 12137.000000
2050.785156 12221.000000
2052.046143 12093.000000
2053.307617 12097.000000
2054.567871 12036.000000
2055.827393 12034.000000
2057.086182 11943.000000
2058.343994 11930.000000
2059.601318 12034.000000
2060.857910 11905.000000
2062.113037 11829.000000
2063.368164 11809.000000
2064.622314 11900.000000
2065.875732 11884.000000
2067.128418 11701.000000
2068.379883 11733.000000
2069.631104 11758.000000
2070.881592 11756.000000
2072.131348 11843.000000
2073.379639 12093.000000
2074.627930 11550.000000
2075.875244 11465.000000
2077.121826 11472.000000
2078.367676 11282.000000
2079.612305 11237.000000
2080.856445 11193.000000
2082.100098 11317.000000
2083.342773 11340.000000
2084.584229 11148.000000
2085.825439 11127.000000
2087.066162 11202.000000
2088.305908 11007.000000
2089.544434 11045.000000
2090.782471 11028.000000
2092.019775 10974.000000
2093.256836 10964.000000
2094.492432 10785.000000
2095.727295 10922.000000
2096.961914 11036.000000
2098.195557 11016.000000
2099.428223 10857.000000
2100.660156 10702.000000
2101.891602 10928.000000
2103.122070 10632.000000
2104.351807 10721.000000
2105.581299 10598.000000
2106.808838 10567.000000
2108.036621 10385.000000
2109.263672 10272.000000
2110.489746 10502.000000
2111.714355 10420.000000
2112.939209 10381.000000
2114.162842 10314.000000
2115.385986 10424.000000
2116.607910 10284.000000
2117.829590 10380.000000
2119.050293 10415.000000
2120.270264 10447.000000
2121.489746 10432.000000
2122.707764 10529.000000
2123.925781 10419.000000
2125.142822 10361.000000
2126.359375 10513.000000
2127.574219 10477.000000
2128.789307 10529.000000
2130.003418 10470.000000
2131.216797 10285.000000
2132.429443 10111.000000
2133.640625 10374.000000
2134.852051 10318.000000
2136.062256 10027.000000
2137.271973 10265.000000
2138.480225 10209.000000
2139.688477 10343.000000
2140.895996 10155.000000
2142.102295 10261.000000
2143.307861 10114.000000
2144.513184 10129.000000
2145.717529 10177.000000
2146.921143 10058.000000
2148.124268 10069.000000
2149.325928 10152.000000
2150.527344 10131.000000
2151.728027 9997.000000
2152.927979 10003.000000
2154.126709 9998.000000
2155.325195 9928.000000
2156.523193 9974.000000
2157.720215 9741.000000
2158.916504 9673.000000
2160.111572 9656.000000
2161.306396 9628.000000
2162.500488 9492.000000
2163.693604 9518.000000
2164.885742 9462.000000
2166.077637 9445.000000
2167.268799 9285.000000
2168.458984 9245.000000
2169.648438 9228.000000
2170.837402 9196.000000
2172.025391 8994.000000
2173.213135 9034.000000
2174.399414 8959.000000
2175.584961 8873.000000
2176.770264 8836.000000
2177.955078 8904.000000
2179.138672 8779.000000
2180.321533 8827.000000
2181.503418 8915.000000
2182.685059 8876.000000
2183.866211 8895.000000
2185.046143 8871.000000
2186.225098 8882.000000
2187.403564 8670.000000
2188.581787 8536.000000
2189.758789 8658.000000
2190.934814 8622.000000
2192.110596 8780.000000
2193.285889 8772.000000
2194.459717 8688.000000
2195.633057 8725.000000
2196.806152 8721.000000
2197.978027 8699.000000
2199.149414 8835.000000
2200.320313 8807.000000
2201.489502 8651.000000
2202.658691 8771.000000
2203.827393 8870.000000
2204.995117 8710.000000
2206.161865 8747.000000
2207.327881 8774.000000
2208.493408 8749.000000
2209.658691 8708.000000
2210.822510 8645.000000
2211.985840 8653.000000
2213.147949 8495.000000
2214.310303 8430.000000
2215.471436 8515.000000
2216.631592 8453.000000
2217.791260 8522.000000
2218.950684 8515.000000
2220.108887 8435.000000
2221.266113 8422.000000
2222.423096 8447.000000
2223.579346 8433.000000
2224.734863 8265.000000
2225.889648 8286.000000
2227.043457 8228.000000
2228.196289 8258.000000
2229.349609 8169.000000
2230.500977 8165.000000
2231.652100 8121.000000
2232.802490 8125.000000
2233.952393 7971.000000
2235.101318 8074.000000
2236.249756 8095.000000
2237.396729 8006.000000
2238.543945 8090.000000
2239.689941 7862.000000
2240.835693 7911.000000
2241.979736 7817.000000
2243.124023 7748.000000
2244.267334 7656.000000
2245.409912 7628.000000
2246.551514 7562.000000
2247.692871 7579.000000
2248.833252 7519.000000
2249.972900 7384.000000
2251.112061 7588.000000
2252.250000 7520.000000
2253.387939 7365.000000
2254.524902 7438.000000
2255.661133 7364.000000
2256.796387 7303.000000
2257.930908 7259.000000
2259.065186 7381.000000
2260.198975 7576.000000
2261.331299 7712.000000
2262.463135 7370.000000
2263.594482 7302.000000
2264.724854 7069.000000
2265.854980 7020.000000
2266.983887 7152.000000
2268.112305 7031.000000
2269.240234 7059.000000
2270.367188 6979.000000
2271.493408 7019.000000
2272.618652 7047.000000
2273.743896 7147.000000
2274.868408 7007.000000
2275.991699 7082.000000
2277.114258 6946.000000
2278.236328 6995.000000
2279.357910 6990.000000
2280.478760 6854.000000
2281.598389 7040.000000
2282.717529 7056.000000
2283.836426 6778.000000
2284.954590 6677.000000
2286.071777 6725.000000
2287.187988 6807.000000
2288.303955 6787.000000
2289.419189 6819.000000
2290.533691 6893.000000
2291.646973 6995.000000
2292.760254 6966.000000
2293.872803 6997.000000
2294.984619 6845.000000
2296.095703 6845.000000
2297.205566 6974.000000
2298.314941 6900.000000
2299.424072 7026.000000
2300.532227 6925.000000
2301.639404 6793.000000
2302.746338 6869.000000
2303.852539 6877.000000
2304.958252 6829.000000
2306.062500 6738.000000
2307.166504 6773.000000
2308.270020 6811.000000
2309.373047 6670.000000
2310.474854 6643.000000
2311.575928 6661.000000
2312.676514 6613.000000
2313.776611 6602.000000
2314.875977 6564.000000
2315.973877 6642.000000
2317.072266 6569.000000
2318.169189 6451.000000
2319.265869 6381.000000
2320.362061 6535.000000
2321.456543 6544.000000
2322.551025 6258.000000
2323.644775 6350.000000
2324.738281 6210.000000
2325.830078 6450.000000
2326.921875 6272.000000
2328.012939 6365.000000
2329.103271 6423.000000
2330.192627 6429.000000
2331.281982 6408.000000
2332.370117 6272.000000
2333.457764 6263.000000
2334.545166 6185.000000
2335.630859 6213.000000
2336.716309 6039.000000
2337.801514 6172.000000
2338.885742 6074.000000
2339.968994 6102.000000
2341.052002 6002.000000
2342.134033 6390.000000
2343.215820 6016.000000
2344.296875 5849.000000
2345.376709 5861.000000
2346.456055 5901.000000
2347.534912 5884.000000
2348.613281 5815.000000
2349.690186 5961.000000
2350.766846 5762.000000
2351.843262 5767.000000
2352.918701 5835.000000
2353.993164 5814.000000
2355.067383 5674.000000
2356.140869 5712.000000
2357.213867 5665.000000
2358.285645 5658.000000
2359.357178 5708.000000
2360.427734 5500.000000
2361.498047 5491.000000
2362.567383 5563.000000
2363.635742 5565.000000
2364.703857 5449.000000
2365.771240 5483.000000
2366.838135 5443.000000
2367.904297 5373.000000
2368.969238 5405.000000
2370.034180 5471.000000
2371.098389 5342.000000
2372.161865 5270.000000
2373.224121 5422.000000
2374.286377 5370.000000
2375.347656 5239.000000
2376.408691 5251.000000
2377.468506 5392.000000
2378.527588 5260.000000
2379.586670 5324.000000
2380.644775 5242.000000
2381.702148 5290.000000
2382.758545 5168.000000
2383.814697 5139.000000
2384.870361 5284.000000
2385.925293 5304.000000
2386.978760 5237.000000
2388.032471 5079.000000
2389.085205 5121.000000
2390.137451 5224.000000
2391.188965 5244.000000
2392.239502 5214.000000
2393.289795 5207.000000
2394.339111 5267.000000
2395.388428 5211.000000
2396.436279 5180.000000
2397.483643 5079.000000
2398.530762 5171.000000
2399.576904 5126.000000
2400.622314 5181.000000
2401.666992 5068.000000
2402.711670 5041.000000
2403.754883 4975.000000
2404.798096 4992.000000
2405.839844 5097.000000
2406.881836 5137.000000
2407.923096 5146.000000
2408.963379 5133.000000
2410.002930 5128.000000
2411.041504 5046.000000
2412.080322 5019.000000
2413.117920 5047.000000
2414.155273 4985.000000
2415.191406 4996.000000
2416.227295 4975.000000
2417.262451 5015.000000
2418.297119 5030.000000
2419.330322 4982.000000
2420.363770 5040.000000
2421.396240 4939.000000
2422.428467 4890.000000
2423.459229 4911.000000
2424.489990 5000.000000
2425.520264 4896.000000
2426.549316 4838.000000
2427.578369 4848.000000
2428.605713 4851.000000
2429.633545 4837.000000
2430.660156 4760.000000
2431.686523 4776.000000
2432.711426 4780.000000
2433.736572 4742.000000
2434.760742 4595.000000
2435.784668 4656.000000
2436.807373 4600.000000
2437.829346 4632.000000
2438.851074 4589.000000
2439.872070 4637.000000
2440.892578 4568.000000
2441.911865 4388.000000
2442.931152 4400.000000
2443.949463 4486.000000
2444.967529 4394.000000
2445.984131 4464.000000
2447.000732 4469.000000
2448.016602 4420.000000
2449.032471 4417.000000
2450.046875 4429.000000
2451.060547 4408.000000
2452.073730 4291.000000
2453.086670 4385.000000
2454.098877 4287.000000
2455.110107 4238.000000
2456.121094 4285.000000
2457.131348 4245.000000
2458.141113 4226.000000
2459.149902 4223.000000
2460.157959 4188.000000
2461.166016 4166.000000
2462.172852 4047.000000
2463.179443 4208.000000
2464.184814 4113.000000
2465.189941 4200.000000
2466.194824 4060.000000
2467.198486 4095.000000
2468.201904 4076.000000
2469.204346 4130.000000
2470.206543 4201.000000
2471.208252 4044.000000
2472.208984 4039.000000
2473.208740 4023.000000
2474.208496 4071.000000
2475.207275 4062.000000
2476.205566 4015.000000
2477.202881 4026.000000
2478.199951 4055.000000
2479.197021 3934.000000
2480.192627 4020.000000
2481.188232 3966.000000
2482.182129 3949.000000
2483.176025 3990.000000
2484.169434 4053.000000
2485.162354 3943.000000
2486.154297 3876.000000
2487.145508 3882.000000
2488.136475 3917.000000
2489.126953 3897.000000
2490.116455 4022.000000
2491.105225 4021.000000
2492.093994 4072.000000
2493.081787 3946.000000
2494.068359 4039.000000
2495.054932 3991.000000
2496.041016 3894.000000
2497.026367 3888.000000
2498.010742 3936.000000
2498.994873 3913.000000
2499.979004 3918.000000
2500.961670 3923.000000
2501.943848 3773.000000
2502.925537 3765.000000
2503.906494 4031.000000
2504.886963 3827.000000
2505.867188 4019.000000
2506.845947 3798.000000
2507.824463 3823.000000
2508.802490 3862.000000
2509.780029 3669.000000
2510.756592 3815.000000
2511.732910 3828.000000
2512.708496 3742.000000
2513.683594 3772.000000
2514.658203 3698.000000
2515.631592 3741.000000
2516.604736 3696.000000
2517.577637 3684.000000
2518.549561 3600.000000
2519.520752 3643.000000
2520.491455 3658.000000
2521.461914 3468.000000
2522.431641 3599.000000
2523.400391 3591.000000
2524.368408 3630.000000
2525.336426 3580.000000
2526.303467 3532.000000
2527.270264 3493.000000
2528.235840 3495.000000
2529.201416 3509.000000
2530.166260 3468.000000
2531.130615 3445.000000
2532.093750 3450.000000
2533.057129 3562.000000
2534.019531 3370.000000
2534.981689 3513.000000
2535.942627 3494.000000
2536.902832 3480.000000
2537.863281 3363.000000
2538.822754 3424.000000
2539.781494 3561.000000
2540.739258 3347.000000
2541.697266 3328.000000
2542.654541 3303.000000
2543.610840 3304.000000
2544.566895 3366.000000
2545.521729 3313.000000
2546.476807 3219.000000
2547.431152 3257.000000
2548.384766 3437.000000
2549.337402 3047.000000
2550.289795 3167.000000
2551.241699 3186.000000
2552.192871 3266.000000
2553.143311 3222.000000
2554.093262 3274.000000
2555.042969 3165.000000
2555.991943 3212.000000
2556.940430 3160.000000
2557.887695 3225.000000
2558.834961 3177.000000
2559.781494 3114.000000
2560.727539 3117.000000
2561.672607 3180.000000
2562.617432 3098.000000
2563.561768 3098.000000
2564.505615 3061.000000
2565.448975 3058.000000
2566.390869 3019.000000
2567.333008 3069.000000
2568.274414 3048.000000
2569.215088 3078.000000
2570.155029 3136.000000
2571.094971 2981.000000
2572.033936 3031.000000
2572.972656 2945.000000
2573.910400 3064.000000
2574.847900 2975.000000
2575.784668 3081.000000
2576.720703 3058.000000
2577.656250 3069.000000
2578.591064 3052.000000
2579.525879 2978.000000
2580.459717 2959.000000
2581.393066 3009.000000
2582.325684 2925.000000
2583.258057 3033.000000
2584.189697 2944.000000
2585.120850 3003.000000
2586.051514 2903.000000
2586.980957 2998.000000
2587.910400 2998.000000
2588.839355 2953.000000
2589.768066 3091.000000
2590.695068 2947.000000
2591.622314 2997.000000
2592.549072 3021.000000
2593.475098 2917.000000
2594.400879 2926.000000
2595.325439 2934.000000
2596.249756 2926.000000
2597.173584 2906.000000
2598.096924 2897.000000
2599.019287 2869.000000
2599.941406 2872.000000
2600.863037 2824.000000
2601.783936 2941.000000
2602.704102 2942.000000
2603.624023 2863.000000
2604.543457 2864.000000
2605.462646 2779.000000
2606.380859 2862.000000
2607.297852 2768.000000
2608.215088 2798.000000
2609.132080 2785.000000
2610.048096 2866.000000
2610.962891 2692.000000
2611.878174 2824.000000
2612.792725 2683.000000
2613.706299 2725.000000
2614.619873 2765.000000
2615.532227 2704.000000
2616.444580 2744.000000
2617.355957 2609.000000
2618.267090 2750.000000
2619.177490 2906.000000
2620.087646 2667.000000
2620.997070 2705.000000
2621.906006 2685.000000
2622.813965 2577.000000
2623.722168 2717.000000
2624.629395 2566.000000
2625.536133 2603.000000
2626.442139 2626.000000
2627.347900 2662.000000
2628.252930 2742.000000
2629.157715 2584.000000
2630.061768 2574.000000
2630.964844 2556.000000
2631.867920 2625.000000
2632.770020 2532.000000
2633.672119 2512.000000
2634.573975 2497.000000
2635.474121 2495.000000
2636.374512 2375.000000
2637.274170 2472.000000
2638.173584 2497.000000
2639.071533 2451.000000
2639.969971 2517.000000
2640.867920 2429.000000
2641.765137 2511.000000
2642.661133 2534.000000
2643.557129 2314.000000
2644.452881 2442.000000
2645.347900 2379.000000
2646.242676 2501.000000
2647.135986 2352.000000
2648.029297 2392.000000
2648.922363 2375.000000
2649.815186 2370.000000
2650.706299 2234.000000
2651.597656 2359.000000
2652.488525 2356.000000
2653.378662 2194.000000
2654.268555 2248.000000
2655.157227 2356.000000
2656.046143 2310.000000
2656.934570 2335.000000
2657.822021 2229.000000
2658.708496 2313.000000
2659.595459 2239.000000
2660.481689 2268.000000
2661.367432 2222.000000
2662.251953 2294.000000
2663.136475 2237.000000
2664.020752 2313.000000
2664.904297 2336.000000
2665.787354 2181.000000
2666.669678 2183.000000
2667.551514 2299.000000
2668.432617 2154.000000
2669.313965 2181.000000
2670.193848 2267.000000
2671.073975 2287.000000
2671.953369 2291.000000
2672.832764 2263.000000
2673.711426 2290.000000
2674.588379 2273.000000
2675.466064 2179.000000
2676.343018 2266.000000
2677.219238 2183.000000
2678.094971 2237.000000
2678.969971 2233.000000
2679.845215 2194.000000
2680.719482 2140.000000
2681.593262 2170.000000
2682.466309 2186.000000
2683.339111 2118.000000
2684.211670 2224.000000
2685.083496 2175.000000
2685.954590 2195.000000
2686.825439 2140.000000
2687.695801 2100.000000
2688.565918 2092.000000
2689.434326 2167.000000
2690.303467 2114.000000
2691.171875 2045.000000
2692.040039 2044.000000
2692.907471 2197.000000
2693.773682 2114.000000
2694.640381 1999.000000
2695.506104 2073.000000
2696.371826 2083.000000
2697.236084 2074.000000
2698.101074 2095.000000
2698.964600 2030.000000
2699.828369 2033.000000
2700.690674 2002.000000
2701.553467 1968.000000
2702.415283 2041.000000
2703.276611 2024.000000
2704.137939 2066.000000
2704.998047 1995.000000
2705.858154 2068.000000
2706.717773 2003.000000
2707.577148 1948.000000
2708.434814 1988.000000
2709.292725 2017.000000
2710.151123 1904.000000
2711.008301 2035.000000
2711.864746 1891.000000
2712.720703 1897.000000
2713.576660 1931.000000
2714.431885 1864.000000
2715.286377 1899.000000
2716.140381 1858.000000
2716.994385 1863.000000
2717.847412 1942.000000
2718.700684 1856.000000
2719.552246 1978.000000
2720.404297 1792.000000
2721.256104 1873.000000
2722.106689 1880.000000
2722.957275 1880.000000
2723.807373 1900.000000
2724.656738 1812.000000
2725.506104 1814.000000
2726.354248 1987.000000
2727.201904 1856.000000
2728.050049 1881.000000
2728.896973 1955.000000
2729.744385 1856.000000
2730.590332 1754.000000
2731.435547 1843.000000
2732.281250 1849.000000
2733.125977 1799.000000
2733.970703 1816.000000
2734.814209 1828.000000
2735.657959 1881.000000
2736.500977 1749.000000
2737.343506 1786.000000
2738.185059 1852.000000
2739.027100 1801.000000
2739.868164 1758.000000
2740.708984 1806.000000
2741.549561 1809.000000
2742.388916 1855.000000
2743.228271 1750.000000
2744.067627 1803.000000
2744.905762 1823.000000
2745.743408 1822.000000
2746.581055 1793.000000
2747.418213 1772.000000
2748.255127 1834.000000
2749.091553 1846.000000
2749.926758 1759.000000
2750.762207 1754.000000
2751.597168 1708.000000
2752.431396 1696.000000
2753.265381 1819.000000
2754.098877 1695.000000
2754.932373 1752.000000
2755.764893 1869.000000
2756.596924 1576.000000
2757.428467 1739.000000
2758.260010 1723.000000
2759.090576 1748.000000
2759.921387 1610.000000
2760.750977 1769.000000
2761.580566 1718.000000
2762.409912 1679.000000
2763.238525 1684.000000
2764.066650 1688.000000
2764.894287 1614.000000
2765.721924 1693.000000
2766.549072 1710.000000
2767.375488 1657.000000
2768.201416 1641.000000
2769.026855 1600.000000
2769.852051 1553.000000
2770.677246 1548.000000
2771.501221 1630.000000
2772.325195 1653.000000
2773.149170 1504.000000
2773.971924 1581.000000
2774.794922 1488.000000
2775.616699 1552.000000
2776.438477 1562.000000
2777.260254 1500.000000
2778.081055 1451.000000
2778.901123 1575.000000
2779.721436 1448.000000
2780.541260 1505.000000
2781.361084 1484.000000
2782.178955 1506.000000
2782.998047 1474.000000
2783.815918 1496.000000
2784.633545 1550.000000
2785.450684 1564.000000
2786.267334 1493.000000
2787.083740 1492.000000
2787.899658 1371.000000
2788.715332 1476.000000
2789.530029 1416.000000
2790.345215 1546.000000
2791.159668 1424.000000
2791.973633 1386.000000
2792.787354 1535.000000
2793.599854 1432.000000
2794.412598 1367.000000
2795.224854 1465.000000
2796.036621 1484.000000
2796.847656 1439.000000
2797.659424 1485.000000
2798.469971 1459.000000
2799.280518 1406.000000
2800.089600 1473.000000
2800.899414 1358.000000
2801.708496 1446.000000
2802.517334 1459.000000
2803.325684 1416.000000
2804.133057 1306.000000
2804.940918 1399.000000
2805.748047 1408.000000
2806.554932 1395.000000
2807.360596 1335.000000
2808.166748 1397.000000
2808.972168 1395.000000
2809.777588 1375.000000
2810.582275 1359.000000
2811.385986 1357.000000
2812.190186 1401.000000
2812.993896 1394.000000
2813.797363 1401.000000
2814.599365 1382.000000
2815.402100 1313.000000
2816.204102 1397.000000
2817.005859 1421.000000
2817.807129 1426.000000
2818.607910 1456.000000
2819.408203 1381.000000
2820.208740 1413.000000
2821.008301 1422.000000
2821.807373 1399.000000
2822.606445 1316.000000
2823.405273 1422.000000
2824.203613 1397.000000
2825.000977 1305.000000
2825.798584 1310.000000
2826.595459 1288.000000
2827.392578 1336.000000
2828.188965 1403.000000
2828.984619 1393.000000
2829.780273 1413.000000
2830.575684 1292.000000
2831.370605 1364.000000
2832.164795 1318.000000
2832.958984 1302.000000
2833.752930 1329.000000
2834.546387 1344.000000
2835.339111 1345.000000
2836.131592 1276.000000
2836.924072 1315.000000
2837.716309 1433.000000
2838.508057 1308.000000
2839.298828 1294.000000
2840.089600 1324.000000
2840.880615 1322.000000
2841.670654 1421.000000
2842.460205 1280.000000
2843.250000 1244.000000
2844.038818 1324.000000
2844.827637 1287.000000
2845.616455 1290.000000
2846.404297 1272.000000
2847.191650 1153.000000
2847.979248 1215.000000
2848.766357 1283.000000
2849.552734 1236.000000
2850.339111 1255.000000
2851.125244 1303.000000
2851.910889 1178.000000
2852.695557 1323.000000
2853.480713 1192.000000
2854.265625 1294.000000
2855.049805 1254.000000
2855.833984 1300.000000
2856.616943 1217.000000
2857.400146 1211.000000
2858.183105 1300.000000
2858.965576 1299.000000
2859.747803 1283.000000
2860.529541 1278.000000
2861.311035 1170.000000
2862.092773 1177.000000
2862.873779 1182.000000
2863.654053 1338.000000
2864.434082 1208.000000
2865.214111 1160.000000
2865.993896 1262.000000
2866.772705 1371.000000
2867.551758 1283.000000
2868.330322 1267.000000
2869.108643 1371.000000
2869.886475 1232.000000
2870.664063 1242.000000
2871.441406 1395.000000
2872.218506 1403.000000
2872.995117 1414.000000
2873.771240 1409.000000
2874.547363 1441.000000
2875.322998 1342.000000
2876.098389 1330.000000
2876.873291 1436.000000
2877.647949 1438.000000
2878.422607 1395.000000
2879.197021 1481.000000
2879.970703 1492.000000
2880.743652 1317.000000
2881.517334 1496.000000
2882.290039 1346.000000
2883.062744 1403.000000
2883.834717 1456.000000
2884.606445 1450.000000
2885.378662 1523.000000
2886.149658 1413.000000
2886.920166 1369.000000
2887.691162 1360.000000
2888.462158 1380.000000
2889.232422 1325.000000
2890.001709 1478.000000
2890.771240 1421.000000
2891.540771 1412.000000
2892.309814 1388.000000
2893.078369 1330.000000
2893.846924 1367.000000
2894.614502 1202.000000
2895.382568 1396.000000
2896.150146 1321.000000
2896.917725 1436.000000
2897.684082 1287.000000
2898.451416 1272.000000
2899.217529 1308.000000
2899.983887 1414.000000
2900.748779 1260.000000
2901.514160 1342.000000
2902.280029 1349.000000
2903.044434 1336.000000
2903.808838 1276.000000
2904.573486 1316.000000
2905.337158 1255.000000
2906.101563 1257.000000
2906.865234 1228.000000
2907.628174 1225.000000
2908.390869 1236.000000
2909.154053 1262.000000
2909.916748 1194.000000
2910.678223 1320.000000
2911.440186 1320.000000
spectrumdark 2048
-96.790550 6145.000000
-94.163681 6145.000000
-91.538689 6028.000000
-88.915588 6399.000000
-86.294357 5775.000000
-83.675026 6200.000000
-81.057556 5974.000000
-78.441963 6469.000000
-75.828247 6215.000000
-73.216408 5866.000000
-70.606430 6060.000000
-67.998337 5904.000000
-65.392090 5923.000000
-62.787716 5971.000000
-60.185207 6117.000000
-57.584553 5600.000000
-54.985760 6272.000000
-52.388824 6823.000000
-49.793743 6443.000000
-47.200516 6495.000000
-44.609138 6168.000000
-42.019608 6696.000000
-39.431919 5838.000000
-36.846081 5998.000000
-34.262085 6474.000000
-31.679926 5673.000000
-29.099613 6320.000000
-26.521128 5645.000000
-23.944485 6061.000000
-21.369667 6236.000000
-18.796690 6450.000000
-16.225533 6492.000000
-13.656210 6666.000000
-11.088712 7806.000000
-8.523032 6293.000000
-5.959178 6493.000000
-3.397138 5977.000000
-0.836922 5813.000000
1.721486 6197.000000
4.278073 6951.000000
6.832855 6662.000000
9.385820 5938.000000
11.936985 6691.000000
14.486337 6442.000000
17.033894 6674.000000
19.579638 6012.000000
22.123589 5769.000000
24.665735 6695.000000
27.206085 6713.000000
29.744650 6880.000000
32.281418 6181.000000
34.816383 5754.000000
37.349571 7206.000000
39.880978 6243.000000
42.410591 7109.000000
44.938408 6455.000000
47.464466 7796.000000
49.988735 5660.000000
52.511234 6186.000000
55.031937 6686.000000
57.550884 6302.000000
60.068058 6380.000000
62.583454 6628.000000
65.097069 5624.000000
67.608932 5724.000000
70.119049 6517.000000
72.627373 6525.000000
75.133942 5896.000000
77.638763 6272.000000
80.141830 6408.000000
82.643120 6327.000000
85.142670 6062.000000
87.640465 6304.000000
90.136528 5769.000000
92.630814 7173.000000
95.123360 5774.000000
97.614189 6932.000000
100.103249 7164.000000
102.590561 6414.000000
105.076149 6194.000000
107.559998 6316.000000
110.042099 5717.000000
112.522476 6517.000000
115.001129 6073.000000
117.478058 6480.000000
119.953232 7156.000000
122.426697 6722.000000
124.898430 5951.000000
127.368454 6727.000000
129.836731 6249.000000
132.303329 6329.000000
134.768173 5749.000000
137.231323 6194.000000
139.692734 7210.000000
142.152451 6818.000000
144.610443 6334.000000
147.066742 5975.000000
149.521332 5765.000000
151.974197 6808.000000
154.425385 6321.000000
156.874878 6556.000000
159.322647 6047.000000
161.768707 6550.000000
164.213089 8605.000000
166.655792 6402.000000
169.096802 6749.000000
171.536102 6271.000000
173.973694 7212.000000
176.409653 6583.000000
178.843872 6912.000000
181.276413 7155.000000
183.707306 6702.000000
186.136475 7088.000000
188.563995 6687.000000
190.989838 6304.000000
193.414001 6742.000000
195.836502 7129.000000
198.257309 7317.000000
200.676453 6511.000000
203.093933 6064.000000
205.509720 7632.000000
207.923859 6999.000000
210.336365 6334.000000
212.747192 6079.000000
215.156342 6245.000000
217.563858 7405.000000
219.969666 6167.000000
222.373886 6512.000000
224.776398 6703.000000
227.177292 6926.000000
229.576538 6434.000000
231.974121 6887.000000
234.370041 7361.000000
236.764343 6542.000000
239.156982 5808.000000
241.548004 6793.000000
243.937363 6551.000000
246.325104 6439.000000
248.711197 6997.000000
251.095657 6056.000000
253.478470 7810.000000
255.859711 6631.000000
258.239227 6598.000000
260.617188 6522.000000
262.993469 7516.000000
265.368195 7521.000000
267.741272 7826.000000
270.112701 6169.000000
272.482483 6425.000000
274.850708 5868.000000
277.217285 6307.000000
279.582275 6797.000000
281.945648 5975.000000
284.307373 6227.000000
286.667511 7088.000000
289.026031 5886.000000
291.382965 6487.000000
293.738281 6342.000000
296.092010 5931.000000
298.444092 5956.000000
300.794617 6272.000000
303.143555 6307.000000
305.490845 6796.000000
307.836609 6406.000000
310.180695 6444.000000
312.523254 7333.000000
314.864197 7594.000000
317.203522 7113.000000
319.541290 6912.000000
321.877502 8085.000000
324.212067 6187.000000
326.545074 6457.000000
328.876526 5947.000000
331.206390 6569.000000
333.534668 6346.000000
335.861328 7219.000000
338.186493 6331.000000
340.510040 6174.000000
342.832031 5975.000000
345.152466 7436.000000
347.471283 7623.000000
349.788544 5975.000000
352.104279 5853.000000
354.418427 6887.000000
356.730988 6272.000000
359.041992 6382.000000
361.351471 6967.000000
363.659424 6335.000000
365.965759 5623.000000
368.270508 6508.000000
370.573792 6413.000000
372.875458 6254.000000
375.175629 6358.000000
377.474243 6294.000000
379.771301 5692.000000
382.066803 6050.000000
384.360779 5840.000000
386.653168 5200.000000
388.944061 5492.000000
391.233429 6149.000000
393.521210 6216.000000
395.807465 6504.000000
398.092224 6972.000000
400.375366 6008.000000
402.657074 6363.000000
404.937256 6116.000000
407.215851 7196.000000
409.492920 6465.000000
411.768463 6740.000000
414.042480 6507.000000
416.315063 6412.000000
418.586029 6452.000000
420.855499 6431.000000
423.123474 7060.000000
425.389893 7211.000000
427.654816 6217.000000
429.918274 6257.000000
432.180145 6474.000000
434.440552 5904.000000
436.699402 6574.000000
438.956787 6095.000000
441.212677 5663.000000
443.467072 5737.000000
445.719940 5408.000000
447.971252 6865.000000
450.221161 6086.000000
452.469482 6247.000000
454.716370 5646.000000
456.961792 6421.000000
459.205658 6431.000000
461.448029 6689.000000
463.688904 5654.000000
465.928375 6653.000000
468.166260 5518.000000
470.402710 5854.000000
472.637634 6046.000000
474.871094 7293.000000
477.103119 6658.000000
479.333618 5657.000000
481.562622 6445.000000
483.790161 6312.000000
486.016205 5951.000000
488.240814 6544.000000
490.463959 5811.000000
492.685638 6454.000000
494.905762 6660.000000
497.124481 5671.000000
499.341705 6208.000000
501.557556 5547.000000
503.771790 6133.000000
505.984711 6373.000000
508.196045 6363.000000
510.405945 6796.000000
512.614441 6451.000000
514.821533 6515.000000
517.027039 6406.000000
519.231140 6510.000000
521.433716 6193.000000
523.634888 6491.000000
525.834717 6655.000000
528.033020 6968.000000
530.229797 5329.000000
532.425232 5802.000000
534.619141 5550.000000
536.811707 7487.000000
539.002747 6645.000000
541.192383 5974.000000
543.380615 6948.000000
545.567322 7109.000000
547.752563 6795.000000
549.936523 6231.000000
552.118896 6337.000000
554.299927 6180.000000
556.479431 6019.000000
558.657654 5843.000000
560.834351 5962.000000
563.009644 6363.000000
565.183533 6364.000000
567.355957 5902.000000
569.526978 5979.000000
571.696533 6321.000000
573.864807 5251.000000
576.031555 6373.000000
578.196838 6321.000000
580.360718 6139.000000
582.523315 5758.000000
584.684387 5975.000000
586.844055 5630.000000
589.002380 5807.000000
591.159180 6067.000000
593.314636 6540.000000
595.468689 5698.000000
597.621399 6156.000000
599.772583 7202.000000
601.922424 6754.000000
604.070923 6568.000000
606.217834 6020.000000
608.363525 6433.000000
610.507813 6444.000000
612.650635 6944.000000
614.791992 6116.000000
616.932129 6444.000000
619.070740 7699.000000
621.208069 5661.000000
623.343933 6592.000000
625.478394 6873.000000
627.611389 7169.000000
629.743225 6642.000000
631.873596 6531.000000
634.002563 6681.000000
636.130066 6403.000000
638.256287 6215.000000
640.380981 7280.000000
642.504456 6355.000000
644.626587 6779.000000
646.747253 6819.000000
648.866577 6566.000000
650.984497 5684.000000
653.101074 5658.000000
655.216248 6435.000000
657.330078 6447.000000
659.442444 5765.000000
661.553589 6105.000000
663.663330 5368.000000
665.771606 6006.000000
667.878723 6238.000000
669.984375 6867.000000
672.088562 5774.000000
674.191528 5668.000000
676.293091 6916.000000
678.393311 5308.000000
680.492126 6686.000000
682.589600 6325.000000
684.685791 6968.000000
686.780518 6240.000000
688.874023 7021.000000
690.966187 6600.000000
693.056824 7963.000000
695.146240 6657.000000
697.234375 6472.000000
699.321045 5967.000000
701.406494 6632.000000
703.490417 5135.000000
705.573120 5862.000000
707.654541 5932.000000
709.734497 7523.000000
711.813232 6200.000000
713.890503 5510.000000
715.966492 6544.000000
718.041199 6069.000000
720.114624 7035.000000
722.186523 6288.000000
724.257263 7348.000000
726.326660 5808.000000
728.394653 6371.000000
730.461304 6355.000000
732.526733 7021.000000
734.590820 5709.000000
736.653564 6172.000000
738.714966 6478.000000
740.775085 6563.000000
742.833801 6035.000000
744.891296 6646.000000
746.947510 6453.000000
749.002319 6664.000000
751.055847 6410.000000
753.107971 7430.000000
755.158875 5680.000000
757.208557 6711.000000
759.256775 6349.000000
761.303772 6184.000000
763.349487 7000.000000
765.393799 5332.000000
767.436829 5683.000000
769.478638 6303.500000
771.519104 6924.000000
773.558167 6336.000000
775.596069 6057.000000
777.632629 5895.000000
779.667969 5328.000000
781.701965 5789.000000
783.734558 6873.000000
785.765991 5462.000000
787.796021 11546.000000
789.824768 6040.000000
791.852356 6278.000000
793.878601 6338.000000
795.903442 5741.000000
797.927185 5484.000000
799.949524 6317.000000
801.970642 5856.000000
803.990417 6657.000000
806.008911 4858.000000
808.026184 6732.000000
810.042053 6735.000000
812.056763 5717.000000
814.070129 6371.000000
816.082275 6228.000000
818.093201 6077.000000
820.102783 6566.000000
822.111145 5263.000000
824.118103 5678.000000
826.123840 6084.000000
828.128357 5759.000000
830.131592 5589.000000
832.133545 6438.000000
834.134216 6045.000000
836.133667 5932.000000
838.131775 6291.000000
840.128784 6914.000000
842.124390 6265.000000
844.118835 5978.000000
846.111938 6104.000000
848.103821 6778.000000
850.094360 5532.000000
852.083618 6719.000000
854.071838 5960.000000
856.058655 5769.000000
858.044250 6404.000000
860.028564 7288.000000
862.011780 6243.000000
863.993591 6364.000000
865.974182 5783.000000
867.953491 7673.000000
869.931641 7041.000000
871.908447 6159.000000
873.883972 5848.000000
875.858459 6142.000000
877.831482 6015.000000
879.803467 5358.000000
881.774109 6395.000000
883.743591 6073.000000
885.711731 5521.000000
887.678711 5183.000000
889.644348 6108.000000
891.608826 5799.000000
893.572083 5930.000000
895.534119 6487.000000
897.494873 5826.000000
899.454407 6429.000000
901.412659 6655.000000
903.369812 6325.000000
905.325806 6007.000000
907.280396 6852.000000
909.233765 6470.000000
911.185974 6443.000000
913.136963 6327.000000
915.086670 7074.000000
917.035217 6277.000000
918.982544 6189.000000
920.928589 6090.000000
922.873352 6002.000000
924.817078 6200.000000
926.759644 5962.000000
928.700928 5579.000000
930.640869 6452.000000
932.579712 5668.000000
934.517273 5457.000000
936.453613 5932.000000
938.388794 5811.000000
940.322693 6065.000000
942.255493 5829.000000
944.187073 6755.000000
946.117493 5140.000000
948.046692 6387.000000
949.974548 7043.000000
951.901367 6546.000000
953.826904 5963.000000
955.751160 5364.000000
957.674316 5967.000000
959.596313 6731.000000
961.517029 7324.000000
963.436584 6450.000000
965.354980 5313.000000
967.272339 6358.000000
969.188232 6383.000000
971.103027 6136.000000
973.016602 5941.000000
974.929016 6386.000000
976.840210 6428.000000
978.750244 5474.000000
980.658997 6217.000000
982.566711 6134.000000
984.473206 6413.000000
986.378479 5701.000000
988.282654 6780.000000
990.185608 6135.000000
992.087341 6797.000000
993.987915 6551.000000
995.887329 6539.000000
997.785522 5289.000000
999.682556 6546.000000
1001.578369 6519.000000
1003.473022 7702.000000
1005.366577 5498.000000
1007.258850 7079.000000
1009.150208 6045.000000
1011.040222 5315.000000
1012.929016 6581.000000
1014.816650 6308.000000
1016.703125 6871.000000
1018.588440 6798.000000
1020.472595 5914.000000
1022.355530 5866.000000
1024.237427 6225.000000
1026.118042 5167.000000
1027.997559 5848.000000
1029.876099 6060.000000
1031.753296 5337.000000
1033.629150 6218.000000
1035.504028 5907.000000
1037.377930 6581.000000
1039.250366 7044.000000
1041.121826 6683.000000
1042.991943 5517.000000
1044.861084 5530.000000
1046.729004 5790.000000
1048.595825 6981.000000
1050.461548 6683.000000
1052.326050 6375.000000
1054.189453 6469.000000
1056.051514 6369.000000
1057.912598 5835.000000
1059.772583 6403.000000
1061.631226 6642.000000
1063.488770 5795.000000
1065.345215 6738.000000
1067.200562 5863.000000
1069.054688 5770.000000
1070.907959 6184.000000
1072.759766 6263.000000
1074.610596 6109.000000
1076.460205 6135.000000
1078.308594 5737.000000
1080.156128 7984.000000
1082.002319 5615.000000
1083.847290 6171.000000
1085.691406 5367.000000
1087.534180 5487.000000
1089.375732 6501.000000
1091.216553 5402.000000
1093.055786 5782.000000
1094.894287 6095.000000
1096.731445 6014.000000
1098.567383 6778.000000
1100.402344 6533.000000
1102.236084 5384.000000
1104.068848 5646.000000
1105.900269 6165.000000
1107.730835 7249.000000
1109.560059 6482.000000
1111.388306 6372.000000
1113.215332 7045.000000
1115.041382 5423.000000
1116.866211 6335.000000
1118.689941 7217.000000
1120.512451 6037.000000
1122.333862 5863.000000
1124.154419 5871.000000
1125.973511 6586.000000
1127.791748 7019.000000
1129.608643 6831.000000
1131.424683 6606.000000
1133.239502 6443.000000
1135.053223 5617.000000
1136.865845 5787.000000
1138.677246 5674.000000
1140.487671 6157.000000
1142.296997 6706.000000
1144.104980 6915.000000
1145.912231 5899.000000
1147.718018 5969.000000
1149.522949 5330.000000
1151.326782 5409.000000
1153.129395 6055.000000
1154.931152 6087.000000
1156.731445 6034.000000
1158.530762 6149.000000
1160.329102 5879.000000
1162.126099 5410.000000
1163.922363 5891.000000
1165.717285 6041.000000
1167.511108 6346.000000
1169.304077 7727.000000
1171.095703 5720.000000
1172.886353 6486.000000
1174.676025 5995.000000
1176.464233 5789.000000
1178.251587 7414.000000
1180.037842 6893.000000
1181.822998 5745.000000
1183.607056 5895.000000
1185.390015 7643.000000
1187.171997 5856.000000
1188.952759 5883.000000
1190.732544 6283.000000
1192.511230 6882.000000
1194.288940 6678.000000
1196.065430 7141.000000
1197.840820 6554.000000
1199.615112 6570.000000
1201.388306 6644.000000
1203.160645 6448.000000
1204.931641 6754.000000
1206.701782 5613.000000
1208.470703 6084.000000
1210.238525 6316.000000
1212.005493 5740.000000
1213.771118 5908.000000
1215.535767 6935.000000
1217.299316 6477.000000
1219.061768 5932.000000
1220.823364 6689.000000
1222.583740 5872.000000
1224.343018 6274.000000
1226.101440 6015.000000
1227.858643 7056.000000
1229.614746 6362.000000
1231.369751 5500.000000
1233.123901 5952.000000
1234.876709 5814.000000
1236.628540 6029.000000
1238.379517 5909.000000
1240.129150 4868.000000
1241.877930 6900.000000
1243.625366 6456.000000
1245.372070 6659.000000
1247.117554 6499.000000
1248.862183 6429.000000
1250.605469 6697.000000
1252.347778 6668.000000
1254.088989 5290.000000
1255.829346 5026.000000
1257.568604 5767.000000
1259.306641 6506.000000
1261.043823 7084.000000
1262.779785 6088.000000
1264.514771 6424.000000
1266.248779 7283.000000
1267.981812 5969.000000
1269.713623 6084.000000
1271.444458 6388.000000
1273.174072 7236.000000
1274.902832 5911.000000
1276.630493 5683.000000
1278.357056 5569.000000
1280.082764 5517.000000
1281.807129 6405.000000
1283.530640 5194.000000
1285.253174 6886.000000
1286.974731 6522.000000
1288.695068 6230.000000
1290.414429 6658.000000
1292.132690 7196.000000
1293.849976 6416.000000
1295.566284 5753.000000
1297.281372 6337.000000
1298.995483 6097.000000
1300.708618 5737.000000
1302.420898 6416.000000
1304.131958 8278.000000
1305.842041 5274.000000
1307.551025 6271.000000
1309.258789 6658.000000
1310.965942 7004.000000
1312.671631 5728.000000
1314.376587 6837.000000
1316.080566 6107.000000
1317.783325 5984.000000
1319.485107 6549.000000
1321.186035 6053.000000
1322.885620 9430.000000
1324.584351 7497.000000
1326.282349 18783.000000
1327.979004 6463.000000
1329.674561 7030.000000
1331.369263 6829.000000
1333.062744 5738.000000
1334.755371 5389.000000
1336.447144 7410.000000
1338.137573 6248.000000
1339.827271 6575.000000
1341.515869 6072.000000
1343.203369 7574.000000
1344.889893 5644.000000
1346.575317 6785.000000
1348.259766 5911.000000
1349.943359 7268.000000
1351.625732 6316.000000
1353.307129 5908.000000
1354.987671 6463.000000
1356.666992 6678.000000
1358.345703 5844.000000
1360.023071 6596.000000
1361.699341 5748.000000
1363.374634 5538.000000
1365.049194 6577.000000
1366.722534 6444.000000
1368.394897 6769.000000
1370.066284 5185.000000
1371.736694 6737.000000
1373.406006 6119.000000
1375.074341 5676.000000
1376.741821 5927.000000
1378.408203 6198.000000
1380.073608 6059.000000
1381.738037 5779.000000
1383.401245 5921.000000
1385.063843 5666.000000
1386.725098 6308.000000
1388.385498 6539.000000
1390.044800 6386.000000
1391.703125 6471.000000
1393.360718 6740.000000
1395.017090 6473.000000
1396.672607 6947.000000
1398.326904 6325.000000
1399.980347 5830.000000
1401.632690 6172.000000
1403.284302 6414.000000
1404.934692 7147.000000
1406.583984 6218.000000
1408.232544 7517.000000
1409.880005 7865.000000
1411.526489 6188.000000
1413.172119 6191.000000
1414.816772 5941.000000
1416.460205 6983.000000
1418.102783 7103.000000
1419.744263 6868.000000
1421.384888 6467.000000
1423.024536 6471.000000
1424.663086 5962.000000
1426.300781 6562.000000
1427.937378 6276.000000
1429.572998 5938.000000
1431.207886 6359.000000
1432.841675 5840.000000
1434.474365 6121.000000
1436.106079 5597.000000
1437.736938 6068.000000
1439.366699 6015.000000
1440.995361 7776.000000
1442.623413 5927.000000
1444.250366 6146.000000
1445.876099 6136.000000
1447.501221 6190.000000
1449.125244 6476.000000
1450.748291 6022.000000
1452.370361 6017.000000
1453.991333 7240.000000
1455.611328 6280.000000
1457.230591 6869.000000
1458.848511 5656.000000
1460.465820 5566.500000
1462.082153 5477.000000
1463.697266 7264.000000
1465.311523 6266.000000
1466.924927 5188.000000
1468.537231 5579.000000
1470.148682 6227.000000
1471.759277 6348.000000
1473.368652 5936.000000
1474.977051 5917.000000
1476.584595 6174.000000
1478.191162 6679.000000
1479.796997 5305.000000
1481.401611 6233.000000
1483.005371 5523.000000
1484.607910 6716.000000
1486.209839 5510.000000
1487.810547 5478.000000
1489.410522 5639.000000
1491.009399 6295.000000
1492.607422 6520.000000
1494.204346 6616.000000
1495.800415 6320.000000
1497.395508 5974.000000
1498.989624 5487.000000
1500.583008 6484.000000
1502.175293 5496.000000
1503.766357 6176.000000
1505.356934 6777.000000
1506.946167 6395.000000
1508.534790 6128.000000
1510.122314 6501.000000
1511.708740 6832.000000
1513.294434 6139.000000
1514.879028 6607.000000
1516.462769 6201.000000
1518.045410 6123.000000
1519.627319 6509.000000
1521.208130 6683.000000
1522.788208 6039.000000
1524.367065 6198.000000
1525.945068 6406.000000
1527.522339 6226.000000
1529.098389 5662.000000
1530.673706 5954.000000
1532.247925 6297.000000
1533.821411 5465.000000
1535.393677 5913.000000
1536.965210 6360.000000
1538.535767 6357.000000
1540.105469 6242.000000
1541.673950 5483.000000
1543.241699 6538.000000
1544.808594 5632.000000
1546.374268 6807.000000
1547.939209 5821.000000
1549.503052 5058.000000
1551.066284 7408.000000
1552.628174 6273.000000
1554.189453 5926.000000
1555.749634 5638.000000
1557.309082 5709.000000
1558.867432 5828.000000
1560.425049 6314.000000
1561.981567 6965.000000
1563.536865 5885.000000
1565.091553 6371.000000
1566.645508 5624.000000
1568.198486 6280.000000
1569.750122 5738.000000
1571.301025 5878.000000
1572.851196 6206.000000
1574.400391 6348.000000
1575.948242 5757.000000
1577.495605 5460.000000
1579.041992 5653.000000
1580.587524 5077.000000
1582.132080 6613.000000
1583.675415 6378.000000
1585.218140 6613.000000
1586.760010 6423.000000
1588.300781 6699.000000
1589.840576 5798.000000
1591.379639 6673.000000
1592.917603 5850.000000
1594.455078 6135.000000
1595.991211 5875.000000
1597.526245 6617.000000
1599.060791 6190.000000
1600.594360 5937.000000
1602.127075 6031.000000
1603.658203 6218.000000
1605.189087 6286.000000
1606.719116 5772.000000
1608.247925 6099.000000
1609.775635 6099.000000
1611.302734 5957.000000
1612.829102 5808.000000
1614.354492 6233.000000
1615.879028 5758.000000
1617.402222 5798.000000
1618.924683 5595.000000
1620.446411 6524.000000
1621.967285 6919.000000
1623.486694 6553.500000
1625.005615 6188.000000
1626.523804 6055.000000
1628.041138 5864.000000
1629.557373 6358.000000
1631.072266 7018.000000
1632.586670 6684.000000
1634.100342 5734.000000
1635.612915 6860.000000
1637.124268 5929.000000
1638.635254 6432.000000
1640.145142 6252.000000
1641.654175 6136.000000
1643.161865 5613.000000
1644.669189 6071.000000
1646.175659 7132.000000
1647.681152 6217.000000
1649.185791 6813.000000
1650.688965 6135.000000
1652.191528 6563.000000
1653.693726 6292.000000
1655.194580 6622.000000
1656.694336 7511.000000
1658.193237 5955.000000
1659.691772 6478.000000
1661.189087 6253.000000
1662.685669 5912.000000
1664.180664 6442.000000
1665.675415 6314.000000
1667.169312 5217.000000
1668.662231 5667.000000
1670.153809 21125.000000
1671.644897 6476.000000
1673.135376 6088.000000
1674.624756 5971.000000
1676.112671 6963.000000
1677.600342 6791.000000
1679.087036 5992.000000
1680.572876 5369.000000
1682.057861 6047.000000
1683.541382 6247.000000
1685.024658 6195.000000
1686.507080 5885.000000
1687.988403 6267.000000
1689.468262 6203.000000
1690.947876 5606.000000
1692.426758 6518.000000
1693.904663 6019.000000
1695.381592 6050.000000
1696.857300 5767.000000
1698.332642 5969.000000
1699.806763 6305.000000
1701.280273 5430.000000
1702.752319 5544.000000
1704.224121 6819.000000
1705.694946 6346.000000
1707.164917 7018.000000
1708.633545 5148.000000
1710.101685 5809.000000
1711.569092 6322.000000
1713.035400 5468.000000
1714.501099 5745.000000
1715.965088 6205.000000
1717.428955 5898.000000
1718.891968 6965.000000
1720.354004 6321.000000
1721.814819 6566.000000
1723.275024 5435.000000
1724.734497 6333.000000
1726.193115 6114.000000
1727.650757 5998.000000
1729.107056 6236.000000
1730.563110 6030.000000
1732.018188 6439.000000
1733.472290 6032.000000
1734.925171 6860.000000
1736.377808 5901.000000
1737.829346 6877.000000
1739.280151 5955.000000
1740.729980 6513.000000
1742.178467 5904.000000
1743.626587 7246.000000
1745.073853 6550.000000
1746.520386 6546.000000
1747.965332 6695.000000
1749.410034 6253.000000
1750.853882 5752.000000
1752.296875 5501.000000
1753.738403 6548.000000
1755.179688 6346.000000
1756.620117 19403.000000
1758.059570 6301.000000
1759.498047 5270.000000
1760.935547 5941.000000
1762.372559 7504.000000
1763.808594 5851.000000
1765.243774 7198.000000
1766.677490 6189.000000
1768.111084 6443.000000
1769.543701 6669.000000
1770.975464 5722.000000
1772.406372 5697.000000
1773.836060 6335.000000
1775.265015 6090.000000
1776.693481 6219.000000
1778.120972 6760.000000
1779.547119 6263.000000
1780.973022 5602.000000
1782.397827 6865.000000
1783.822021 5587.000000
1785.244751 6704.000000
1786.666992 6466.000000
1788.088501 6825.000000
1789.509277 5819.000000
1790.929077 5939.000000
1792.347534 6153.000000
1793.765503 6825.000000
1795.182861 5502.000000
1796.599365 5967.000000
1798.014404 6538.000000
1799.429077 5810.000000
1800.843140 6562.000000
1802.255981 5920.000000
1803.668213 6914.000000
1805.079102 7072.000000
1806.489502 7705.000000
1807.899170 6384.000000
1809.307861 5956.000000
1810.715454 5360.000000
1812.122559 6428.000000
1813.528809 6371.000000
1814.934082 6676.000000
1816.338257 5929.000000
1817.742065 5901.000000
1819.144897 6176.000000
1820.546875 6014.000000
1821.948242 5872.000000
1823.348145 6358.000000
1824.747437 6446.000000
1826.146240 6588.000000
1827.544189 7372.000000
1828.940796 5828.000000
1830.336792 6729.000000
1831.732056 5896.000000
1833.126709 8085.000000
1834.520386 5996.000000
1835.912720 6769.000000
1837.304565 6398.000000
1838.695801 5873.000000
1840.086060 7118.000000
1841.475098 5996.000000
1842.863770 6026.000000
1844.251465 5957.000000
1845.638428 5775.000000
1847.024048 6857.000000
1848.409424 5881.000000
1849.793945 6332.000000
1851.177734 6275.000000
1852.560425 6291.000000
1853.941895 5427.000000
1855.322876 6506.000000
1856.703369 6272.000000
1858.082886 5678.000000
1859.460938 5883.000000
1860.838867 6251.000000
1862.215820 7829.000000
1863.592041 6088.000000
1864.967407 6025.000000
1866.341309 5670.000000
1867.715088 5690.000000
1869.088013 6166.000000
1870.459839 5976.000000
1871.830688 6895.000000
1873.201172 5432.000000
1874.570557 6037.000000
1875.939453 6084.000000
1877.306763 7145.000000
1878.673950 6007.000000
1880.040161 5964.000000
1881.405640 6803.000000
1882.770386 7461.000000
1884.133545 6763.000000
1885.496582 6911.000000
1886.858765 6333.000000
1888.220093 6503.000000
1889.580078 5610.000000
1890.939697 5826.000000
1892.298706 6090.000000
1893.656738 6610.000000
1895.013916 7198.000000
1896.369873 5876.000000
1897.725586 7569.000000
1899.080322 5844.000000
1900.434204 5589.000000
1901.786987 5940.000000
1903.139282 5885.000000
1904.490845 5882.000000
1905.841553 6856.000000
1907.191040 6522.000000
1908.540039 6652.000000
1909.888184 5803.000000
1911.235718 6064.000000
1912.582520 6280.000000
1913.927734 6820.000000
1915.272705 6076.000000
1916.616943 5402.000000
1917.960327 6540.000000
1919.302368 6004.000000
1920.644165 6648.000000
1921.985107 6916.000000
1923.325317 6157.000000
1924.664551 6245.000000
1926.002808 6305.000000
1927.340454 6436.000000
1928.677368 6996.000000
1930.013428 6754.000000
1931.348267 5622.000000
1932.682739 6599.000000
1934.016479 7320.000000
1935.349365 6241.000000
1936.680786 5745.000000
1938.012329 6281.000000
1939.342529 6598.000000
1940.672241 5784.000000
1942.001099 6118.000000
1943.328735 5778.000000
1944.655884 5031.000000
1945.982300 5813.000000
1947.307983 6381.000000
1948.632324 5768.000000
1949.956421 6616.000000
1951.279663 6246.000000
1952.602173 6427.000000
1953.923584 5731.000000
1955.244019 7365.000000
1956.563843 6017.000000
1957.883301 5545.000000
1959.201782 6863.000000
1960.518921 5882.000000
1961.835693 5802.000000
1963.151733 6510.000000
1964.467041 6599.000000
1965.780884 6298.000000
1967.094482 5637.000000
1968.407349 6237.000000
1969.719360 6004.000000
1971.030762 5991.000000
1972.340820 6240.000000
1973.650391 5807.000000
1974.959229 6082.000000
1976.267456 6625.000000
1977.574341 6047.000000
1978.880615 7200.000000
1980.186523 5559.000000
1981.491211 6456.000000
1982.795410 5883.000000
1984.098389 5666.000000
1985.401001 7564.000000
1986.702637 6111.000000
1988.003662 6776.000000
1989.303101 6038.000000
1990.602661 6605.000000
1991.901123 5260.000000
1993.199097 6067.000000
1994.495483 6124.000000
1995.791870 5857.000000
1997.087280 5607.000000
1998.381958 6553.000000
1999.675781 5687.000000
2000.968384 6485.000000
2002.260498 5686.000000
2003.552124 7051.000000
2004.843018 6462.000000
2006.132324 6134.000000
2007.421387 6758.000000
2008.709717 5888.000000
2009.997314 5974.000000
2011.284058 6613.000000
2012.569702 5612.000000
2013.854980 6409.000000
2015.139282 5965.000000
2016.422974 5593.000000
2017.705322 6070.000000
2018.987305 6509.000000
2020.268799 6750.000000
2021.549316 5903.000000
2022.829102 6099.000000
2024.107788 6797.000000
2025.385742 5839.000000
2026.663208 5880.000000
2027.940063 6263.000000
2029.215210 5767.000000
2030.490479 6658.000000
2031.764771 6031.000000
2033.038086 5913.000000
2034.310547 5931.000000
2035.582642 6055.000000
2036.853638 6912.000000
2038.124390 6590.000000
2039.393799 5978.000000
2040.662109 6715.000000
2041.930420 6551.000000
2043.197754 5924.000000
2044.464355 5956.000000
2045.729736 5649.000000
2046.994507 5778.000000
2048.259033 5394.000000
2049.522217 5856.000000
2050.785156 6332.000000
2052.046143 6159.000000
2053.307617 6048.000000
2054.567871 5848.000000
2055.827393 6369.000000
2057.086182 6224.000000
2058.343994 6959.000000
2059.601318 6137.000000
2060.857910 5976.000000
2062.113037 6482.000000
2063.368164 5605.000000
2064.622314 5550.000000
2065.875732 5598.000000
2067.128418 6781.000000
2068.379883 6293.000000
2069.631104 6275.000000
2070.881592 5616.000000
2072.131348 5377.000000
2073.379639 6119.000000
2074.627930 6567.000000
2075.875244 7382.000000
2077.121826 5581.000000
2078.367676 6054.000000
2079.612305 6991.000000
2080.856445 7674.000000
2082.100098 5481.000000
2083.342773 5975.000000
2084.584229 6945.000000
2085.825439 5938.000000
2087.066162 6325.000000
2088.305908 6766.000000
2089.544434 7030.000000
2090.782471 6183.000000
2092.019775 5789.000000
2093.256836 6619.000000
2094.492432 6093.000000
2095.727295 6172.000000
2096.961914 6042.000000
2098.195557 5611.000000
2099.428223 6086.000000
2100.660156 6838.000000
2101.891602 6312.000000
2103.122070 6756.000000
2104.351807 5966.000000
2105.581299 5940.000000
2106.808838 5981.000000
2108.036621 5976.000000
2109.263672 6301.000000
2110.489746 5437.000000
2111.714355 6329.000000
2112.939209 6919.000000
2114.162842 7061.000000
2115.385986 6231.000000
2116.607910 7442.000000
2117.829590 6003.000000
2119.050293 6778.000000
2120.270264 5999.000000
2121.489746 6115.000000
2122.707764 6588.000000
2123.925781 6987.000000
2125.142822 5761.000000
2126.359375 5783.000000
2127.574219 6534.000000
2128.789307 6325.000000
2130.003418 6966.000000
2131.216797 5711.000000
2132.429443 6106.000000
2133.640625 5825.000000
2134.852051 6558.000000
2136.062256 6889.000000
2137.271973 5939.000000
2138.480225 6161.000000
2139.688477 5623.000000
2140.895996 5893.000000
2142.102295 7411.000000
2143.307861 5883.000000
2144.513184 5631.000000
2145.717529 5507.000000
2146.921143 6330.000000
2148.124268 6171.000000
2149.325928 6502.000000
2150.527344 5330.000000
2151.728027 6259.000000
2152.927979 6037.000000
2154.126709 5898.000000
2155.325195 6933.000000
2156.523193 6157.000000
2157.720215 5955.000000
2158.916504 5211.000000
2160.111572 5268.000000
2161.306396 6123.000000
2162.500488 5554.000000
2163.693604 5942.000000
2164.885742 6862.000000
2166.077637 5880.000000
2167.268799 6350.000000
2168.458984 6316.000000
2169.648438 6476.000000
2170.837402 6792.000000
2172.025391 6056.000000
2173.213135 5712.000000
2174.399414 5900.000000
2175.584961 6520.000000
2176.770264 5997.000000
2177.955078 5796.000000
2179.138672 6337.000000
2180.321533 7500.000000
2181.503418 6260.000000
2182.685059 5923.000000
2183.866211 6557.000000
2185.046143 5670.000000
2186.225098 5545.000000
2187.403564 6313.000000
2188.581787 6938.000000
2189.758789 7206.000000
2190.934814 6729.000000
2192.110596 6067.000000
2193.285889 5591.000000
2194.459717 6668.000000
2195.633057 6144.000000
2196.806152 6150.000000
2197.978027 6383.000000
2199.149414 7003.000000
2200.320313 6285.000000
2201.489502 6980.000000
2202.658691 7528.000000
2203.827393 6218.000000
2204.995117 5907.000000
2206.161865 5694.000000
2207.327881 7149.000000
2208.493408 6705.000000
2209.658691 5937.000000
2210.822510 6698.000000
2211.985840 5349.000000
2213.147949 6203.000000
2214.310303 6191.000000
2215.471436 6595.000000
2216.631592 6685.000000
2217.791260 6302.000000
2218.950684 6566.000000
2220.108887 6363.000000
2221.266113 6238.000000
2222.423096 6710.000000
2223.579346 6508.000000
2224.734863 6733.000000
2225.889648 6243.000000
2227.043457 6432.000000
2228.196289 5965.000000
2229.349609 6849.000000
2230.500977 6195.000000
2231.652100 6162.000000
2232.802490 6532.000000
2233.952393 7687.000000
2235.101318 6231.000000
2236.249756 5138.000000
2237.396729 6721.000000
2238.543945 6993.000000
2239.689941 6039.000000
2240.835693 7231.000000
2241.979736 7281.000000
2243.124023 6707.000000
2244.267334 6211.000000
2245.409912 5983.000000
2246.551514 5734.000000
2247.692871 5766.000000
2248.833252 6363.000000
2249.972900 6447.000000
2251.112061 5759.000000
2252.250000 5804.000000
2253.387939 6213.000000
2254.524902 5259.000000
2255.661133 6327.000000
2256.796387 6111.000000
2257.930908 7217.000000
2259.065186 6363.000000
2260.198975 5334.000000
2261.331299 6066.000000
2262.463135 6763.000000
2263.594482 6270.000000
2264.724854 6423.000000
2265.854980 8149.000000
2266.983887 6640.000000
2268.112305 6071.000000
2269.240234 5525.000000
2270.367188 6110.000000
2271.493408 5923.000000
2272.618652 6697.000000
2273.743896 6442.000000
2274.868408 6414.000000
2275.991699 5924.000000
2277.114258 6390.000000
2278.236328 5974.000000
2279.357910 7320.000000
2280.478760 6401.000000
2281.598389 6436.000000
2282.717529 7088.000000
2283.836426 7629.000000
2284.954590 7244.000000
2286.071777 5938.000000
2287.187988 6393.000000
2288.303955 6997.000000
2289.419189 6879.000000
2290.533691 7369.000000
2291.646973 5684.000000
2292.760254 6311.000000
2293.872803 5971.000000
2294.984619 5351.000000
2296.095703 6779.000000
2297.205566 6389.000000
2298.314941 6174.000000
2299.424072 6611.000000
2300.532227 6319.000000
2301.639404 6767.000000
2302.746338 5858.000000
2303.852539 6220.000000
2304.958252 6562.000000
2306.062500 6571.000000
2307.166504 5399.000000
2308.270020 5704.000000
2309.373047 6560.000000
2310.474854 7456.000000
2311.575928 7346.000000
2312.676514 6559.000000
2313.776611 5473.000000
2314.875977 6344.000000
2315.973877 6517.000000
2317.072266 6961.000000
2318.169189 8230.000000
2319.265869 6906.000000
2320.362061 5809.000000
2321.456543 6786.000000
2322.551025 7630.000000
2323.644775 5837.000000
2324.738281 6040.000000
2325.830078 6415.000000
2326.921875 7037.000000
2328.012939 6072.000000
2329.103271 6219.000000
2330.192627 6860.000000
2331.281982 5971.000000
2332.370117 6310.000000
2333.457764 6840.000000
2334.545166 6531.000000
2335.630859 6669.000000
2336.716309 7759.000000
2337.801514 6316.000000
2338.885742 6728.000000
2339.968994 5843.000000
2341.052002 6430.000000
2342.134033 7071.000000
2343.215820 5985.000000
2344.296875 7452.000000
2345.376709 6606.000000
2346.456055 5700.000000
2347.534912 6706.000000
2348.613281 6523.000000
2349.690186 6253.000000
2350.766846 6948.000000
2351.843262 6052.000000
2352.918701 6361.000000
2353.993164 5902.000000
2355.067383 6287.000000
2356.140869 6709.000000
2357.213867 6257.000000
2358.285645 6979.000000
2359.357178 6228.000000
2360.427734 6822.000000
2361.498047 7563.000000
2362.567383 7510.000000
2363.635742 6766.000000
2364.703857 6700.000000
2365.771240 7005.000000
2366.838135 7134.000000
2367.904297 6061.000000
2368.969238 6861.000000
2370.034180 6932.000000
2371.098389 6302.000000
2372.161865 6936.000000
2373.224121 5727.000000
2374.286377 6275.000000
2375.347656 6340.000000
2376.408691 5945.000000
2377.468506 6204.000000
2378.527588 7903.000000
2379.586670 6435.000000
2380.644775 7613.000000
2381.702148 6919.000000
2382.758545 8061.000000
2383.814697 7823.000000
2384.870361 6195.000000
2385.925293 6998.000000
2386.978760 6766.000000
2388.032471 6527.000000
2389.085205 6311.000000
2390.137451 6723.000000
2391.188965 6096.000000
2392.239502 6621.000000
2393.289795 6450.000000
2394.339111 6158.000000
2395.388428 6191.000000
2396.436279 6861.000000
2397.483643 7015.000000
2398.530762 6280.000000
2399.576904 6657.000000
2400.622314 6151.000000
2401.666992 6727.000000
2402.711670 7699.000000
2403.754883 7516.000000
2404.798096 6583.000000
2405.839844 5707.000000
2406.881836 6710.000000
2407.923096 7059.000000
2408.963379 6081.000000
2410.002930 6398.000000
2411.041504 6247.000000
2412.080322 6104.000000
2413.117920 6495.000000
2414.155273 6827.000000
2415.191406 7320.000000
2416.227295 6187.000000
2417.262451 6248.000000
2418.297119 6822.000000
2419.330322 7202.000000
2420.363770 6401.000000
2421.396240 6694.000000
2422.428467 6764.000000
2423.459229 7065.000000
2424.489990 6301.000000
2425.520264 6794.000000
2426.549316 6853.000000
2427.578369 6629.000000
2428.605713 7338.000000
2429.633545 6654.000000
2430.660156 7237.000000
2431.686523 6894.000000
2432.711426 7663.000000
2433.736572 6509.000000
2434.760742 7096.000000
2435.784668 6674.000000
2436.807373 5825.000000
2437.829346 6267.000000
2438.851074 6594.000000
2439.872070 6589.000000
2440.892578 5984.000000
2441.911865 6562.000000
2442.931152 6574.000000
2443.949463 8461.000000
2444.967529 6207.000000
2445.984131 6456.000000
2447.000732 6472.000000
2448.016602 5920.000000
2449.032471 6926.000000
2450.046875 6802.000000
2451.060547 5489.000000
2452.073730 7240.000000
2453.086670 5940.000000
2454.098877 7160.000000
2455.110107 6665.000000
2456.121094 7706.000000
2457.131348 6357.000000
2458.141113 7601.000000
2459.149902 5856.000000
2460.157959 5922.000000
2461.166016 6296.000000
2462.172852 7334.000000
2463.179443 5322.000000
2464.184814 7353.000000
2465.189941 6840.000000
2466.194824 5825.000000
2467.198486 6496.000000
2468.201904 6381.000000
2469.204346 7587.000000
2470.206543 7344.000000
2471.208252 6878.000000
2472.208984 6544.000000
2473.208740 6955.000000
2474.208496 6707.000000
2475.207275 5621.000000
2476.205566 6593.000000
2477.202881 6940.000000
2478.199951 6094.000000
2479.197021 7026.000000
2480.192627 5778.000000
2481.188232 7115.000000
2482.182129 6716.000000
2483.176025 8084.000000
2484.169434 6828.000000
2485.162354 6741.000000
2486.154297 7471.000000
2487.145508 7245.000000
2488.136475 6684.000000
2489.126953 5833.000000
2490.116455 6570.000000
2491.105225 6450.000000
2492.093994 5630.000000
2493.081787 6724.000000
2494.068359 6534.000000
2495.054932 8041.000000
2496.041016 6757.000000
2497.026367 7069.000000
2498.010742 8005.000000
2498.994873 6061.000000
2499.979004 6831.000000
2500.961670 5679.000000
2501.943848 7026.000000
2502.925537 6910.000000
2503.906494 7126.000000
2504.886963 6471.000000
2505.867188 5654.000000
2506.845947 6337.000000
2507.824463 7576.000000
2508.802490 6677.000000
2509.780029 7071.000000
2510.756592 6072.000000
2511.732910 5879.000000
2512.708496 6432.000000
2513.683594 6218.000000
2514.658203 6502.000000
2515.631592 7469.000000
2516.604736 6787.000000
2517.577637 6865.000000
2518.549561 6120.000000
2519.520752 6777.000000
2520.491455 6883.000000
2521.461914 7870.000000
2522.431641 8003.000000
2523.400391 6061.000000
2524.368408 6114.000000
2525.336426 7759.000000
2526.303467 6272.000000
2527.270264 5551.000000
2528.235840 7270.000000
2529.201416 6996.000000
2530.166260 7730.000000
2531.130615 6352.000000
2532.093750 6359.000000
2533.057129 5824.000000
2534.019531 6000.000000
2534.981689 6636.000000
2535.942627 6396.000000
2536.902832 6131.000000
2537.863281 6193.000000
2538.822754 6761.000000
2539.781494 6761.000000
2540.739258 6721.000000
2541.697266 6251.000000
2542.654541 6774.000000
2543.610840 6055.000000
2544.566895 7039.000000
2545.521729 6203.000000
2546.476807 7719.000000
2547.431152 7017.000000
2548.384766 6330.000000
2549.337402 7275.000000
2550.289795 6762.000000
2551.241699 6978.000000
2552.192871 6358.000000
2553.143311 7713.000000
2554.093262 7243.000000
2555.042969 7417.000000
2555.991943 6661.000000
2556.940430 6216.000000
2557.887695 7058.000000
2558.834961 6230.000000
2559.781494 6507.000000
2560.727539 6726.000000
2561.672607 7520.000000
2562.617432 6709.000000
2563.561768 7120.000000
2564.505615 6826.000000
2565.448975 6625.000000
2566.390869 6633.000000
2567.333008 6498.000000
2568.274414 6105.000000
2569.215088 7145.000000
2570.155029 7218.000000
2571.094971 5687.000000
2572.033936 6168.000000
2572.972656 7506.000000
2573.910400 7162.000000
2574.847900 5473.000000
2575.784668 6943.000000
2576.720703 6752.000000
2577.656250 7433.000000
2578.591064 6325.000000
2579.525879 5962.000000
2580.459717 7066.000000
2581.393066 7048.000000
2582.325684 5871.000000
2583.258057 6906.000000
2584.189697 5449.000000
2585.120850 7016.000000
2586.051514 6984.000000
2586.980957 6850.000000
2587.910400 7189.000000
2588.839355 6422.000000
2589.768066 7464.000000
2590.695068 7336.000000
2591.622314 5884.000000
2592.549072 6734.000000
2593.475098 6273.000000
2594.400879 5560.000000
2595.325439 7589.000000
2596.249756 7584.000000
2597.173584 5369.000000
2598.096924 7279.000000
2599.019287 6272.000000
2599.941406 6850.000000
2600.863037 8273.000000
2601.783936 6362.000000
2602.704102 5735.000000
2603.624023 6316.000000
2604.543457 6341.000000
2605.462646 6411.000000
2606.380859 5781.000000
2607.297852 5955.000000
2608.215088 7220.000000
2609.132080 5890.000000
2610.048096 7518.000000
2610.962891 6670.000000
2611.878174 6599.000000
2612.792725 6549.000000
2613.706299 6521.000000
2614.619873 6140.000000
2615.532227 7604.000000
2616.444580 6983.000000
2617.355957 6763.000000
2618.267090 5722.000000
2619.177490 7200.000000
2620.087646 6693.000000
2620.997070 6130.000000
2621.906006 6591.000000
2622.813965 6272.000000
2623.722168 6780.000000
2624.629395 6682.000000
2625.536133 7028.000000
2626.442139 5975.000000
2627.347900 6472.000000
2628.252930 6420.000000
2629.157715 7709.000000
2630.061768 6440.000000
2630.964844 6331.000000
2631.867920 6344.000000
2632.770020 5609.000000
2633.672119 6694.000000
2634.573975 6976.000000
2635.474121 6687.000000
2636.374512 6448.000000
2637.274170 6427.000000
2638.173584 5968.000000
2639.071533 6916.000000
2639.969971 6603.000000
2640.867920 6397.000000
2641.765137 6071.000000
2642.661133 6141.000000
2643.557129 6780.000000
2644.452881 6051.000000
2645.347900 6474.000000
2646.242676 6523.000000
2647.135986 7118.000000
2648.029297 6257.000000
2648.922363 6759.000000
2649.815186 6449.000000
2650.706299 7442.000000
2651.597656 6381.000000
2652.488525 7590.000000
2653.378662 7330.000000
2654.268555 6634.000000
2655.157227 7216.000000
2656.046143 6567.000000
2656.934570 6505.000000
2657.822021 7288.000000
2658.708496 6432.000000
2659.595459 7117.000000
2660.481689 6787.000000
2661.367432 6843.000000
2662.251953 6453.000000
2663.136475 6337.000000
2664.020752 6175.000000
2664.904297 7023.000000
2665.787354 7858.000000
2666.669678 7255.000000
2667.551514 6154.000000
2668.432617 6630.000000
2669.313965 6114.000000
2670.193848 6560.000000
2671.073975 7366.000000
2671.953369 7168.000000
2672.832764 6205.000000
2673.711426 6116.000000
2674.588379 6397.000000
2675.466064 6820.000000
2676.343018 6305.000000
2677.219238 8134.000000
2678.094971 7152.000000
2678.969971 6227.000000
2679.845215 7725.000000
2680.719482 7015.000000
2681.593262 7313.000000
2682.466309 6993.000000
2683.339111 6187.000000
2684.211670 6087.000000
2685.083496 6875.000000
2685.954590 6535.000000
2686.825439 6867.000000
2687.695801 7082.000000
2688.565918 6687.000000
2689.434326 6230.000000
2690.303467 7363.000000
2691.171875 7126.000000
2692.040039 6689.000000
2692.907471 6866.000000
2693.773682 5857.000000
2694.640381 7163.000000
2695.506104 7393.000000
2696.371826 7151.000000
2697.236084 7864.000000
2698.101074 6575.000000
2698.964600 7178.000000
2699.828369 5823.000000
2700.690674 7423.000000
2701.553467 6832.000000
2702.415283 5907.000000
2703.276611 6829.000000
2704.137939 6662.000000
2704.998047 7427.000000
2705.858154 7229.000000
2706.717773 6570.000000
2707.577148 6815.000000
2708.434814 7097.000000
2709.292725 6835.000000
2710.151123 7315.000000
2711.008301 6620.000000
2711.864746 5959.000000
2712.720703 6910.000000
2713.576660 6082.000000
2714.431885 6926.000000
2715.286377 6096.000000
2716.140381 6774.000000
2716.994385 7288.000000
2717.847412 6276.000000
2718.700684 6597.000000
2719.552246 7640.000000
2720.404297 6753.000000
2721.256104 6305.000000
2722.106689 6464.000000
2722.957275 6402.000000
2723.807373 7077.000000
2724.656738 7026.000000
2725.506104 6987.000000
2726.354248 6561.000000
2727.201904 6508.000000
2728.050049 7002.000000
2728.896973 6817.000000
2729.744385 5538.000000
2730.590332 7506.000000
2731.435547 6965.000000
2732.281250 6361.000000
2733.125977 6954.000000
2733.970703 7308.000000
2734.814209 6880.000000
2735.657959 7667.000000
2736.500977 7103.000000
2737.343506 6073.000000
2738.185059 6212.000000
2739.027100 6772.000000
2739.868164 6923.000000
2740.708984 5799.000000
2741.549561 5906.000000
2742.388916 7701.000000
2743.228271 6828.000000
2744.067627 6887.000000
2744.905762 6791.000000
2745.743408 7829.000000
2746.581055 6339.000000
2747.418213 7137.000000
2748.255127 6162.000000
2749.091553 5986.000000
2749.926758 6643.000000
2750.762207 6267.000000
2751.597168 6307.000000
2752.431396 6289.000000
2753.265381 6873.000000
2754.098877 6798.000000
2754.932373 7918.000000
2755.764893 6742.000000
2756.596924 7354.000000
2757.428467 6782.000000
2758.260010 7096.000000
2759.090576 7205.000000
2759.921387 7257.000000
2760.750977 7224.000000
2761.580566 6629.000000
2762.409912 7248.000000
2763.238525 6774.000000
2764.066650 6782.000000
2764.894287 6948.000000
2765.721924 6590.000000
2766.549072 7864.000000
2767.375488 5752.000000
2768.201416 7424.000000
2769.026855 6865.000000
2769.852051 7829.000000
2770.677246 7096.000000
2771.501221 6761.000000
2772.325195 6445.000000
2773.149170 7634.000000
2773.971924 6611.000000
2774.794922 6924.000000
2775.616699 6871.000000
2776.438477 6966.000000
2777.260254 6505.000000
2778.081055 7990.000000
2778.901123 6557.000000
2779.721436 6995.000000
2780.541260 7300.000000
2781.361084 6426.000000
2782.178955 5917.000000
2782.998047 8027.000000
2783.815918 6459.000000
2784.633545 6732.000000
2785.450684 7124.000000
2786.267334 7214.000000
2787.083740 7203.000000
2787.899658 6283.000000
2788.715332 5957.000000
2789.530029 6433.000000
2790.345215 6973.000000
2791.159668 7134.000000
2791.973633 6599.000000
2792.787354 7319.000000
2793.599854 8811.000000
2794.412598 7015.000000
2795.224854 7352.000000
2796.036621 7135.000000
2796.847656 7370.000000
2797.659424 6510.000000
2798.469971 7194.000000
2799.280518 7008.000000
2800.089600 7354.000000
2800.899414 8133.000000
2801.708496 7733.000000
2802.517334 6656.000000
2803.325684 7181.000000
2804.133057 6221.000000
2804.940918 6435.000000
2805.748047 6922.000000
2806.554932 6968.000000
2807.360596 7211.000000
2808.166748 6606.000000
2808.972168 6478.000000
2809.777588 7297.000000
2810.582275 6156.000000
2811.385986 7671.000000
2812.190186 7473.000000
2812.993896 6324.000000
2813.797363 6059.000000
2814.599365 6569.000000
2815.402100 7367.000000
2816.204102 7771.000000
2817.005859 6104.000000
2817.807129 6470.000000
2818.607910 7242.000000
2819.408203 6483.000000
2820.208740 6643.000000
2821.008301 7956.000000
2821.807373 7109.000000
2822.606445 6476.000000
2823.405273 6890.000000
2824.203613 6267.000000
2825.000977 7056.000000
2825.798584 7403.000000
2826.595459 6672.000000
2827.392578 7336.000000
2828.188965 7894.000000
2828.984619 6961.000000
2829.780273 7262.000000
2830.575684 7545.000000
2831.370605 7381.000000
2832.164795 6612.000000
2832.958984 6770.000000
2833.752930 5677.000000
2834.546387 6854.000000
2835.339111 7094.000000
2836.131592 8129.000000
2836.924072 7613.000000
2837.716309 7663.000000
2838.508057 6416.000000
2839.298828 6753.000000
2840.089600 8863.000000
2840.880615 7443.000000
2841.670654 6131.000000
2842.460205 7636.000000
2843.250000 7182.000000
2844.038818 7267.000000
2844.827637 7771.000000
2845.616455 7714.000000
2846.404297 7472.000000
2847.191650 7284.000000
2847.979248 7479.000000
2848.766357 7238.000000
2849.552734 6649.000000
2850.339111 7441.000000
2851.125244 7172.000000
2851.910889 7562.000000
2852.695557 7184.000000
2853.480713 6870.000000
2854.265625 7471.000000
2855.049805 7121.000000
2855.833984 6860.000000
2856.616943 8317.000000
2857.400146 6809.000000
2858.183105 6655.000000
2858.965576 7759.000000
2859.747803 6165.000000
2860.529541 6587.000000
2861.311035 7611.000000
2862.092773 7486.000000
2862.873779 7634.000000
2863.654053 6531.000000
2864.434082 6794.000000
2865.214111 8203.000000
2865.993896 7468.000000
2866.772705 8025.000000
2867.551758 7639.000000
2868.330322 6789.000000
2869.108643 7003.000000
2869.886475 7249.000000
2870.664063 6978.000000
2871.441406 7430.000000
2872.218506 6934.000000
2872.995117 6411.000000
2873.771240 7426.000000
2874.547363 7152.000000
2875.322998 8264.000000
2876.098389 7212.000000
2876.873291 6602.000000
2877.647949 7988.000000
2878.422607 6548.000000
2879.197021 7792.000000
2879.970703 6720.000000
2880.743652 7196.000000
2881.517334 6653.000000
2882.290039 7605.000000
2883.062744 7832.000000
2883.834717 8228.000000
2884.606445 6157.000000
2885.378662 6703.000000
2886.149658 6854.000000
2886.920166 6145.000000
2887.691162 8265.000000
2888.462158 7374.000000
2889.232422 7979.000000
2890.001709 7544.000000
2890.771240 6919.000000
2891.540771 7218.000000
2892.309814 7388.000000
2893.078369 7890.000000
2893.846924 7689.000000
2894.614502 6975.000000
2895.382568 6553.000000
2896.150146 7416.000000
2896.917725 8268.000000
2897.684082 7358.000000
2898.451416 6519.000000
2899.217529 7191.000000
2899.983887 6909.000000
2900.748779 8277.000000
2901.514160 6953.000000
2902.280029 6430.000000
2903.044434 7698.000000
2903.808838 7715.000000
2904.573486 8422.000000
2905.337158 6631.000000
2906.101563 8453.000000
2906.865234 6664.000000
2907.628174 8390.000000
2908.390869 6513.000000
2909.154053 8951.000000
2909.916748 6962.000000
2910.678223 6752.000000
2911.440186 6752.000000
