scanname Analyse111
timestamp 2017-02-10 22:55:34
ccdbias 954.916016
ccdgain 3.473401
sigmaread 8.960639
laserwavenum -0.516701
wavenumcorrection 0.006263
scancount 1
totalexposurems 10000
singleexposurems 10000
measurementstate Unknown
scanmode Manual
snr 63.806732 0.572855 0.327275
replacelist 0
peaks 3
809.445618 0.143106 0.000000 0.219311 0.000047
878.312439 0.137957 0.000000 0.112098 0.000015
1318.639648 0.129378 0.000000 5.125045 0.001426
finalresult GLS_Multiple 84
A10944	Glyphosate-isopropyl-ammonium salt	3.505798e-001
A2453	Calcium chromate	3.364447e-001
A0969	Diethylene glycol monopropyl ether	3.355511e-001
A11768	Methyl (S)-(-)-3-Boc-2,2-dimethyl-4-oxazolidinecarboxylate	3.354201e-001
A10529	1-Formylpiperazine	3.344933e-001
A2782	Acetamide	3.340778e-001
A9546	4-Methoxy-alpha-methylbenzyl alcohol	3.334970e-001
A3222	Potassium nitrite	3.321843e-001
A3573	Ammonium tartrate dibasic	3.319010e-001
A11101	Hydrogen peroxide, 70%	3.318772e-001
A0273	Denatured Solvent Alcohol	3.315821e-001
A12040	Ethanol w/ sweetener	3.315353e-001
A4972	Boric acid	3.314883e-001
A12082	Dipotassium tris(1,2-benzenediolato-O,O')germanate	3.306164e-001
A5310	4-Methyl-3-nitroanisole	3.300757e-001
A4807	2-(2-Nitroethoxy)tetrahydropyran	3.300636e-001
A8461	Ethanol	3.298874e-001
A4881	2-(2-Chloroethoxy)tetrahydro-2H-pyran	3.298053e-001
A11658	2-(2-Nitrovinyl)furan	3.295234e-001
A12733	Tri-tert-butyl borate	3.293712e-001
A6700	4'-Methoxypropiophenone	3.292772e-001
A11100	Hydrogen peroxide, 50%	3.282576e-001
A7387	4-Hydroxypiperidine	3.282112e-001
A3362	2-Nitro-para-xylene	3.274044e-001
A8849	2-Ethoxytetrahydrofuran	3.271475e-001
A10301	2-Methoxytetrahydropyran	3.268325e-001
A9919	Sodium hydrogentartrate	3.264246e-001
A1901	Ethyl cellulose	3.262381e-001
A11925	Butyl (S)-(-)-2-pyrrolidone-5-carboxylate	3.258889e-001
A1676	Trifluoroacetic acid	3.257492e-001
A0113	Hydrogen peroxide	3.257026e-001
A2703	Acetaldehyde dimethyl acetal	3.256445e-001
A10210	tert-Butyl isothiocyanate	3.255515e-001
A4543	1,4-Butanediol divinyl ether	3.250518e-001
A1028	Pentaerythritol	3.247150e-001
A4025	2,4-Dimethylpentane	3.244252e-001
A10296	Tri(ethylene glycol) divinyl ether	3.242859e-001
A0503	Pentaethylene glycol	3.239499e-001
A9660	3-(4-Methoxybenzoyl)propionic acid	3.235677e-001
A1754	N,N-Dimethylhydrazine	3.235330e-001
A5708	Methyl 3,5-dibromo-4-hydroxybenzoate	3.232436e-001
A15808	Ethylamine (70 wt% in water)	3.228160e-001
A0251	Ethylamine	3.224350e-001
A11767	Di(ethylene glycol) vinyl ether	3.213630e-001
A1351	Sodium propionate	3.211787e-001
A0007	Cyclohexane	3.210059e-001
A0292	Hydrazine	3.209257e-001
A3976	2-Aminopyrimidine	3.205006e-001
A9459	1-(4-Nitrophenyl)-3-pyrrolidino-2-pyrazolin-5-one	3.201326e-001
A1550	Nitroethane	3.200526e-001
A1564	Cyclooctatetraene	3.199833e-001
A14021	Ethyl 4,4,4-trifluorobutyrate	3.199606e-001
A4645	1-Bromo-4-(trifluoromethoxy)benzene	3.198574e-001
A11696	1-(4-Methylphenyl)piperazine	3.197544e-001
A3132	4-Methyl-3-nitrobenzoic acid	3.197544e-001
A10581	Piperidine	3.196166e-001
A0199	Isobutyric acid	3.195708e-001
A0419	Sodium chlorite	3.195018e-001
A0098	Roundup (weed and grass killer)	3.194791e-001
A5890	5-Nitroisoquinoline	3.193073e-001
A8415	2-Chloro-6-methoxy-3-nitropyridine	3.192614e-001
A3640	(+/-)-1,2,4-Butanetriol	3.190781e-001
A2435	Sodium percarbonate	3.185405e-001
A2611	2-Nitroethanol	3.184947e-001
A1920	Sodium phosphate monobasic	3.183690e-001
A8663	4-Methyl-3,5-dinitrobenzoic acid	3.180490e-001
A3082	Methyl n-propyl ether	3.179692e-001
A4269	2,4-Dibromoanisole	3.179120e-001
A7119	2-Deoxy-D-ribose	3.175239e-001
A5377	4-Methyl-2-nitroanisole	3.172618e-001
A5385	Diisopropyloctylsilane	3.170221e-001
A7515	Methyl 3-hydroxy-2-methylenebutyrate	3.169655e-001
A6013	Glycine methyl ester hydrochloride	3.169198e-001
A0825	D-Sorbitol	3.164077e-001
A14031	Methyl (S)-(+)-2-pyrrolidone-5-carboxylate	3.160782e-001
A2017	Isopropylamine	3.160327e-001
A5739	(R)-(+)-2-Pyrrolidone-5-carboxylic acid	3.159302e-001
A9092	p-Tolyl ether	3.157823e-001
A1149	Methyl 2-aminobenzoate	3.157597e-001
A3868	N-formylmorpholine	3.148866e-001
A12955	2-Chloro-1,3,2-dioxaphospholane	3.141728e-001
A11366	4-Isopropylanisole	3.130883e-001
A9321	Methyl 2-hydroxyisobutyrate	3.130661e-001
A11482	Methyl 5-methoxysalicylate	3.130097e-001
spectrum 2048
-97.084755 44975.000000
-94.457886 44975.000000
-91.832893 45574.000000
-89.209793 45692.000000
-86.588562 46539.000000
-83.969231 46283.000000
-81.351761 46689.000000
-78.736168 46428.000000
-76.122452 46737.000000
-73.510612 47143.000000
-70.900635 46882.000000
-68.292542 47118.000000
-65.686295 47167.000000
-63.081924 47178.000000
-60.479416 46954.000000
-57.878761 47564.000000
-55.279968 46873.000000
-52.683033 46286.000000
-50.087952 46684.000000
-47.494724 46645.000000
-44.903347 46881.000000
-42.313816 46398.000000
-39.726128 47252.000000
-37.140289 46987.000000
-34.556293 46627.000000
-31.974133 47406.000000
-29.393820 46696.000000
-26.815334 47355.000000
-24.238691 46834.000000
-21.663874 46823.000000
-19.090897 46520.000000
-16.519739 46419.000000
-13.950417 46177.000000
-11.382918 45149.000000
-8.817239 46550.000000
-6.253385 46281.000000
-3.691344 46649.000000
-1.131128 46659.000000
1.427280 46135.000000
3.983867 45229.000000
6.538649 45139.000000
9.091614 45194.000000
11.642778 43755.000000
14.192130 43045.000000
16.739687 41947.000000
19.285431 41522.000000
21.829382 40525.000000
24.371529 38331.000000
26.911879 36465.000000
29.450443 32942.000000
31.987211 29535.000000
34.522175 24853.000000
37.055363 14621.000000
39.586769 7801.000000
42.116383 7164.000000
44.644199 7609.000000
47.170258 6838.000000
49.694527 5659.000000
52.217026 4626.000000
54.737728 4224.000000
57.256676 4462.000000
59.773849 5053.000000
62.289246 6573.000000
64.802864 8221.000000
67.314728 8428.000000
69.824844 5888.000000
72.333168 3687.000000
74.839737 3099.000000
77.344559 2615.000000
79.847626 2000.000000
82.348915 1833.000000
84.848465 1758.000000
87.346260 1783.000000
89.842323 1710.000000
92.336609 1972.000000
94.829155 2254.000000
97.319984 2293.000000
99.809044 2333.000000
102.296356 1869.000000
104.781944 1367.000000
107.265793 1208.000000
109.747894 1143.000000
112.228271 1026.000000
114.706924 1106.000000
117.183853 1077.000000
119.659027 964.000000
122.132492 917.000000
124.604225 984.000000
127.074249 915.000000
129.542526 917.000000
132.009125 940.000000
134.473969 1026.000000
136.937119 996.000000
139.398529 1089.000000
141.858246 1238.000000
144.316238 1391.000000
146.772537 1647.000000
149.227127 1855.000000
151.679993 2115.000000
154.131180 2299.000000
156.580673 2707.000000
159.028442 3074.000000
161.474503 3590.000000
163.918884 4078.000000
166.361588 4449.000000
168.802597 4778.000000
171.241898 4977.000000
173.679489 5189.000000
176.115448 5352.000000
178.549667 5354.000000
180.982208 5491.000000
183.413101 5487.000000
185.842270 5586.000000
188.269791 5444.000000
190.695633 5496.000000
193.119797 5566.000000
195.542297 5650.000000
197.963104 5680.000000
200.382248 5891.000000
202.799728 6036.000000
205.215515 6019.000000
207.629654 6436.000000
210.042160 6803.000000
212.452988 7174.000000
214.862137 7515.000000
217.269653 7974.000000
219.675461 8488.000000
222.079681 8977.000000
224.482193 9432.000000
226.883087 9631.000000
229.282333 9943.000000
231.679916 10071.000000
234.075836 10166.000000
236.470139 10169.000000
238.862778 10327.000000
241.253799 10373.000000
243.643158 10290.000000
246.030899 10415.000000
248.416992 10413.000000
250.801453 10426.000000
253.184265 10441.000000
255.565506 10381.000000
257.945038 10446.000000
260.322998 10454.000000
262.699280 10337.000000
265.074005 10335.000000
267.447083 10246.000000
269.818512 10372.000000
272.188293 10231.000000
274.556519 10269.000000
276.923096 10306.000000
279.288086 10373.000000
281.651459 10320.000000
284.013184 10378.000000
286.373322 10178.000000
288.731842 10311.000000
291.088776 10271.000000
293.444092 10260.000000
295.797821 10284.000000
298.149902 10376.000000
300.500427 10301.000000
302.849365 10278.000000
305.196655 10251.000000
307.542419 10176.000000
309.886505 10164.000000
312.229065 10158.000000
314.570007 10069.000000
316.909332 9982.000000
319.247101 10112.000000
321.583313 9932.000000
323.917877 9971.000000
326.250885 9986.000000
328.582336 9948.000000
330.912201 9852.000000
333.240479 9735.000000
335.567139 9978.000000
337.892303 9973.000000
340.215851 9983.000000
342.537842 9944.000000
344.858276 9923.000000
347.177094 9868.000000
349.494354 9823.000000
351.810089 9851.000000
354.124237 9704.000000
356.436798 9771.000000
358.747803 9748.000000
361.057281 9790.000000
363.365234 9822.000000
365.671570 9680.000000
367.976318 9898.000000
370.279602 9780.000000
372.581268 9703.000000
374.881439 9832.000000
377.180054 9772.000000
379.477112 9803.000000
381.772614 9961.000000
384.066589 9974.000000
386.358978 10001.000000
388.649872 9989.000000
390.939240 10039.000000
393.227020 10189.000000
395.513275 10132.000000
397.798035 10130.000000
400.081177 10073.000000
402.362885 10119.000000
404.643066 10246.000000
406.921661 10084.000000
409.198730 9944.000000
411.474274 10026.000000
413.748291 10073.000000
416.020874 10008.000000
418.291840 10004.000000
420.561310 9981.000000
422.829285 9820.000000
425.095703 9946.000000
427.360626 9907.000000
429.624084 9867.000000
431.885956 9958.000000
434.146362 9749.000000
436.405212 9796.000000
438.662598 9785.000000
440.918488 9717.000000
443.172882 9649.000000
445.425751 9614.000000
447.677063 9592.000000
449.926971 9510.000000
452.175293 9470.000000
454.422180 9434.000000
456.667603 9461.000000
458.911469 9395.000000
461.153839 9456.000000
463.394714 9367.000000
465.634186 9495.000000
467.872070 9590.000000
470.108521 9522.000000
472.343445 9305.000000
474.576904 9418.000000
476.808929 9303.000000
479.039429 9197.000000
481.268433 9272.000000
483.495972 9322.000000
485.722015 9324.000000
487.946625 9262.000000
490.169769 9225.000000
492.391449 9236.000000
494.611572 9395.000000
496.830292 9364.000000
499.047516 9291.000000
501.263367 9271.000000
503.477600 9392.000000
505.690521 9343.000000
507.901855 9355.000000
510.111755 9314.000000
512.320190 9318.000000
514.527283 9364.000000
516.732788 9450.000000
518.936890 9353.000000
521.139465 9427.000000
523.340637 9432.000000
525.540466 9315.000000
527.738770 9220.000000
529.935547 9390.000000
532.130981 9290.000000
534.324890 9315.000000
536.517456 9234.000000
538.708496 9204.000000
540.898132 9129.000000
543.086365 9196.000000
545.273071 9093.000000
547.458313 9103.000000
549.642273 8945.000000
551.824646 8853.000000
554.005676 8808.000000
556.185181 8690.000000
558.363403 8667.000000
560.540100 8775.000000
562.715393 8565.000000
564.889282 8775.000000
567.061707 8725.000000
569.232727 8477.000000
571.402283 8633.000000
573.570557 8702.000000
575.737305 8714.000000
577.902588 8687.000000
580.066467 8715.000000
582.229065 8830.000000
584.390137 8825.000000
586.549805 8703.000000
588.708130 8811.000000
590.864929 8817.000000
593.020386 8703.000000
595.174438 8662.000000
597.327148 8791.000000
599.478333 8794.000000
601.628174 8769.000000
603.776672 8762.000000
605.923584 8767.000000
608.069275 8705.000000
610.213562 8728.000000
612.356384 8818.000000
614.497742 8784.000000
616.637878 8793.000000
618.776489 8811.000000
620.913818 8871.000000
623.049683 8916.000000
625.184143 8660.000000
627.317139 8607.000000
629.448975 8682.000000
631.579346 8545.000000
633.708313 8668.000000
635.835815 8476.000000
637.962036 8494.000000
640.086731 8443.000000
642.210205 8309.000000
644.332336 8357.000000
646.453003 8304.000000
648.572327 8423.000000
650.690247 8274.000000
652.806824 8202.000000
654.921997 8414.000000
657.035828 8100.000000
659.148193 8177.000000
661.259338 8195.000000
663.369080 8132.000000
665.477356 8149.000000
667.584473 8201.000000
669.690125 8125.000000
671.794312 8170.000000
673.897278 8024.000000
675.998840 8117.000000
678.099060 8070.000000
680.197876 8117.000000
682.295349 8279.000000
684.391541 8341.000000
686.486267 8181.000000
688.579773 8229.000000
690.671936 8177.000000
692.762573 8290.000000
694.851990 8402.000000
696.940125 8358.000000
699.026794 8346.000000
701.112244 8279.000000
703.196167 8500.000000
705.278870 8324.000000
707.360291 8333.000000
709.440247 8020.000000
711.518982 7761.000000
713.596252 7800.000000
715.672241 7804.000000
717.746948 7954.000000
719.820374 7739.000000
721.892273 8115.000000
723.963013 7992.000000
726.032410 7865.000000
728.100403 7832.000000
730.167053 7722.000000
732.232483 7670.000000
734.296570 7729.000000
736.359314 7707.000000
738.420715 7673.000000
740.480835 7688.000000
742.539551 7756.000000
744.597046 7591.000000
746.653259 7602.000000
748.708069 7638.000000
750.761597 7597.000000
752.813721 7551.000000
754.864624 7682.000000
756.914307 7493.000000
758.962524 7500.000000
761.009521 7486.000000
763.055237 7346.000000
765.099548 7428.000000
767.142578 7518.000000
769.184387 7184.000000
771.224854 7475.000000
773.263916 7431.000000
775.301819 7428.000000
777.338379 7448.000000
779.373718 7533.000000
781.407715 7510.000000
783.440308 7566.000000
785.471741 7644.000000
787.501770 7447.000000
789.530518 7535.000000
791.558105 7692.000000
793.584351 7569.000000
795.609192 7680.000000
797.632935 7634.000000
799.655273 7655.000000
801.676392 7737.000000
803.696167 7835.000000
805.714661 7883.000000
807.731934 7816.000000
809.747803 7797.000000
811.762512 7949.000000
813.775879 7802.000000
815.788025 7685.000000
817.798950 7561.000000
819.808533 7402.000000
821.816895 7402.000000
823.823853 7292.000000
825.829590 7390.000000
827.834106 7334.000000
829.837341 7235.000000
831.839294 7244.000000
833.839966 7128.000000
835.839417 7203.000000
837.837524 7265.000000
839.834534 7289.000000
841.830139 7271.000000
843.824585 7212.000000
845.817688 7105.000000
847.809570 6999.000000
849.800110 6995.000000
851.789368 6878.000000
853.777588 6836.000000
855.764404 6798.000000
857.750000 6926.000000
859.734314 6901.000000
861.717529 6817.000000
863.699341 6824.000000
865.679932 6828.000000
867.659241 6852.000000
869.637390 6778.000000
871.614197 6914.000000
873.589722 6984.000000
875.564209 6876.000000
877.537231 7128.000000
879.509216 7149.000000
881.479858 7244.000000
883.449341 7352.000000
885.417480 7188.000000
887.384460 7153.000000
889.350098 7089.000000
891.314575 7033.000000
893.277832 7037.000000
895.239868 7032.000000
897.200623 6970.000000
899.160156 6798.000000
901.118408 6950.000000
903.075562 6926.000000
905.031555 7008.000000
906.986145 6856.000000
908.939514 6975.000000
910.891724 6807.000000
912.842712 6684.000000
914.792419 6707.000000
916.740967 6583.000000
918.688293 6682.000000
920.634338 6589.000000
922.579102 6433.000000
924.522827 6370.000000
926.465393 6323.000000
928.406677 6312.000000
930.346619 6258.000000
932.285461 6151.000000
934.223022 6120.000000
936.159363 6155.000000
938.094543 6212.000000
940.028442 6219.000000
941.961243 6102.000000
943.892822 6128.000000
945.823242 6209.000000
947.752441 6236.000000
949.680298 6042.000000
951.607117 6291.000000
953.532654 6144.000000
955.456909 6162.000000
957.380066 6288.000000
959.302063 6205.000000
961.222778 6214.000000
963.142334 6327.000000
965.060730 6308.000000
966.978088 6328.000000
968.893982 6378.000000
970.808777 6383.000000
972.722351 6510.000000
974.634766 6493.000000
976.545959 6347.000000
978.455994 6356.000000
980.364746 6346.000000
982.272461 6325.000000
984.178955 6321.000000
986.084229 6234.000000
987.988403 6164.000000
989.891357 6267.000000
991.793091 6290.000000
993.693665 5939.000000
995.593079 6223.000000
997.491272 6240.000000
999.388306 6046.000000
1001.284119 6017.000000
1003.178772 5974.000000
1005.072327 5778.000000
1006.964600 5844.000000
1008.855957 5768.000000
1010.745972 5731.000000
1012.634766 5736.000000
1014.522400 5552.000000
1016.408875 5553.000000
1018.294189 5777.000000
1020.178345 5694.000000
1022.061279 5628.000000
1023.943176 5644.000000
1025.823853 5650.000000
1027.703369 5546.000000
1029.581909 5531.000000
1031.459106 5693.000000
1033.334961 5712.000000
1035.209839 5729.000000
1037.083740 5624.000000
1038.956177 5730.000000
1040.827637 5610.000000
1042.697754 5613.000000
1044.566895 5714.000000
1046.434814 5684.000000
1048.301636 5452.000000
1050.167358 5752.000000
1052.031860 5698.000000
1053.895264 5684.000000
1055.757324 5748.000000
1057.618408 5729.000000
1059.478394 5672.000000
1061.337036 5616.000000
1063.194580 5732.000000
1065.051025 5719.000000
1066.906372 5790.000000
1068.760498 5744.000000
1070.613770 5673.000000
1072.465576 5756.000000
1074.316406 5618.000000
1076.166016 5720.000000
1078.014404 5535.000000
1079.861938 5674.000000
1081.708130 5643.000000
1083.553101 5669.000000
1085.397217 5664.000000
1087.239990 5561.000000
1089.081543 5584.000000
1090.922363 5522.000000
1092.761597 5503.000000
1094.600098 5560.000000
1096.437256 5470.000000
1098.273193 5321.000000
1100.108154 5420.000000
1101.941895 5258.000000
1103.774658 5172.000000
1105.606079 5236.000000
1107.436646 5358.000000
1109.265869 5304.000000
1111.094116 5065.000000
1112.921143 4960.000000
1114.747192 5044.000000
1116.572021 5200.000000
1118.395752 5040.000000
1120.218262 4994.000000
1122.039673 4996.000000
1123.860229 4963.000000
1125.679321 4908.000000
1127.497559 5033.000000
1129.314453 5060.000000
1131.130493 5160.000000
1132.945313 4978.000000
1134.759033 5156.000000
1136.571655 5182.000000
1138.383057 5135.000000
1140.193481 5216.000000
1142.002808 5220.000000
1143.810791 5252.000000
1145.618042 5324.000000
1147.423828 5406.000000
1149.228760 5288.000000
1151.032593 5376.000000
1152.835205 5316.000000
1154.636963 5304.000000
1156.437256 5329.000000
1158.236572 5236.000000
1160.034912 5248.000000
1161.831909 5265.000000
1163.628174 5196.000000
1165.423096 5190.000000
1167.216919 5215.000000
1169.009888 5089.000000
1170.801514 5130.000000
1172.592163 5072.000000
1174.381836 4923.000000
1176.170044 4846.000000
1177.957397 4858.000000
1179.743652 5069.000000
1181.528809 4964.000000
1183.312866 4897.000000
1185.095825 4887.000000
1186.877808 4836.000000
1188.658569 4847.000000
1190.438354 4817.000000
1192.217041 4758.000000
1193.994751 4785.000000
1195.771240 4665.000000
1197.546631 4674.000000
1199.320923 4655.000000
1201.094116 4568.000000
1202.866455 4658.000000
1204.637451 4585.000000
1206.407593 4501.000000
1208.176514 4690.000000
1209.944336 4437.000000
1211.711304 4496.000000
1213.476929 4527.000000
1215.241577 4551.000000
1217.005127 4516.000000
1218.767578 4590.000000
1220.529175 4475.000000
1222.289551 4490.000000
1224.048828 4449.000000
1225.807251 4525.000000
1227.564453 4491.000000
1229.320557 4574.000000
1231.075562 4595.000000
1232.829712 4578.000000
1234.582520 4547.000000
1236.334351 4633.000000
1238.085327 4621.000000
1239.834961 4662.000000
1241.583740 4555.000000
1243.331177 4734.000000
1245.077881 4786.000000
1246.823364 4699.000000
1248.567993 4519.000000
1250.311279 4599.000000
1252.053589 4569.000000
1253.794800 4620.000000
1255.535156 4545.000000
1257.274414 4346.000000
1259.012451 4341.000000
1260.749634 4369.000000
1262.485596 4348.000000
1264.220581 4386.000000
1265.954590 4363.000000
1267.687622 4563.000000
1269.419434 4603.000000
1271.150269 4576.000000
1272.879883 4569.000000
1274.608643 4746.000000
1276.336304 4626.000000
1278.062866 4718.000000
1279.788574 4625.000000
1281.512939 4621.000000
1283.236450 4628.000000
1284.958984 4592.000000
1286.680542 4627.000000
1288.400879 4546.000000
1290.120239 4585.000000
1291.838501 4516.000000
1293.555786 4393.000000
1295.272095 4598.000000
1296.987183 4480.000000
1298.701294 4566.000000
1300.414429 4476.000000
1302.126709 4471.000000
1303.837769 4285.000000
1305.547852 4468.000000
1307.256836 4325.000000
1308.964600 4388.000000
1310.671753 4267.000000
1312.377441 4278.000000
1314.082397 4396.000000
1315.786377 4326.000000
1317.489136 4320.000000
1319.190918 4398.000000
1320.891846 4388.000000
1322.591431 7087.000000
1324.290161 1423.000000
1325.988159 4172.000000
1327.684814 4333.000000
1329.380371 4104.000000
1331.075073 4170.000000
1332.768555 4206.000000
1334.461182 4256.000000
1336.152954 4203.000000
1337.843384 4100.000000
1339.533081 4048.000000
1341.221680 4031.000000
1342.909180 4044.000000
1344.595703 3973.000000
1346.281128 4068.000000
1347.965576 4084.000000
1349.649170 3982.000000
1351.331543 4076.000000
1353.012939 4129.000000
1354.693481 4112.000000
1356.372803 4148.000000
1358.051514 4203.000000
1359.728882 4296.000000
1361.405151 4154.000000
1363.080444 4395.000000
1364.755005 4291.000000
1366.428345 4267.000000
1368.100708 4243.000000
1369.772095 4268.000000
1371.442505 4263.000000
1373.111816 4225.000000
1374.780151 4222.000000
1376.447632 4163.000000
1378.114014 4112.000000
1379.779419 4102.000000
1381.443848 4125.000000
1383.107056 4049.000000
1384.769653 4070.000000
1386.430908 4008.000000
1388.091309 3975.000000
1389.750610 4046.000000
1391.408936 3910.000000
1393.066528 3935.000000
1394.722900 3947.000000
1396.378418 4002.000000
1398.032715 3977.000000
1399.686157 3984.000000
1401.338501 4034.000000
1402.990112 4045.000000
1404.640503 3959.000000
1406.289795 3829.000000
1407.938354 3768.000000
1409.585815 3820.000000
1411.232300 3599.000000
1412.877930 3677.000000
1414.522583 3661.000000
1416.166016 3725.000000
1417.808594 3628.000000
1419.450073 3579.000000
1421.090698 3691.000000
1422.730347 3655.000000
1424.368896 3674.000000
1426.006592 3547.000000
1427.643188 3515.000000
1429.278809 3589.000000
1430.913696 3513.000000
1432.547485 3535.000000
1434.180176 3562.000000
1435.811890 3478.000000
1437.442749 3633.000000
1439.072510 3567.000000
1440.701172 3778.000000
1442.329224 3615.000000
1443.956177 3584.000000
1445.581909 3521.000000
1447.207031 3554.000000
1448.831055 3536.000000
1450.454102 3657.000000
1452.076172 3709.000000
1453.697144 3589.000000
1455.317139 3628.000000
1456.936401 3640.000000
1458.554321 3707.000000
1460.171631 3415.000000
1461.787964 3743.000000
1463.403076 3660.000000
1465.017334 3569.000000
1466.630737 3674.000000
1468.243042 3567.000000
1469.854492 3590.000000
1471.465088 3597.000000
1473.074463 3566.000000
1474.682861 3496.000000
1476.290405 3631.000000
1477.896973 3853.000000
1479.502808 3681.000000
1481.107422 3641.000000
1482.711182 3496.000000
1484.313721 3379.000000
1485.915649 3482.000000
1487.516357 3318.000000
1489.116333 3207.000000
1490.715210 3285.000000
1492.313232 3305.000000
1493.910156 3132.000000
1495.506226 3377.000000
1497.101318 3489.000000
1498.695435 3477.000000
1500.288818 3362.000000
1501.881104 3440.000000
1503.472168 3429.000000
1505.062744 3411.000000
1506.651978 3234.000000
1508.240601 3276.000000
1509.828125 3347.000000
1511.414551 3347.000000
1513.000244 3282.000000
1514.584839 3189.000000
1516.168579 3356.000000
1517.751221 3143.000000
1519.333130 3170.000000
1520.913940 3349.000000
1522.494019 3221.000000
1524.072876 3175.000000
1525.650879 3125.000000
1527.228149 3217.000000
1528.804199 3078.000000
1530.379517 2990.000000
1531.953735 3130.000000
1533.527222 3030.000000
1535.099487 3085.000000
1536.671021 3033.000000
1538.241577 3131.000000
1539.811279 3043.000000
1541.379761 3103.000000
1542.947510 2970.000000
1544.514404 3070.000000
1546.080078 3029.000000
1547.645020 2974.000000
1549.208862 3011.000000
1550.772095 2944.000000
1552.333984 2948.000000
1553.895264 3082.000000
1555.455444 2996.000000
1557.014893 2957.000000
1558.573242 2992.000000
1560.130859 2983.000000
1561.687378 2936.000000
1563.242676 2865.000000
1564.797363 2890.000000
1566.351318 2821.000000
1567.904297 3017.000000
1569.455933 2924.000000
1571.006836 2933.000000
1572.557007 2831.000000
1574.106201 2883.000000
1575.654053 2894.000000
1577.201416 2904.000000
1578.747803 2942.000000
1580.293335 2907.000000
1581.837891 2946.000000
1583.381226 2928.000000
1584.923950 2844.000000
1586.465820 2944.000000
1588.006592 2827.000000
1589.546387 2936.000000
1591.085449 2928.000000
1592.623413 2933.000000
1594.160889 2936.000000
1595.697021 2881.000000
1597.232056 2887.000000
1598.766602 2809.000000
1600.300171 2817.000000
1601.832886 2908.000000
1603.364014 2971.000000
1604.894897 2874.000000
1606.424927 2811.000000
1607.953735 2857.000000
1609.481445 2885.000000
1611.008545 2758.000000
1612.534912 2768.000000
1614.060303 2861.000000
1615.584839 2878.000000
1617.108032 2822.000000
1618.630493 2852.000000
1620.152222 2836.000000
1621.673096 2750.000000
1623.192505 2724.000000
1624.711426 2768.000000
1626.229614 2801.000000
1627.746948 2724.000000
1629.263184 2844.000000
1630.778076 2716.000000
1632.292480 2736.000000
1633.806152 2689.000000
1635.318726 2719.000000
1636.830078 2739.000000
1638.341064 2712.000000
1639.850952 2665.000000
1641.359985 2694.000000
1642.867676 2630.000000
1644.375000 2670.000000
1645.881470 2613.000000
1647.386963 2713.000000
1648.891602 2668.000000
1650.394775 2583.000000
1651.897339 2560.000000
1653.399536 2634.000000
1654.900391 2645.000000
1656.400146 2624.000000
1657.899048 2502.000000
1659.397583 2507.000000
1660.894897 2504.000000
1662.391479 2542.000000
1663.886475 2496.000000
1665.381226 2524.000000
1666.875122 2410.000000
1668.368042 2412.000000
1669.859619 2400.000000
1671.350708 2329.000000
1672.841187 2453.000000
1674.330566 2399.000000
1675.818481 2361.000000
1677.306152 2336.000000
1678.792847 2395.000000
1680.278687 2409.000000
1681.763672 2334.000000
1683.247192 2374.000000
1684.730469 2276.000000
1686.212891 2434.000000
1687.694214 2377.000000
1689.174072 2356.000000
1690.653687 2200.000000
1692.132568 2396.000000
1693.610474 2332.000000
1695.087402 2366.000000
1696.563110 2303.000000
1698.038452 2320.000000
1699.512573 2320.000000
1700.986084 2237.000000
1702.458130 2296.000000
1703.929932 2310.000000
1705.400757 2295.000000
1706.870728 2296.000000
1708.339355 2303.000000
1709.807495 2368.000000
1711.274902 2237.000000
1712.741211 2306.000000
1714.206909 2204.000000
1715.670898 2158.000000
1717.134766 2275.000000
1718.597778 2266.000000
1720.059814 2264.000000
1721.520630 2323.000000
1722.980835 2236.000000
1724.440308 2341.000000
1725.898926 2295.000000
1727.356567 2348.000000
1728.812866 2237.000000
1730.268921 2301.000000
1731.723999 2226.000000
1733.178101 2270.000000
1734.630981 2213.000000
1736.083618 2282.000000
1737.535156 2239.000000
1738.985962 2303.000000
1740.435791 2172.000000
1741.884277 2166.000000
1743.332397 2157.000000
1744.779663 2263.000000
1746.226196 2122.000000
1747.671143 2156.000000
1749.115845 2133.000000
1750.559692 2126.000000
1752.002686 2290.000000
1753.444214 2212.000000
1754.885498 2176.000000
1756.325928 2002.000000
1757.765381 2161.000000
1759.203857 2148.000000
1760.641357 2175.000000
1762.078369 2016.000000
1763.514404 2100.000000
1764.949585 2138.000000
1766.383301 2067.000000
1767.816895 2038.000000
1769.249512 2096.000000
1770.681274 2116.000000
1772.112183 2004.000000
1773.541870 2131.000000
1774.970825 2017.000000
1776.399292 2024.000000
1777.826782 1879.000000
1779.252930 1852.000000
1780.678833 1923.000000
1782.103638 1981.000000
1783.527832 1952.000000
1784.950562 1938.000000
1786.372803 1969.000000
1787.794312 1974.000000
1789.215088 1918.000000
1790.634888 1893.000000
1792.053345 1900.000000
1793.471313 1849.000000
1794.888672 1897.000000
1796.305176 1883.000000
1797.720215 1855.000000
1799.134888 1931.000000
1800.548950 1921.000000
1801.961792 1986.000000
1803.374023 1905.000000
1804.784912 1789.000000
1806.195313 1890.000000
1807.604980 1905.000000
1809.013672 1848.000000
1810.421265 1979.000000
1811.828369 1821.000000
1813.234619 1861.000000
1814.639893 1943.000000
1816.044067 1884.000000
1817.447876 1950.000000
1818.850708 1919.000000
1820.252686 1930.000000
1821.654053 1825.000000
1823.053955 1945.000000
1824.453247 1852.000000
1825.852051 1818.000000
1827.250000 1913.000000
1828.646606 1777.000000
1830.042603 1897.000000
1831.437866 1836.000000
1832.832520 1892.000000
1834.226196 1822.000000
1835.618530 1835.000000
1837.010376 1806.000000
1838.401611 1855.000000
1839.791870 1860.000000
1841.180908 1912.000000
1842.569580 1778.000000
1843.957275 1732.000000
1845.344238 1795.000000
1846.729858 1735.000000
1848.115234 1829.000000
1849.499756 1788.000000
1850.883545 1709.000000
1852.266235 1809.000000
1853.647705 1727.000000
1855.028687 1657.000000
1856.409180 1732.000000
1857.788696 1738.000000
1859.166748 1625.000000
1860.544678 1750.000000
1861.921631 1615.000000
1863.297852 1768.000000
1864.673218 1729.000000
1866.047119 1673.000000
1867.420898 1688.000000
1868.793823 1643.000000
1870.165649 1664.000000
1871.536499 1518.000000
1872.906982 1598.000000
1874.276367 1584.000000
1875.645264 1566.000000
1877.012573 1620.000000
1878.379761 1672.000000
1879.745972 1607.000000
1881.111450 1669.000000
1882.476196 1613.000000
1883.839355 1587.000000
1885.202393 1556.000000
1886.564575 1582.000000
1887.925903 1586.000000
1889.285889 1513.000000
1890.645508 1534.000000
1892.004517 1596.000000
1893.362549 1504.000000
1894.719727 1584.000000
1896.075684 1545.000000
1897.431396 1548.000000
1898.786133 1481.000000
1900.140015 1504.000000
1901.492798 1552.000000
1902.845093 1514.000000
1904.196655 1544.000000
1905.547363 1454.000000
1906.896851 1532.000000
1908.245850 1492.000000
1909.593994 1520.000000
1910.941528 1436.000000
1912.288330 1484.000000
1913.633545 1529.000000
1914.978516 1541.000000
1916.322754 1643.000000
1917.666138 1636.000000
1919.008179 1597.000000
1920.349976 1431.000000
1921.690918 1466.000000
1923.031128 1562.000000
1924.370361 1559.000000
1925.708618 1518.000000
1927.046265 1530.000000
1928.383179 1443.000000
1929.719238 1541.000000
1931.054077 1518.000000
1932.388550 1440.000000
1933.722290 1425.000000
1935.055176 1490.000000
1936.386597 1482.000000
1937.718140 1431.000000
1939.048340 1420.000000
1940.378052 1434.000000
1941.706909 1493.000000
1943.034546 1376.000000
1944.361694 1450.000000
1945.688110 1447.000000
1947.013794 1475.000000
1948.338135 1435.000000
1949.662231 1504.000000
1950.985474 1377.000000
1952.307983 1426.000000
1953.629395 1411.000000
1954.949829 1447.000000
1956.269653 1352.000000
1957.589111 1322.000000
1958.907593 1403.000000
1960.224731 1390.000000
1961.541504 1343.000000
1962.857544 1368.000000
1964.172852 1384.000000
1965.486694 1405.000000
1966.800293 1407.000000
1968.113159 1314.000000
1969.425171 1353.000000
1970.736572 1332.000000
1972.046631 1358.000000
1973.356201 1327.000000
1974.665039 1377.000000
1975.973267 1254.000000
1977.280151 1341.000000
1978.586426 1268.000000
1979.892334 1365.000000
1981.197021 1282.000000
1982.501221 1268.000000
1983.804199 1314.000000
1985.106812 1240.000000
1986.408447 1277.000000
1987.709473 1343.000000
1989.008911 1228.000000
1990.308472 1221.000000
1991.606934 1264.000000
1992.904907 1202.000000
1994.201294 1154.000000
1995.497681 1176.000000
1996.793091 1214.000000
1998.087769 1119.000000
1999.381592 1165.000000
2000.674194 1192.000000
2001.966309 1124.000000
2003.257935 1185.000000
2004.548828 1126.000000
2005.838135 1189.000000
2007.127197 1184.000000
2008.415527 1176.000000
2009.703125 1142.000000
2010.989868 1244.000000
2012.275513 1217.000000
2013.560791 1056.000000
2014.845093 1204.000000
2016.128784 1137.000000
2017.411133 1112.000000
2018.693115 1145.000000
2019.974609 1096.000000
2021.255127 1184.000000
2022.534912 1110.000000
2023.813599 1132.000000
2025.091553 1190.000000
2026.369019 1136.000000
2027.645874 1252.000000
2028.921021 1112.000000
2030.196289 1097.000000
2031.470581 1165.000000
2032.743896 1160.000000
2034.016357 1191.000000
2035.288452 1208.000000
2036.559448 1146.000000
2037.830200 1102.000000
2039.099609 1180.000000
2040.367920 1186.000000
2041.636230 1168.000000
2042.903564 1116.000000
2044.170166 1143.000000
2045.435547 1156.000000
2046.700317 1588.000000
2047.964844 1120.000000
2049.228027 1144.000000
2050.490967 1131.000000
2051.751953 1120.000000
2053.013428 1132.000000
2054.273682 1019.000000
2055.533203 1044.000000
2056.791992 1074.000000
2058.049805 953.000000
2059.307129 1136.000000
2060.563721 950.000000
2061.818848 1124.000000
2063.073975 1115.000000
2064.328125 1034.000000
2065.581543 1063.000000
2066.834229 1039.000000
2068.085693 1016.000000
2069.336914 1105.000000
2070.587402 1043.000000
2071.837158 1074.000000
2073.085449 731.000000
2074.333740 1109.000000
2075.581055 1019.000000
2076.827637 999.000000
2078.073486 1031.000000
2079.318115 1069.000000
2080.562256 945.000000
2081.805908 994.000000
2083.048584 1017.000000
2084.290039 1003.000000
2085.531250 1119.000000
2086.771973 923.000000
2088.011719 981.000000
2089.250244 950.000000
2090.488281 981.000000
2091.725586 1029.000000
2092.962646 950.000000
2094.198242 966.000000
2095.433105 909.000000
2096.667725 913.000000
2097.901367 985.000000
2099.134033 919.000000
2100.365967 1004.000000
2101.597412 926.000000
2102.827881 935.000000
2104.057617 959.000000
2105.287109 887.000000
2106.514648 848.000000
2107.742432 928.000000
2108.969482 890.000000
2110.195557 973.000000
2111.420166 949.000000
2112.645020 892.000000
2113.868652 976.000000
2115.091797 892.000000
2116.313721 823.000000
2117.535400 931.000000
2118.756104 895.000000
2119.976074 845.000000
2121.195557 964.000000
2122.413574 950.000000
2123.631592 971.000000
2124.848633 930.000000
2126.065186 923.000000
2127.280029 928.000000
2128.495117 877.000000
2129.709229 858.000000
2130.922607 880.000000
2132.135254 891.000000
2133.346436 843.000000
2134.557861 721.000000
2135.768066 708.000000
2136.977783 851.000000
2138.186035 885.000000
2139.394287 930.000000
2140.601807 1002.000000
2141.808105 940.000000
2143.013672 814.000000
2144.218994 910.000000
2145.423340 856.000000
2146.626953 867.000000
2147.830078 877.000000
2149.031738 849.000000
2150.233154 936.000000
2151.433838 807.000000
2152.633789 867.000000
2153.832520 981.000000
2155.031006 839.000000
2156.229004 852.000000
2157.426025 827.000000
2158.622314 826.000000
2159.817383 818.000000
2161.012207 877.000000
2162.206299 885.000000
2163.399414 759.000000
2164.591553 792.000000
2165.783447 825.000000
2166.974609 882.000000
2168.164795 729.000000
2169.354248 797.000000
2170.543213 776.000000
2171.731201 713.000000
2172.918945 745.000000
2174.105225 798.000000
2175.290771 659.000000
2176.476074 752.000000
2177.660889 801.000000
2178.844482 646.000000
2180.027344 720.000000
2181.209229 722.000000
2182.390869 685.000000
2183.572021 721.000000
2184.751953 817.000000
2185.930908 837.000000
2187.109375 688.000000
2188.287598 763.000000
2189.464600 653.000000
2190.640625 807.000000
2191.816406 766.000000
2192.991699 752.000000
2194.165527 699.000000
2195.338867 703.000000
2196.511963 694.000000
2197.683838 724.000000
2198.855225 648.000000
2200.026123 702.000000
2201.195313 811.000000
2202.364502 779.000000
2203.533203 692.000000
2204.700928 744.000000
2205.867676 645.000000
2207.033691 761.000000
2208.199219 662.000000
2209.364502 769.000000
2210.528320 723.000000
2211.691650 699.000000
2212.853760 794.000000
2214.016113 716.000000
2215.177246 714.000000
2216.337402 706.000000
2217.497070 781.000000
2218.656494 699.000000
2219.814697 729.000000
2220.971924 639.000000
2222.128906 765.000000
2223.285156 662.000000
2224.440674 722.000000
2225.595459 735.000000
2226.749268 658.000000
2227.902100 706.000000
2229.055420 711.000000
2230.206787 747.000000
2231.357910 673.000000
2232.508301 547.000000
2233.658203 567.000000
2234.807129 574.000000
2235.955566 606.000000
2237.102539 649.000000
2238.249756 597.000000
2239.395752 605.000000
2240.541504 632.000000
2241.685547 697.000000
2242.829834 663.000000
2243.973145 578.000000
2245.115723 607.000000
2246.257324 652.000000
2247.398682 643.000000
2248.539063 638.000000
2249.678711 545.000000
2250.817871 614.000000
2251.955811 592.000000
2253.093750 585.000000
2254.230713 569.000000
2255.366943 538.000000
2256.502197 619.000000
2257.636719 524.000000
2258.770996 615.000000
2259.904785 658.000000
2261.037109 513.000000
2262.168945 614.000000
2263.300293 584.000000
2264.430664 607.000000
2265.560791 577.000000
2266.689697 567.000000
2267.818115 572.000000
2268.946045 579.000000
2270.072998 602.000000
2271.199219 493.000000
2272.324463 599.000000
2273.449707 485.000000
2274.574219 555.000000
2275.697510 584.000000
2276.820068 619.000000
2277.942139 518.000000
2279.063721 570.000000
2280.184570 559.000000
2281.304199 531.000000
2282.423340 639.000000
2283.542236 659.000000
2284.660400 464.000000
2285.777588 517.000000
2286.893799 570.000000
2288.009766 542.000000
2289.125000 530.000000
2290.239502 532.000000
2291.352783 502.000000
2292.466064 495.000000
2293.578613 577.000000
2294.690430 591.000000
2295.801514 561.000000
2296.911377 624.000000
2298.020752 549.000000
2299.129883 554.000000
2300.238037 501.000000
2301.345215 442.000000
2302.452148 503.000000
2303.558350 561.000000
2304.664063 487.000000
2305.768311 593.000000
2306.872314 523.000000
2307.975830 498.000000
2309.078857 578.000000
2310.180664 526.000000
2311.281738 523.000000
2312.382324 442.000000
2313.482422 505.000000
2314.581787 463.000000
2315.679688 508.000000
2316.778076 501.000000
2317.875000 547.000000
2318.971680 550.000000
2320.067871 530.000000
2321.162354 492.000000
2322.256836 471.000000
2323.350586 587.000000
2324.444092 500.000000
2325.535889 604.000000
2326.627686 635.000000
2327.718750 585.000000
2328.809082 518.000000
2329.898438 652.000000
2330.987793 540.000000
2332.075928 545.000000
2333.163574 637.000000
2334.250977 419.000000
2335.336670 577.000000
2336.422119 447.000000
2337.507324 419.000000
2338.591553 454.000000
2339.674805 505.000000
2340.757813 454.000000
2341.839844 493.000000
2342.921631 505.000000
2344.002686 447.000000
2345.082520 410.000000
2346.161865 353.000000
2347.240723 469.000000
2348.319092 422.000000
2349.395996 506.000000
2350.472656 364.000000
2351.549072 458.000000
2352.624512 378.000000
2353.698975 417.000000
2354.773193 401.000000
2355.846680 460.000000
2356.919678 505.000000
2357.991455 401.000000
2359.062988 463.000000
2360.133545 390.000000
2361.203857 492.000000
2362.273193 342.000000
2363.341553 459.000000
2364.409668 465.000000
2365.477051 444.000000
2366.543945 456.000000
2367.610107 431.000000
2368.675049 465.000000
2369.739990 191.000000
2370.804199 392.000000
2371.867676 359.000000
2372.929932 426.000000
2373.992188 441.000000
2375.053467 379.000000
2376.114502 436.000000
2377.174316 491.000000
2378.233398 423.000000
2379.292480 454.000000
2380.350586 378.000000
2381.407959 464.000000
2382.464355 410.000000
2383.520508 411.000000
2384.576172 311.000000
2385.631104 357.000000
2386.684570 391.000000
2387.738281 345.000000
2388.791016 451.000000
2389.843262 366.000000
2390.894775 454.000000
2391.945313 387.000000
2392.995605 438.000000
2394.044922 435.000000
2395.094238 368.000000
2396.142090 393.000000
2397.189453 491.000000
2398.236572 377.000000
2399.282715 383.000000
2400.328125 304.000000
2401.372803 358.000000
2402.417480 395.000000
2403.460693 397.000000
2404.503906 341.000000
2405.545654 303.000000
2406.587646 379.000000
2407.628906 423.000000
2408.669189 365.000000
2409.708740 382.000000
2410.747314 382.000000
2411.786133 374.000000
2412.823730 447.000000
2413.861084 405.000000
2414.897217 347.000000
2415.933105 351.000000
2416.968262 369.000000
2418.002930 354.000000
2419.036133 405.000000
2420.069580 346.000000
2421.102051 310.000000
2422.134277 310.000000
2423.165039 305.000000
2424.195801 335.000000
2425.226074 339.000000
2426.255127 375.000000
2427.284180 369.000000
2428.311523 378.000000
2429.339355 342.000000
2430.365967 254.000000
2431.392334 351.000000
2432.417236 345.000000
2433.442383 363.000000
2434.466553 316.000000
2435.490479 453.000000
2436.513184 319.000000
2437.535156 394.000000
2438.556885 322.000000
2439.577881 332.000000
2440.598389 381.000000
2441.617676 249.000000
2442.636963 307.000000
2443.655273 301.000000
2444.673340 436.000000
2445.689941 401.000000
2446.706543 339.000000
2447.722412 374.000000
2448.738281 282.000000
2449.752686 352.000000
2450.766357 307.000000
2451.779541 287.000000
2452.792480 397.000000
2453.804688 291.000000
2454.815918 401.000000
2455.826904 233.000000
2456.837158 346.000000
2457.846924 346.000000
2458.855713 250.000000
2459.863770 242.000000
2460.871826 317.000000
2461.878662 269.000000
2462.885254 336.000000
2463.890625 315.000000
2464.895752 363.000000
2465.900635 249.000000
2466.904297 338.000000
2467.907715 284.000000
2468.910156 326.000000
2469.912354 294.000000
2470.914063 229.000000
2471.914795 235.000000
2472.914551 184.000000
2473.914307 313.000000
2474.913086 291.000000
2475.911377 217.000000
2476.908691 242.000000
2477.905762 308.000000
2478.902832 386.000000
2479.898438 275.000000
2480.894043 255.000000
2481.887939 256.000000
2482.881836 287.000000
2483.875244 293.000000
2484.868164 306.000000
2485.860107 402.000000
2486.851318 208.000000
2487.842285 354.000000
2488.832764 281.000000
2489.822266 319.000000
2490.811035 261.000000
2491.799805 379.000000
2492.787598 251.000000
2493.774170 349.000000
2494.760742 257.000000
2495.746826 234.000000
2496.732178 350.000000
2497.716553 291.000000
2498.700684 287.000000
2499.684814 293.000000
2500.667480 364.000000
2501.649658 329.000000
2502.631348 403.000000
2503.612305 254.000000
2504.592773 278.000000
2505.572998 276.000000
2506.551758 250.000000
2507.530273 313.000000
2508.508301 233.000000
2509.485840 272.000000
2510.462402 287.000000
2511.438721 281.000000
2512.414307 226.000000
2513.389404 186.000000
2514.364014 324.000000
2515.337402 299.000000
2516.310547 257.000000
2517.283447 165.000000
2518.255371 308.000000
2519.226563 272.000000
2520.197266 267.000000
2521.167725 218.000000
2522.137451 183.000000
2523.106201 240.000000
2524.074219 257.000000
2525.042236 141.000000
2526.009277 297.000000
2526.976074 274.000000
2527.941650 217.000000
2528.907227 187.000000
2529.872070 230.000000
2530.836426 223.000000
2531.799561 248.000000
2532.762939 219.000000
2533.725342 345.000000
2534.687500 265.000000
2535.648438 234.000000
2536.608643 299.000000
2537.569092 187.000000
2538.528564 162.000000
2539.487305 294.000000
2540.445068 232.000000
2541.403076 217.000000
2542.360352 238.000000
2543.316650 308.000000
2544.272705 240.000000
2545.227539 180.000000
2546.182617 209.000000
2547.136963 172.000000
2548.090576 -137.000000
2549.043213 284.000000
2549.995605 315.000000
2550.947510 209.000000
2551.898682 237.000000
2552.849121 298.000000
2553.799072 267.000000
2554.748779 194.000000
2555.697754 198.000000
2556.646240 202.000000
2557.593506 203.000000
2558.540771 207.000000
2559.487305 252.000000
2560.433350 344.000000
2561.378418 144.000000
2562.323242 94.000000
2563.267578 234.000000
2564.211426 236.000000
2565.154785 283.000000
2566.096680 196.000000
2567.038818 216.000000
2567.980225 165.000000
2568.920898 224.000000
2569.860840 193.000000
2570.800781 187.000000
2571.739746 219.000000
2572.678467 301.000000
2573.616211 252.000000
2574.553711 226.000000
2575.490479 182.000000
2576.426514 218.000000
2577.362061 193.000000
2578.296875 148.000000
2579.231689 220.000000
2580.165527 321.000000
2581.098877 181.000000
2582.031494 189.000000
2582.963867 195.000000
2583.895508 249.000000
2584.826660 173.000000
2585.757324 149.000000
2586.686768 217.000000
2587.616211 187.000000
2588.545166 250.000000
2589.473877 303.000000
2590.400879 175.000000
2591.328125 147.000000
2592.254883 295.000000
2593.180908 200.000000
2594.106689 178.000000
2595.031250 150.000000
2595.955566 143.000000
2596.879395 198.000000
2597.802734 244.000000
2598.725098 199.000000
2599.647217 184.000000
2600.568848 223.000000
2601.489746 185.000000
2602.409912 140.000000
2603.329834 174.000000
2604.249268 244.000000
2605.168457 195.000000
2606.086670 249.000000
2607.003662 261.000000
2607.920898 156.000000
2608.837891 236.000000
2609.753906 134.000000
2610.668701 169.000000
2611.583984 194.000000
2612.498535 339.000000
2613.412109 240.000000
2614.325684 157.000000
2615.238037 118.000000
2616.150391 128.000000
2617.061768 133.000000
2617.972900 232.000000
2618.883301 435.000000
2619.793457 129.000000
2620.702881 128.000000
2621.611816 166.000000
2622.519775 201.000000
2623.427979 109.000000
2624.335205 161.000000
2625.241943 203.000000
2626.147949 179.000000
2627.053711 209.000000
2627.958740 -70.000000
2628.863525 150.000000
2629.767578 98.000000
2630.670654 186.000000
2631.573730 170.000000
2632.475830 180.000000
2633.377930 131.000000
2634.279785 184.000000
2635.179932 255.000000
2636.080322 157.000000
2636.979980 141.000000
2637.879395 99.000000
2638.777344 201.000000
2639.675781 226.000000
2640.573730 147.000000
2641.470947 194.000000
2642.366943 109.000000
2643.262939 317.000000
2644.158691 196.000000
2645.053711 146.000000
2645.948486 148.000000
2646.841797 127.000000
2647.735107 155.000000
2648.628174 187.000000
2649.520996 232.000000
2650.412109 179.000000
2651.303467 237.000000
2652.194336 166.000000
2653.084473 125.000000
2653.974365 135.000000
2654.863037 130.000000
2655.751953 194.000000
2656.640381 127.000000
2657.527832 81.000000
2658.414307 175.000000
2659.301270 156.000000
2660.187500 196.000000
2661.073242 194.000000
2661.957764 190.000000
2662.842285 137.000000
2663.726563 184.000000
2664.610107 87.000000
2665.493164 180.000000
2666.375488 32.000000
2667.257324 135.000000
2668.138428 164.000000
2669.019775 117.000000
2669.899658 100.000000
2670.779785 211.000000
2671.659180 87.000000
2672.538574 135.000000
2673.417236 178.000000
2674.294189 125.000000
2675.171875 170.000000
2676.048828 33.000000
2676.925049 115.000000
2677.800781 152.000000
2678.675781 150.000000
2679.551025 176.000000
2680.425293 203.000000
2681.299072 70.000000
2682.172119 156.000000
2683.044922 109.000000
2683.917480 128.000000
2684.789307 141.000000
2685.660400 169.000000
2686.531250 125.000000
2687.401611 93.000000
2688.271729 47.000000
2689.140137 110.000000
2690.009277 113.000000
2690.877686 102.000000
2691.745850 86.000000
2692.613281 14.000000
2693.479492 145.000000
2694.346191 117.000000
2695.211914 72.000000
2696.077637 136.000000
2696.941895 443.000000
2697.806885 117.000000
2698.670410 171.000000
2699.534180 67.000000
2700.396484 87.000000
2701.259277 153.000000
2702.121094 82.000000
2702.982422 99.000000
2703.843750 173.000000
2704.703857 145.000000
2705.563965 85.000000
2706.423584 80.000000
2707.282959 62.000000
2708.140625 130.000000
2708.998535 177.000000
2709.856934 131.000000
2710.714111 188.000000
2711.570557 136.000000
2712.426514 113.000000
2713.282471 150.000000
2714.137695 110.000000
2714.992188 144.000000
2715.846191 49.000000
2716.700195 146.000000
2717.553223 188.000000
2718.406494 108.000000
2719.258057 239.000000
2720.110107 67.000000
2720.961914 141.000000
2721.812500 184.000000
2722.663086 68.000000
2723.513184 209.000000
2724.362549 83.000000
2725.211914 39.000000
2726.060059 116.000000
2726.907715 128.000000
2727.755859 103.000000
2728.602783 202.000000
2729.450195 70.000000
2730.296143 144.000000
2731.141357 107.000000
2731.987061 38.000000
2732.831787 124.000000
2733.676514 140.000000
2734.520020 152.000000
2735.363770 106.000000
2736.206787 192.000000
2737.049316 113.000000
2737.890869 28.000000
2738.732910 104.000000
2739.573975 87.000000
2740.414795 149.000000
2741.255371 85.000000
2742.094727 100.000000
2742.934082 105.000000
2743.773438 175.000000
2744.611572 -1.000000
2745.449219 118.000000
2746.286865 124.000000
2747.124023 59.000000
2747.960938 126.000000
2748.797363 147.000000
2749.632568 59.000000
2750.468018 4.000000
2751.302979 97.000000
2752.137207 80.000000
2752.971191 82.000000
2753.804688 123.000000
2754.638184 36.000000
2755.470703 74.000000
2756.302734 75.000000
2757.134277 56.000000
2757.965820 23.000000
2758.796387 153.000000
2759.627197 56.000000
2760.456787 26.000000
2761.286377 180.000000
2762.115723 87.000000
2762.944336 54.000000
2763.772461 125.000000
2764.600098 12.000000
2765.427734 21.000000
2766.254883 95.000000
2767.081299 56.000000
2767.907227 110.000000
2768.732666 39.000000
2769.557861 -9.000000
2770.383057 45.000000
2771.207031 97.000000
2772.031006 96.000000
2772.854980 33.000000
2773.677734 31.000000
2774.500732 -15.000000
2775.322510 79.000000
2776.144287 85.000000
2776.966064 102.000000
2777.786865 39.000000
2778.606934 98.000000
2779.427246 127.000000
2780.247070 113.000000
2781.066895 48.000000
2781.884766 79.000000
2782.703857 12.000000
2783.521729 102.000000
2784.339355 -30.000000
2785.156494 140.000000
2785.973145 77.000000
2786.789551 49.000000
2787.605469 116.000000
2788.421143 59.000000
2789.235840 68.000000
2790.051025 141.000000
2790.865479 46.000000
2791.679443 43.000000
2792.493164 71.000000
2793.305664 55.000000
2794.118408 98.000000
2794.930664 56.000000
2795.742432 26.000000
2796.553467 101.000000
2797.365234 98.000000
2798.175781 147.000000
2798.986328 51.000000
2799.795410 71.000000
2800.605225 102.000000
2801.414307 57.000000
2802.223145 -10.000000
2803.031494 -42.000000
2803.838867 109.000000
2804.646729 188.000000
2805.453857 50.000000
2806.260742 56.000000
2807.066406 75.000000
2807.872559 38.000000
2808.677979 -5.000000
2809.483398 117.000000
2810.288086 61.000000
2811.091797 173.000000
2811.895996 68.000000
2812.699707 -18.000000
2813.503174 98.000000
2814.305176 66.000000
2815.107910 82.000000
2815.909912 120.000000
2816.711670 131.000000
2817.512939 -16.000000
2818.313721 33.000000
2819.114014 128.000000
2819.914551 247.000000
2820.714111 23.000000
2821.513184 109.000000
2822.312256 -65.000000
2823.111084 119.000000
2823.909424 82.000000
2824.706787 73.000000
2825.504395 105.000000
2826.301270 58.000000
2827.098389 158.000000
2827.894775 177.000000
2828.690430 155.000000
2829.486084 187.000000
2830.281494 76.000000
2831.076416 -24.000000
2831.870605 25.000000
2832.664795 70.000000
2833.458740 22.000000
2834.252197 47.000000
2835.044922 48.000000
2835.837402 38.000000
2836.629883 -28.000000
2837.422119 80.000000
2838.213867 135.000000
2839.004639 112.000000
2839.795410 -51.000000
2840.586426 100.000000
2841.376465 81.000000
2842.166016 86.000000
2842.955811 27.000000
2843.744629 73.000000
2844.533447 51.000000
2845.322266 26.000000
2846.110107 97.000000
2846.897461 81.000000
2847.685059 63.000000
2848.472168 62.000000
2849.258545 -16.000000
2850.044922 27.000000
2850.831055 50.000000
2851.616699 115.000000
2852.401367 129.000000
2853.186523 24.000000
2853.971436 74.000000
2854.755615 143.000000
2855.539795 38.000000
2856.322754 -38.000000
2857.105957 17.000000
2857.888916 81.000000
2858.671387 -10.000000
2859.453613 56.000000
2860.235352 73.000000
2861.016846 85.000000
2861.798584 -14.000000
2862.579590 48.000000
2863.359863 120.000000
2864.139893 141.000000
2864.919922 46.000000
2865.699707 93.000000
2866.478516 48.000000
2867.257568 187.000000
2868.036133 47.000000
2868.814453 -8.000000
2869.592285 66.000000
2870.369873 127.000000
2871.147217 -15.000000
2871.924316 45.000000
2872.700928 83.000000
2873.477051 181.000000
2874.253174 90.000000
2875.028809 137.000000
2875.804199 109.000000
2876.579102 131.000000
2877.353760 54.000000
2878.128418 17.000000
2878.902832 127.000000
2879.676514 65.000000
2880.449463 82.000000
2881.223145 109.000000
2881.995850 143.000000
2882.768555 182.000000
2883.540527 -14.000000
2884.312256 123.000000
2885.084473 85.000000
2885.855469 90.000000
2886.625977 116.000000
2887.396973 68.000000
2888.167969 98.000000
2888.938232 -6.000000
2889.707520 49.000000
2890.477051 55.000000
2891.246582 97.000000
2892.015625 12.000000
2892.784180 124.000000
2893.552734 59.000000
2894.320313 67.000000
2895.088379 43.000000
2895.855957 108.000000
2896.623535 67.000000
2897.389893 14.000000
2898.157227 143.000000
2898.923340 22.000000
2899.689697 128.000000
2900.454590 18.000000
2901.219971 45.000000
2901.985840 86.000000
2902.750244 116.000000
2903.514648 48.000000
2904.279297 75.000000
2905.042969 114.000000
2905.807373 56.000000
2906.571045 17.000000
2907.333984 52.000000
2908.096680 182.000000
2908.859863 188.000000
2909.622559 39.000000
2910.384033 47.000000
2911.145996 47.000000
spectrumdark 2048
-97.084755 6175.000000
-94.457886 6175.000000
-91.832893 6080.000000
-89.209793 6408.000000
-86.588562 5822.000000
-83.969231 6281.000000
-81.351761 6023.000000
-78.736168 6424.000000
-76.122452 6208.000000
-73.510612 5872.000000
-70.900635 6122.000000
-68.292542 5990.000000
-65.686295 5953.000000
-63.081924 6009.000000
-60.479416 6212.000000
-57.878761 5581.000000
-55.279968 6308.000000
-52.683033 6879.000000
-50.087952 6494.000000
-47.494724 6500.000000
-44.903347 6274.000000
-42.313816 6732.000000
-39.726128 5891.000000
-37.140289 6137.000000
-34.556293 6472.000000
-31.974133 5688.000000
-29.393820 6345.000000
-26.815334 5707.000000
-24.238691 6163.000000
-21.663874 6196.000000
-19.090897 6473.000000
-16.519739 6543.000000
-13.950417 6735.000000
-11.382918 7750.000000
-8.817239 6272.000000
-6.253385 6462.000000
-3.691344 5983.000000
-1.131128 5838.000000
1.427280 6244.000000
3.983867 6920.000000
6.538649 6684.000000
9.091614 6043.000000
11.642778 6760.000000
14.192130 6497.000000
16.739687 6512.000000
19.285431 6021.000000
21.829382 5774.000000
24.371529 6660.000000
26.911879 6743.000000
29.450443 6813.000000
31.987211 6179.000000
34.522175 5801.000000
37.055363 7289.000000
39.586769 6299.000000
42.116383 7166.000000
44.644199 6523.000000
47.170258 7807.000000
49.694527 5626.000000
52.217026 6214.000000
54.737728 6752.000000
57.256676 6279.000000
59.773849 6454.000000
62.289246 6653.000000
64.802864 5628.000000
67.314728 5697.000000
69.824844 6546.000000
72.333168 6512.000000
74.839737 5918.000000
77.344559 6316.000000
79.847626 6459.000000
82.348915 6312.000000
84.848465 6153.000000
87.346260 6340.000000
89.842323 5760.000000
92.336609 7171.000000
94.829155 5808.000000
97.319984 6886.000000
99.809044 7141.000000
102.296356 6392.000000
104.781944 6187.000000
107.265793 6401.000000
109.747894 5816.000000
112.228271 6606.000000
114.706924 6256.000000
117.183853 6459.000000
119.659027 7206.000000
122.132492 6849.000000
124.604225 5829.000000
127.074249 6717.000000
129.542526 6263.000000
132.009125 6336.000000
134.473969 5710.000000
136.937119 6230.000000
139.398529 7275.000000
141.858246 6822.000000
144.316238 6341.000000
146.772537 5977.000000
149.227127 5801.000000
151.679993 6798.000000
154.131180 6397.000000
156.580673 6562.000000
159.028442 6119.000000
161.474503 6531.000000
163.918884 8677.000000
166.361588 6391.000000
168.802597 6733.000000
171.241898 6274.000000
173.679489 7242.000000
176.115448 6638.000000
178.549667 6942.000000
180.982208 7143.000000
183.413101 6624.000000
185.842270 6680.000000
188.269791 6745.000000
190.695633 6372.000000
193.119797 6679.000000
195.542297 7128.000000
197.963104 7409.000000
200.382248 6479.000000
202.799728 6013.000000
205.215515 7623.000000
207.629654 7013.000000
210.042160 6375.000000
212.452988 6090.000000
214.862137 6247.000000
217.269653 7382.000000
219.675461 6170.000000
222.079681 6535.000000
224.482193 6684.000000
226.883087 6922.000000
229.282333 6489.000000
231.679916 6869.000000
234.075836 7239.000000
236.470139 6512.000000
238.862778 5812.000000
241.253799 6787.000000
243.643158 6627.000000
246.030899 6295.000000
248.416992 6933.000000
250.801453 6076.000000
253.184265 7867.000000
255.565506 6642.000000
257.945038 6662.000000
260.322998 6511.000000
262.699280 7584.000000
265.074005 7558.000000
267.447083 7857.000000
269.818512 6224.000000
272.188293 6451.000000
274.556519 5869.000000
276.923096 6301.000000
279.288086 6730.000000
281.651459 6057.000000
284.013184 6234.000000
286.373322 7079.000000
288.731842 6111.000000
291.088776 6532.000000
293.444092 6399.000000
295.797821 6008.000000
298.149902 5919.000000
300.500427 6319.000000
302.849365 6364.000000
305.196655 6835.000000
307.542419 6453.000000
309.886505 6511.000000
312.229065 7307.000000
314.570007 7552.000000
316.909332 7238.000000
319.247101 6971.000000
321.583313 8087.000000
323.917877 6231.000000
326.250885 6521.000000
328.582336 5976.000000
330.912201 6615.000000
333.240479 6547.000000
335.567139 7182.000000
337.892303 6282.000000
340.215851 6209.000000
342.537842 5959.000000
344.858276 7466.000000
347.177094 7689.000000
349.494354 6056.000000
351.810089 5834.000000
354.124237 6946.000000
356.436798 6348.000000
358.747803 6438.000000
361.057281 7053.000000
363.365234 6352.000000
365.671570 5708.000000
367.976318 6361.000000
370.279602 6464.000000
372.581268 6287.000000
374.881439 6312.000000
377.180054 6320.000000
379.477112 5767.000000
381.772614 6072.000000
384.066589 5834.000000
386.358978 5164.000000
388.649872 5564.000000
390.939240 6178.000000
393.227020 6169.000000
395.513275 6469.000000
397.798035 7036.000000
400.081177 6129.000000
402.362885 6428.000000
404.643066 6142.000000
406.921661 7210.000000
409.198730 6537.000000
411.474274 6703.000000
413.748291 6481.000000
416.020874 6400.000000
418.291840 6213.000000
420.561310 6490.000000
422.829285 7191.000000
425.095703 7179.000000
427.360626 6237.000000
429.624084 6275.000000
431.885956 6436.000000
434.146362 5986.000000
436.405212 6571.000000
438.662598 6199.000000
440.918488 5663.000000
443.172882 5784.000000
445.425751 5468.000000
447.677063 6930.000000
449.926971 5986.000000
452.175293 6254.000000
454.422180 5685.000000
456.667603 6516.000000
458.911469 6521.000000
461.153839 6840.000000
463.394714 5669.000000
465.634186 6727.000000
467.872070 5452.000000
470.108521 5863.000000
472.343445 6048.000000
474.576904 7242.000000
476.808929 6686.000000
479.039429 5668.000000
481.268433 6486.000000
483.495972 6308.000000
485.722015 5896.000000
487.946625 6573.000000
490.169769 5889.000000
492.391449 6412.000000
494.611572 6697.000000
496.830292 5629.000000
499.047516 6251.000000
501.263367 5610.000000
503.477600 6144.000000
505.690521 6458.000000
507.901855 6411.000000
510.111755 6870.000000
512.320190 6449.000000
514.527283 6553.000000
516.732788 6405.000000
518.936890 6551.000000
521.139465 6185.000000
523.340637 6526.000000
525.540466 6679.000000
527.738770 6958.000000
529.935547 5283.000000
532.130981 5830.000000
534.324890 5581.000000
536.517456 7526.000000
538.708496 6709.000000
540.898132 6038.000000
543.086365 6916.000000
545.273071 7083.000000
547.458313 6797.000000
549.642273 6246.000000
551.824646 6437.000000
554.005676 6193.000000
556.185181 6031.000000
558.363403 5890.000000
560.540100 5988.000000
562.715393 6447.000000
564.889282 6427.000000
567.061707 5882.000000
569.232727 6097.000000
571.402283 6325.000000
573.570557 5270.000000
575.737305 6411.000000
577.902588 6260.000000
580.066467 6102.000000
582.229065 5646.000000
584.390137 6028.000000
586.549805 5679.000000
588.708130 5812.000000
590.864929 6161.000000
593.020386 6573.000000
595.174438 5805.000000
597.327148 6186.000000
599.478333 7225.000000
601.628174 6747.000000
603.776672 6731.000000
605.923584 6031.000000
608.069275 6537.000000
610.213562 6439.000000
612.356384 6998.000000
614.497742 6226.000000
616.637878 6467.000000
618.776489 7574.000000
620.913818 5699.000000
623.049683 6561.000000
625.184143 6856.000000
627.317139 7198.000000
629.448975 6605.000000
631.579346 6603.000000
633.708313 6771.000000
635.835815 6500.000000
637.962036 6236.000000
640.086731 7323.000000
642.210205 6375.000000
644.332336 6782.000000
646.453003 6833.000000
648.572327 6533.000000
650.690247 5767.000000
652.806824 5675.000000
654.921997 6385.000000
657.035828 6487.000000
659.148193 5799.000000
661.259338 6111.000000
663.369080 5379.000000
665.477356 6014.000000
667.584473 6230.000000
669.690125 6791.000000
671.794312 5663.000000
673.897278 5798.000000
675.998840 6981.000000
678.099060 5368.000000
680.197876 6763.000000
682.295349 6195.000000
684.391541 6936.000000
686.486267 6227.000000
688.579773 7012.000000
690.671936 6619.000000
692.762573 7883.000000
694.851990 6596.000000
696.940125 6446.000000
699.026794 5985.000000
701.112244 6706.000000
703.196167 5150.000000
705.278870 5845.000000
707.360291 5924.000000
709.440247 7578.000000
711.518982 6233.000000
713.596252 5512.000000
715.672241 6562.000000
717.746948 6068.000000
719.820374 6921.000000
721.892273 6306.000000
723.963013 7436.000000
726.032410 5776.000000
728.100403 6464.000000
730.167053 6387.000000
732.232483 7084.000000
734.296570 5800.000000
736.359314 6144.000000
738.420715 6516.000000
740.480835 6591.000000
742.539551 6036.000000
744.597046 6668.000000
746.653259 6424.000000
748.708069 6633.000000
750.761597 6366.000000
752.813721 7473.000000
754.864624 5744.000000
756.914307 6692.000000
758.962524 6326.000000
761.009521 6197.000000
763.055237 7050.000000
765.099548 5385.000000
767.142578 5712.000000
769.184387 14985.000000
771.224854 6931.000000
773.263916 6361.000000
775.301819 6130.000000
777.338379 6020.000000
779.373718 5358.000000
781.407715 5826.000000
783.440308 6883.000000
785.471741 5465.000000
787.501770 12013.000000
789.530518 6084.000000
791.558105 6285.000000
793.584351 6398.000000
795.609192 5783.000000
797.632935 5510.000000
799.655273 6372.000000
801.676392 5838.000000
803.696167 6660.000000
805.714661 4923.000000
807.731934 6753.000000
809.747803 6825.000000
811.762512 5725.000000
813.775879 6412.000000
815.788025 6303.000000
817.798950 6074.000000
819.808533 6618.000000
821.816895 5327.000000
823.823853 5680.000000
825.829590 6027.000000
827.834106 5728.000000
829.837341 5649.000000
831.839294 6462.000000
833.839966 6020.000000
835.839417 5863.000000
837.837524 6356.000000
839.834534 6923.000000
841.830139 6205.000000
843.824585 6005.000000
845.817688 6159.000000
847.809570 6848.000000
849.800110 5570.000000
851.789368 6770.000000
853.777588 6011.000000
855.764404 5706.000000
857.750000 6424.000000
859.734314 7185.000000
861.717529 6328.000000
863.699341 6375.000000
865.679932 5837.000000
867.659241 7685.000000
869.637390 7106.000000
871.614197 6245.000000
873.589722 5950.000000
875.564209 6270.000000
877.537231 6014.000000
879.509216 5472.000000
881.479858 6343.000000
883.449341 6121.000000
885.417480 5564.000000
887.384460 5180.000000
889.350098 6169.000000
891.314575 5854.000000
893.277832 5978.000000
895.239868 6485.000000
897.200623 5849.000000
899.160156 6479.000000
901.118408 6684.000000
903.075562 6321.000000
905.031555 6022.000000
906.986145 6827.000000
908.939514 6459.000000
910.891724 6457.000000
912.842712 6435.000000
914.792419 7085.000000
916.740967 6335.000000
918.688293 6158.000000
920.634338 6075.000000
922.579102 6094.000000
924.522827 6295.000000
926.465393 5958.000000
928.406677 5549.000000
930.346619 6447.000000
932.285461 5732.000000
934.223022 5430.000000
936.159363 5996.000000
938.094543 5814.000000
940.028442 6047.000000
941.961243 5897.000000
943.892822 6736.000000
945.823242 5233.000000
947.752441 6325.000000
949.680298 7051.000000
951.607117 6531.000000
953.532654 5928.000000
955.456909 5387.000000
957.380066 5951.000000
959.302063 6682.000000
961.222778 7307.000000
963.142334 6473.000000
965.060730 5314.000000
966.978088 6450.000000
968.893982 6409.000000
970.808777 6075.000000
972.722351 5922.000000
974.634766 6368.000000
976.545959 6437.000000
978.455994 5542.000000
980.364746 6227.000000
982.272461 6152.000000
984.178955 6361.000000
986.084229 5702.000000
987.988403 6752.000000
989.891357 6183.000000
991.793091 6725.000000
993.693665 6530.000000
995.593079 6533.000000
997.491272 5225.000000
999.388306 6682.000000
1001.284119 6478.000000
1003.178772 7649.000000
1005.072327 5538.000000
1006.964600 7099.000000
1008.855957 6081.000000
1010.745972 5340.000000
1012.634766 6614.000000
1014.522400 6400.000000
1016.408875 6906.000000
1018.294189 6674.000000
1020.178345 5909.000000
1022.061279 5833.000000
1023.943176 6200.000000
1025.823853 5156.000000
1027.703369 5881.000000
1029.581909 6131.000000
1031.459106 5326.000000
1033.334961 6136.000000
1035.209839 5840.000000
1037.083740 6546.000000
1038.956177 6970.000000
1040.827637 6657.000000
1042.697754 5520.000000
1044.566895 5504.000000
1046.434814 5784.000000
1048.301636 7177.000000
1050.167358 6718.000000
1052.031860 6413.000000
1053.895264 6461.000000
1055.757324 6492.000000
1057.618408 5874.000000
1059.478394 6500.000000
1061.337036 6651.000000
1063.194580 5723.000000
1065.051025 6705.000000
1066.906372 5881.000000
1068.760498 5801.000000
1070.613770 6242.000000
1072.465576 6354.000000
1074.316406 6191.000000
1076.166016 6134.000000
1078.014404 5747.000000
1079.861938 7916.000000
1081.708130 5613.000000
1083.553101 6226.000000
1085.397217 5437.000000
1087.239990 5587.000000
1089.081543 6553.000000
1090.922363 5450.000000
1092.761597 5720.000000
1094.600098 6031.000000
1096.437256 6043.000000
1098.273193 6874.000000
1100.108154 6561.000000
1101.941895 5424.000000
1103.774658 5535.000000
1105.606079 6130.000000
1107.436646 7220.000000
1109.265869 6499.000000
1111.094116 6420.000000
1112.921143 7114.000000
1114.747192 5421.000000
1116.572021 6297.000000
1118.395752 7095.000000
1120.218262 6105.000000
1122.039673 5840.000000
1123.860229 5879.000000
1125.679321 6606.000000
1127.497559 7058.000000
1129.314453 6850.000000
1131.130493 6580.000000
1132.945313 6526.000000
1134.759033 5588.000000
1136.571655 5777.000000
1138.383057 5653.000000
1140.193481 6096.000000
1142.002808 6693.000000
1143.810791 6996.000000
1145.618042 5942.000000
1147.423828 5978.000000
1149.228760 5388.000000
1151.032593 5399.000000
1152.835205 6125.000000
1154.636963 6112.000000
1156.437256 6064.000000
1158.236572 6104.000000
1160.034912 5870.000000
1161.831909 5442.000000
1163.628174 5940.000000
1165.423096 6124.000000
1167.216919 6345.000000
1169.009888 7680.000000
1170.801514 5721.000000
1172.592163 6452.000000
1174.381836 5973.000000
1176.170044 5906.000000
1177.957397 7461.000000
1179.743652 6786.000000
1181.528809 5788.000000
1183.312866 5931.000000
1185.095825 7653.000000
1186.877808 5890.000000
1188.658569 5860.000000
1190.438354 6332.000000
1192.217041 6927.000000
1193.994751 6639.000000
1195.771240 7132.000000
1197.546631 6605.000000
1199.320923 6504.000000
1201.094116 6731.000000
1202.866455 6546.000000
1204.637451 6693.000000
1206.407593 5718.000000
1208.176514 6105.000000
1209.944336 6410.000000
1211.711304 5788.000000
1213.476929 5854.000000
1215.241577 6992.000000
1217.005127 6559.000000
1218.767578 5892.000000
1220.529175 6773.000000
1222.289551 5925.000000
1224.048828 6285.000000
1225.807251 6030.000000
1227.564453 7097.000000
1229.320557 6431.000000
1231.075562 5487.000000
1232.829712 5986.000000
1234.582520 5884.000000
1236.334351 5999.000000
1238.085327 5934.000000
1239.834961 4915.000000
1241.583740 7025.000000
1243.331177 6433.000000
1245.077881 6543.000000
1246.823364 6444.000000
1248.567993 6475.000000
1250.311279 6754.000000
1252.053589 6682.000000
1253.794800 5358.000000
1255.535156 5053.000000
1257.274414 5755.000000
1259.012451 6573.000000
1260.749634 7109.000000
1262.485596 6024.000000
1264.220581 6455.000000
1265.954590 7251.000000
1267.687622 5950.000000
1269.419434 6142.000000
1271.150269 6417.000000
1272.879883 7246.000000
1274.608643 5866.000000
1276.336304 5652.000000
1278.062866 5505.000000
1279.788574 5542.000000
1281.512939 6449.000000
1283.236450 5153.000000
1284.958984 6852.000000
1286.680542 6559.000000
1288.400879 6185.000000
1290.120239 6655.000000
1291.838501 7207.000000
1293.555786 6452.000000
1295.272095 5738.000000
1296.987183 6418.000000
1298.701294 6130.000000
1300.414429 5794.000000
1302.126709 6416.000000
1303.837769 8300.000000
1305.547852 5557.000000
1307.256836 6288.000000
1308.964600 6676.000000
1310.671753 7008.000000
1312.377441 5769.000000
1314.082397 6866.000000
1315.786377 6165.000000
1317.489136 6028.000000
1319.190918 6605.000000
1320.891846 6043.000000
1322.591431 9701.000000
1324.290161 31195.000000
1325.988159 5577.000000
1327.684814 6430.000000
1329.380371 7195.000000
1331.075073 6831.000000
1332.768555 5734.000000
1334.461182 5383.000000
1336.152954 7092.000000
1337.843384 6215.000000
1339.533081 6586.000000
1341.221680 6141.000000
1342.909180 7582.000000
1344.595703 5645.000000
1346.281128 6730.000000
1347.965576 5900.000000
1349.649170 7254.000000
1351.331543 6361.000000
1353.012939 5947.000000
1354.693481 6548.000000
1356.372803 6716.000000
1358.051514 5797.000000
1359.728882 6519.000000
1361.405151 5794.000000
1363.080444 5537.000000
1364.755005 6581.000000
1366.428345 6446.000000
1368.100708 6799.000000
1369.772095 5188.000000
1371.442505 6734.000000
1373.111816 6127.000000
1374.780151 5633.000000
1376.447632 6058.000000
1378.114014 6480.000000
1379.779419 6061.000000
1381.443848 5903.000000
1383.107056 5974.000000
1384.769653 5700.000000
1386.430908 6337.000000
1388.091309 6519.000000
1389.750610 6391.000000
1391.408936 6476.000000
1393.066528 6825.000000
1394.722900 6471.000000
1396.378418 6983.000000
1398.032715 6310.000000
1399.686157 5829.000000
1401.338501 6095.000000
1402.990112 6463.000000
1404.640503 7139.000000
1406.289795 6265.000000
1407.938354 7534.000000
1409.585815 7835.000000
1411.232300 6182.000000
1412.877930 6279.000000
1414.522583 6007.000000
1416.166016 6948.000000
1417.808594 7126.000000
1419.450073 6856.000000
1421.090698 6462.000000
1422.730347 6482.000000
1424.368896 6037.000000
1426.006592 6617.000000
1427.643188 6348.000000
1429.278809 5981.000000
1430.913696 6393.000000
1432.547485 5871.000000
1434.180176 6123.000000
1435.811890 5701.000000
1437.442749 6111.000000
1439.072510 5990.000000
1440.701172 7635.000000
1442.329224 5959.000000
1443.956177 6110.000000
1445.581909 6167.000000
1447.207031 6133.000000
1448.831055 6543.000000
1450.454102 5991.000000
1452.076172 6032.000000
1453.697144 7471.000000
1455.317139 6343.000000
1456.936401 6951.000000
1458.554321 5638.000000
1460.171631 19044.000000
1461.787964 5506.000000
1463.403076 7215.000000
1465.017334 6230.000000
1466.630737 5200.000000
1468.243042 5644.000000
1469.854492 6168.000000
1471.465088 6314.000000
1473.074463 5972.000000
1474.682861 6012.000000
1476.290405 6192.000000
1477.896973 6704.000000
1479.502808 5301.000000
1481.107422 6188.000000
1482.711182 5508.000000
1484.313721 6724.000000
1485.915649 5436.000000
1487.516357 5514.000000
1489.116333 5644.000000
1490.715210 6248.000000
1492.313232 6441.000000
1493.910156 6732.000000
1495.506226 6304.000000
1497.101318 5973.000000
1498.695435 5453.000000
1500.288818 6551.000000
1501.881104 5496.000000
1503.472168 5969.000000
1505.062744 6722.000000
1506.651978 6511.000000
1508.240601 6154.000000
1509.828125 6477.000000
1511.414551 6782.000000
1513.000244 6221.000000
1514.584839 6642.000000
1516.168579 6089.000000
1517.751221 6234.000000
1519.333130 6576.000000
1520.913940 6602.000000
1522.494019 6053.000000
1524.072876 6215.000000
1525.650879 6349.000000
1527.228149 6228.000000
1528.804199 5736.000000
1530.379517 5930.000000
1531.953735 6278.000000
1533.527222 5455.000000
1535.099487 5945.000000
1536.671021 6404.000000
1538.241577 6401.000000
1539.811279 6285.000000
1541.379761 5411.000000
1542.947510 6567.000000
1544.514404 5568.000000
1546.080078 6735.000000
1547.645020 5986.000000
1549.208862 5034.000000
1550.772095 7482.000000
1552.333984 6340.000000
1553.895264 5967.000000
1555.455444 5660.000000
1557.014893 5793.000000
1558.573242 5868.000000
1560.130859 6245.000000
1561.687378 7015.000000
1563.242676 5848.000000
1564.797363 6327.000000
1566.351318 5636.000000
1567.904297 6107.000000
1569.455933 5666.000000
1571.006836 5865.000000
1572.557007 6211.000000
1574.106201 6336.000000
1575.654053 5826.000000
1577.201416 5529.000000
1578.747803 5702.000000
1580.293335 5062.000000
1581.837891 6653.000000
1583.381226 6325.000000
1584.923950 6598.000000
1586.465820 6436.000000
1588.006592 6688.000000
1589.546387 5803.000000
1591.085449 6659.000000
1592.623413 5892.000000
1594.160889 6108.000000
1595.697021 5841.000000
1597.232056 6659.000000
1598.766602 6222.000000
1600.300171 5985.000000
1601.832886 5792.000000
1603.364014 6262.000000
1604.894897 6374.000000
1606.424927 5784.000000
1607.953735 6075.000000
1609.481445 6156.000000
1611.008545 6056.000000
1612.534912 5940.000000
1614.060303 6229.000000
1615.584839 5762.000000
1617.108032 5697.000000
1618.630493 5612.000000
1620.152222 6568.000000
1621.673096 7019.000000
1623.192505 15529.000000
1624.711426 6191.000000
1626.229614 6004.000000
1627.746948 5993.000000
1629.263184 6391.000000
1630.778076 6995.000000
1632.292480 6690.000000
1633.806152 5765.000000
1635.318726 6811.000000
1636.830078 5967.000000
1638.341064 6435.000000
1639.850952 6228.000000
1641.359985 6138.000000
1642.867676 5606.000000
1644.375000 6055.000000
1645.881470 7118.000000
1647.386963 6189.000000
1648.891602 6820.000000
1650.394775 6133.000000
1651.897339 6551.000000
1653.399536 6281.000000
1654.900391 6547.000000
1656.400146 7500.000000
1657.899048 5966.000000
1659.397583 6487.000000
1660.894897 6230.000000
1662.391479 5926.000000
1663.886475 6492.000000
1665.381226 6296.000000
1666.875122 5234.000000
1668.368042 5616.000000
1669.859619 20813.000000
1671.350708 6484.000000
1672.841187 6048.000000
1674.330566 5933.000000
1675.818481 6928.000000
1677.306152 6867.000000
1678.792847 6024.000000
1680.278687 5333.000000
1681.763672 6083.000000
1683.247192 6177.000000
1684.730469 6195.000000
1686.212891 5804.000000
1687.694214 6199.000000
1689.174072 6183.000000
1690.653687 5622.000000
1692.132568 6603.000000
1693.610474 6020.000000
1695.087402 6075.000000
1696.563110 5811.000000
1698.038452 6017.000000
1699.512573 6278.000000
1700.986084 5472.000000
1702.458130 5550.000000
1703.929932 6867.000000
1705.400757 6367.000000
1706.870728 7072.000000
1708.339355 5160.000000
1709.807495 5788.000000
1711.274902 6442.000000
1712.741211 5487.000000
1714.206909 5800.000000
1715.670898 6285.000000
1717.134766 5957.000000
1718.597778 6896.000000
1720.059814 6423.000000
1721.520630 6617.000000
1722.980835 5451.000000
1724.440308 5655.000000
1725.898926 6109.000000
1727.356567 5926.000000
1728.812866 6279.000000
1730.268921 6050.000000
1731.723999 6462.000000
1733.178101 5991.000000
1734.630981 6916.000000
1736.083618 5955.000000
1737.535156 6884.000000
1738.985962 5917.000000
1740.435791 6599.000000
1741.884277 5904.000000
1743.332397 7354.000000
1744.779663 6520.000000
1746.226196 6655.000000
1747.671143 6675.000000
1749.115845 6176.000000
1750.559692 5928.000000
1752.002686 5509.000000
1753.444214 6514.000000
1754.885498 6291.000000
1756.325928 19413.000000
1757.765381 6284.000000
1759.203857 5219.000000
1760.641357 5965.000000
1762.078369 7534.000000
1763.514404 5830.000000
1764.949585 7069.000000
1766.383301 6171.000000
1767.816895 6423.000000
1769.249512 6629.000000
1770.681274 5872.000000
1772.112183 5799.000000
1773.541870 6298.000000
1774.970825 6150.000000
1776.399292 6271.000000
1777.826782 6697.000000
1779.252930 6239.000000
1780.678833 5620.000000
1782.103638 6877.000000
1783.527832 5623.000000
1784.950562 6599.000000
1786.372803 6534.000000
1787.794312 6861.000000
1789.215088 5874.000000
1790.634888 6114.000000
1792.053345 6147.000000
1793.471313 6901.000000
1794.888672 5494.000000
1796.305176 6073.000000
1797.720215 6508.000000
1799.134888 5795.000000
1800.548950 6551.000000
1801.961792 5908.000000
1803.374023 6947.000000
1804.784912 7125.000000
1806.195313 7747.000000
1807.604980 6471.000000
1809.013672 5932.000000
1810.421265 5310.000000
1811.828369 6447.000000
1813.234619 6342.000000
1814.639893 6646.000000
1816.044067 5972.000000
1817.447876 5916.000000
1818.850708 6182.000000
1820.252686 5988.000000
1821.654053 5873.000000
1823.053955 6284.000000
1824.453247 6409.000000
1825.852051 6564.000000
1827.250000 7368.000000
1828.646606 5783.000000
1830.042603 6681.000000
1831.437866 5890.000000
1832.832520 8052.000000
1834.226196 5969.000000
1835.618530 6826.000000
1837.010376 6407.000000
1838.401611 5837.000000
1839.791870 7000.000000
1841.180908 5983.000000
1842.569580 6081.000000
1843.957275 5999.000000
1845.344238 5838.000000
1846.729858 6925.000000
1848.115234 5798.000000
1849.499756 6331.000000
1850.883545 6330.000000
1852.266235 6309.000000
1853.647705 5442.000000
1855.028687 6565.000000
1856.409180 6279.000000
1857.788696 5701.000000
1859.166748 6043.000000
1860.544678 6220.000000
1861.921631 7870.000000
1863.297852 6047.000000
1864.673218 6058.000000
1866.047119 5639.000000
1867.420898 5692.000000
1868.793823 6188.000000
1870.165649 5966.000000
1871.536499 6920.000000
1872.906982 5434.000000
1874.276367 6029.000000
1875.645264 6104.000000
1877.012573 7092.000000
1878.379761 6041.000000
1879.745972 5957.000000
1881.111450 6722.000000
1882.476196 7468.000000
1883.839355 6761.000000
1885.202393 6887.000000
1886.564575 6354.000000
1887.925903 6420.000000
1889.285889 5669.000000
1890.645508 5782.000000
1892.004517 6074.000000
1893.362549 6681.000000
1894.719727 7261.000000
1896.075684 5871.000000
1897.431396 7577.000000
1898.786133 5820.000000
1900.140015 5539.000000
1901.492798 5898.000000
1902.845093 5967.000000
1904.196655 5930.000000
1905.547363 6873.000000
1906.896851 6534.000000
1908.245850 6664.000000
1909.593994 5834.000000
1910.941528 6197.000000
1912.288330 6294.000000
1913.633545 6828.000000
1914.978516 6052.000000
1916.322754 5409.000000
1917.666138 6414.000000
1919.008179 5920.000000
1920.349976 6716.000000
1921.690918 7017.000000
1923.031128 6074.000000
1924.370361 6305.000000
1925.708618 6212.000000
1927.046265 6460.000000
1928.383179 7007.000000
1929.719238 6680.000000
1931.054077 5554.000000
1932.388550 6704.000000
1933.722290 7268.000000
1935.055176 6247.000000
1936.386597 5696.000000
1937.718140 6381.000000
1939.048340 6601.000000
1940.378052 5789.000000
1941.706909 6050.000000
1943.034546 5880.000000
1944.361694 5007.000000
1945.688110 5807.000000
1947.013794 6487.000000
1948.338135 5716.000000
1949.662231 6633.000000
1950.985474 6350.000000
1952.307983 6407.000000
1953.629395 5766.000000
1954.949829 7320.000000
1956.269653 6030.000000
1957.589111 5544.000000
1958.907593 6847.000000
1960.224731 5865.000000
1961.541504 5872.000000
1962.857544 6544.000000
1964.172852 6552.000000
1965.486694 6251.000000
1966.800293 5667.000000
1968.113159 6256.000000
1969.425171 5952.000000
1970.736572 6029.000000
1972.046631 6230.000000
1973.356201 5846.000000
1974.665039 6112.000000
1975.973267 6645.000000
1977.280151 6062.000000
1978.586426 7208.000000
1979.892334 5517.000000
1981.197021 6413.000000
1982.501221 5950.000000
1983.804199 5700.000000
1985.106812 7557.000000
1986.408447 6115.000000
1987.709473 6703.000000
1989.008911 6080.000000
1990.308472 6640.000000
1991.606934 5267.000000
1992.904907 6030.000000
1994.201294 6143.000000
1995.497681 5816.000000
1996.793091 5593.000000
1998.087769 6523.000000
1999.381592 5680.000000
2000.674194 6518.000000
2001.966309 5728.000000
2003.257935 7134.000000
2004.548828 6427.000000
2005.838135 6257.000000
2007.127197 6817.000000
2008.415527 5909.000000
2009.703125 6052.000000
2010.989868 6646.000000
2012.275513 5671.000000
2013.560791 6402.000000
2014.845093 5947.000000
2016.128784 5620.000000
2017.411133 6056.000000
2018.693115 6487.000000
2019.974609 6768.000000
2021.255127 5839.000000
2022.534912 6060.000000
2023.813599 6764.000000
2025.091553 5806.000000
2026.369019 5888.000000
2027.645874 6187.000000
2028.921021 5792.000000
2030.196289 6592.000000
2031.470581 6028.000000
2032.743896 5941.000000
2034.016357 5911.000000
2035.288452 6129.000000
2036.559448 6949.000000
2037.830200 6625.000000
2039.099609 5971.000000
2040.367920 6695.000000
2041.636230 6602.000000
2042.903564 5922.000000
2044.170166 5939.000000
2045.435547 5591.000000
2046.700317 5486.000000
2047.964844 5408.000000
2049.228027 5844.000000
2050.490967 6422.000000
2051.751953 6135.000000
2053.013428 6064.000000
2054.273682 5921.000000
2055.533203 6476.000000
2056.791992 6289.000000
2058.049805 6966.000000
2059.307129 6076.000000
2060.563721 6018.000000
2061.818848 6469.000000
2063.073975 5599.000000
2064.328125 5612.000000
2065.581543 5669.000000
2066.834229 6821.000000
2068.085693 6286.000000
2069.336914 6215.000000
2070.587402 5609.000000
2071.837158 5398.000000
2073.085449 6490.000000
2074.333740 6432.000000
2075.581055 7474.000000
2076.827637 5606.000000
2078.073486 6021.000000
2079.318115 7001.000000
2080.562256 7637.000000
2081.805908 5504.000000
2083.048584 6041.000000
2084.290039 6930.000000
2085.531250 5950.000000
2086.771973 6366.000000
2088.011719 6780.000000
2089.250244 7083.000000
2090.488281 6181.000000
2091.725586 5817.000000
2092.962646 6617.000000
2094.198242 6121.000000
2095.433105 6282.000000
2096.667725 6111.000000
2097.901367 5607.000000
2099.134033 6079.000000
2100.365967 6803.000000
2101.597412 6417.000000
2102.827881 6762.000000
2104.057617 5986.000000
2105.287109 6034.000000
2106.514648 6055.000000
2107.742432 5927.000000
2108.969482 6284.000000
2110.195557 5485.000000
2111.420166 6381.000000
2112.645020 6911.000000
2113.868652 7031.000000
2115.091797 6252.000000
2116.313721 7558.000000
2117.535400 6010.000000
2118.756104 6791.000000
2119.976074 6046.000000
2121.195557 6096.000000
2122.413574 6605.000000
2123.631592 7000.000000
2124.848633 5754.000000
2126.065186 5800.000000
2127.280029 6540.000000
2128.495117 6354.000000
2129.709229 6760.000000
2130.922607 5692.000000
2132.135254 6036.000000
2133.346436 5861.000000
2134.557861 6657.000000
2135.768066 6833.000000
2136.977783 5937.000000
2138.186035 6149.000000
2139.394287 5666.000000
2140.601807 5807.000000
2141.808105 7567.000000
2143.013672 5922.000000
2144.218994 5699.000000
2145.423340 5524.000000
2146.626953 6323.000000
2147.830078 6230.000000
2149.031738 6560.000000
2150.233154 5226.000000
2151.433838 6245.000000
2152.633789 6018.000000
2153.832520 5953.000000
2155.031006 6956.000000
2156.229004 6177.000000
2157.426025 6006.000000
2158.622314 5185.000000
2159.817383 5286.000000
2161.012207 6053.000000
2162.206299 5518.000000
2163.399414 6056.000000
2164.591553 6875.000000
2165.783447 5876.000000
2166.974609 6250.000000
2168.164795 6337.000000
2169.354248 6481.000000
2170.543213 6790.000000
2171.731201 6053.000000
2172.918945 5772.000000
2174.105225 5942.000000
2175.290771 6602.000000
2176.476074 6008.000000
2177.660889 5791.000000
2178.844482 6449.000000
2180.027344 7533.000000
2181.209229 6305.000000
2182.390869 6128.000000
2183.572021 6543.000000
2184.751953 5646.000000
2185.930908 5542.000000
2187.109375 6366.000000
2188.287598 6824.000000
2189.464600 7231.000000
2190.640625 6652.000000
2191.816406 6041.000000
2192.991699 5616.000000
2194.165527 6676.000000
2195.338867 6202.000000
2196.511963 6145.000000
2197.683838 6442.000000
2198.855225 7128.000000
2200.026123 6396.000000
2201.195313 6844.000000
2202.364502 7503.000000
2203.533203 6301.000000
2204.700928 5849.000000
2205.867676 5680.000000
2207.033691 7085.000000
2208.199219 6727.000000
2209.364502 5902.000000
2210.528320 6655.000000
2211.691650 5440.000000
2212.853760 6174.000000
2214.016113 6162.000000
2215.177246 6669.000000
2216.337402 6671.000000
2217.497070 6241.000000
2218.656494 6601.000000
2219.814697 6292.000000
2220.971924 6351.000000
2222.128906 6742.000000
2223.285156 6567.000000
2224.440674 6734.000000
2225.595459 6212.000000
2226.749268 6430.000000
2227.902100 6021.000000
2229.055420 6859.000000
2230.206787 6109.000000
2231.357910 6165.000000
2232.508301 6593.000000
2233.658203 7711.000000
2234.807129 6342.000000
2235.955566 5247.000000
2237.102539 6803.000000
2238.249756 7115.000000
2239.395752 6071.000000
2240.541504 7216.000000
2241.685547 7234.000000
2242.829834 6730.000000
2243.973145 6186.000000
2245.115723 5994.000000
2246.257324 5764.000000
2247.398682 5788.000000
2248.539063 6381.000000
2249.678711 6440.000000
2250.817871 5813.000000
2251.955811 5857.000000
2253.093750 6161.000000
2254.230713 5354.000000
2255.366943 6340.000000
2256.502197 6115.000000
2257.636719 7274.000000
2258.770996 6322.000000
2259.904785 5397.000000
2261.037109 6180.000000
2262.168945 6786.000000
2263.300293 6248.000000
2264.430664 6452.000000
2265.560791 8074.000000
2266.689697 6676.000000
2267.818115 6028.000000
2268.946045 5513.000000
2270.072998 6125.000000
2271.199219 5937.000000
2272.324463 6708.000000
2273.449707 6532.000000
2274.574219 6410.000000
2275.697510 5951.000000
2276.820068 6266.000000
2277.942139 5961.000000
2279.063721 7373.000000
2280.184570 6356.000000
2281.304199 6439.000000
2282.423340 7064.000000
2283.542236 7603.000000
2284.660400 7267.000000
2285.777588 5929.000000
2286.893799 6378.000000
2288.009766 6961.000000
2289.125000 6870.000000
2290.239502 7335.000000
2291.352783 5818.000000
2292.466064 6341.000000
2293.578613 6002.000000
2294.690430 5353.000000
2295.801514 6766.000000
2296.911377 6384.000000
2298.020752 6171.000000
2299.129883 6640.000000
2300.238037 6331.000000
2301.345215 6796.000000
2302.452148 5885.000000
2303.558350 6199.000000
2304.664063 6609.000000
2305.768311 6563.000000
2306.872314 5449.000000
2307.975830 5762.000000
2309.078857 6439.000000
2310.180664 7382.000000
2311.281738 7378.000000
2312.382324 6647.000000
2313.482422 5528.000000
2314.581787 6371.000000
2315.679688 6589.000000
2316.778076 6973.000000
2317.875000 8183.000000
2318.971680 6916.000000
2320.067871 5783.000000
2321.162354 6802.000000
2322.256836 7630.000000
2323.350586 5798.000000
2324.444092 6057.000000
2325.535889 6454.000000
2326.627686 6905.000000
2327.718750 6105.000000
2328.809082 6261.000000
2329.898438 6883.000000
2330.987793 6077.000000
2332.075928 6303.000000
2333.163574 6783.000000
2334.250977 6587.000000
2335.336670 6650.000000
2336.422119 7715.000000
2337.507324 6326.000000
2338.591553 6727.000000
2339.674805 5899.000000
2340.757813 6421.000000
2341.839844 7091.000000
2342.921631 5981.000000
2344.002686 7431.000000
2345.082520 6655.000000
2346.161865 5750.000000
2347.240723 6787.000000
2348.319092 6578.000000
2349.395996 6255.000000
2350.472656 7026.000000
2351.549072 6040.000000
2352.624512 6418.000000
2353.698975 5964.000000
2354.773193 6310.000000
2355.846680 6748.000000
2356.919678 6164.000000
2357.991455 6996.000000
2359.062988 6248.000000
2360.133545 6776.000000
2361.203857 7460.000000
2362.273193 7545.000000
2363.341553 6836.000000
2364.409668 6705.000000
2365.477051 7085.000000
2366.543945 7072.000000
2367.610107 6059.000000
2368.675049 6817.000000
2369.739990 7430.000000
2370.804199 6327.000000
2371.867676 6933.000000
2372.929932 5707.000000
2373.992188 6271.000000
2375.053467 6340.000000
2376.114502 5919.000000
2377.174316 6202.000000
2378.233398 7887.000000
2379.292480 6406.000000
2380.350586 7577.000000
2381.407959 6854.000000
2382.464355 8045.000000
2383.520508 7762.000000
2384.576172 6265.000000
2385.631104 7038.000000
2386.684570 6701.000000
2387.738281 6658.000000
2388.791016 6248.000000
2389.843262 6754.000000
2390.894775 6104.000000
2391.945313 6646.000000
2392.995605 6477.000000
2394.044922 6120.000000
2395.094238 6232.000000
2396.142090 6904.000000
2397.189453 6944.000000
2398.236572 6346.000000
2399.282715 6684.000000
2400.328125 6208.000000
2401.372803 6753.000000
2402.417480 7672.000000
2403.460693 7429.000000
2404.503906 6593.000000
2405.545654 5825.000000
2406.587646 6671.000000
2407.628906 7088.000000
2408.669189 6123.000000
2409.708740 6418.000000
2410.747314 6302.000000
2411.786133 5938.000000
2412.823730 6484.000000
2413.861084 6823.000000
2414.897217 7365.000000
2415.933105 6241.000000
2416.968262 6272.000000
2418.002930 6640.000000
2419.036133 7227.000000
2420.069580 6503.000000
2421.102051 6735.000000
2422.134277 6864.000000
2423.165039 7084.000000
2424.195801 6394.000000
2425.226074 6867.000000
2426.255127 6863.000000
2427.284180 6676.000000
2428.311523 6900.000000
2429.339355 6669.000000
2430.365967 7314.000000
2431.392334 6966.000000
2432.417236 7705.000000
2433.442383 6565.000000
2434.466553 7106.000000
2435.490479 6632.000000
2436.513184 5840.000000
2437.535156 6307.000000
2438.556885 6607.000000
2439.577881 6656.000000
2440.598389 5981.000000
2441.617676 6577.000000
2442.636963 6599.000000
2443.655273 8422.000000
2444.673340 6205.000000
2445.689941 6459.000000
2446.706543 6530.000000
2447.722412 5962.000000
2448.738281 6984.000000
2449.752686 6831.000000
2450.766357 5590.000000
2451.779541 7260.000000
2452.792480 5912.000000
2453.804688 7157.000000
2454.815918 6642.000000
2455.826904 7717.000000
2456.837158 6316.000000
2457.846924 7564.000000
2458.855713 5907.000000
2459.863770 5997.000000
2460.871826 6343.000000
2461.878662 7332.000000
2462.885254 5405.000000
2463.890625 7371.000000
2464.895752 6891.000000
2465.900635 5875.000000
2466.904297 6465.000000
2467.907715 6391.000000
2468.910156 7562.000000
2469.912354 7335.000000
2470.914063 6927.000000
2471.914795 6623.000000
2472.914551 7054.000000
2473.914307 6724.000000
2474.913086 5703.000000
2475.911377 6611.000000
2476.908691 7039.000000
2477.905762 6108.000000
2478.902832 6897.000000
2479.898438 5794.000000
2480.894043 7138.000000
2481.887939 6698.000000
2482.881836 8109.000000
2483.875244 6874.000000
2484.868164 6724.000000
2485.860107 7469.000000
2486.851318 7233.000000
2487.842285 6694.000000
2488.832764 5817.000000
2489.822266 6513.000000
2490.811035 6510.000000
2491.799805 5607.000000
2492.787598 6813.000000
2493.774170 6519.000000
2494.760742 8019.000000
2495.746826 6781.000000
2496.732178 6979.000000
2497.716553 8322.000000
2498.700684 6026.000000
2499.684814 6847.000000
2500.667480 5698.000000
2501.649658 6914.000000
2502.631348 6796.000000
2503.612305 7244.000000
2504.592773 6511.000000
2505.572998 5789.000000
2506.551758 6337.000000
2507.530273 7569.000000
2508.508301 6728.000000
2509.485840 7030.000000
2510.462402 6055.000000
2511.438721 5938.000000
2512.414307 6463.000000
2513.389404 6261.000000
2514.364014 6448.000000
2515.337402 7474.000000
2516.310547 6777.000000
2517.283447 6894.000000
2518.255371 6082.000000
2519.226563 6817.000000
2520.197266 6928.000000
2521.167725 7742.000000
2522.137451 8076.000000
2523.106201 6101.000000
2524.074219 6086.000000
2525.042236 7801.000000
2526.009277 6244.000000
2526.976074 5525.000000
2527.941650 7246.000000
2528.907227 7040.000000
2529.872070 7755.000000
2530.836426 6344.000000
2531.799561 6318.000000
2532.762939 5920.000000
2533.725342 5957.000000
2534.687500 6690.000000
2535.648438 6345.000000
2536.608643 6057.000000
2537.569092 6164.000000
2538.528564 6810.000000
2539.487305 6792.000000
2540.445068 6730.000000
2541.403076 6199.000000
2542.360352 6745.000000
2543.316650 6028.000000
2544.272705 7128.000000
2545.227539 6212.000000
2546.182617 7719.000000
2547.136963 7098.000000
2548.090576 6761.000000
2549.043213 7213.000000
2549.995605 6693.000000
2550.947510 6923.000000
2551.898682 6372.000000
2552.849121 7730.000000
2553.799072 7303.000000
2554.748779 7391.000000
2555.697754 6627.000000
2556.646240 6288.000000
2557.593506 7137.000000
2558.540771 6278.000000
2559.487305 6498.000000
2560.433350 6707.000000
2561.378418 7597.000000
2562.323242 6819.000000
2563.267578 7172.000000
2564.211426 6808.000000
2565.154785 6591.000000
2566.096680 6586.000000
2567.038818 6499.000000
2567.980225 6188.000000
2568.920898 7133.000000
2569.860840 7307.000000
2570.800781 5729.000000
2571.739746 6131.000000
2572.678467 7525.000000
2573.616211 7211.000000
2574.553711 5479.000000
2575.490479 6954.000000
2576.426514 6790.000000
2577.362061 7491.000000
2578.296875 6426.000000
2579.231689 5862.000000
2580.165527 6996.000000
2581.098877 7180.000000
2582.031494 5851.000000
2582.963867 6929.000000
2583.895508 5424.000000
2584.826660 7141.000000
2585.757324 7033.000000
2586.686768 6879.000000
2587.616211 7234.000000
2588.545166 6445.000000
2589.473877 7430.000000
2590.400879 7386.000000
2591.328125 5962.000000
2592.254883 6772.000000
2593.180908 6270.000000
2594.106689 5660.000000
2595.031250 7664.000000
2595.955566 7632.000000
2596.879395 5344.000000
2597.802734 7280.000000
2598.725098 6265.000000
2599.647217 6873.000000
2600.568848 8320.000000
2601.489746 6424.000000
2602.409912 6008.000000
2603.329834 6367.000000
2604.249268 6335.000000
2605.168457 6404.000000
2606.086670 5821.000000
2607.003662 5944.000000
2607.920898 7262.000000
2608.837891 5907.000000
2609.753906 7580.000000
2610.668701 6663.000000
2611.583984 6625.000000
2612.498535 6501.000000
2613.412109 6514.000000
2614.325684 6140.000000
2615.238037 7682.000000
2616.150391 7055.000000
2617.061768 6755.000000
2617.972900 5625.000000
2618.883301 7192.000000
2619.793457 6640.000000
2620.702881 6218.000000
2621.611816 6622.000000
2622.519775 6238.000000
2623.427979 6837.000000
2624.335205 6637.000000
2625.241943 7025.000000
2626.147949 5993.000000
2627.053711 6561.000000
2627.958740 6642.000000
2628.863525 7799.000000
2629.767578 6518.000000
2630.670654 6411.000000
2631.573730 6371.000000
2632.475830 5625.000000
2633.377930 6763.000000
2634.279785 6929.000000
2635.179932 6683.000000
2636.080322 6454.000000
2636.979980 6438.000000
2637.879395 6046.000000
2638.777344 6866.000000
2639.675781 6674.000000
2640.573730 6328.000000
2641.470947 6085.000000
2642.366943 6177.000000
2643.262939 6701.000000
2644.158691 6068.000000
2645.053711 6480.000000
2645.948486 6663.000000
2646.841797 7078.000000
2647.735107 6282.000000
2648.628174 6757.000000
2649.520996 6380.000000
2650.412109 7435.000000
2651.303467 6317.000000
2652.194336 7561.000000
2653.084473 7335.000000
2653.974365 6585.000000
2654.863037 7323.000000
2655.751953 6583.000000
2656.640381 6587.000000
2657.527832 7315.000000
2658.414307 6450.000000
2659.301270 7090.000000
2660.187500 6826.000000
2661.073242 6735.000000
2661.957764 6499.000000
2662.842285 6433.000000
2663.726563 6161.000000
2664.610107 7077.000000
2665.493164 7747.000000
2666.375488 7382.000000
2667.257324 6198.000000
2668.138428 6599.000000
2669.019775 6087.000000
2669.899658 6611.000000
2670.779785 7333.000000
2671.659180 7208.000000
2672.538574 6255.000000
2673.417236 6139.000000
2674.294189 6450.000000
2675.171875 6763.000000
2676.048828 6425.000000
2676.925049 8062.000000
2677.800781 7171.000000
2678.675781 6269.000000
2679.551025 7742.000000
2680.425293 6962.000000
2681.299072 7372.000000
2682.172119 6939.000000
2683.044922 6254.000000
2683.917480 6100.000000
2684.789307 6909.000000
2685.660400 6560.000000
2686.531250 6858.000000
2687.401611 7149.000000
2688.271729 6741.000000
2689.140137 6343.000000
2690.009277 7397.000000
2690.877686 7121.000000
2691.745850 6731.000000
2692.613281 6991.000000
2693.479492 5874.000000
2694.346191 7143.000000
2695.211914 7455.000000
2696.077637 7135.000000
2696.941895 7863.000000
2697.806885 6597.000000
2698.670410 7210.000000
2699.534180 5859.000000
2700.396484 7439.000000
2701.259277 6755.000000
2702.121094 5978.000000
2702.982422 6856.000000
2703.843750 6683.000000
2704.703857 7407.000000
2705.563965 7287.000000
2706.423584 6609.000000
2707.282959 6820.000000
2708.140625 7150.000000
2708.998535 6827.000000
2709.856934 7278.000000
2710.714111 6678.000000
2711.570557 5981.000000
2712.426514 6832.000000
2713.282471 6058.000000
2714.137695 6945.000000
2714.992188 6133.000000
2715.846191 6862.000000
2716.700195 7249.000000
2717.553223 6241.000000
2718.406494 6446.000000
2719.258057 7623.000000
2720.110107 6776.000000
2720.961914 6278.000000
2721.812500 6487.000000
2722.663086 6452.000000
2723.513184 7079.000000
2724.362549 7048.000000
2725.211914 7080.000000
2726.060059 6699.000000
2726.907715 6576.000000
2727.755859 7066.000000
2728.602783 6812.000000
2729.450195 5605.000000
2730.296143 7486.000000
2731.141357 7041.000000
2731.987061 6464.000000
2732.831787 6996.000000
2733.676514 7294.000000
2734.520020 6889.000000
2735.363770 7790.000000
2736.206787 7068.000000
2737.049316 6088.000000
2737.890869 6288.000000
2738.732910 6814.000000
2739.573975 6913.000000
2740.414795 5828.000000
2741.255371 5933.000000
2742.094727 7728.000000
2742.934082 6836.000000
2743.773438 6898.000000
2744.611572 6844.000000
2745.449219 7807.000000
2746.286865 6333.000000
2747.124023 7148.000000
2747.960938 6168.000000
2748.797363 5976.000000
2749.632568 6675.000000
2750.468018 6286.000000
2751.302979 6385.000000
2752.137207 6269.000000
2752.971191 6889.000000
2753.804688 6850.000000
2754.638184 7992.000000
2755.470703 6803.000000
2756.302734 7315.000000
2757.134277 6835.000000
2757.965820 7192.000000
2758.796387 7248.000000
2759.627197 7266.000000
2760.456787 7298.000000
2761.286377 6635.000000
2762.115723 7288.000000
2762.944336 6885.000000
2763.772461 6760.000000
2764.600098 6949.000000
2765.427734 6694.000000
2766.254883 7864.000000
2767.081299 5847.000000
2767.907227 7521.000000
2768.732666 6883.000000
2769.557861 7876.000000
2770.383057 7113.000000
2771.207031 6774.000000
2772.031006 6538.000000
2772.854980 7687.000000
2773.677734 6484.000000
2774.500732 6903.000000
2775.322510 6932.000000
2776.144287 6948.000000
2776.966064 6511.000000
2777.786865 8020.000000
2778.606934 6527.000000
2779.427246 6980.000000
2780.247070 7269.000000
2781.066895 6490.000000
2781.884766 5956.000000
2782.703857 8078.000000
2783.521729 6500.000000
2784.339355 6859.000000
2785.156494 7120.000000
2785.973145 7233.000000
2786.789551 7216.000000
2787.605469 6288.000000
2788.421143 5959.000000
2789.235840 6420.000000
2790.051025 6931.000000
2790.865479 7149.000000
2791.679443 6641.000000
2792.493164 7446.000000
2793.305664 8797.000000
2794.118408 6970.000000
2794.930664 7446.000000
2795.742432 7262.000000
2796.553467 7389.000000
2797.365234 6538.000000
2798.175781 7209.000000
2798.986328 7117.000000
2799.795410 7405.000000
2800.605225 8159.000000
2801.414307 7772.000000
2802.223145 6686.000000
2803.031494 7162.000000
2803.838867 6187.000000
2804.646729 6430.000000
2805.453857 6965.000000
2806.260742 6829.000000
2807.066406 7209.000000
2807.872559 6678.000000
2808.677979 6509.000000
2809.483398 7274.000000
2810.288086 6214.000000
2811.091797 7607.000000
2811.895996 7504.000000
2812.699707 6367.000000
2813.503174 6121.000000
2814.305176 6329.000000
2815.107910 7354.000000
2815.909912 7760.000000
2816.711670 6135.000000
2817.512939 6587.000000
2818.313721 7318.000000
2819.114014 6521.000000
2819.914551 6641.000000
2820.714111 8046.000000
2821.513184 7110.000000
2822.312256 6544.000000
2823.111084 6879.000000
2823.909424 6330.000000
2824.706787 7037.000000
2825.504395 7373.000000
2826.301270 6704.000000
2827.098389 7323.000000
2827.894775 7936.000000
2828.690430 6962.000000
2829.486084 7290.000000
2830.281494 7577.000000
2831.076416 7478.000000
2831.870605 6669.000000
2832.664795 6829.000000
2833.458740 5796.000000
2834.252197 6907.000000
2835.044922 7144.000000
2835.837402 8171.000000
2836.629883 7711.000000
2837.422119 7504.000000
2838.213867 6374.000000
2839.004639 6825.000000
2839.795410 8974.000000
2840.586426 7487.000000
2841.376465 6200.000000
2842.166016 7685.000000
2842.955811 7195.000000
2843.744629 7349.000000
2844.533447 7847.000000
2845.322266 7729.000000
2846.110107 7506.000000
2846.897461 7223.000000
2847.685059 7546.000000
2848.472168 7351.000000
2849.258545 6682.000000
2850.044922 7468.000000
2850.831055 7222.000000
2851.616699 7484.000000
2852.401367 7178.000000
2853.186523 6945.000000
2853.971436 7464.000000
2854.755615 7105.000000
2855.539795 6957.000000
2856.322754 8284.000000
2857.105957 6834.000000
2857.888916 6764.000000
2858.671387 7790.000000
2859.453613 6295.000000
2860.235352 6664.000000
2861.016846 7549.000000
2861.798584 7469.000000
2862.579590 7612.000000
2863.359863 6547.000000
2864.139893 6777.000000
2864.919922 8194.000000
2865.699707 7502.000000
2866.478516 8117.000000
2867.257568 7587.000000
2868.036133 6826.000000
2868.814453 7080.000000
2869.592285 7192.000000
2870.369873 6943.000000
2871.147217 7539.000000
2871.924316 6973.000000
2872.700928 6445.000000
2873.477051 7416.000000
2874.253174 7119.000000
2875.028809 8263.000000
2875.804199 7227.000000
2876.579102 6550.000000
2877.353760 8032.000000
2878.128418 6630.000000
2878.902832 7790.000000
2879.676514 6803.000000
2880.449463 7212.000000
2881.223145 6724.000000
2881.995850 7576.000000
2882.768555 7804.000000
2883.540527 8258.000000
2884.312256 6205.000000
2885.084473 6777.000000
2885.855469 6840.000000
2886.625977 6133.000000
2887.396973 8304.000000
2888.167969 7395.000000
2888.938232 8002.000000
2889.707520 7636.000000
2890.477051 6991.000000
2891.246582 7272.000000
2892.015625 7398.000000
2892.784180 7836.000000
2893.552734 7912.000000
2894.320313 6922.000000
2895.088379 6596.000000
2895.855957 7353.000000
2896.623535 8401.000000
2897.389893 7425.000000
2898.157227 6476.000000
2898.923340 7281.000000
2899.689697 7010.000000
2900.454590 8327.000000
2901.219971 6990.000000
2901.985840 6505.000000
2902.750244 7674.000000
2903.514648 7736.000000
2904.279297 8435.000000
2905.042969 6601.000000
2905.807373 8450.000000
2906.571045 6676.000000
2907.333984 8445.000000
2908.096680 6451.000000
2908.859863 8911.000000
2909.622559 6981.000000
2910.384033 6816.000000
2911.145996 6816.000000
