scanname Analyse085
timestamp 2017-02-10 22:05:48
ccdbias 955.150879
ccdgain 3.473401
sigmaread 8.960639
laserwavenum -0.459911
wavenumcorrection 0.063053
scancount 1
totalexposurems 10000
singleexposurems 10000
measurementstate Unknown
scanmode Manual
snr 50.600395 0.647622 0.414794
replacelist 2
671 15063.000000 8857.000000
672 32281.000000 30600.000000
peaks 8
400.385071 0.124203 0.000000 0.172400 0.000030
809.232971 0.115392 0.000000 0.541485 0.000096
840.187073 0.111225 0.000000 0.186926 0.000016
877.066956 0.108483 0.000000 0.174534 0.000022
1153.497192 0.094142 0.000000 0.094470 0.000026
1326.535767 0.100597 0.000000 1.423497 0.000520
1459.503540 0.092819 0.000000 0.211972 0.000106
2330.348877 0.042129 0.000000 0.070801 0.000222
finalresult GLS_Multiple 84
A11883	Polypropylene (Isotactic)	4.389819e-001
A13180	Polypropylene (lot B)	4.384344e-001
A13500	Poly(propylene-co-ethylene)	4.372409e-001
A0115	Polypropylene	4.335433e-001
A15973	Silver azide	2.783960e-001
A14069	(R)-(-)-1,2-Propanediol	2.648167e-001
A0518	Propylene glycol	2.630057e-001
A3222	Potassium nitrite	2.627214e-001
A1531	Ethyl formate	2.583098e-001
A0098	Roundup (weed and grass killer)	2.550103e-001
A0251	Ethylamine	2.504417e-001
A1676	Trifluoroacetic acid	2.489746e-001
A2703	Acetaldehyde dimethyl acetal	2.488147e-001
A1270	Methyl DL-lactate	2.481873e-001
A0138	Dibutyl ether	2.476357e-001
A6290	Bis(2,2,2-trifluoroethyl) phosphite	2.467216e-001
A2721	Formaldehyde diethyl acetal	2.466567e-001
A13820	(-)-Methyl L-lactate	2.465174e-001
A10269	1-[N,N-Bis(2-hydroxyethyl)amino]-2-propanol	2.452816e-001
A9546	4-Methoxy-alpha-methylbenzyl alcohol	2.447730e-001
A13507	Poly(methyl methacrylate-co-ethyl acrylate)	2.442923e-001
A0524	Propionic acid	2.442735e-001
A0400	Potassium permanganate	2.440798e-001
A6700	4'-Methoxypropiophenone	2.434344e-001
A10674	Dibutyl succinate	2.427815e-001
A11872	Poly(methyl methacrylate)	2.425332e-001
A2098	Diethylene glycol dibutyl ether	2.421020e-001
A4807	2-(2-Nitroethoxy)tetrahydropyran	2.416715e-001
A2313	Barium peroxide	2.413605e-001
A8460	Ethanol	2.406667e-001
A2017	Isopropylamine	2.405753e-001
A1754	N,N-Dimethylhydrazine	2.402747e-001
A11925	Butyl (S)-(-)-2-pyrrolidone-5-carboxylate	2.396289e-001
A2782	Acetamide	2.395105e-001
A12040	Ethanol w/ sweetener	2.394922e-001
A0369	2,4,6-Tribromophenol	2.388935e-001
A11101	Hydrogen peroxide, 70%	2.387663e-001
A2727	Acrolein diethyl acetal	2.387576e-001
A0273	Denatured Solvent Alcohol	2.384313e-001
A2210	Calcium peroxide hydrate	2.379792e-001
A4972	Boric acid	2.371223e-001
A2225	Diethylene glycol butyl ether	2.369420e-001
A6025	2-Nitrothiophene	2.369330e-001
A4543	1,4-Butanediol divinyl ether	2.368789e-001
A12448	Tribromofluoromethane	2.367348e-001
A0969	Diethylene glycol monopropyl ether	2.362766e-001
A5377	4-Methyl-2-nitroanisole	2.357024e-001
A3574	Sodium hexanitrocobaltate(III)	2.352903e-001
A1351	Sodium propionate	2.352276e-001
A0587	Triethylene glycol monobutyl ether	2.347625e-001
A0113	Hydrogen peroxide	2.346732e-001
A11100	Hydrogen peroxide, 50%	2.346554e-001
A9092	p-Tolyl ether	2.344769e-001
A1224	Poly(ethylene glycol) butyl ether	2.343873e-001
A1584	Pentane	2.339596e-001
A1697	Ethyl vinyl ether	2.334878e-001
A3164	Ammonium chromate	2.334700e-001
A8580	Sodium permanganate solution	2.331144e-001
A10296	Tri(ethylene glycol) divinyl ether	2.322632e-001
A12725	Cerium(III) fluoride	2.318738e-001
A6278	6-Methylnicotinamide	2.312647e-001
A0761	N,N,N',N'-Tetrakis(2-Hydroxypropyl)ethylenediamine	2.309296e-001
A10529	1-Formylpiperazine	2.305684e-001
A8610	5-Methyl-2-pyrrolidinone	2.302694e-001
A0673	Hexachlorocyclopentadiene	2.299004e-001
A4645	1-Bromo-4-(trifluoromethoxy)benzene	2.293565e-001
A0292	Hydrazine	2.291813e-001
A2453	Calcium chromate	2.290412e-001
A9593	(R)-(-)-2-Amino-1-propanol	2.289099e-001
A14031	Methyl (S)-(+)-2-pyrrolidone-5-carboxylate	2.284908e-001
A5525	2-Methylene-1,3-propanediol	2.284207e-001
A7885	beta-Carotene	2.280977e-001
A13181	Polyethersulfone	2.275403e-001
A14340	Titanium(IV) fluoride	2.274007e-001
A0199	Isobutyric acid	2.273490e-001
A7119	2-Deoxy-D-ribose	2.272533e-001
A0544	1,4-Dioxane	2.272183e-001
A2926	Arsenic (III) Chloride	2.264720e-001
A1550	Nitroethane	2.254511e-001
A5382	3-Methoxypropionic acid	2.244340e-001
A3625	1-Dimethylamino-2-propanol	2.243136e-001
A0419	Sodium chlorite	2.228644e-001
A2435	Sodium percarbonate	2.217207e-001
A3132	4-Methyl-3-nitrobenzoic acid	2.201524e-001
spectrum 2048
-97.141541 44947.000000
-94.514679 44947.000000
-91.889679 45670.000000
-89.266586 45747.000000
-86.645355 46570.000000
-84.026016 46383.000000
-81.408554 46763.000000
-78.792953 46503.000000
-76.179245 46862.000000
-73.567398 47225.000000
-70.957428 47023.000000
-68.349335 47230.000000
-65.743088 47194.000000
-63.138714 47249.000000
-60.536205 47122.000000
-57.935551 47661.000000
-55.336758 47059.000000
-52.739822 46397.000000
-50.144741 46706.000000
-47.551514 46735.000000
-44.960136 46943.000000
-42.370605 46549.000000
-39.782917 47390.000000
-37.197079 47228.000000
-34.613083 46782.000000
-32.030922 47531.000000
-29.450611 46897.000000
-26.872126 47436.000000
-24.295483 46908.000000
-21.720665 46893.000000
-19.147688 46597.000000
-16.576530 46583.000000
-14.007207 46212.000000
-11.439709 45181.000000
-8.874029 46594.000000
-6.310175 46293.000000
-3.748135 46671.000000
-1.187919 46688.000000
1.370489 46286.000000
3.927076 45095.000000
6.481858 44841.000000
9.034823 44647.000000
11.585988 42772.000000
14.135340 41225.000000
16.682896 39334.000000
19.228640 38981.000000
21.772591 37854.000000
24.314737 34660.000000
26.855087 31643.000000
29.393652 28672.000000
31.930420 24207.000000
34.465385 17712.000000
36.998573 11728.000000
39.529980 7799.000000
42.059593 6987.000000
44.587410 6659.000000
47.113468 5888.000000
49.637737 5441.000000
52.160236 4722.000000
54.680939 4282.000000
57.199886 4326.000000
59.717060 5181.000000
62.232456 6934.000000
64.746078 7260.000000
67.257935 6972.000000
69.768051 5323.000000
72.276382 3563.000000
74.782944 2916.000000
77.287766 2460.000000
79.790833 2135.000000
82.292130 1829.000000
84.791672 1786.000000
87.289474 1707.000000
89.785538 1776.000000
92.279816 1962.000000
94.772369 2238.000000
97.263199 2168.000000
99.752258 2122.000000
102.239563 1715.000000
104.725159 1395.000000
107.209000 1187.000000
109.691101 1175.000000
112.171478 1168.000000
114.650131 1049.000000
117.127060 933.000000
119.602234 990.000000
122.075699 870.000000
124.547440 887.000000
127.017456 966.000000
129.485733 954.000000
131.952332 988.000000
134.417175 1033.000000
136.880325 1042.000000
139.341736 1044.000000
141.801453 1148.000000
144.259445 1211.000000
146.715744 1358.000000
149.170334 1621.000000
151.623199 1965.000000
154.074387 2076.000000
156.523880 2437.000000
158.971649 2785.000000
161.417709 3082.000000
163.862091 3526.000000
166.304794 3844.000000
168.745804 4209.000000
171.185104 4317.000000
173.622696 4432.000000
176.058655 4548.000000
178.492874 4596.000000
180.925415 4626.000000
183.356308 4562.000000
185.785477 4663.000000
188.212997 4540.000000
190.638840 4656.000000
193.063004 4711.000000
195.485504 4625.000000
197.906311 4838.000000
200.325455 4833.000000
202.742935 4887.000000
205.158722 5091.000000
207.572861 5225.000000
209.985367 5580.000000
212.396194 5770.000000
214.805344 6175.000000
217.212860 6543.000000
219.618668 6923.000000
222.022888 7257.000000
224.425400 7521.000000
226.826294 7721.000000
229.225540 8010.000000
231.623123 8194.000000
234.019043 8221.000000
236.413345 8258.000000
238.805984 8322.000000
241.197006 8255.000000
243.586365 8440.000000
245.974106 8459.000000
248.360199 8303.000000
250.744659 8336.000000
253.127472 8322.000000
255.508713 8268.000000
257.888245 8338.000000
260.266205 8177.000000
262.642487 8201.000000
265.017212 8149.000000
267.390289 8092.000000
269.761719 8275.000000
272.131500 8299.000000
274.499725 8143.000000
276.866302 8210.000000
279.231293 8132.000000
281.594666 8158.000000
283.956390 8061.000000
286.316528 7985.000000
288.675049 8076.000000
291.031982 8017.000000
293.387299 8100.000000
295.741028 8130.000000
298.093109 8089.000000
300.443634 8095.000000
302.792572 8098.000000
305.139862 7936.000000
307.485626 7976.000000
309.829712 8022.000000
312.172272 7902.000000
314.513214 7912.000000
316.852539 8000.000000
319.190308 8027.000000
321.526520 7959.000000
323.861084 7927.000000
326.194092 7907.000000
328.525543 7932.000000
330.855408 7738.000000
333.183685 7890.000000
335.510345 7702.000000
337.835510 7750.000000
340.159058 7872.000000
342.481049 7793.000000
344.801483 7697.000000
347.120300 7744.000000
349.437561 7760.000000
351.753296 7797.000000
354.067444 7586.000000
356.380005 7825.000000
358.691010 7768.000000
361.000488 7684.000000
363.308441 7687.000000
365.614777 7748.000000
367.919525 7686.000000
370.222809 7649.000000
372.524475 7704.000000
374.824646 7658.000000
377.123260 7556.000000
379.420319 7743.000000
381.715820 7797.000000
384.009796 7741.000000
386.302185 7787.000000
388.593079 7677.000000
390.882446 7673.000000
393.170227 7939.000000
395.456482 8029.000000
397.741241 8003.000000
400.024384 8070.000000
402.306091 8162.000000
404.586273 7999.000000
406.864868 7946.000000
409.141937 7873.000000
411.417480 7897.000000
413.691498 7839.000000
415.964081 7847.000000
418.235046 7749.000000
420.504517 7762.000000
422.772491 7769.000000
425.038910 7749.000000
427.303833 7769.000000
429.567291 7533.000000
431.829163 7583.000000
434.089569 7727.000000
436.348419 7734.000000
438.605804 7642.000000
440.861694 7558.000000
443.116089 7549.000000
445.368958 7499.000000
447.620270 7519.000000
449.870178 7428.000000
452.118500 7348.000000
454.365387 7446.000000
456.610809 7402.000000
458.854675 7462.000000
461.097046 7307.000000
463.337921 7464.000000
465.577393 7383.000000
467.815277 7308.000000
470.051727 7345.000000
472.286652 7230.000000
474.520111 7235.000000
476.752136 7221.000000
478.982635 7157.000000
481.211639 7154.000000
483.439178 7160.000000
485.665222 7206.000000
487.889832 7205.000000
490.112976 7115.000000
492.334656 7232.000000
494.554779 7247.000000
496.773499 7305.000000
498.990723 7375.000000
501.206573 7410.000000
503.420807 7156.000000
505.633728 7377.000000
507.845062 7194.000000
510.054962 7226.000000
512.263428 7417.000000
514.470520 7352.000000
516.676025 7369.000000
518.880127 7267.000000
521.082703 7367.000000
523.283875 7331.000000
525.483704 7316.000000
527.682007 7291.000000
529.878784 7318.000000
532.074219 7047.000000
534.268127 7166.000000
536.460693 7168.000000
538.651733 7175.000000
540.841370 7132.000000
543.029602 7087.000000
545.216309 7024.000000
547.401550 7020.000000
549.585510 6922.000000
551.767883 6901.000000
553.948914 6883.000000
556.128418 6840.000000
558.306641 6839.000000
560.483337 6712.000000
562.658630 6850.000000
564.832520 6729.000000
567.004944 6655.000000
569.175964 6786.000000
571.345520 6732.000000
573.513794 6732.000000
575.680542 6709.000000
577.845825 6827.000000
580.009705 6652.000000
582.172302 6756.000000
584.333374 6851.000000
586.493042 6841.000000
588.651367 6774.000000
590.808167 6881.000000
592.963623 6652.000000
595.117676 6822.000000
597.270386 6774.000000
599.421570 6724.000000
601.571411 6830.000000
603.719910 6852.000000
605.866821 6911.000000
608.012512 6737.000000
610.156799 6856.000000
612.299622 6752.000000
614.440979 6795.000000
616.581116 6850.000000
618.719727 6789.000000
620.857056 6864.000000
622.992920 6684.000000
625.127380 6781.000000
627.260376 6672.000000
629.392212 6739.000000
631.522583 6736.000000
633.651550 6580.000000
635.779053 6529.000000
637.905273 6517.000000
640.029968 6407.000000
642.153442 6473.000000
644.275574 6412.000000
646.396240 6473.000000
648.515564 6351.000000
650.633484 6374.000000
652.750061 6375.000000
654.865234 6493.000000
656.979065 6222.000000
659.091431 6274.000000
661.202576 6252.000000
663.312317 6290.000000
665.420593 6246.000000
667.527710 6407.000000
669.633362 6260.000000
671.737549 6149.000000
673.840515 6315.000000
675.942078 6376.000000
678.042297 6390.000000
680.141113 6423.000000
682.238586 6467.000000
684.334778 6326.000000
686.429504 6333.000000
688.523010 6260.000000
690.615173 6387.000000
692.705811 6394.000000
694.795227 6515.000000
696.883362 6467.000000
698.970032 6455.000000
701.055481 6382.000000
703.139404 6493.000000
705.222107 6458.000000
707.303528 6425.000000
709.383484 6329.000000
711.462219 5988.000000
713.539490 6005.000000
715.615479 6123.000000
717.690186 6094.000000
719.763611 6030.000000
721.835510 6281.000000
723.906250 6181.000000
725.975647 6141.000000
728.043640 6093.000000
730.110291 6137.000000
732.175720 6050.000000
734.239807 6018.000000
736.302551 6019.000000
738.363953 5839.000000
740.424072 6010.000000
742.482788 5980.000000
744.540283 5917.000000
746.596497 5883.000000
748.651306 5827.000000
750.704834 5872.000000
752.756958 5891.000000
754.807861 5774.000000
756.857544 5810.000000
758.905762 5798.000000
760.952759 5791.000000
762.998474 5750.000000
765.042786 5739.000000
767.085815 5864.000000
769.127625 5540.000000
771.168091 5737.000000
773.207153 5745.000000
775.245056 5703.000000
777.281616 5888.000000
779.316956 5808.000000
781.350952 5918.000000
783.383545 5910.000000
785.414978 5954.000000
787.445007 5857.000000
789.473755 5889.000000
791.501343 5928.000000
793.527588 6005.000000
795.552429 5900.000000
797.576172 5953.000000
799.598511 6070.000000
801.619629 6100.000000
803.639404 6158.000000
805.657898 6252.000000
807.675171 6358.000000
809.691040 6408.000000
811.705750 6355.000000
813.719116 6176.000000
815.731262 5995.000000
817.742188 5899.000000
819.751770 5816.000000
821.760132 5862.000000
823.767090 5688.000000
825.772827 5779.000000
827.777344 5690.000000
829.780579 5796.000000
831.782532 5669.000000
833.783203 5752.000000
835.782654 5602.000000
837.780762 5696.000000
839.777771 5721.000000
841.773376 5830.000000
843.767822 5893.000000
845.760925 5717.000000
847.752808 5555.000000
849.743347 5455.000000
851.732605 5563.000000
853.720825 5405.000000
855.707642 5359.000000
857.693237 5431.000000
859.677551 5369.000000
861.660767 5422.000000
863.642578 5393.000000
865.623169 5322.000000
867.602478 5431.000000
869.580627 5249.000000
871.557434 5356.000000
873.532959 5429.000000
875.507446 5608.000000
877.480469 5510.000000
879.452454 5703.000000
881.423096 5619.000000
883.392578 5622.000000
885.360718 5603.000000
887.327698 5663.000000
889.293335 5531.000000
891.257813 5413.000000
893.221069 5388.000000
895.183105 5374.000000
897.143860 5514.000000
899.103394 5357.000000
901.061646 5389.000000
903.018799 5263.000000
904.974792 5344.000000
906.929382 5244.000000
908.882751 5338.000000
910.834961 5330.000000
912.785950 5347.000000
914.735657 5144.000000
916.684204 5065.000000
918.631531 5076.000000
920.577576 5152.000000
922.522339 4994.000000
924.466064 4900.000000
926.408630 4958.000000
928.349915 4807.000000
930.289856 4787.000000
932.228699 4768.000000
934.166260 4756.000000
936.102600 4708.000000
938.037781 4831.000000
939.971680 4737.000000
941.904480 4800.000000
943.836060 4725.000000
945.766479 4735.000000
947.695679 4755.000000
949.623535 4746.000000
951.550354 4752.000000
953.475891 4825.000000
955.400146 4826.000000
957.323303 4770.000000
959.245300 4759.000000
961.166016 4825.000000
963.085571 4806.000000
965.003967 4888.000000
966.921326 4875.000000
968.837219 4858.000000
970.752014 4994.000000
972.665588 5027.000000
974.578003 5100.000000
976.489197 5037.000000
978.399231 4904.000000
980.307983 5000.000000
982.215698 4957.000000
984.122192 4804.000000
986.027466 4899.000000
987.931641 4872.000000
989.834595 4832.000000
991.736328 4878.000000
993.636902 4815.000000
995.536316 4717.000000
997.434509 4864.000000
999.331543 4679.000000
1001.227356 4680.000000
1003.122009 4558.000000
1005.015564 4549.000000
1006.907837 4435.000000
1008.799194 4457.000000
1010.689209 4471.000000
1012.578003 4381.000000
1014.465637 4418.000000
1016.352112 4289.000000
1018.237427 4319.000000
1020.121582 4417.000000
1022.004517 4373.000000
1023.886414 4312.000000
1025.766968 4313.000000
1027.646484 4385.000000
1029.525024 4347.000000
1031.402222 4329.000000
1033.278076 4408.000000
1035.152954 4355.000000
1037.026855 4539.000000
1038.899292 4398.000000
1040.770752 4490.000000
1042.640869 4320.000000
1044.510010 4418.000000
1046.377930 4447.000000
1048.244751 4400.000000
1050.110474 4472.000000
1051.974976 4416.000000
1053.838379 4513.000000
1055.700439 4555.000000
1057.561523 4433.000000
1059.421509 4472.000000
1061.280151 4269.000000
1063.137695 4478.000000
1064.994141 4363.000000
1066.849487 4434.000000
1068.703613 4389.000000
1070.556885 4389.000000
1072.408691 4417.000000
1074.259521 4422.000000
1076.109131 4596.000000
1077.957520 4426.000000
1079.805054 4482.000000
1081.651245 4505.000000
1083.496216 4471.000000
1085.340332 4376.000000
1087.183105 4401.000000
1089.024658 4389.000000
1090.865479 4298.000000
1092.704712 4202.000000
1094.543213 4283.000000
1096.380371 4226.000000
1098.216309 4254.000000
1100.051270 4164.000000
1101.885010 4073.000000
1103.717773 3977.000000
1105.549194 4060.000000
1107.379761 4160.000000
1109.208984 3973.000000
1111.037231 3909.000000
1112.864258 3902.000000
1114.690308 3916.000000
1116.515137 3836.000000
1118.338867 3897.000000
1120.161377 3862.000000
1121.982788 3820.000000
1123.803345 3925.000000
1125.622437 3872.000000
1127.440674 3931.000000
1129.257568 3888.000000
1131.073608 3884.000000
1132.888428 3966.000000
1134.702148 3851.000000
1136.514771 4018.000000
1138.326172 4072.000000
1140.136597 4044.000000
1141.945923 4076.000000
1143.753906 4146.000000
1145.561157 4096.000000
1147.366943 4203.000000
1149.171875 4229.000000
1150.975708 4176.000000
1152.778320 4231.000000
1154.580078 4308.000000
1156.380371 4281.000000
1158.179688 4223.000000
1159.978027 4056.000000
1161.775024 4037.000000
1163.571289 4072.000000
1165.366211 4062.000000
1167.160034 3995.000000
1168.953003 3999.000000
1170.744629 3918.000000
1172.535278 3868.000000
1174.324951 3797.000000
1176.113159 3834.000000
1177.900513 3746.000000
1179.686768 3804.000000
1181.471924 3828.000000
1183.255981 3786.000000
1185.038940 3752.000000
1186.820923 3720.000000
1188.601685 3652.000000
1190.381470 3784.000000
1192.160156 3727.000000
1193.937866 3707.000000
1195.714355 3636.000000
1197.489746 3568.000000
1199.264038 3667.000000
1201.037231 3569.000000
1202.809570 3519.000000
1204.580566 3483.000000
1206.350708 3640.000000
1208.119629 3493.000000
1209.887451 3383.000000
1211.654419 3571.000000
1213.420044 3590.000000
1215.184692 3481.000000
1216.948242 3571.000000
1218.710693 3607.000000
1220.472290 3531.000000
1222.232666 3553.000000
1223.991943 3469.000000
1225.750366 3565.000000
1227.507568 3447.000000
1229.263672 3511.000000
1231.018677 3553.000000
1232.772827 3545.000000
1234.525635 3623.000000
1236.277466 3610.000000
1238.028442 3474.000000
1239.778076 3567.000000
1241.526855 3670.000000
1243.274292 3649.000000
1245.020996 3536.000000
1246.766479 3645.000000
1248.511108 3582.000000
1250.254395 3660.000000
1251.996704 3566.000000
1253.737915 3569.000000
1255.478271 3649.000000
1257.217529 3468.000000
1258.955566 3332.000000
1260.692749 3312.000000
1262.428711 3453.000000
1264.163696 3531.000000
1265.897705 3451.000000
1267.630737 3520.000000
1269.362549 3524.000000
1271.093384 3574.000000
1272.822998 3615.000000
1274.551758 3663.000000
1276.279419 3609.000000
1278.005981 3540.000000
1279.731689 3605.000000
1281.456055 3495.000000
1283.179565 3591.000000
1284.902100 3631.000000
1286.623657 3404.000000
1288.343994 3533.000000
1290.063354 3542.000000
1291.781616 3538.000000
1293.498901 3627.000000
1295.215210 3464.000000
1296.930298 3657.000000
1298.644409 3508.000000
1300.357544 3516.000000
1302.069824 3405.000000
1303.780884 3452.000000
1305.490967 3433.000000
1307.199951 3360.000000
1308.907715 3363.000000
1310.614868 3273.000000
1312.320557 3376.000000
1314.025513 3447.000000
1315.729492 3408.000000
1317.432251 3415.000000
1319.134033 3502.000000
1320.834961 3452.000000
1322.534546 2566.500000
1324.233276 4843.500000
1325.931274 3481.000000
1327.627930 3381.000000
1329.323486 3403.000000
1331.018188 3492.000000
1332.711670 3383.000000
1334.404297 3451.000000
1336.096069 3527.000000
1337.786499 3273.000000
1339.476196 3148.000000
1341.164795 3261.000000
1342.852295 3161.000000
1344.538818 3155.000000
1346.224243 3177.000000
1347.908691 3148.000000
1349.592285 3145.000000
1351.274658 3150.000000
1352.956055 3253.000000
1354.636597 3389.000000
1356.315918 3369.000000
1357.994629 3411.000000
1359.671997 3404.000000
1361.348267 3391.000000
1363.023560 3437.000000
1364.698120 3446.000000
1366.371460 3454.000000
1368.043823 3292.000000
1369.715210 3397.000000
1371.385620 3345.000000
1373.054932 3376.000000
1374.723267 3276.000000
1376.390747 3384.000000
1378.057129 3271.000000
1379.722534 3243.000000
1381.386963 3208.000000
1383.050171 3136.000000
1384.712769 3112.000000
1386.374023 3163.000000
1388.034424 3083.000000
1389.693726 3180.000000
1391.352051 3220.000000
1393.009644 3129.000000
1394.666016 3183.000000
1396.321533 3143.000000
1397.975830 3176.000000
1399.629272 3160.000000
1401.281616 3113.000000
1402.933228 3127.000000
1404.583618 3165.000000
1406.232910 3017.000000
1407.881470 2973.000000
1409.528931 2857.000000
1411.175415 2886.000000
1412.821045 2826.000000
1414.465698 2849.000000
1416.109131 2814.000000
1417.751709 2826.000000
1419.393188 2796.000000
1421.033813 2813.000000
1422.673462 2802.000000
1424.312012 2836.000000
1425.949707 2799.000000
1427.586304 2893.000000
1429.221924 2763.000000
1430.856812 2837.000000
1432.490601 2811.000000
1434.123291 2798.000000
1435.755005 2914.000000
1437.385864 2806.000000
1439.015625 2906.000000
1440.644287 2802.000000
1442.272339 2833.000000
1443.899292 2833.000000
1445.525024 2819.000000
1447.150146 2844.000000
1448.774170 2828.000000
1450.397217 2938.000000
1452.019287 2974.000000
1453.640259 3086.000000
1455.260254 3019.000000
1456.879517 3044.000000
1458.497437 3152.000000
1460.114746 3293.000000
1461.731079 3047.000000
1463.346191 3046.000000
1464.960449 2977.000000
1466.573853 2928.000000
1468.186157 2985.000000
1469.797607 2814.000000
1471.408203 2797.000000
1473.017578 2774.000000
1474.625977 2820.000000
1476.233521 2791.000000
1477.840088 2892.000000
1479.445923 2818.000000
1481.050537 2813.000000
1482.654297 2767.000000
1484.256836 2683.000000
1485.858765 2616.000000
1487.459473 2571.000000
1489.059448 2539.000000
1490.658325 2538.000000
1492.256348 2515.000000
1493.853271 2539.000000
1495.449341 2667.000000
1497.044434 2669.000000
1498.638550 2721.000000
1500.231934 2738.000000
1501.824219 2650.000000
1503.415283 2689.000000
1505.005859 2559.000000
1506.595093 2542.000000
1508.183716 2588.000000
1509.771240 2541.000000
1511.357666 2555.000000
1512.943359 2514.000000
1514.527954 2581.000000
1516.111694 2552.000000
1517.694336 2570.000000
1519.276245 2687.000000
1520.857056 2545.000000
1522.437134 2495.000000
1524.015991 2572.000000
1525.593994 2459.000000
1527.171265 2418.000000
1528.747314 2431.000000
1530.322632 2439.000000
1531.896851 2367.000000
1533.470337 2278.000000
1535.042603 2468.000000
1536.614136 2490.000000
1538.184692 2357.000000
1539.754395 2382.000000
1541.322876 2348.000000
1542.890625 2336.000000
1544.457520 2421.000000
1546.023193 2318.000000
1547.588135 2320.000000
1549.151978 2228.000000
1550.715210 2353.000000
1552.277100 2406.000000
1553.838379 2397.000000
1555.398560 2393.000000
1556.958008 2500.000000
1558.516357 2482.000000
1560.073975 2300.000000
1561.630493 2261.000000
1563.185791 2222.000000
1564.740479 2339.000000
1566.294434 2341.000000
1567.847412 2265.000000
1569.399048 2278.000000
1570.949951 2244.000000
1572.500122 2281.000000
1574.049316 2302.000000
1575.597168 2350.000000
1577.144531 2300.000000
1578.690918 2336.000000
1580.236450 2326.000000
1581.781006 2244.000000
1583.324341 2279.000000
1584.867065 2172.000000
1586.408936 2256.000000
1587.949707 2275.000000
1589.489502 2283.000000
1591.028564 2282.000000
1592.566528 2296.000000
1594.104004 2196.000000
1595.640137 2306.000000
1597.175171 2334.000000
1598.709717 2168.000000
1600.243286 2093.000000
1601.776001 2300.000000
1603.307129 2257.000000
1604.838013 2180.000000
1606.368042 2271.000000
1607.896851 2185.000000
1609.424561 2132.000000
1610.951660 2254.000000
1612.478027 2261.000000
1614.003418 2274.000000
1615.527954 2190.000000
1617.051147 2275.000000
1618.573608 2120.000000
1620.095337 2238.000000
1621.616211 2260.000000
1623.135620 2084.000000
1624.654541 2262.000000
1626.172729 2107.000000
1627.690063 2187.000000
1629.206299 2188.000000
1630.721191 2061.000000
1632.235596 2077.000000
1633.749268 2122.000000
1635.261841 2125.000000
1636.773193 2067.000000
1638.284180 2101.000000
1639.794067 2187.000000
1641.303101 2024.000000
1642.810791 2069.000000
1644.318115 2054.000000
1645.824585 2115.000000
1647.330078 2087.000000
1648.834717 1936.000000
1650.337891 1930.000000
1651.840454 2085.000000
1653.342651 1986.000000
1654.843506 2045.000000
1656.343262 1971.000000
1657.842163 1972.000000
1659.340698 2029.000000
1660.838013 1891.000000
1662.334595 1978.000000
1663.829590 1918.000000
1665.324341 1956.000000
1666.818237 1898.000000
1668.311157 1931.000000
1669.802734 1561.000000
1671.293823 1916.000000
1672.784302 1860.000000
1674.273682 1892.000000
1675.761597 1885.000000
1677.249268 1877.000000
1678.735962 1884.000000
1680.221802 1952.000000
1681.706787 1933.000000
1683.190308 1911.000000
1684.673584 1827.000000
1686.156006 1851.000000
1687.637329 1773.000000
1689.117188 1834.000000
1690.596802 1827.000000
1692.075684 1970.000000
1693.553589 1581.000000
1695.030518 1777.000000
1696.506226 1745.000000
1697.981567 1766.000000
1699.455688 1793.000000
1700.929199 1811.000000
1702.401245 1810.000000
1703.873047 1705.000000
1705.343872 1704.000000
1706.813843 1831.000000
1708.282471 1745.000000
1709.750610 1840.000000
1711.218018 1797.000000
1712.684326 1760.000000
1714.150024 1795.000000
1715.614014 1897.000000
1717.077881 1788.000000
1718.540894 1782.000000
1720.002930 1728.000000
1721.463745 1755.000000
1722.923950 1785.000000
1724.383423 1759.000000
1725.842041 1773.000000
1727.299683 1748.000000
1728.755981 1687.000000
1730.212036 1774.000000
1731.667114 1731.000000
1733.121216 1782.000000
1734.574097 1780.000000
1736.026733 1802.000000
1737.478271 1753.000000
1738.929077 1718.000000
1740.378906 1687.000000
1741.827393 1705.000000
1743.275513 1639.000000
1744.722778 1738.000000
1746.169312 1711.000000
1747.614258 1702.000000
1749.058960 1642.000000
1750.502808 1682.000000
1751.945801 1651.000000
1753.387329 1646.000000
1754.828613 1728.000000
1756.269043 1593.000000
1757.708496 1649.000000
1759.146973 1643.000000
1760.584473 1640.000000
1762.021484 1628.000000
1763.457520 1653.000000
1764.892700 1645.000000
1766.326416 1674.000000
1767.760010 1548.000000
1769.192627 1711.000000
1770.624390 1538.000000
1772.055298 1570.000000
1773.484985 1544.000000
1774.913940 1552.000000
1776.342407 1495.000000
1777.769897 1451.000000
1779.196045 1501.000000
1780.621948 1497.000000
1782.046753 1524.000000
1783.470947 1511.000000
1784.893677 1519.000000
1786.315918 1498.000000
1787.737427 1514.000000
1789.158203 1621.000000
1790.578003 1562.000000
1791.996460 1421.000000
1793.414429 1520.000000
1794.831787 1485.000000
1796.248291 1531.000000
1797.663330 1444.000000
1799.078003 1358.000000
1800.492065 1428.000000
1801.904907 1398.000000
1803.317139 1462.000000
1804.728027 1401.000000
1806.138428 1412.000000
1807.548096 1464.000000
1808.956787 1379.000000
1810.364380 1512.000000
1811.771484 1469.000000
1813.177734 1384.000000
1814.583008 1413.000000
1815.987183 1582.000000
1817.390991 1484.000000
1818.793823 1502.000000
1820.195801 1459.000000
1821.597168 1406.000000
1822.997070 1448.000000
1824.396362 1480.000000
1825.795166 1404.000000
1827.193115 1391.000000
1828.589722 1420.000000
1829.985718 1415.000000
1831.380981 1384.000000
1832.775635 1420.000000
1834.169312 1399.000000
1835.561646 1352.000000
1836.953491 1338.000000
1838.344727 1441.000000
1839.734985 1355.000000
1841.124023 1350.000000
1842.512695 1383.000000
1843.900391 1344.000000
1845.287354 1370.000000
1846.672974 1370.000000
1848.058350 1380.000000
1849.442871 1473.000000
1850.826660 1344.000000
1852.209351 1320.000000
1853.590820 1371.000000
1854.971802 1369.000000
1856.352295 1334.000000
1857.731812 1361.000000
1859.109863 1347.000000
1860.487793 1278.000000
1861.864746 1406.000000
1863.240967 1277.000000
1864.616333 1297.000000
1865.990234 1294.000000
1867.364014 1179.000000
1868.736938 1328.000000
1870.108765 1262.000000
1871.479614 1249.000000
1872.850098 1275.000000
1874.219482 1263.000000
1875.588379 1201.000000
1876.955688 1324.000000
1878.322876 1243.000000
1879.689087 1205.000000
1881.054565 1206.000000
1882.419312 1199.000000
1883.782471 1192.000000
1885.145508 1242.000000
1886.507690 1259.000000
1887.869019 1219.000000
1889.229004 1153.000000
1890.588623 1235.000000
1891.947632 1220.000000
1893.305664 1162.000000
1894.662842 1185.000000
1896.018799 1218.000000
1897.374512 1179.000000
1898.729248 1240.000000
1900.083130 1312.000000
1901.435913 1234.000000
1902.788208 1144.000000
1904.139771 1190.000000
1905.490479 1113.000000
1906.839966 1125.000000
1908.188965 1141.000000
1909.537109 1120.000000
1910.884644 1133.000000
1912.231445 1138.000000
1913.576660 1065.000000
1914.921631 1163.000000
1916.265869 1149.000000
1917.609253 1141.000000
1918.951294 1103.000000
1920.293091 1246.000000
1921.634033 1198.000000
1922.974243 1282.000000
1924.313477 1149.000000
1925.651733 1258.000000
1926.989380 1192.000000
1928.326294 1112.000000
1929.662354 1196.000000
1930.997192 1139.000000
1932.331665 1204.000000
1933.665405 1176.000000
1934.998291 1159.000000
1936.329712 1148.000000
1937.661255 1166.000000
1938.991455 1136.000000
1940.321167 1091.000000
1941.650024 1097.000000
1942.977661 1180.000000
1944.304810 1184.000000
1945.631226 1099.000000
1946.956909 1155.000000
1948.281250 1177.000000
1949.605347 1172.000000
1950.928589 1128.000000
1952.251099 1138.000000
1953.572510 1082.000000
1954.892944 1122.000000
1956.212769 1056.000000
1957.532227 1141.000000
1958.850708 1040.000000
1960.167847 1060.000000
1961.484619 1081.000000
1962.800659 1028.000000
1964.115967 1083.000000
1965.429810 1017.000000
1966.743408 1080.000000
1968.056274 1018.000000
1969.368286 1031.000000
1970.679688 986.000000
1971.989746 962.000000
1973.299316 976.000000
1974.608154 1067.000000
1975.916382 978.000000
1977.223267 1044.000000
1978.529541 1052.000000
1979.835449 1127.000000
1981.140137 967.000000
1982.444336 984.000000
1983.747314 1037.000000
1985.049927 917.000000
1986.351563 982.000000
1987.652588 905.000000
1988.952026 977.000000
1990.251587 1023.000000
1991.550049 881.000000
1992.848022 905.000000
1994.144409 1002.000000
1995.440796 877.000000
1996.736206 906.000000
1998.030884 943.000000
1999.324707 955.000000
2000.617310 852.000000
2001.909424 926.000000
2003.201050 917.000000
2004.491943 946.000000
2005.781250 1022.000000
2007.070313 912.000000
2008.358643 932.000000
2009.646240 898.000000
2010.932983 856.000000
2012.218628 859.000000
2013.503906 969.000000
2014.788208 892.000000
2016.071899 868.000000
2017.354248 892.000000
2018.636230 954.000000
2019.917725 927.000000
2021.198242 801.000000
2022.478027 873.000000
2023.756714 852.000000
2025.034668 840.000000
2026.312134 895.000000
2027.588989 815.000000
2028.864136 878.000000
2030.139404 980.000000
2031.413696 992.000000
2032.687012 778.000000
2033.959473 878.000000
2035.231567 841.000000
2036.502563 848.000000
2037.773315 900.000000
2039.042725 903.000000
2040.311035 888.000000
2041.579346 930.000000
2042.846680 881.000000
2044.113281 859.000000
2045.378662 859.000000
2046.643433 841.000000
2047.907959 889.000000
2049.171387 835.000000
2050.434326 827.000000
2051.695313 866.000000
2052.956787 882.000000
2054.217041 910.000000
2055.476563 870.000000
2056.735352 838.000000
2057.993164 857.000000
2059.250488 907.000000
2060.507080 832.000000
2061.762207 813.000000
2063.017334 811.000000
2064.271484 890.000000
2065.524902 833.000000
2066.777588 792.000000
2068.029053 798.000000
2069.280273 765.000000
2070.530762 849.000000
2071.780518 806.000000
2073.028809 1199.000000
2074.277100 864.000000
2075.524414 799.000000
2076.770996 838.000000
2078.016846 877.000000
2079.261475 710.000000
2080.505615 779.000000
2081.749268 782.000000
2082.991943 904.000000
2084.233398 837.000000
2085.474609 720.000000
2086.715332 858.000000
2087.955078 779.000000
2089.193604 793.000000
2090.431641 683.000000
2091.668945 787.000000
2092.906006 736.000000
2094.141602 706.000000
2095.376465 723.000000
2096.611084 857.000000
2097.844727 754.000000
2099.077393 775.000000
2100.309326 704.000000
2101.540771 799.000000
2102.771240 723.000000
2104.000977 775.000000
2105.230469 727.000000
2106.458008 732.000000
2107.685791 727.000000
2108.912842 770.000000
2110.138916 706.000000
2111.363525 798.000000
2112.588379 740.000000
2113.812012 714.000000
2115.035156 669.000000
2116.257080 696.000000
2117.478760 620.000000
2118.699463 624.000000
2119.919434 661.000000
2121.138916 701.000000
2122.356934 697.000000
2123.574951 729.000000
2124.791992 689.000000
2126.008545 722.000000
2127.223389 770.000000
2128.438477 711.000000
2129.652588 773.000000
2130.865967 730.000000
2132.078613 724.000000
2133.289795 708.000000
2134.501221 603.000000
2135.711426 579.000000
2136.921143 648.000000
2138.129395 736.000000
2139.337646 697.000000
2140.545166 706.000000
2141.751465 758.000000
2142.957031 741.000000
2144.162354 704.000000
2145.366699 701.000000
2146.570313 693.000000
2147.773438 716.000000
2148.975098 795.000000
2150.176514 704.000000
2151.377197 693.000000
2152.577148 650.000000
2153.775879 593.000000
2154.974365 570.000000
2156.172363 640.000000
2157.369385 677.000000
2158.565674 631.000000
2159.760742 681.000000
2160.955566 721.000000
2162.149658 659.000000
2163.342773 643.000000
2164.534912 626.000000
2165.726807 598.000000
2166.917969 621.000000
2168.108154 654.000000
2169.297607 593.000000
2170.486572 653.000000
2171.674561 620.000000
2172.862305 606.000000
2174.048584 567.000000
2175.234131 659.000000
2176.419434 645.000000
2177.604248 603.000000
2178.787842 660.000000
2179.970703 557.000000
2181.152588 606.000000
2182.334229 614.000000
2183.515381 606.000000
2184.695313 512.000000
2185.874268 554.000000
2187.052734 645.000000
2188.230957 577.000000
2189.407959 507.000000
2190.583984 616.000000
2191.759766 608.000000
2192.935059 546.000000
2194.108887 582.000000
2195.282227 542.000000
2196.455322 649.000000
2197.627197 528.000000
2198.798584 615.000000
2199.969482 620.000000
2201.138672 576.000000
2202.307861 483.000000
2203.476563 671.000000
2204.644287 561.000000
2205.811035 596.000000
2206.977051 596.000000
2208.142578 525.000000
2209.307861 567.000000
2210.471680 514.000000
2211.635010 563.000000
2212.797119 579.000000
2213.959473 574.000000
2215.120605 633.000000
2216.280762 580.000000
2217.440430 585.000000
2218.599854 574.000000
2219.758057 516.000000
2220.915283 595.000000
2222.072266 496.000000
2223.228516 586.000000
2224.384033 501.000000
2225.538818 503.000000
2226.692627 538.000000
2227.845459 532.000000
2228.998779 539.000000
2230.150146 534.000000
2231.301270 501.000000
2232.451660 476.000000
2233.601563 659.000000
2234.750488 607.000000
2235.898926 508.000000
2237.045898 742.000000
2238.193115 492.000000
2239.339111 578.000000
2240.484863 541.000000
2241.628906 523.000000
2242.773193 520.000000
2243.916504 460.000000
2245.059082 489.000000
2246.200684 515.000000
2247.342041 566.000000
2248.482422 523.000000
2249.622070 480.000000
2250.761230 478.000000
2251.899170 471.000000
2253.037109 509.000000
2254.174072 431.000000
2255.310303 459.000000
2256.445557 547.000000
2257.580078 490.000000
2258.714355 437.000000
2259.848145 506.000000
2260.980469 486.000000
2262.112305 422.000000
2263.243652 449.000000
2264.374023 506.000000
2265.504150 496.000000
2266.633057 529.000000
2267.761475 436.000000
2268.889404 513.000000
2270.016357 292.000000
2271.142578 412.000000
2272.267822 477.000000
2273.393066 355.000000
2274.517578 435.000000
2275.640869 443.000000
2276.763428 360.000000
2277.885498 499.000000
2279.007080 503.000000
2280.127930 495.000000
2281.247559 458.000000
2282.366699 392.000000
2283.485596 446.000000
2284.603760 429.000000
2285.720947 454.000000
2286.837158 429.000000
2287.953125 395.000000
2289.068359 412.000000
2290.182861 395.000000
2291.296143 488.000000
2292.409424 418.000000
2293.521973 467.000000
2294.633789 379.000000
2295.744873 350.000000
2296.854736 428.000000
2297.964111 465.000000
2299.073242 378.000000
2300.181396 475.000000
2301.288574 404.000000
2302.395508 501.000000
2303.501709 430.000000
2304.607422 380.000000
2305.711670 470.000000
2306.815674 431.000000
2307.919189 433.000000
2309.022217 348.000000
2310.124023 399.000000
2311.225098 357.000000
2312.325684 481.000000
2313.425781 403.000000
2314.525146 432.000000
2315.623047 402.000000
2316.721436 363.000000
2317.818359 355.000000
2318.915039 418.000000
2320.011230 403.000000
2321.105713 468.000000
2322.200195 415.000000
2323.293945 421.000000
2324.387451 448.000000
2325.479248 398.000000
2326.571045 403.000000
2327.662109 525.000000
2328.752441 534.000000
2329.841797 484.000000
2330.931152 509.000000
2332.019287 546.000000
2333.106934 510.000000
2334.194336 480.000000
2335.280029 439.000000
2336.365479 442.000000
2337.450684 313.000000
2338.534912 336.000000
2339.618164 365.000000
2340.701172 386.000000
2341.783203 268.000000
2342.864990 419.000000
2343.946045 357.000000
2345.025879 409.000000
2346.105225 299.000000
2347.184082 464.000000
2348.262451 365.000000
2349.339355 366.000000
2350.416016 275.000000
2351.492432 279.000000
2352.567871 356.000000
2353.642334 370.000000
2354.716553 372.000000
2355.790039 302.000000
2356.863037 454.000000
2357.934814 375.000000
2359.006348 348.000000
2360.076904 364.000000
2361.147217 401.000000
2362.216553 247.000000
2363.284912 266.000000
2364.353027 404.000000
2365.420410 393.000000
2366.487305 359.000000
2367.553467 278.000000
2368.618408 287.000000
2369.683350 432.000000
2370.747559 387.000000
2371.811035 298.000000
2372.873291 327.000000
2373.935547 305.000000
2374.996826 279.000000
2376.057861 339.000000
2377.117676 376.000000
2378.176758 338.000000
2379.235840 409.000000
2380.293945 322.000000
2381.351318 362.000000
2382.407715 339.000000
2383.463867 348.000000
2384.519531 225.000000
2385.574463 243.000000
2386.627930 308.000000
2387.681641 270.000000
2388.734375 384.000000
2389.786621 274.000000
2390.838135 326.000000
2391.888672 317.000000
2392.938965 323.000000
2393.988281 304.000000
2395.037598 372.000000
2396.085449 347.000000
2397.132813 269.000000
2398.179932 342.000000
2399.226074 308.000000
2400.271484 340.000000
2401.316162 255.000000
2402.360840 287.000000
2403.404053 248.000000
2404.447266 327.000000
2405.489014 292.000000
2406.531006 342.000000
2407.572266 337.000000
2408.612549 401.000000
2409.652100 278.000000
2410.690674 372.000000
2411.729492 356.000000
2412.767090 350.000000
2413.804443 394.000000
2414.840576 372.000000
2415.876465 324.000000
2416.911621 252.000000
2417.946289 275.000000
2418.979492 289.000000
2420.012939 396.000000
2421.045410 333.000000
2422.077637 352.000000
2423.108398 267.000000
2424.139160 325.000000
2425.169434 384.000000
2426.198486 331.000000
2427.227539 196.000000
2428.254883 173.000000
2429.282715 365.000000
2430.309326 245.000000
2431.335693 335.000000
2432.360596 293.000000
2433.385742 250.000000
2434.409912 234.000000
2435.433838 269.000000
2436.456543 270.000000
2437.478516 306.000000
2438.500244 199.000000
2439.521240 240.000000
2440.541748 242.000000
2441.561035 289.000000
2442.580322 256.000000
2443.598633 309.000000
2444.616699 260.000000
2445.633301 268.000000
2446.649902 166.000000
2447.665771 212.000000
2448.681641 333.000000
2449.696045 317.000000
2450.709717 256.000000
2451.722900 288.000000
2452.735840 307.000000
2453.748047 257.000000
2454.759277 191.000000
2455.770264 228.000000
2456.780518 212.000000
2457.790283 234.000000
2458.799072 262.000000
2459.807129 214.000000
2460.815186 295.000000
2461.822021 272.000000
2462.828613 220.000000
2463.833984 140.000000
2464.839111 300.000000
2465.843994 206.000000
2466.847656 325.000000
2467.851074 236.000000
2468.853516 215.000000
2469.855713 253.000000
2470.857422 260.000000
2471.858154 191.000000
2472.857910 187.000000
2473.857666 245.000000
2474.856445 234.000000
2475.854736 251.000000
2476.852051 243.000000
2477.849121 225.000000
2478.846191 190.000000
2479.841797 288.000000
2480.837402 199.000000
2481.831299 222.000000
2482.825195 114.000000
2483.818604 277.000000
2484.811523 272.000000
2485.803467 369.000000
2486.794678 179.000000
2487.785645 368.000000
2488.776123 253.000000
2489.765625 249.000000
2490.754395 266.000000
2491.743164 234.000000
2492.730957 295.000000
2493.717529 229.000000
2494.704102 213.000000
2495.690186 235.000000
2496.675537 188.000000
2497.659912 238.000000
2498.644043 290.000000
2499.628174 186.000000
2500.610840 245.000000
2501.593018 277.000000
2502.574707 185.000000
2503.555664 255.000000
2504.536133 257.000000
2505.516357 254.000000
2506.495117 259.000000
2507.473633 131.000000
2508.451660 183.000000
2509.429199 231.000000
2510.405762 220.000000
2511.382080 242.000000
2512.357666 219.000000
2513.332764 255.000000
2514.307373 285.000000
2515.280762 201.000000
2516.253906 143.000000
2517.226807 234.000000
2518.198730 246.000000
2519.169922 170.000000
2520.140625 221.000000
2521.111084 302.000000
2522.080811 220.000000
2523.049561 227.000000
2524.017578 108.000000
2524.985596 329.000000
2525.952637 188.000000
2526.919434 215.000000
2527.885010 194.000000
2528.850586 159.000000
2529.815430 237.000000
2530.779785 221.000000
2531.742920 246.000000
2532.706299 172.000000
2533.668701 214.000000
2534.630859 154.000000
2535.591797 150.000000
2536.552002 269.000000
2537.512451 233.000000
2538.471924 155.000000
2539.430664 224.000000
2540.388428 232.000000
2541.346436 277.000000
2542.303711 254.000000
2543.260010 162.000000
2544.216064 128.000000
2545.170898 240.000000
2546.125977 146.000000
2547.080322 251.000000
2548.033936 656.000000
2548.986572 149.000000
2549.938965 165.000000
2550.890869 203.000000
2551.842041 143.000000
2552.792480 192.000000
2553.742432 238.000000
2554.692139 170.000000
2555.641113 114.000000
2556.589600 158.000000
2557.536865 136.000000
2558.484131 172.000000
2559.430664 248.000000
2560.376709 237.000000
2561.321777 173.000000
2562.266602 161.000000
2563.210938 189.000000
2564.154785 127.000000
2565.098145 90.000000
2566.040039 33.000000
2566.982178 303.000000
2567.923584 226.000000
2568.864258 175.000000
2569.804199 143.000000
2570.744141 107.000000
2571.683105 103.000000
2572.621826 124.000000
2573.559570 182.000000
2574.497070 222.000000
2575.433838 245.000000
2576.369873 202.000000
2577.305420 156.000000
2578.240234 215.000000
2579.175049 208.000000
2580.108887 190.000000
2581.042236 95.000000
2581.974854 124.000000
2582.907227 170.000000
2583.838867 148.000000
2584.770020 63.000000
2585.700684 209.000000
2586.630127 211.000000
2587.559570 164.000000
2588.488525 209.000000
2589.417236 170.000000
2590.344238 171.000000
2591.271484 265.000000
2592.198242 209.000000
2593.124268 186.000000
2594.050049 152.000000
2594.974609 230.000000
2595.898926 126.000000
2596.822754 110.000000
2597.746094 180.000000
2598.668457 79.000000
2599.590576 148.000000
2600.512207 144.000000
2601.433105 136.000000
2602.353271 108.000000
2603.273193 214.000000
2604.192627 167.000000
2605.111816 136.000000
2606.030029 168.000000
2606.947021 145.000000
2607.864258 151.000000
2608.781250 119.000000
2609.697266 196.000000
2610.612061 155.000000
2611.527344 130.000000
2612.441895 110.000000
2613.355469 130.000000
2614.269043 199.000000
2615.181396 209.000000
2616.093750 156.000000
2617.005127 137.000000
2617.916260 99.000000
2618.826660 158.000000
2619.736816 241.000000
2620.646240 105.000000
2621.555176 93.000000
2622.463135 173.000000
2623.371338 21.000000
2624.278564 85.000000
2625.185303 183.000000
2626.091309 167.000000
2626.997070 130.000000
2627.902100 203.000000
2628.806885 37.000000
2629.710938 207.000000
2630.614014 214.000000
2631.517090 136.000000
2632.419189 69.000000
2633.321289 131.000000
2634.223145 122.000000
2635.123291 193.000000
2636.023682 143.000000
2636.923340 79.000000
2637.822754 142.000000
2638.720703 127.000000
2639.619141 90.000000
2640.517090 155.000000
2641.414307 105.000000
2642.310303 47.000000
2643.206299 266.000000
2644.102051 148.000000
2644.997070 158.000000
2645.891846 115.000000
2646.785156 157.000000
2647.678467 129.000000
2648.571533 144.000000
2649.464355 251.000000
2650.355469 198.000000
2651.246826 181.000000
2652.137695 82.000000
2653.027832 32.000000
2653.917725 71.000000
2654.806396 85.000000
2655.695313 177.000000
2656.583740 167.000000
2657.471191 92.000000
2658.357666 162.000000
2659.244629 158.000000
2660.130859 150.000000
2661.016602 189.000000
2661.901123 108.000000
2662.785645 131.000000
2663.669922 164.000000
2664.553467 153.000000
2665.436523 133.000000
2666.318848 108.000000
2667.200684 139.000000
2668.081787 120.000000
2668.963135 93.000000
2669.843018 118.000000
2670.723145 132.000000
2671.602539 114.000000
2672.481934 60.000000
2673.360596 111.000000
2674.237549 112.000000
2675.115234 68.000000
2675.992188 84.000000
2676.868408 127.000000
2677.744141 159.000000
2678.619141 87.000000
2679.494385 83.000000
2680.368652 89.000000
2681.242432 119.000000
2682.115479 179.000000
2682.988281 102.000000
2683.860840 157.000000
2684.732666 18.000000
2685.603760 58.000000
2686.474609 102.000000
2687.344971 97.000000
2688.215088 134.000000
2689.083496 123.000000
2689.952637 207.000000
2690.821045 61.000000
2691.689209 145.000000
2692.556641 81.000000
2693.422852 91.000000
2694.289551 133.000000
2695.155273 122.000000
2696.020996 21.000000
2696.885254 303.000000
2697.750244 218.000000
2698.613770 74.000000
2699.477539 152.000000
2700.339844 81.000000
2701.202637 37.000000
2702.064453 13.000000
2702.925781 84.000000
2703.787109 48.000000
2704.647217 129.000000
2705.507324 87.000000
2706.366943 122.000000
2707.226318 65.000000
2708.083984 107.000000
2708.941895 135.000000
2709.800293 65.000000
2710.657471 104.000000
2711.513916 170.000000
2712.369873 114.000000
2713.225830 149.000000
2714.081055 37.000000
2714.935547 135.000000
2715.789551 8.000000
2716.643555 39.000000
2717.496582 70.000000
2718.349854 75.000000
2719.201416 29.000000
2720.053467 172.000000
2720.905273 131.000000
2721.755859 120.000000
2722.606445 125.000000
2723.456543 106.000000
2724.305908 -12.000000
2725.155273 67.000000
2726.003418 79.000000
2726.851074 81.000000
2727.699219 181.000000
2728.546143 80.000000
2729.393555 62.000000
2730.239502 86.000000
2731.084717 23.000000
2731.930420 198.000000
2732.775146 164.000000
2733.619873 99.000000
2734.463379 107.000000
2735.307129 139.000000
2736.150146 4.000000
2736.992676 107.000000
2737.834229 6.000000
2738.676270 26.000000
2739.517334 66.000000
2740.358154 85.000000
2741.198730 154.000000
2742.038086 79.000000
2742.877441 181.000000
2743.716797 199.000000
2744.554932 61.000000
2745.392578 83.000000
2746.230225 34.000000
2747.067383 118.000000
2747.904297 50.000000
2748.740723 109.000000
2749.575928 2.000000
2750.411377 52.000000
2751.246338 187.000000
2752.080566 47.000000
2752.914551 106.000000
2753.748047 65.000000
2754.581543 112.000000
2755.414063 133.000000
2756.246094 26.000000
2757.077637 168.000000
2757.909180 86.000000
2758.739746 36.000000
2759.570557 -42.000000
2760.400146 180.000000
2761.229736 155.000000
2762.059082 96.000000
2762.887695 157.000000
2763.715820 172.000000
2764.543457 -65.000000
2765.371094 -10.000000
2766.198242 61.000000
2767.024658 95.000000
2767.850586 36.000000
2768.676025 79.000000
2769.501221 32.000000
2770.326416 62.000000
2771.150391 55.000000
2771.974365 85.000000
2772.798340 77.000000
2773.621094 85.000000
2774.444092 56.000000
2775.265869 -67.000000
2776.087646 134.000000
2776.909424 74.000000
2777.730225 109.000000
2778.550293 88.000000
2779.370605 70.000000
2780.190430 87.000000
2781.010254 48.000000
2781.828125 31.000000
2782.647217 7.000000
2783.465088 53.000000
2784.282715 81.000000
2785.099854 -24.000000
2785.916504 33.000000
2786.732910 46.000000
2787.548828 99.000000
2788.364502 63.000000
2789.179199 59.000000
2789.994385 25.000000
2790.808838 89.000000
2791.622803 42.000000
2792.436523 18.000000
2793.249023 66.000000
2794.061768 201.000000
2794.874023 18.000000
2795.685791 17.000000
2796.496826 -7.000000
2797.308594 76.000000
2798.119141 22.000000
2798.929688 159.000000
2799.738770 62.000000
2800.548584 75.000000
2801.357666 139.000000
2802.166504 57.000000
2802.974854 18.000000
2803.782227 164.000000
2804.590088 30.000000
2805.397217 54.000000
2806.204102 91.000000
2807.009766 84.000000
2807.815918 119.000000
2808.621338 8.000000
2809.426758 -21.000000
2810.231445 -30.000000
2811.035156 9.000000
2811.839355 27.000000
2812.643066 160.000000
2813.446533 37.000000
2814.248535 16.000000
2815.051270 18.000000
2815.853271 -14.000000
2816.655029 7.000000
2817.456299 34.000000
2818.257080 4.000000
2819.057373 36.000000
2819.857910 -24.000000
2820.657471 51.000000
2821.456543 103.000000
2822.255615 15.000000
2823.054443 51.000000
2823.852783 29.000000
2824.650146 47.000000
2825.447754 63.000000
2826.244629 26.000000
2827.041748 143.000000
2827.838135 106.000000
2828.633789 42.000000
2829.429443 74.000000
2830.224854 40.000000
2831.019775 19.000000
2831.813965 63.000000
2832.608154 24.000000
2833.402100 112.000000
2834.195557 -51.000000
2834.988281 150.000000
2835.780762 6.000000
2836.573242 72.000000
2837.365479 100.000000
2838.157227 90.000000
2838.947998 64.000000
2839.738770 76.000000
2840.529785 117.000000
2841.319824 69.000000
2842.109375 51.000000
2842.899170 8.000000
2843.687988 64.000000
2844.476807 78.000000
2845.265625 -27.000000
2846.053467 42.000000
2846.840820 -45.000000
2847.628418 77.000000
2848.415527 164.000000
2849.201904 71.000000
2849.988281 7.000000
2850.774414 -25.000000
2851.560059 110.000000
2852.344727 -25.000000
2853.129883 21.000000
2853.914795 77.000000
2854.698975 69.000000
2855.483154 71.000000
2856.266113 19.000000
2857.049316 19.000000
2857.832275 41.000000
2858.614746 21.000000
2859.396973 27.000000
2860.178711 22.000000
2860.960205 -42.000000
2861.741943 -38.000000
2862.522949 46.000000
2863.303223 74.000000
2864.083252 132.000000
2864.863281 27.000000
2865.643066 84.000000
2866.421875 91.000000
2867.200928 -40.000000
2867.979492 4.000000
2868.757813 158.000000
2869.535645 121.000000
2870.313232 -63.000000
2871.090576 184.000000
2871.867676 148.000000
2872.644287 180.000000
2873.420410 101.000000
2874.196533 91.000000
2874.972168 -1.000000
2875.747559 -8.000000
2876.522461 24.000000
2877.297119 38.000000
2878.071777 71.000000
2878.846191 127.000000
2879.619873 -12.000000
2880.392822 111.000000
2881.166504 55.000000
2881.939209 110.000000
2882.711914 19.000000
2883.483887 -49.000000
2884.255615 23.000000
2885.027832 117.000000
2885.798828 128.000000
2886.569336 181.000000
2887.340332 71.000000
2888.111328 78.000000
2888.881592 98.000000
2889.650879 116.000000
2890.420410 158.000000
2891.189941 50.000000
2891.958984 68.000000
2892.727539 53.000000
2893.496094 125.000000
2894.263672 65.000000
2895.031738 115.000000
2895.799316 -15.000000
2896.566895 -1.000000
2897.333252 34.000000
2898.100586 178.000000
2898.866699 17.000000
2899.633057 63.000000
2900.397949 129.000000
2901.163330 5.000000
2901.929199 132.000000
2902.693604 110.000000
2903.458008 -70.000000
2904.222656 61.000000
2904.986328 82.000000
2905.750732 11.000000
2906.514404 48.000000
2907.277344 52.000000
2908.040039 -1.000000
2908.803223 184.000000
2909.565918 6.000000
2910.327393 33.000000
2911.089355 33.000000
spectrumdark 2048
-97.141541 6256.000000
-94.514679 6256.000000
-91.889679 6065.000000
-89.266586 6446.000000
-86.645355 5900.000000
-84.026016 6318.000000
-81.408554 6092.000000
-78.792953 6467.000000
-76.179245 6224.000000
-73.567398 5940.000000
-70.957428 6136.000000
-68.349335 5989.000000
-65.743088 6051.000000
-63.138714 6020.000000
-60.536205 6172.000000
-57.935551 5657.000000
-55.336758 6267.000000
-52.739822 6878.000000
-50.144741 6564.000000
-47.551514 6541.000000
-44.960136 6334.000000
-42.370605 6711.000000
-39.782917 5892.000000
-37.197079 6084.000000
-34.613083 6498.000000
-32.030922 5704.000000
-29.450611 6343.000000
-26.872126 5736.000000
-24.295483 6217.000000
-21.720665 6264.000000
-19.147688 6513.000000
-16.576530 6546.000000
-14.007207 6856.000000
-11.439709 7830.000000
-8.874029 6341.000000
-6.310175 6519.000000
-3.748135 6024.000000
-1.187919 5881.000000
1.370489 6144.000000
3.927076 6959.000000
6.481858 6675.000000
9.034823 6024.000000
11.585988 6762.000000
14.135340 6516.000000
16.682896 6702.000000
19.228640 6099.000000
21.772591 5804.000000
24.314737 6733.000000
26.855087 6852.000000
29.393652 6889.000000
31.930420 6210.000000
34.465385 5776.000000
36.998573 7262.000000
39.529980 6316.000000
42.059593 7143.000000
44.587410 6476.000000
47.113468 7885.000000
49.637737 5660.000000
52.160236 6257.000000
54.680939 6791.000000
57.199886 6400.000000
59.717060 6558.000000
62.232456 6621.000000
64.746078 5679.000000
67.257935 5738.000000
69.768051 6597.000000
72.276382 6600.000000
74.782944 6011.000000
77.287766 6342.000000
79.790833 6429.000000
82.292130 6419.000000
84.791672 6133.000000
87.289474 6359.000000
89.785538 5744.000000
92.279816 7279.000000
94.772369 5802.000000
97.263199 6995.000000
99.752258 7218.000000
102.239563 6377.000000
104.725159 6235.000000
107.209000 6445.000000
109.691101 5767.000000
112.171478 6556.000000
114.650131 6291.000000
117.127060 6535.000000
119.602234 7171.000000
122.075699 6882.000000
124.547440 5937.000000
127.017456 6739.000000
129.485733 6303.000000
131.952332 6323.000000
134.417175 5700.000000
136.880325 6227.000000
139.341736 7310.000000
141.801453 6882.000000
144.259445 6443.000000
146.715744 6052.000000
149.170334 5894.000000
151.623199 6824.000000
154.074387 6408.000000
156.523880 6595.000000
158.971649 6072.000000
161.417709 6613.000000
163.862091 8669.000000
166.304794 6444.000000
168.745804 6727.000000
171.185104 6269.000000
173.622696 7275.000000
176.058655 6595.000000
178.492874 7061.000000
180.925415 7147.000000
183.356308 6702.000000
185.785477 6775.000000
188.212997 6779.000000
190.638840 6350.000000
193.063004 6627.000000
195.485504 7176.000000
197.906311 7314.000000
200.325455 6522.000000
202.742935 6085.000000
205.158722 7646.000000
207.572861 7113.000000
209.985367 6388.000000
212.396194 6133.000000
214.805344 6230.000000
217.212860 7344.000000
219.618668 6166.000000
222.022888 6544.000000
224.425400 6746.000000
226.826294 6925.000000
229.225540 6480.000000
231.623123 6828.000000
234.019043 7277.000000
236.413345 6516.000000
238.805984 5866.000000
241.197006 6845.000000
243.586365 6553.000000
245.974106 6334.000000
248.360199 7001.000000
250.744659 6076.000000
253.127472 7882.000000
255.508713 6646.000000
257.888245 6685.000000
260.266205 6555.000000
262.642487 7604.000000
265.017212 7612.000000
267.390289 7889.000000
269.761719 6247.000000
272.131500 6430.000000
274.499725 5948.000000
276.866302 6360.000000
279.231293 6735.000000
281.594666 6091.000000
283.956390 6301.000000
286.316528 7149.000000
288.675049 6076.000000
291.031982 6594.000000
293.387299 6435.000000
295.741028 5987.000000
298.093109 5975.000000
300.443634 6385.000000
302.792572 6353.000000
305.139862 6914.000000
307.485626 6467.000000
309.829712 6510.000000
312.172272 7379.000000
314.513214 7630.000000
316.852539 7264.000000
319.190308 7019.000000
321.526520 8033.000000
323.861084 6279.000000
326.194092 6513.000000
328.525543 5957.000000
330.855408 6678.000000
333.183685 6446.000000
335.510345 7290.000000
337.835510 6342.000000
340.159058 6234.000000
342.481049 6012.000000
344.801483 7600.000000
347.120300 7669.000000
349.437561 6041.000000
351.753296 5800.000000
354.067444 7025.000000
356.380005 6377.000000
358.691010 6446.000000
361.000488 7095.000000
363.308441 6392.000000
365.614777 5702.000000
367.919525 6370.000000
370.222809 6480.000000
372.524475 6295.000000
374.824646 6413.000000
377.123260 6372.000000
379.420319 5741.000000
381.715820 6109.000000
384.009796 5862.000000
386.302185 5299.000000
388.593079 5668.000000
390.882446 6279.000000
393.170227 6254.000000
395.456482 6501.000000
397.741241 7062.000000
400.024384 6121.000000
402.306091 6406.000000
404.586273 6228.000000
406.864868 7263.000000
409.141937 6481.000000
411.417480 6822.000000
413.691498 6553.000000
415.964081 6488.000000
418.235046 6394.000000
420.504517 6622.000000
422.772491 7141.000000
425.038910 7303.000000
427.303833 6281.000000
429.567291 6401.000000
431.829163 6541.000000
434.089569 5946.000000
436.348419 6703.000000
438.605804 6191.000000
440.861694 5691.000000
443.116089 5831.000000
445.368958 5500.000000
447.620270 6931.000000
449.870178 6194.000000
452.118500 6334.000000
454.365387 5642.000000
456.610809 6516.000000
458.854675 6491.000000
461.097046 6817.000000
463.337921 5676.000000
465.577393 6717.000000
467.815277 5460.000000
470.051727 5762.000000
472.286652 6118.000000
474.520111 7377.000000
476.752136 6743.000000
478.982635 5716.000000
481.211639 6497.000000
483.439178 6325.000000
485.665222 5962.000000
487.889832 6535.000000
490.112976 5908.000000
492.334656 6438.000000
494.554779 6687.000000
496.773499 5732.000000
498.990723 6298.000000
501.206573 5508.000000
503.420807 6260.000000
505.633728 6451.000000
507.845062 6433.000000
510.054962 6869.000000
512.263428 6516.000000
514.470520 6597.000000
516.676025 6431.000000
518.880127 6647.000000
521.082703 6235.000000
523.283875 6572.000000
525.483704 6730.000000
527.682007 7014.000000
529.878784 5322.000000
532.074219 5906.000000
534.268127 5613.000000
536.460693 7596.000000
538.651733 6740.000000
540.841370 6016.000000
543.029602 6992.000000
545.216309 7119.000000
547.401550 6821.000000
549.585510 6292.000000
551.767883 6432.000000
553.948914 6208.000000
556.128418 6083.000000
558.306641 5959.000000
560.483337 6072.000000
562.658630 6381.000000
564.832520 6473.000000
567.004944 5935.000000
569.175964 6079.000000
571.345520 6377.000000
573.513794 5311.000000
575.680542 6439.000000
577.845825 6330.000000
580.009705 6214.000000
582.172302 5750.000000
584.333374 6027.000000
586.493042 5675.000000
588.651367 5856.000000
590.808167 6156.000000
592.963623 6668.000000
595.117676 5763.000000
597.270386 6159.000000
599.421570 7276.000000
601.571411 6753.000000
603.719910 6680.000000
605.866821 5995.000000
608.012512 6550.000000
610.156799 6496.000000
612.299622 7031.000000
614.440979 6165.000000
616.581116 6506.000000
618.719727 7597.000000
620.857056 5749.000000
622.992920 6618.000000
625.127380 6883.000000
627.260376 7181.000000
629.392212 6678.000000
631.522583 6598.000000
633.651550 6792.000000
635.779053 6555.000000
637.905273 6182.000000
640.029968 7416.000000
642.153442 6428.000000
644.275574 6849.000000
646.396240 6819.000000
648.515564 6580.000000
650.633484 5693.000000
652.750061 5724.000000
654.865234 6438.000000
656.979065 6550.000000
659.091431 5828.000000
661.202576 6171.000000
663.312317 5489.000000
665.420593 6692.000000
667.527710 6269.000000
669.633362 6872.000000
671.737549 5734.000000
673.840515 5739.000000
675.942078 7049.000000
678.042297 5330.000000
680.141113 6769.000000
682.238586 6324.000000
684.334778 6991.000000
686.429504 6278.000000
688.523010 7096.000000
690.615173 6882.000000
692.705811 7973.000000
694.795227 6643.000000
696.883362 6524.000000
698.970032 6057.000000
701.055481 6740.000000
703.139404 5130.000000
705.222107 5954.000000
707.303528 5941.000000
709.383484 7647.000000
711.462219 6293.000000
713.539490 5589.000000
715.615479 6597.000000
717.690186 6146.000000
719.763611 7019.000000
721.835510 6334.000000
723.906250 7459.000000
725.975647 5831.000000
728.043640 6464.000000
730.110291 6354.000000
732.175720 7073.000000
734.239807 5791.000000
736.302551 6218.000000
738.363953 6500.000000
740.424072 6616.000000
742.482788 6047.000000
744.540283 6738.000000
746.596497 6456.000000
748.651306 6716.000000
750.704834 6352.000000
752.756958 7487.000000
754.807861 5861.000000
756.857544 6705.000000
758.905762 6373.000000
760.952759 6173.000000
762.998474 7119.000000
765.042786 5379.000000
767.085815 5731.000000
769.127625 15014.000000
771.168091 6951.000000
773.207153 6462.000000
775.245056 6178.000000
777.281616 5983.000000
779.316956 5441.000000
781.350952 5775.000000
783.383545 6925.000000
785.414978 5541.000000
787.445007 12090.000000
789.473755 6070.000000
791.501343 6414.000000
793.527588 6390.000000
795.552429 5847.000000
797.576172 5609.000000
799.598511 6361.000000
801.619629 5840.000000
803.639404 6697.000000
805.657898 4967.000000
807.675171 6630.000000
809.691040 6859.000000
811.705750 5733.000000
813.719116 6454.000000
815.731262 6275.000000
817.742188 6169.000000
819.751770 6591.000000
821.760132 5255.000000
823.767090 5768.000000
825.772827 6062.000000
827.777344 5775.000000
829.780579 5650.000000
831.782532 6510.000000
833.783203 6081.000000
835.782654 6004.000000
837.780762 6379.000000
839.777771 7024.000000
841.773376 6245.000000
843.767822 5902.000000
845.760925 6184.000000
847.752808 6815.000000
849.743347 5640.000000
851.732605 6815.000000
853.720825 6033.000000
855.707642 5812.000000
857.693237 6438.000000
859.677551 7337.000000
861.660767 6274.000000
863.642578 6447.000000
865.623169 5917.000000
867.602478 7736.000000
869.580627 7099.000000
871.557434 6265.000000
873.532959 6027.000000
875.507446 6154.000000
877.480469 6081.000000
879.452454 5382.000000
881.423096 6435.000000
883.392578 6119.000000
885.360718 5585.000000
887.327698 5199.000000
889.293335 6184.000000
891.257813 5887.000000
893.221069 6090.000000
895.183105 6547.000000
897.143860 5811.000000
899.103394 6477.000000
901.061646 6803.000000
903.018799 6413.000000
904.974792 6114.000000
906.929382 6954.000000
908.882751 6551.000000
910.834961 6495.000000
912.785950 6382.000000
914.735657 7165.000000
916.684204 6372.000000
918.631531 6174.000000
920.577576 6119.000000
922.522339 6092.000000
924.466064 6355.000000
926.408630 5989.000000
928.349915 5613.000000
930.289856 6491.000000
932.228699 5749.000000
934.166260 5515.000000
936.102600 5979.000000
938.037781 5886.000000
939.971680 6143.000000
941.904480 5926.000000
943.836060 6758.000000
945.766479 5227.000000
947.695679 6460.000000
949.623535 6998.000000
951.550354 6689.000000
953.475891 5993.000000
955.400146 5427.000000
957.323303 6045.000000
959.245300 6741.000000
961.166016 7318.000000
963.085571 6543.000000
965.003967 5338.000000
966.921326 6463.000000
968.837219 6487.000000
970.752014 6125.000000
972.665588 5975.000000
974.578003 6357.000000
976.489197 6483.000000
978.399231 5495.000000
980.307983 6179.000000
982.215698 6135.000000
984.122192 6419.000000
986.027466 5726.000000
987.931641 6791.000000
989.834595 6190.000000
991.736328 6795.000000
993.636902 6631.000000
995.536316 6625.000000
997.434509 5278.000000
999.331543 6601.000000
1001.227356 6515.000000
1003.122009 7698.000000
1005.015564 5623.000000
1006.907837 7201.000000
1008.799194 6135.000000
1010.689209 5379.000000
1012.578003 6608.000000
1014.465637 6327.000000
1016.352112 6931.000000
1018.237427 6746.000000
1020.121582 5975.000000
1022.004517 5897.000000
1023.886414 6226.000000
1025.766968 5247.000000
1027.646484 5849.000000
1029.525024 6166.000000
1031.402222 5463.000000
1033.278076 6232.000000
1035.152954 5958.000000
1037.026855 6550.000000
1038.899292 7028.000000
1040.770752 6722.000000
1042.640869 5564.000000
1044.510010 5529.000000
1046.377930 5808.000000
1048.244751 6980.000000
1050.110474 6756.000000
1051.974976 6508.000000
1053.838379 6466.000000
1055.700439 6456.000000
1057.561523 5856.000000
1059.421509 6481.000000
1061.280151 6732.000000
1063.137695 5776.000000
1064.994141 6728.000000
1066.849487 5976.000000
1068.703613 5842.000000
1070.556885 6333.000000
1072.408691 6408.000000
1074.259521 6180.000000
1076.109131 6080.000000
1077.957520 5788.000000
1079.805054 7915.000000
1081.651245 5585.000000
1083.496216 6261.000000
1085.340332 5400.000000
1087.183105 5536.000000
1089.024658 6554.000000
1090.865479 5482.000000
1092.704712 5819.000000
1094.543213 6081.000000
1096.380371 6069.000000
1098.216309 6796.000000
1100.051270 6648.000000
1101.885010 5446.000000
1103.717773 5719.000000
1105.549194 6166.000000
1107.379761 7277.000000
1109.208984 6588.000000
1111.037231 6417.000000
1112.864258 7122.000000
1114.690308 5413.000000
1116.515137 6399.000000
1118.338867 7173.000000
1120.161377 6106.000000
1121.982788 5920.000000
1123.803345 5846.000000
1125.622437 6574.000000
1127.440674 7142.000000
1129.257568 6852.000000
1131.073608 6729.000000
1132.888428 6485.000000
1134.702148 5677.000000
1136.514771 5776.000000
1138.326172 5673.000000
1140.136597 6159.000000
1141.945923 6754.000000
1143.753906 6938.000000
1145.561157 6012.000000
1147.366943 5931.000000
1149.171875 5422.000000
1150.975708 5497.000000
1152.778320 6197.000000
1154.580078 6121.000000
1156.380371 6119.000000
1158.179688 6088.000000
1159.978027 5883.000000
1161.775024 5519.000000
1163.571289 5902.000000
1165.366211 6130.000000
1167.160034 6392.000000
1168.953003 7755.000000
1170.744629 5795.000000
1172.535278 6509.000000
1174.324951 6096.000000
1176.113159 5853.000000
1177.900513 7471.000000
1179.686768 6910.000000
1181.471924 5666.000000
1183.255981 5969.000000
1185.038940 7710.000000
1186.820923 5903.000000
1188.601685 5968.000000
1190.381470 6313.000000
1192.160156 6951.000000
1193.937866 6717.000000
1195.714355 7171.000000
1197.489746 6677.000000
1199.264038 6479.000000
1201.037231 6691.000000
1202.809570 6586.000000
1204.580566 6767.000000
1206.350708 5659.000000
1208.119629 6183.000000
1209.887451 6398.000000
1211.654419 5740.000000
1213.420044 5895.000000
1215.184692 7050.000000
1216.948242 6590.000000
1218.710693 5920.000000
1220.472290 6744.000000
1222.232666 5958.000000
1223.991943 6333.000000
1225.750366 6053.000000
1227.507568 7152.000000
1229.263672 6444.000000
1231.018677 5585.000000
1232.772827 6043.000000
1234.525635 5838.000000
1236.277466 6025.000000
1238.028442 5989.000000
1239.778076 4978.000000
1241.526855 6975.000000
1243.274292 6505.000000
1245.020996 6606.000000
1246.766479 6482.000000
1248.511108 6577.000000
1250.254395 6766.000000
1251.996704 6726.000000
1253.737915 5376.000000
1255.478271 5005.000000
1257.217529 5842.000000
1258.955566 6617.000000
1260.692749 7144.000000
1262.428711 6121.000000
1264.163696 6422.000000
1265.897705 7285.000000
1267.630737 5983.000000
1269.362549 6220.000000
1271.093384 6430.000000
1272.822998 7268.000000
1274.551758 5882.000000
1276.279419 5710.000000
1278.005981 5597.000000
1279.731689 5596.000000
1281.456055 6532.000000
1283.179565 5232.000000
1284.902100 6884.000000
1286.623657 6678.000000
1288.343994 6177.000000
1290.063354 6733.000000
1291.781616 7312.000000
1293.498901 6368.000000
1295.215210 5804.000000
1296.930298 6395.000000
1298.644409 6214.000000
1300.357544 5797.000000
1302.069824 6449.000000
1303.780884 8309.000000
1305.490967 5335.000000
1307.199951 6324.000000
1308.907715 6683.000000
1310.614868 6999.000000
1312.320557 5831.000000
1314.025513 6838.000000
1315.729492 6148.000000
1317.432251 5998.000000
1319.134033 6607.000000
1320.834961 6094.000000
1322.534546 18347.000000
1324.233276 7225.000000
1325.931274 5593.000000
1327.627930 6526.000000
1329.323486 7157.000000
1331.018188 6831.000000
1332.711670 5792.000000
1334.404297 5426.000000
1336.096069 7208.000000
1337.786499 6291.000000
1339.476196 6670.000000
1341.164795 6121.000000
1342.852295 7681.000000
1344.538818 5740.000000
1346.224243 6775.000000
1347.908691 6013.000000
1349.592285 7319.000000
1351.274658 6487.000000
1352.956055 5961.000000
1354.636597 6531.000000
1356.315918 6698.000000
1357.994629 5894.000000
1359.671997 6534.000000
1361.348267 5838.000000
1363.023560 5603.000000
1364.698120 6596.000000
1366.371460 6517.000000
1368.043823 6813.000000
1369.715210 5161.000000
1371.385620 6763.000000
1373.054932 6177.000000
1374.723267 5682.000000
1376.390747 5982.000000
1378.057129 6414.000000
1379.722534 6194.000000
1381.386963 5903.000000
1383.050171 6008.000000
1384.712769 5788.000000
1386.374023 6444.000000
1388.034424 6688.000000
1389.693726 6422.000000
1391.352051 6448.000000
1393.009644 6916.000000
1394.666016 6508.000000
1396.321533 7008.000000
1397.975830 6305.000000
1399.629272 5869.000000
1401.281616 6189.000000
1402.933228 6484.000000
1404.583618 7133.000000
1406.232910 6254.000000
1407.881470 7506.000000
1409.528931 7971.000000
1411.175415 6224.000000
1412.821045 6298.000000
1414.465698 6009.000000
1416.109131 7041.000000
1417.751709 7187.000000
1419.393188 6888.000000
1421.033813 6564.000000
1422.673462 6459.000000
1424.312012 6059.000000
1425.949707 6667.000000
1427.586304 6328.000000
1429.221924 6044.000000
1430.856812 6362.000000
1432.490601 5875.000000
1434.123291 6179.000000
1435.755005 5661.000000
1437.385864 6156.000000
1439.015625 6089.000000
1440.644287 7815.000000
1442.272339 6018.000000
1443.899292 6254.000000
1445.525024 6225.000000
1447.150146 6195.000000
1448.774170 6547.000000
1450.397217 6049.000000
1452.019287 6048.000000
1453.640259 7298.000000
1455.260254 6355.000000
1456.879517 6958.000000
1458.497437 5682.000000
1460.114746 16188.000000
1461.731079 5545.000000
1463.346191 7278.000000
1464.960449 6252.000000
1466.573853 5225.000000
1468.186157 5625.000000
1469.797607 6307.000000
1471.408203 6424.000000
1473.017578 6021.000000
1474.625977 5999.000000
1476.233521 6214.000000
1477.840088 6710.000000
1479.445923 5349.000000
1481.050537 6278.000000
1482.654297 5515.000000
1484.256836 6788.000000
1485.858765 5584.000000
1487.459473 5515.000000
1489.059448 5696.000000
1490.658325 6266.000000
1492.256348 6500.000000
1493.853271 6665.000000
1495.449341 6342.000000
1497.044434 6057.000000
1498.638550 5512.000000
1500.231934 6549.000000
1501.824219 5591.000000
1503.415283 6213.000000
1505.005859 6862.000000
1506.595093 6525.000000
1508.183716 6131.000000
1509.771240 6554.000000
1511.357666 6874.000000
1512.943359 6213.000000
1514.527954 6698.000000
1516.111694 6251.000000
1517.694336 6164.000000
1519.276245 6564.000000
1520.857056 6702.000000
1522.437134 6076.000000
1524.015991 6127.000000
1525.593994 6417.000000
1527.171265 6328.000000
1528.747314 5688.000000
1530.322632 5912.000000
1531.896851 6359.000000
1533.470337 5574.000000
1535.042603 5913.000000
1536.614136 6377.000000
1538.184692 6477.000000
1539.754395 6347.000000
1541.322876 5489.000000
1542.890625 6619.000000
1544.457520 5634.000000
1546.023193 6855.000000
1547.588135 5983.000000
1549.151978 5103.000000
1550.715210 7462.000000
1552.277100 6257.000000
1553.838379 5966.000000
1555.398560 5746.000000
1556.958008 5742.000000
1558.516357 5825.000000
1560.073975 6331.000000
1561.630493 7053.000000
1563.185791 5921.000000
1564.740479 6329.000000
1566.294434 5626.000000
1567.847412 6322.000000
1569.399048 5698.000000
1570.949951 5954.000000
1572.500122 6219.000000
1574.049316 6396.000000
1575.597168 5792.000000
1577.144531 5517.000000
1578.690918 5692.000000
1580.236450 5110.000000
1581.781006 6729.000000
1583.324341 6393.000000
1584.867065 6694.000000
1586.408936 6465.000000
1587.949707 6793.000000
1589.489502 5867.000000
1591.028564 6711.000000
1592.566528 5924.000000
1594.104004 6134.000000
1595.640137 5918.000000
1597.175171 6674.000000
1598.709717 6286.000000
1600.243286 6056.000000
1601.776001 6020.000000
1603.307129 6296.000000
1604.838013 6337.000000
1606.368042 5769.000000
1607.896851 6169.000000
1609.424561 6208.000000
1610.951660 6001.000000
1612.478027 5962.000000
1614.003418 6239.000000
1615.527954 5927.000000
1617.051147 5797.000000
1618.573608 5634.000000
1620.095337 6621.000000
1621.616211 6963.000000
1623.135620 15623.000000
1624.654541 6103.000000
1626.172729 6133.000000
1627.690063 5955.000000
1629.206299 6423.000000
1630.721191 7050.000000
1632.235596 6806.000000
1633.749268 5842.000000
1635.261841 6811.000000
1636.773193 6007.000000
1638.284180 6497.000000
1639.794067 6236.000000
1641.303101 6252.000000
1642.810791 5671.000000
1644.318115 6130.000000
1645.824585 7190.000000
1647.330078 6224.000000
1648.834717 6960.000000
1650.337891 6243.000000
1651.840454 6580.000000
1653.342651 6372.000000
1654.843506 6681.000000
1656.343262 7585.000000
1657.842163 5990.000000
1659.340698 6525.000000
1660.838013 6281.000000
1662.334595 5922.000000
1663.829590 6543.000000
1665.324341 6377.000000
1666.818237 5274.000000
1668.311157 5686.000000
1669.802734 20800.000000
1671.293823 6499.000000
1672.784302 6150.000000
1674.273682 6000.000000
1675.761597 7005.000000
1677.249268 6925.000000
1678.735962 6031.000000
1680.221802 5401.000000
1681.706787 6104.000000
1683.190308 6210.000000
1684.673584 6190.000000
1686.156006 5867.000000
1687.637329 6290.000000
1689.117188 6233.000000
1690.596802 5564.000000
1692.075684 6620.000000
1693.553589 6023.000000
1695.030518 6197.000000
1696.506226 5830.000000
1697.981567 6085.000000
1699.455688 6356.000000
1700.929199 5542.000000
1702.401245 5611.000000
1703.873047 6945.000000
1705.343872 6443.000000
1706.813843 7072.000000
1708.282471 5177.000000
1709.750610 5846.000000
1711.218018 6399.000000
1712.684326 5527.000000
1714.150024 5808.000000
1715.614014 6175.000000
1717.077881 5985.000000
1718.540894 7019.000000
1720.002930 6434.000000
1721.463745 6640.000000
1722.923950 5503.000000
1724.383423 5739.000000
1725.842041 6142.000000
1727.299683 6016.000000
1728.755981 6324.000000
1730.212036 6090.000000
1731.667114 6482.000000
1733.121216 6017.000000
1734.574097 6904.000000
1736.026733 5961.000000
1737.478271 6916.000000
1738.929077 5996.000000
1740.378906 6599.000000
1741.827393 6008.000000
1743.275513 7407.000000
1744.722778 6553.000000
1746.169312 6629.000000
1747.614258 6731.000000
1749.058960 6217.000000
1750.502808 5966.000000
1751.945801 5491.000000
1753.387329 6635.000000
1754.828613 6350.000000
1756.269043 19462.000000
1757.708496 6380.000000
1759.146973 5378.000000
1760.584473 6058.000000
1762.021484 7561.000000
1763.457520 5857.000000
1764.892700 7149.000000
1766.326416 6164.000000
1767.760010 6512.000000
1769.192627 6691.000000
1770.624390 5815.000000
1772.055298 5798.000000
1773.484985 6388.000000
1774.913940 6200.000000
1776.342407 6322.000000
1777.769897 6687.000000
1779.196045 6272.000000
1780.621948 5612.000000
1782.046753 7021.000000
1783.470947 5608.000000
1784.893677 6702.000000
1786.315918 6600.000000
1787.737427 6896.000000
1789.158203 5862.000000
1790.578003 6137.000000
1791.996460 6221.000000
1793.414429 6853.000000
1794.831787 5524.000000
1796.248291 6072.000000
1797.663330 6555.000000
1799.078003 5914.000000
1800.492065 6594.000000
1801.904907 6028.000000
1803.317139 6989.000000
1804.728027 7178.000000
1806.138428 7820.000000
1807.548096 6476.000000
1808.956787 6005.000000
1810.364380 5447.000000
1811.771484 6473.000000
1813.177734 6429.000000
1814.583008 6740.000000
1815.987183 5934.000000
1817.390991 5967.000000
1818.793823 6227.000000
1820.195801 6059.000000
1821.597168 5920.000000
1822.997070 6400.000000
1824.396362 6470.000000
1825.795166 6590.000000
1827.193115 7498.000000
1828.589722 5784.000000
1829.985718 6781.000000
1831.380981 5949.000000
1832.775635 8160.000000
1834.169312 6100.000000
1835.561646 6888.000000
1836.953491 6487.000000
1838.344727 5930.000000
1839.734985 7193.000000
1841.124023 6096.000000
1842.512695 6125.000000
1843.900391 6035.000000
1845.287354 5876.000000
1846.672974 6939.000000
1848.058350 5833.000000
1849.442871 6355.000000
1850.826660 6330.000000
1852.209351 6449.000000
1853.590820 5411.000000
1854.971802 6546.000000
1856.352295 6366.000000
1857.731812 5764.000000
1859.109863 5967.000000
1860.487793 6335.000000
1861.864746 7809.000000
1863.240967 6148.000000
1864.616333 6117.000000
1865.990234 5647.000000
1867.364014 5791.000000
1868.736938 6230.000000
1870.108765 6036.000000
1871.479614 6923.000000
1872.850098 5487.000000
1874.219482 6034.000000
1875.588379 6156.000000
1876.955688 7157.000000
1878.322876 6086.000000
1879.689087 6003.000000
1881.054565 6821.000000
1882.419312 7548.000000
1883.782471 6783.000000
1885.145508 6952.000000
1886.507690 6330.000000
1887.869019 6471.000000
1889.229004 5713.000000
1890.588623 5815.000000
1891.947632 6124.000000
1893.305664 6729.000000
1894.662842 7315.000000
1896.018799 5982.000000
1897.374512 7682.000000
1898.729248 5881.000000
1900.083130 5502.000000
1901.435913 5926.000000
1902.788208 5988.000000
1904.139771 5977.000000
1905.490479 6918.000000
1906.839966 6588.000000
1908.188965 6692.000000
1909.537109 5837.000000
1910.884644 6134.000000
1912.231445 6293.000000
1913.576660 6821.000000
1914.921631 6096.000000
1916.265869 5466.000000
1917.609253 6541.000000
1918.951294 6027.000000
1920.293091 6719.000000
1921.634033 7033.000000
1922.974243 6213.000000
1924.313477 6323.000000
1925.651733 6270.000000
1926.989380 6447.000000
1928.326294 7067.000000
1929.662354 6703.000000
1930.997192 5650.000000
1932.331665 6641.000000
1933.665405 7274.000000
1934.998291 6311.000000
1936.329712 5786.000000
1937.661255 6352.000000
1938.991455 6638.000000
1940.321167 5833.000000
1941.650024 6139.000000
1942.977661 5840.000000
1944.304810 5016.000000
1945.631226 5789.000000
1946.956909 6574.000000
1948.281250 5803.000000
1949.605347 6592.000000
1950.928589 6324.000000
1952.251099 6459.000000
1953.572510 5800.000000
1954.892944 7414.000000
1956.212769 6057.000000
1957.532227 5516.000000
1958.850708 6879.000000
1960.167847 5981.000000
1961.484619 5852.000000
1962.800659 6611.000000
1964.115967 6608.000000
1965.429810 6290.000000
1966.743408 5746.000000
1968.056274 6252.000000
1969.368286 6003.000000
1970.679688 6077.000000
1971.989746 6361.000000
1973.299316 5921.000000
1974.608154 6209.000000
1975.916382 6618.000000
1977.223267 6094.000000
1978.529541 7243.000000
1979.835449 5539.000000
1981.140137 6410.000000
1982.444336 5972.000000
1983.747314 5732.000000
1985.049927 7670.000000
1986.351563 6143.000000
1987.652588 6813.000000
1988.952026 6060.000000
1990.251587 6612.000000
1991.550049 5325.000000
1992.848022 6158.000000
1994.144409 6131.000000
1995.440796 5841.000000
1996.736206 5601.000000
1998.030884 6534.000000
1999.324707 5748.000000
2000.617310 6582.000000
2001.909424 5706.000000
2003.201050 7190.000000
2004.491943 6448.000000
2005.781250 6232.000000
2007.070313 6872.000000
2008.358643 5965.000000
2009.646240 6089.000000
2010.932983 6892.000000
2012.218628 5713.000000
2013.503906 6352.000000
2014.788208 6011.000000
2016.071899 5654.000000
2017.354248 6065.000000
2018.636230 6455.000000
2019.917725 6804.000000
2021.198242 5942.000000
2022.478027 6108.000000
2023.756714 6814.000000
2025.034668 5867.000000
2026.312134 5940.000000
2027.588989 6344.000000
2028.864136 5793.000000
2030.139404 6565.000000
2031.413696 6035.000000
2032.687012 5996.000000
2033.959473 5996.000000
2035.231567 6170.000000
2036.502563 7003.000000
2037.773315 6603.000000
2039.042725 5985.000000
2040.311035 6977.000000
2041.579346 6649.000000
2042.846680 5982.000000
2044.113281 6039.000000
2045.378662 5722.000000
2046.643433 5602.000000
2047.907959 5466.000000
2049.171387 5928.000000
2050.434326 6462.000000
2051.695313 6169.000000
2052.956787 6109.000000
2054.217041 5841.000000
2055.476563 6508.000000
2056.735352 6273.000000
2057.993164 7022.000000
2059.250488 6175.000000
2060.507080 6031.000000
2061.762207 6556.000000
2063.017334 5663.000000
2064.271484 5628.000000
2065.524902 5651.000000
2066.777588 6910.000000
2068.029053 6320.000000
2069.280273 6351.000000
2070.530762 5648.000000
2071.780518 5478.000000
2073.028809 6165.000000
2074.277100 6557.000000
2075.524414 7458.000000
2076.770996 5616.000000
2078.016846 6032.000000
2079.261475 7067.000000
2080.505615 7651.000000
2081.749268 5505.000000
2082.991943 6021.000000
2084.233398 7029.000000
2085.474609 5983.000000
2086.715332 6358.000000
2087.955078 6811.000000
2089.193604 7118.000000
2090.431641 6246.000000
2091.668945 5843.000000
2092.906006 6677.000000
2094.141602 6154.000000
2095.376465 6276.000000
2096.611084 6045.000000
2097.844727 5647.000000
2099.077393 6111.000000
2100.309326 6933.000000
2101.540771 6440.000000
2102.771240 6782.000000
2104.000977 6007.000000
2105.230469 6034.000000
2106.458008 6011.000000
2107.685791 6032.000000
2108.912842 6281.000000
2110.138916 5559.000000
2111.363525 6384.000000
2112.588379 6959.000000
2113.812012 7061.000000
2115.035156 6262.000000
2116.257080 7547.000000
2117.478760 6068.000000
2118.699463 6874.000000
2119.919434 6078.000000
2121.138916 6213.000000
2122.356934 6622.000000
2123.574951 7048.000000
2124.791992 5848.000000
2126.008545 5825.000000
2127.223389 6562.000000
2128.438477 6416.000000
2129.652588 6781.000000
2130.865967 5692.000000
2132.078613 6139.000000
2133.289795 5872.000000
2134.501221 6644.000000
2135.711426 6798.000000
2136.921143 6056.000000
2138.129395 6195.000000
2139.337646 5704.000000
2140.545166 5916.000000
2141.751465 7648.000000
2142.957031 5940.000000
2144.162354 5698.000000
2145.366699 5609.000000
2146.570313 6348.000000
2147.773438 6237.000000
2148.975098 6544.000000
2150.176514 5297.000000
2151.377197 6319.000000
2152.577148 6069.000000
2153.775879 6134.000000
2154.974365 7044.000000
2156.172363 6247.000000
2157.369385 6067.000000
2158.565674 5191.000000
2159.760742 5385.000000
2160.955566 6140.000000
2162.149658 5599.000000
2163.342773 6038.000000
2164.534912 6939.000000
2165.726807 5982.000000
2166.917969 6377.000000
2168.108154 6303.000000
2169.297607 6565.000000
2170.486572 6790.000000
2171.674561 6036.000000
2172.862305 5754.000000
2174.048584 5975.000000
2175.234131 6546.000000
2176.419434 5993.000000
2177.604248 5853.000000
2178.787842 6349.000000
2179.970703 7567.000000
2181.152588 6337.000000
2182.334229 5999.000000
2183.515381 6614.000000
2184.695313 5766.000000
2185.874268 5647.000000
2187.052734 6370.000000
2188.230957 6970.000000
2189.407959 7313.000000
2190.583984 6749.000000
2191.759766 6118.000000
2192.935059 5664.000000
2194.108887 6733.000000
2195.282227 6235.000000
2196.455322 6170.000000
2197.627197 6457.000000
2198.798584 7089.000000
2199.969482 6315.000000
2201.138672 6906.000000
2202.307861 7644.000000
2203.476563 6295.000000
2204.644287 5879.000000
2205.811035 5690.000000
2206.977051 7129.000000
2208.142578 6705.000000
2209.307861 6010.000000
2210.471680 6775.000000
2211.635010 5461.000000
2212.797119 6235.000000
2213.959473 6242.000000
2215.120605 6701.000000
2216.280762 6726.000000
2217.440430 6347.000000
2218.599854 6615.000000
2219.758057 6436.000000
2220.915283 6286.000000
2222.072266 6816.000000
2223.228516 6558.000000
2224.384033 6858.000000
2225.538818 6321.000000
2226.692627 6480.000000
2227.845459 6112.000000
2228.998779 6913.000000
2230.150146 6269.000000
2231.301270 6223.000000
2232.451660 6597.000000
2233.601563 7617.000000
2234.750488 6254.000000
2235.898926 5287.000000
2237.045898 6643.000000
2238.193115 7107.000000
2239.339111 6091.000000
2240.484863 7257.000000
2241.628906 7331.000000
2242.773193 6766.000000
2243.916504 6231.000000
2245.059082 6062.000000
2246.200684 5794.000000
2247.342041 5803.000000
2248.482422 6457.000000
2249.622070 6419.000000
2250.761230 5848.000000
2251.899170 5876.000000
2253.037109 6210.000000
2254.174072 5358.000000
2255.310303 6359.000000
2256.445557 6129.000000
2257.580078 7312.000000
2258.714355 6473.000000
2259.848145 5409.000000
2260.980469 6134.000000
2262.112305 6887.000000
2263.243652 6344.000000
2264.374023 6474.000000
2265.504150 8099.000000
2266.633057 6728.000000
2267.761475 6102.000000
2268.889404 5565.000000
2270.016357 6224.000000
2271.142578 5959.000000
2272.267822 6745.000000
2273.393066 6605.000000
2274.517578 6474.000000
2275.640869 5949.000000
2276.763428 6411.000000
2277.885498 5966.000000
2279.007080 7406.000000
2280.127930 6372.000000
2281.247559 6479.000000
2282.366699 7159.000000
2283.485596 7704.000000
2284.603760 7297.000000
2285.720947 5900.000000
2286.837158 6458.000000
2287.953125 7079.000000
2289.068359 6897.000000
2290.182861 7450.000000
2291.296143 5828.000000
2292.409424 6372.000000
2293.521973 6034.000000
2294.633789 5427.000000
2295.744873 6833.000000
2296.854736 6432.000000
2297.964111 6184.000000
2299.073242 6741.000000
2300.181396 6358.000000
2301.288574 6814.000000
2302.395508 5924.000000
2303.501709 6328.000000
2304.607422 6642.000000
2305.711670 6565.000000
2306.815674 5433.000000
2307.919189 5813.000000
2309.022217 6589.000000
2310.124023 7489.000000
2311.225098 7386.000000
2312.325684 6591.000000
2313.425781 5558.000000
2314.525146 6383.000000
2315.623047 6599.000000
2316.721436 7080.000000
2317.818359 8254.000000
2318.915039 6924.000000
2320.011230 5843.000000
2321.105713 6875.000000
2322.200195 7620.000000
2323.293945 5861.000000
2324.387451 6064.000000
2325.479248 6507.000000
2326.571045 7143.000000
2327.662109 6085.000000
2328.752441 6266.000000
2329.841797 6916.000000
2330.931152 6070.000000
2332.019287 6227.000000
2333.106934 6906.000000
2334.194336 6504.000000
2335.280029 6725.000000
2336.365479 7756.000000
2337.450684 6390.000000
2338.534912 6800.000000
2339.618164 5924.000000
2340.701172 6459.000000
2341.783203 7152.000000
2342.864990 6004.000000
2343.946045 7524.000000
2345.025879 6669.000000
2346.105225 5783.000000
2347.184082 6756.000000
2348.262451 6553.000000
2349.339355 6336.000000
2350.416016 7026.000000
2351.492432 6106.000000
2352.567871 6460.000000
2353.642334 5954.000000
2354.716553 6356.000000
2355.790039 6789.000000
2356.863037 6141.000000
2357.934814 7001.000000
2359.006348 6333.000000
2360.076904 6808.000000
2361.147217 7446.000000
2362.216553 7615.000000
2363.284912 6863.000000
2364.353027 6723.000000
2365.420410 7120.000000
2366.487305 7136.000000
2367.553467 6111.000000
2368.618408 6919.000000
2369.683350 6987.000000
2370.747559 6336.000000
2371.811035 6917.000000
2372.873291 5783.000000
2373.935547 6355.000000
2374.996826 6423.000000
2376.057861 5956.000000
2377.117676 6318.000000
2378.176758 7942.000000
2379.235840 6467.000000
2380.293945 7571.000000
2381.351318 6897.000000
2382.407715 8073.000000
2383.463867 7861.000000
2384.519531 6319.000000
2385.574463 7115.000000
2386.627930 6798.000000
2387.681641 6638.000000
2388.734375 6303.000000
2389.786621 6778.000000
2390.838135 6178.000000
2391.888672 6684.000000
2392.938965 6533.000000
2393.988281 6194.000000
2395.037598 6208.000000
2396.085449 6925.000000
2397.132813 7005.000000
2398.179932 6342.000000
2399.226074 6709.000000
2400.271484 6153.000000
2401.316162 6826.000000
2402.360840 7774.000000
2403.404053 7512.000000
2404.447266 6579.000000
2405.489014 5802.000000
2406.531006 6692.000000
2407.572266 7117.000000
2408.612549 6116.000000
2409.652100 6438.000000
2410.690674 6373.000000
2411.729492 6088.000000
2412.767090 6587.000000
2413.804443 6848.000000
2414.840576 7232.000000
2415.876465 6230.000000
2416.911621 6329.000000
2417.946289 6671.000000
2418.979492 7240.000000
2420.012939 6460.000000
2421.045410 6672.000000
2422.077637 6830.000000
2423.108398 7142.000000
2424.139160 6353.000000
2425.169434 6784.000000
2426.198486 6900.000000
2427.227539 6748.000000
2428.254883 7521.000000
2429.282715 6739.000000
2430.309326 7304.000000
2431.335693 6912.000000
2432.360596 7812.000000
2433.385742 6590.000000
2434.409912 7155.000000
2435.433838 6661.000000
2436.456543 5788.000000
2437.478516 6324.000000
2438.500244 6665.000000
2439.521240 6711.000000
2440.541748 6067.000000
2441.561035 6548.000000
2442.580322 6597.000000
2443.598633 8463.000000
2444.616699 6335.000000
2445.633301 6494.000000
2446.649902 6640.000000
2447.665771 6082.000000
2448.681641 6995.000000
2449.696045 6870.000000
2450.709717 5645.000000
2451.722900 7260.000000
2452.735840 6013.000000
2453.748047 7223.000000
2454.759277 6764.000000
2455.770264 7738.000000
2456.780518 6428.000000
2457.790283 7607.000000
2458.799072 5935.000000
2459.807129 6052.000000
2460.815186 6321.000000
2461.822021 7380.000000
2462.828613 5507.000000
2463.833984 7479.000000
2464.839111 6928.000000
2465.843994 5903.000000
2466.847656 6512.000000
2467.851074 6474.000000
2468.853516 7615.000000
2469.855713 7384.000000
2470.857422 6907.000000
2471.858154 6624.000000
2472.857910 6997.000000
2473.857666 6791.000000
2474.856445 5713.000000
2475.854736 6591.000000
2476.852051 7024.000000
2477.849121 6275.000000
2478.846191 7027.000000
2479.841797 5815.000000
2480.837402 7182.000000
2481.831299 6764.000000
2482.825195 8151.000000
2483.818604 6850.000000
2484.811523 6755.000000
2485.803467 7473.000000
2486.794678 7237.000000
2487.785645 6659.000000
2488.776123 5889.000000
2489.765625 6598.000000
2490.754395 6531.000000
2491.743164 5662.000000
2492.730957 6803.000000
2493.717529 6587.000000
2494.704102 8113.000000
2495.690186 6763.000000
2496.675537 7104.000000
2497.659912 8423.000000
2498.644043 6051.000000
2499.628174 6926.000000
2500.610840 5815.000000
2501.593018 7004.000000
2502.574707 6906.000000
2503.555664 7291.000000
2504.536133 6556.000000
2505.516357 5795.000000
2506.495117 6368.000000
2507.473633 7644.000000
2508.451660 6786.000000
2509.429199 7140.000000
2510.405762 6114.000000
2511.382080 5952.000000
2512.357666 6484.000000
2513.332764 6256.000000
2514.307373 6501.000000
2515.280762 7544.000000
2516.253906 6801.000000
2517.226807 6857.000000
2518.198730 6116.000000
2519.169922 6831.000000
2520.140625 6921.000000
2521.111084 7735.000000
2522.080811 8075.000000
2523.049561 6117.000000
2524.017578 6246.000000
2524.985596 7739.000000
2525.952637 6350.000000
2526.919434 5495.000000
2527.885010 7307.000000
2528.850586 7069.000000
2529.815430 7747.000000
2530.779785 6344.000000
2531.742920 6410.000000
2532.706299 5926.000000
2533.668701 5987.000000
2534.630859 6711.000000
2535.591797 6445.000000
2536.552002 6140.000000
2537.512451 6176.000000
2538.471924 6815.000000
2539.430664 6847.000000
2540.388428 6694.000000
2541.346436 6173.000000
2542.303711 6772.000000
2543.260010 6090.000000
2544.216064 7159.000000
2545.170898 6224.000000
2546.125977 7818.000000
2547.080322 7017.000000
2548.033936 6381.000000
2548.986572 7306.000000
2549.938965 6764.000000
2550.890869 7009.000000
2551.842041 6454.000000
2552.792480 7746.000000
2553.742432 7241.000000
2554.692139 7413.000000
2555.641113 6683.000000
2556.589600 6296.000000
2557.536865 7145.000000
2558.484131 6295.000000
2559.430664 6542.000000
2560.376709 6766.000000
2561.321777 7640.000000
2562.266602 6766.000000
2563.210938 7226.000000
2564.154785 6853.000000
2565.098145 6720.000000
2566.040039 6697.000000
2566.982178 6584.000000
2567.923584 6200.000000
2568.864258 7186.000000
2569.804199 7289.000000
2570.744141 5738.000000
2571.683105 6224.000000
2572.621826 7604.000000
2573.559570 7193.000000
2574.497070 5450.000000
2575.433838 7009.000000
2576.369873 6812.000000
2577.305420 7560.000000
2578.240234 6383.000000
2579.175049 5944.000000
2580.108887 7051.000000
2581.042236 7249.000000
2581.974854 5884.000000
2582.907227 6922.000000
2583.838867 5488.000000
2584.770020 7131.000000
2585.700684 7019.000000
2586.630127 6865.000000
2587.559570 7233.000000
2588.488525 6448.000000
2589.417236 7419.000000
2590.344238 7338.000000
2591.271484 5911.000000
2592.198242 6802.000000
2593.124268 6312.000000
2594.050049 5674.000000
2594.974609 7589.000000
2595.898926 7631.000000
2596.822754 5368.000000
2597.746094 7324.000000
2598.668457 6349.000000
2599.590576 6911.000000
2600.512207 8307.000000
2601.433105 6453.000000
2602.353271 6040.000000
2603.273193 6403.000000
2604.192627 6435.000000
2605.111816 6471.000000
2606.030029 5858.000000
2606.947021 6060.000000
2607.864258 7311.000000
2608.781250 5902.000000
2609.697266 7530.000000
2610.612061 6649.000000
2611.527344 6649.000000
2612.441895 6622.000000
2613.355469 6580.000000
2614.269043 6145.000000
2615.181396 7599.000000
2616.093750 7083.000000
2617.005127 6800.000000
2617.916260 5741.000000
2618.826660 7203.000000
2619.736816 6635.000000
2620.646240 6190.000000
2621.555176 6665.000000
2622.463135 6215.000000
2623.371338 6890.000000
2624.278564 6663.000000
2625.185303 7056.000000
2626.091309 5978.000000
2626.997070 6659.000000
2627.902100 6512.000000
2628.806885 7899.000000
2629.710938 6488.000000
2630.614014 6376.000000
2631.517090 6486.000000
2632.419189 5717.000000
2633.321289 6742.000000
2634.223145 6988.000000
2635.123291 6692.000000
2636.023682 6489.000000
2636.923340 6458.000000
2637.822754 5992.000000
2638.720703 6929.000000
2639.619141 6781.000000
2640.517090 6438.000000
2641.414307 6173.000000
2642.310303 6201.000000
2643.206299 6819.000000
2644.102051 6115.000000
2644.997070 6445.000000
2645.891846 6686.000000
2646.785156 7079.000000
2647.678467 6338.000000
2648.571533 6827.000000
2649.464355 6411.000000
2650.355469 7425.000000
2651.246826 6427.000000
2652.137695 7680.000000
2653.027832 7378.000000
2653.917725 6650.000000
2654.806396 7298.000000
2655.695313 6643.000000
2656.583740 6593.000000
2657.471191 7393.000000
2658.357666 6541.000000
2659.244629 7188.000000
2660.130859 6886.000000
2661.016602 6815.000000
2661.901123 6542.000000
2662.785645 6407.000000
2663.669922 6225.000000
2664.553467 7088.000000
2665.436523 7879.000000
2666.318848 7409.000000
2667.200684 6214.000000
2668.081787 6682.000000
2668.963135 6129.000000
2669.843018 6591.000000
2670.723145 7370.000000
2671.602539 7257.000000
2672.481934 6241.000000
2673.360596 6130.000000
2674.237549 6486.000000
2675.115234 6832.000000
2675.992188 6431.000000
2676.868408 8179.000000
2677.744141 7196.000000
2678.619141 6297.000000
2679.494385 7809.000000
2680.368652 7058.000000
2681.242432 7318.000000
2682.115479 7048.000000
2682.988281 6250.000000
2683.860840 6115.000000
2684.732666 7024.000000
2685.603760 6568.000000
2686.474609 6912.000000
2687.344971 7148.000000
2688.215088 6750.000000
2689.083496 6353.000000
2689.952637 7333.000000
2690.821045 7188.000000
2691.689209 6757.000000
2692.556641 6964.000000
2693.422852 5890.000000
2694.289551 7175.000000
2695.155273 7429.000000
2696.020996 7259.000000
2696.885254 7988.000000
2697.750244 6617.000000
2698.613770 7283.000000
2699.477539 5855.000000
2700.339844 7471.000000
2701.202637 6873.000000
2702.064453 6018.000000
2702.925781 6922.000000
2703.787109 6778.000000
2704.647217 7439.000000
2705.507324 7346.000000
2706.366943 6625.000000
2707.226318 6900.000000
2708.083984 7217.000000
2708.941895 6878.000000
2709.800293 7353.000000
2710.657471 6767.000000
2711.513916 5968.000000
2712.369873 6918.000000
2713.225830 6093.000000
2714.081055 7011.000000
2714.935547 6111.000000
2715.789551 6921.000000
2716.643555 7321.000000
2717.496582 6315.000000
2718.349854 6518.000000
2719.201416 7803.000000
2720.053467 6743.000000
2720.905273 6334.000000
2721.755859 6487.000000
2722.606445 6413.000000
2723.456543 7219.000000
2724.305908 7110.000000
2725.155273 7016.000000
2726.003418 6687.000000
2726.851074 6619.000000
2727.699219 6970.000000
2728.546143 6852.000000
2729.393555 5641.000000
2730.239502 7511.000000
2731.084717 7094.000000
2731.930420 6385.000000
2732.775146 6952.000000
2733.619873 7395.000000
2734.463379 6927.000000
2735.307129 7836.000000
2736.150146 7139.000000
2736.992676 6097.000000
2737.834229 6310.000000
2738.676270 6907.000000
2739.517334 6928.000000
2740.358154 5806.000000
2741.198730 5955.000000
2742.038086 7825.000000
2742.877441 6862.000000
2743.716797 6901.000000
2744.554932 6829.000000
2745.392578 7879.000000
2746.230225 6370.000000
2747.067383 7101.000000
2747.904297 6223.000000
2748.740723 6031.000000
2749.575928 6694.000000
2750.411377 6353.000000
2751.246338 6331.000000
2752.080566 6335.000000
2752.914551 6943.000000
2753.748047 6896.000000
2754.581543 8027.000000
2755.414063 6783.000000
2756.246094 7355.000000
2757.077637 6807.000000
2757.909180 7113.000000
2758.739746 7258.000000
2759.570557 7315.000000
2760.400146 7254.000000
2761.229736 6651.000000
2762.059082 7299.000000
2762.887695 6856.000000
2763.715820 6794.000000
2764.543457 7001.000000
2765.371094 6722.000000
2766.198242 7922.000000
2767.024658 5824.000000
2767.850586 7524.000000
2768.676025 6910.000000
2769.501221 7824.000000
2770.326416 7109.000000
2771.150391 6760.000000
2771.974365 6524.000000
2772.798340 7661.000000
2773.621094 6640.000000
2774.444092 6887.000000
2775.265869 7041.000000
2776.087646 7004.000000
2776.909424 6531.000000
2777.730225 8025.000000
2778.550293 6566.000000
2779.370605 7022.000000
2780.190430 7273.000000
2781.010254 6495.000000
2781.828125 5998.000000
2782.647217 8105.000000
2783.465088 6592.000000
2784.282715 6791.000000
2785.099854 7223.000000
2785.916504 7257.000000
2786.732910 7270.000000
2787.548828 6300.000000
2788.364502 5990.000000
2789.179199 6443.000000
2789.994385 7051.000000
2790.808838 7164.000000
2791.622803 6668.000000
2792.436523 7520.000000
2793.249023 8770.000000
2794.061768 6943.000000
2794.874023 7532.000000
2795.685791 7204.000000
2796.496826 7432.000000
2797.308594 6568.000000
2798.119141 7246.000000
2798.929688 6989.000000
2799.738770 7413.000000
2800.548584 8276.000000
2801.357666 7825.000000
2802.166504 6716.000000
2802.974854 7198.000000
2803.782227 6162.000000
2804.590088 6508.000000
2805.397217 6954.000000
2806.204102 7020.000000
2807.009766 7269.000000
2807.815918 6657.000000
2808.621338 6513.000000
2809.426758 7401.000000
2810.231445 6281.000000
2811.035156 7730.000000
2811.839355 7562.000000
2812.643066 6322.000000
2813.446533 6175.000000
2814.248535 6382.000000
2815.051270 7365.000000
2815.853271 7872.000000
2816.655029 6177.000000
2817.456299 6590.000000
2818.257080 7277.000000
2819.057373 6631.000000
2819.857910 6700.000000
2820.657471 8062.000000
2821.456543 7177.000000
2822.255615 6519.000000
2823.054443 7003.000000
2823.852783 6392.000000
2824.650146 7040.000000
2825.447754 7070.000000
2826.244629 6767.000000
2827.041748 7358.000000
2827.838135 7908.000000
2828.633789 7077.000000
2829.429443 7348.000000
2830.224854 7618.000000
2831.019775 7512.000000
2831.813965 6685.000000
2832.608154 6911.000000
2833.402100 5672.000000
2834.195557 6956.000000
2834.988281 7113.000000
2835.780762 8199.000000
2836.573242 7642.000000
2837.365479 7780.000000
2838.157227 6469.000000
2838.947998 6818.000000
2839.738770 8859.000000
2840.529785 7468.000000
2841.319824 6248.000000
2842.109375 7703.000000
2842.899170 7240.000000
2843.687988 7331.000000
2844.476807 7832.000000
2845.265625 7821.000000
2846.053467 7591.000000
2846.840820 7273.000000
2847.628418 7558.000000
2848.415527 7301.000000
2849.201904 6666.000000
2849.988281 7551.000000
2850.774414 7302.000000
2851.560059 7528.000000
2852.344727 7231.000000
2853.129883 6957.000000
2853.914795 7507.000000
2854.698975 7125.000000
2855.483154 7017.000000
2856.266113 8354.000000
2857.049316 6866.000000
2857.832275 6807.000000
2858.614746 7811.000000
2859.396973 6286.000000
2860.178711 6696.000000
2860.960205 7632.000000
2861.741943 7558.000000
2862.522949 7655.000000
2863.303223 6656.000000
2864.083252 6749.000000
2864.863281 8173.000000
2865.643066 7444.000000
2866.421875 8139.000000
2867.200928 7716.000000
2867.979492 6866.000000
2868.757813 6926.000000
2869.535645 7256.000000
2870.313232 7019.000000
2871.090576 7421.000000
2871.867676 6976.000000
2872.644287 6377.000000
2873.420410 7525.000000
2874.196533 7206.000000
2874.972168 8347.000000
2875.747559 7340.000000
2876.522461 6743.000000
2877.297119 8155.000000
2878.071777 6712.000000
2878.846191 7850.000000
2879.619873 6904.000000
2880.392822 7239.000000
2881.166504 6859.000000
2881.939209 7660.000000
2882.711914 7956.000000
2883.483887 8333.000000
2884.255615 6314.000000
2885.027832 6827.000000
2885.798828 6909.000000
2886.569336 6141.000000
2887.340332 8346.000000
2888.111328 7400.000000
2888.881592 8078.000000
2889.650879 7654.000000
2890.420410 6954.000000
2891.189941 7349.000000
2891.958984 7408.000000
2892.727539 7960.000000
2893.496094 7676.000000
2894.263672 6956.000000
2895.031738 6603.000000
2895.799316 7476.000000
2896.566895 8436.000000
2897.333252 7432.000000
2898.100586 6497.000000
2898.866699 7279.000000
2899.633057 7028.000000
2900.397949 8309.000000
2901.163330 7100.000000
2901.929199 6479.000000
2902.693604 7795.000000
2903.458008 7805.000000
2904.222656 8467.000000
2904.986328 6657.000000
2905.750732 8503.000000
2906.514404 6750.000000
2907.277344 8434.000000
2908.040039 6582.000000
2908.803223 8891.000000
2909.565918 7055.000000
2910.327393 6812.000000
2911.089355 6812.000000
