scanname Analyse054
timestamp 2017-02-10 21:12:21
ccdbias 895.802734
ccdgain 3.473401
sigmaread 8.960639
laserwavenum -0.579534
wavenumcorrection -0.056570
scancount 1
totalexposurems 10000
singleexposurems 10000
measurementstate Unknown
scanmode Manual
snr 57.214260 0.683133 0.377260
replacelist 0
peaks 7
398.762939 0.145220 0.000000 0.137459 0.000020
809.752625 0.126716 0.000000 0.253742 0.000048
842.461426 0.124455 0.000000 0.127124 0.000043
877.824951 0.124950 0.000000 0.258582 0.000083
1153.824463 0.104784 0.000000 0.244666 0.000046
1316.958740 0.107342 0.000000 2.911326 0.000599
1457.971558 0.099982 0.000000 0.230611 0.000052
finalresult GLS_Multiple 84
A13500	Poly(propylene-co-ethylene)	3.624104e-001
A0115	Polypropylene	3.570191e-001
A13180	Polypropylene (lot B)	3.529844e-001
A2450	Zinc selenate pentahydrate	2.981344e-001
A2782	Acetamide	2.849008e-001
A1531	Ethyl formate	2.839702e-001
A12040	Ethanol w/ sweetener	2.795699e-001
A8461	Ethanol	2.740855e-001
A0113	Hydrogen peroxide	2.712255e-001
A11101	Hydrogen peroxide, 70%	2.702406e-001
A4807	2-(2-Nitroethoxy)tetrahydropyran	2.686188e-001
A0138	Dibutyl ether	2.676220e-001
A1351	Sodium propionate	2.658250e-001
A6290	Bis(2,2,2-trifluoroethyl) phosphite	2.651526e-001
A3164	Ammonium chromate	2.640378e-001
A1270	Methyl DL-lactate	2.637429e-001
A14069	(R)-(-)-1,2-Propanediol	2.631532e-001
A11925	Butyl (S)-(-)-2-pyrrolidone-5-carboxylate	2.630253e-001
A0518	Propylene glycol	2.622898e-001
A0400	Potassium permanganate	2.604935e-001
A0524	Propionic acid	2.595403e-001
A0251	Ethylamine	2.594144e-001
A2313	Barium peroxide	2.580389e-001
A13820	(-)-Methyl L-lactate	2.562471e-001
A11100	Hydrogen peroxide, 50%	2.557384e-001
A11872	Poly(methyl methacrylate)	2.556807e-001
A11885	Poly(methyl methacrylate-co-butyl methacrylate)	2.556136e-001
A0273	Denatured Solvent Alcohol	2.554697e-001
A1697	Ethyl vinyl ether	2.554506e-001
A2721	Formaldehyde diethyl acetal	2.548094e-001
A9092	p-Tolyl ether	2.535973e-001
A3573	Ammonium tartrate dibasic	2.531117e-001
A1676	Trifluoroacetic acid	2.523422e-001
A4881	2-(2-Chloroethoxy)tetrahydro-2H-pyran	2.515845e-001
A13507	Poly(methyl methacrylate-co-ethyl acrylate)	2.505077e-001
A10674	Dibutyl succinate	2.503660e-001
A5382	3-Methoxypropionic acid	2.497067e-001
A2943	Potassium binoxalate	2.479439e-001
A0969	Diethylene glycol monopropyl ether	2.475329e-001
A4972	Boric acid	2.474301e-001
A2098	Diethylene glycol dibutyl ether	2.455788e-001
A2703	Acetaldehyde dimethyl acetal	2.453931e-001
A1519	Butyl vinyl ether	2.447357e-001
A2210	Calcium peroxide hydrate	2.442456e-001
A2453	Calcium chromate	2.438583e-001
A10529	1-Formylpiperazine	2.421299e-001
A1547	Isovaleric acid	2.420014e-001
A2413	Sodium selenate	2.418643e-001
A8849	2-Ethoxytetrahydrofuran	2.415891e-001
A0098	Roundup (weed and grass killer)	2.401471e-001
A12725	Cerium(III) fluoride	2.400473e-001
A12448	Tribromofluoromethane	2.400473e-001
A1550	Nitroethane	2.397287e-001
A2435	Sodium percarbonate	2.394742e-001
A6278	6-Methylnicotinamide	2.391107e-001
A3222	Potassium nitrite	2.387120e-001
A14007	1,2-Dichlorotetramethyldisilane	2.385038e-001
A0292	Hydrazine	2.382144e-001
A0761	N,N,N',N'-Tetrakis(2-Hydroxypropyl)ethylenediamine	2.381150e-001
A7885	beta-Carotene	2.375818e-001
A2727	Acrolein diethyl acetal	2.372300e-001
A3976	2-Aminopyrimidine	2.370951e-001
A8610	5-Methyl-2-pyrrolidinone	2.367533e-001
A8580	Sodium permanganate solution	2.367080e-001
A9546	4-Methoxy-alpha-methylbenzyl alcohol	2.356483e-001
A3625	1-Dimethylamino-2-propanol	2.356038e-001
A5377	4-Methyl-2-nitroanisole	2.352450e-001
A2017	Isopropylamine	2.352362e-001
A1754	N,N-Dimethylhydrazine	2.345482e-001
A1644	Ethyl isobutyrate	2.339949e-001
A5771	2-Methylnaphthalene-bis(hexachlorocyclopentadiene)	2.337105e-001
A1901	Ethyl cellulose	2.336215e-001
A14031	Methyl (S)-(+)-2-pyrrolidone-5-carboxylate	2.333099e-001
A4269	2,4-Dibromoanisole	2.328749e-001
A2611	2-Nitroethanol	2.322454e-001
A6700	4'-Methoxypropiophenone	2.307181e-001
A10296	Tri(ethylene glycol) divinyl ether	2.294354e-001
A13181	Polyethersulfone	2.288927e-001
A4025	2,4-Dimethylpentane	2.285168e-001
A0369	2,4,6-Tribromophenol	2.283860e-001
A7633	2-Nitro-p-cymene	2.282467e-001
A10581	Piperidine	2.278973e-001
A3132	4-Methyl-3-nitrobenzoic acid	2.270619e-001
A11145	1,3-Cyclopentanediol	2.262642e-001
spectrum 2048
-97.021919 46088.000000
-94.395050 46088.000000
-91.770058 46491.000000
-89.146957 46400.000000
-86.525726 47086.000000
-83.906395 46791.000000
-81.288925 47029.000000
-78.673332 46765.000000
-76.059616 47108.000000
-73.447777 47469.000000
-70.837799 47298.000000
-68.229706 47361.000000
-65.623459 47402.000000
-63.019093 47403.000000
-60.416584 47327.000000
-57.815929 47772.000000
-55.217136 47183.000000
-52.620201 46524.000000
-50.025120 46895.000000
-47.431892 46913.000000
-44.840515 47104.000000
-42.250984 46635.000000
-39.663296 47469.000000
-37.077457 47314.000000
-34.493462 46882.000000
-31.911301 47581.000000
-29.330988 47002.000000
-26.752502 47657.000000
-24.175859 47137.000000
-21.601042 47008.000000
-19.028065 46746.000000
-16.456907 46684.000000
-13.887584 46397.000000
-11.320086 45370.000000
-8.754406 46789.000000
-6.190553 46567.000000
-3.628512 47065.000000
-1.068296 47107.000000
1.490112 46644.000000
4.046699 45774.000000
6.601481 45943.000000
9.154447 46435.000000
11.705611 45298.000000
14.254963 45128.000000
16.802519 44472.000000
19.348263 44718.000000
21.892214 44287.000000
24.434361 42079.000000
26.974710 39816.000000
29.513275 36709.000000
32.050041 32820.000000
34.585007 26638.000000
37.118195 15354.000000
39.649601 9831.000000
42.179214 9042.000000
44.707031 8448.000000
47.233089 7571.000000
49.757359 6785.000000
52.279858 5842.000000
54.800560 5412.000000
57.319508 5600.000000
59.836681 6591.000000
62.352077 8225.000000
64.865700 8860.000000
67.377563 9173.000000
69.887680 6948.000000
72.396004 4681.000000
74.902573 3637.000000
77.407394 3104.000000
79.910461 2659.000000
82.411751 2213.000000
84.911301 2125.000000
87.409096 2026.000000
89.905159 2163.000000
92.399445 2614.000000
94.891991 2906.000000
97.382820 2827.000000
99.871880 2744.000000
102.359192 2173.000000
104.844780 1747.000000
107.328629 1608.000000
109.810730 1518.000000
112.291107 1376.000000
114.769760 1214.000000
117.246689 1138.000000
119.721863 1208.000000
122.195328 1027.000000
124.667061 1017.000000
127.137085 1036.000000
129.605347 1124.000000
132.071945 1247.000000
134.536789 1099.000000
136.999939 1211.000000
139.461349 1245.000000
141.921066 1320.000000
144.379059 1490.000000
146.835358 1686.000000
149.289948 1902.000000
151.742813 2133.000000
154.194000 2424.000000
156.643494 2792.000000
159.091263 3224.000000
161.537323 3628.000000
163.981705 3871.000000
166.424408 4525.000000
168.865417 4668.000000
171.304718 5069.000000
173.742310 5131.000000
176.178268 5346.000000
178.612488 5477.000000
181.045029 5547.000000
183.475922 5401.000000
185.905090 5366.000000
188.332611 5469.000000
190.758453 5455.000000
193.182617 5371.000000
195.605118 5510.000000
198.025925 5552.000000
200.445068 5574.000000
202.862549 5742.000000
205.278336 5990.000000
207.692474 6184.000000
210.104980 6452.000000
212.515808 6891.000000
214.924957 7340.000000
217.332474 7720.000000
219.738281 8145.000000
222.142502 8596.000000
224.545013 8787.000000
226.945908 9272.000000
229.345154 9508.000000
231.742737 9650.000000
234.138657 9675.000000
236.532959 9654.000000
238.925598 9731.000000
241.316620 9780.000000
243.705978 9795.000000
246.093719 9791.000000
248.479813 9833.000000
250.864273 9766.000000
253.247086 9816.000000
255.628326 9919.000000
258.007874 9862.000000
260.385834 9842.000000
262.762115 9853.000000
265.136841 9788.000000
267.509918 9622.000000
269.881348 9819.000000
272.251129 9793.000000
274.619354 9770.000000
276.985931 9735.000000
279.350922 9784.000000
281.714294 9610.000000
284.076019 9690.000000
286.436157 9608.000000
288.794678 9566.000000
291.151611 9564.000000
293.506927 9567.000000
295.860657 9660.000000
298.212738 9665.000000
300.563263 9551.000000
302.912201 9529.000000
305.259491 9542.000000
307.605255 9440.000000
309.949341 9401.000000
312.291901 9438.000000
314.632843 9441.000000
316.972168 9333.000000
319.309937 9400.000000
321.646149 9366.000000
323.980713 9359.000000
326.313721 9398.000000
328.645172 9287.000000
330.975037 9312.000000
333.303314 9216.000000
335.629974 9274.000000
337.955139 9240.000000
340.278687 9242.000000
342.600677 9136.000000
344.921112 9164.000000
347.239929 9116.000000
349.557190 9208.000000
351.872925 9133.000000
354.187073 9016.000000
356.499634 9143.000000
358.810638 8992.000000
361.120117 9045.000000
363.428070 9073.000000
365.734406 9048.000000
368.039154 9030.000000
370.342438 8939.000000
372.644104 9025.000000
374.944275 9065.000000
377.242889 9031.000000
379.539948 8981.000000
381.835449 9062.000000
384.129425 9171.000000
386.421814 9066.000000
388.712708 9070.000000
391.002075 9285.000000
393.289856 9232.000000
395.576111 9422.000000
397.860870 9471.000000
400.144012 9408.000000
402.425720 9438.000000
404.705902 9381.000000
406.984497 9316.000000
409.261566 9301.000000
411.537109 9181.000000
413.811127 9171.000000
416.083710 8983.000000
418.354675 9136.000000
420.624146 9126.000000
422.892120 9059.000000
425.158539 9066.000000
427.423462 8917.000000
429.686920 8868.000000
431.948792 9001.000000
434.209198 9018.000000
436.468048 8907.000000
438.725433 8959.000000
440.981323 8885.000000
443.235718 8709.000000
445.488586 8819.000000
447.739899 8806.000000
449.989807 8807.000000
452.238129 8677.000000
454.485016 8743.000000
456.730438 8681.000000
458.974304 8549.000000
461.216675 8514.000000
463.457550 8565.000000
465.697021 8554.000000
467.934906 8583.000000
470.171356 8546.000000
472.406281 8563.000000
474.639740 8251.000000
476.871765 8424.000000
479.102264 8474.000000
481.331268 8307.000000
483.558807 8309.000000
485.784851 8310.000000
488.009460 8348.000000
490.232605 8279.000000
492.454285 8437.000000
494.674408 8505.000000
496.893127 8412.000000
499.110352 8400.000000
501.326202 8458.000000
503.540436 8390.000000
505.753357 8467.000000
507.964691 8411.000000
510.174591 8529.000000
512.383057 8524.000000
514.590149 8508.000000
516.795654 8515.000000
518.999756 8551.000000
521.202332 8466.000000
523.403503 8448.000000
525.603333 8401.000000
527.801636 8381.000000
529.998413 8451.000000
532.193848 8441.000000
534.387756 8365.000000
536.580322 8162.000000
538.771362 8282.000000
540.960999 8203.000000
543.149231 8214.000000
545.335938 8127.000000
547.521179 7964.000000
549.705139 7947.000000
551.887512 7881.000000
554.068542 7964.000000
556.248047 7829.000000
558.426270 7875.000000
560.602966 7821.000000
562.778259 7746.000000
564.952148 7772.000000
567.124573 7923.000000
569.295593 7598.000000
571.465149 7713.000000
573.633423 7736.000000
575.800171 7564.000000
577.965454 7725.000000
580.129333 7677.000000
582.291931 7875.000000
584.453003 7884.000000
586.612671 7784.000000
588.770996 7694.000000
590.927795 7890.000000
593.083252 7774.000000
595.237305 7953.000000
597.390015 7848.000000
599.541199 7995.000000
601.691040 7731.000000
603.839539 7839.000000
605.986450 7902.000000
608.132141 7845.000000
610.276428 7758.000000
612.419250 7717.000000
614.560608 7822.000000
616.700745 7784.000000
618.839355 7775.000000
620.976685 7783.000000
623.112549 7742.000000
625.247009 7728.000000
627.380005 7631.000000
629.511841 7634.000000
631.642212 7495.000000
633.771179 7592.000000
635.898682 7497.000000
638.024902 7401.000000
640.149597 7420.000000
642.273071 7447.000000
644.395203 7363.000000
646.515869 7310.000000
648.635193 7386.000000
650.753113 7267.000000
652.869690 7293.000000
654.984863 7361.000000
657.098694 7100.000000
659.211060 7191.000000
661.322205 7246.000000
663.431946 7206.000000
665.540222 7258.000000
667.647339 7184.000000
669.752991 7126.000000
671.857178 7233.000000
673.960144 7055.000000
676.061707 7096.000000
678.161926 7207.000000
680.260742 7256.000000
682.358215 7282.000000
684.454407 7246.000000
686.549133 7328.000000
688.642639 7225.000000
690.734802 7237.000000
692.825439 7156.000000
694.914856 7332.000000
697.002991 7424.000000
699.089661 7350.000000
701.175110 7366.000000
703.259033 7281.000000
705.341736 7271.000000
707.423157 7257.000000
709.503113 7057.000000
711.581848 6888.000000
713.659119 6913.000000
715.735107 6927.000000
717.809814 6942.000000
719.883240 6805.000000
721.955139 6977.000000
724.025879 7043.000000
726.095276 6954.000000
728.163269 6907.000000
730.229919 6846.000000
732.295349 6866.000000
734.359436 6783.000000
736.422180 6796.000000
738.483582 6518.000000
740.543701 6740.000000
742.602417 6677.000000
744.659912 6646.000000
746.716125 6732.000000
748.770935 6579.000000
750.824463 6492.000000
752.876587 6650.000000
754.927490 6592.000000
756.977173 6445.000000
759.025391 6573.000000
761.072388 6599.000000
763.118103 6445.000000
765.162415 6524.000000
767.205444 6494.000000
769.247253 6115.000000
771.287720 6573.000000
773.326782 6425.000000
775.364685 6476.000000
777.401245 6507.000000
779.436584 6538.000000
781.470581 6594.000000
783.503174 6761.000000
785.534607 6689.000000
787.564636 6510.000000
789.593384 6529.000000
791.620972 6655.000000
793.647217 6813.000000
795.672058 6669.000000
797.695801 6683.000000
799.718140 6762.000000
801.739258 6827.000000
803.759033 6779.000000
805.777527 7022.000000
807.794800 6966.000000
809.810669 7008.000000
811.825378 6991.000000
813.838745 6823.000000
815.850891 6808.000000
817.861816 6695.000000
819.871399 6540.000000
821.879761 6459.000000
823.886719 6450.000000
825.892456 6424.000000
827.896973 6382.000000
829.900208 6276.000000
831.902161 6346.000000
833.902832 6309.000000
835.902283 6345.000000
837.900391 6364.000000
839.897400 6440.000000
841.893005 6420.000000
843.887451 6441.000000
845.880554 6425.000000
847.872437 6205.000000
849.862976 6115.000000
851.852234 6044.000000
853.840454 6010.000000
855.827271 5947.000000
857.812866 5950.000000
859.797180 5986.000000
861.780396 5924.000000
863.762207 5967.000000
865.742798 6018.000000
867.722107 5915.000000
869.700256 5959.000000
871.677063 6101.000000
873.652588 6309.000000
875.627075 6295.000000
877.600098 6365.000000
879.572083 6573.000000
881.542725 6419.000000
883.512207 6410.000000
885.480347 6298.000000
887.447327 6199.000000
889.412964 6254.000000
891.377441 6186.000000
893.340698 6112.000000
895.302734 6097.000000
897.263489 6095.000000
899.223022 5973.000000
901.181274 6099.000000
903.138428 5941.000000
905.094421 5998.000000
907.049011 5975.000000
909.002380 5981.000000
910.954590 5886.000000
912.905579 5870.000000
914.855286 5691.000000
916.803833 5705.000000
918.751160 5675.000000
920.697205 5660.000000
922.641968 5552.000000
924.585693 5542.000000
926.528259 5443.000000
928.469543 5509.000000
930.409485 5351.000000
932.348328 5299.000000
934.285889 5405.000000
936.222229 5310.000000
938.157410 5311.000000
940.091309 5363.000000
942.024109 5246.000000
943.955688 5310.000000
945.886108 5240.000000
947.815308 5175.000000
949.743164 5201.000000
951.669983 5269.000000
953.595520 5373.000000
955.519775 5224.000000
957.442932 5326.000000
959.364929 5459.000000
961.285645 5370.000000
963.205200 5375.000000
965.123596 5404.000000
967.040955 5473.000000
968.956848 5505.000000
970.871643 5456.000000
972.785217 5633.000000
974.697632 5528.000000
976.608826 5507.000000
978.518860 5534.000000
980.427612 5401.000000
982.335327 5410.000000
984.241821 5256.000000
986.147095 5314.000000
988.051270 5289.000000
989.954224 5270.000000
991.855957 5272.000000
993.756531 5325.000000
995.655945 5323.000000
997.554138 5317.000000
999.451172 5264.000000
1001.346985 5104.000000
1003.241638 5027.000000
1005.135193 5034.000000
1007.027466 5069.000000
1008.918823 4957.000000
1010.808838 4939.000000
1012.697632 4935.000000
1014.585266 4916.000000
1016.471741 4770.000000
1018.357056 4861.000000
1020.241211 4905.000000
1022.124146 4858.000000
1024.005981 4932.000000
1025.886597 4823.000000
1027.766113 4877.000000
1029.644653 4822.000000
1031.521851 4825.000000
1033.397705 4843.000000
1035.272583 4893.000000
1037.146484 5001.000000
1039.018921 4899.000000
1040.890381 4926.000000
1042.760498 4930.000000
1044.629639 4958.000000
1046.497559 4990.000000
1048.364380 4738.000000
1050.230103 4941.000000
1052.094604 4916.000000
1053.958008 4973.000000
1055.820068 5020.000000
1057.681152 4919.000000
1059.541138 4910.000000
1061.399780 4804.000000
1063.257324 4845.000000
1065.113770 4827.000000
1066.969116 4949.000000
1068.823242 4993.000000
1070.676514 4941.000000
1072.528320 4962.000000
1074.379150 4894.000000
1076.228760 4917.000000
1078.077148 4991.000000
1079.924683 5007.000000
1081.770874 4868.000000
1083.615845 4860.000000
1085.459961 4806.000000
1087.302734 4954.000000
1089.144287 4890.000000
1090.985107 4788.000000
1092.824341 4708.000000
1094.662842 4856.000000
1096.500000 4667.000000
1098.335938 4664.000000
1100.170898 4637.000000
1102.004639 4559.000000
1103.837402 4531.000000
1105.668823 4407.000000
1107.499390 4623.000000
1109.328613 4486.000000
1111.156860 4274.000000
1112.983887 4350.000000
1114.809937 4255.000000
1116.634766 4309.000000
1118.458496 4348.000000
1120.281006 4179.000000
1122.102417 4256.000000
1123.922974 4323.000000
1125.742065 4230.000000
1127.560303 4304.000000
1129.377197 4261.000000
1131.193237 4344.000000
1133.008057 4346.000000
1134.821777 4369.000000
1136.634399 4416.000000
1138.445801 4386.000000
1140.256226 4417.000000
1142.065552 4473.000000
1143.873535 4466.000000
1145.680786 4612.000000
1147.486572 4548.000000
1149.291504 4723.000000
1151.095337 4727.000000
1152.897949 4705.000000
1154.699707 4677.000000
1156.500000 4763.000000
1158.299316 4611.000000
1160.097656 4514.000000
1161.894653 4570.000000
1163.690918 4495.000000
1165.485840 4485.000000
1167.279663 4426.000000
1169.072632 4432.000000
1170.864258 4301.000000
1172.654907 4242.000000
1174.444580 4245.000000
1176.232788 4177.000000
1178.020142 4156.000000
1179.806396 4218.000000
1181.591553 4135.000000
1183.375610 4230.000000
1185.158569 4057.000000
1186.940552 4180.000000
1188.721313 4116.000000
1190.501099 4185.000000
1192.279785 4120.000000
1194.057495 4169.000000
1195.833984 4096.000000
1197.609375 3941.000000
1199.383667 4066.000000
1201.156860 3965.000000
1202.929199 3990.000000
1204.700195 3868.000000
1206.470337 3879.000000
1208.239258 3897.000000
1210.007080 3811.000000
1211.774048 4037.000000
1213.539673 3997.000000
1215.304321 3998.000000
1217.067871 3919.000000
1218.830322 3974.000000
1220.591919 3907.000000
1222.352295 3881.000000
1224.111572 3812.000000
1225.869995 3826.000000
1227.627197 3935.000000
1229.383301 3873.000000
1231.138306 3914.000000
1232.892456 3849.000000
1234.645264 3956.000000
1236.397095 3926.000000
1238.148071 3890.000000
1239.897705 3956.000000
1241.646484 4015.000000
1243.393921 3972.000000
1245.140625 3979.000000
1246.886108 3985.000000
1248.630737 3900.000000
1250.374023 3926.000000
1252.116333 4008.000000
1253.857544 3973.000000
1255.597900 3917.000000
1257.337158 3869.000000
1259.075195 3647.000000
1260.812378 3760.000000
1262.548340 3705.000000
1264.283325 3906.000000
1266.017334 3899.000000
1267.750366 3941.000000
1269.482178 3868.000000
1271.213013 3882.000000
1272.942627 3932.000000
1274.671387 3866.000000
1276.399048 3973.000000
1278.125610 3976.000000
1279.851318 4020.000000
1281.575684 3921.000000
1283.299194 4032.000000
1285.021729 3979.000000
1286.743286 3941.000000
1288.463623 4021.000000
1290.182983 3954.000000
1291.901245 3983.000000
1293.618530 3937.000000
1295.334839 3950.000000
1297.049927 3950.000000
1298.764038 3956.000000
1300.477173 3847.000000
1302.189453 3729.000000
1303.900513 3616.000000
1305.610596 3748.000000
1307.319580 3869.000000
1309.027344 3741.000000
1310.734497 3599.000000
1312.440186 3645.000000
1314.145142 3749.000000
1315.849121 3747.000000
1317.551880 3819.000000
1319.253662 3826.000000
1320.954590 3779.000000
1322.654175 5911.000000
1324.352905 1085.000000
1326.050903 3713.000000
1327.747559 3692.000000
1329.443115 3822.000000
1331.137817 3710.000000
1332.831299 3762.000000
1334.523926 3771.000000
1336.215698 3709.000000
1337.906128 3544.000000
1339.595825 3481.000000
1341.284424 3613.000000
1342.971924 3499.000000
1344.658447 3486.000000
1346.343872 3543.000000
1348.028320 3469.000000
1349.711914 3533.000000
1351.394287 3498.000000
1353.075684 3612.000000
1354.756226 3678.000000
1356.435547 3755.000000
1358.114258 3745.000000
1359.791626 3715.000000
1361.467896 3811.000000
1363.143188 3764.000000
1364.817749 3778.000000
1366.491089 3574.000000
1368.163452 3683.000000
1369.834839 3750.000000
1371.505249 3704.000000
1373.174561 3767.000000
1374.842896 3684.000000
1376.510376 3633.000000
1378.176758 3520.000000
1379.842163 3584.000000
1381.506592 3586.000000
1383.169800 3587.000000
1384.832397 3569.000000
1386.493652 3520.000000
1388.154053 3528.000000
1389.813354 3436.000000
1391.471680 3485.000000
1393.129272 3486.000000
1394.785645 3468.000000
1396.441162 3409.000000
1398.095459 3433.000000
1399.748901 3451.000000
1401.401245 3476.000000
1403.052856 3432.000000
1404.703247 3457.000000
1406.352539 3258.000000
1408.001099 3302.000000
1409.648560 3276.000000
1411.295044 3328.000000
1412.940674 3126.000000
1414.585327 3205.000000
1416.228760 3180.000000
1417.871338 3163.000000
1419.512817 3043.000000
1421.153442 3252.000000
1422.793091 3203.000000
1424.431641 3068.000000
1426.069336 3051.000000
1427.705933 3087.000000
1429.341553 3092.000000
1430.976440 3119.000000
1432.610229 3152.000000
1434.242920 3202.000000
1435.874634 3037.000000
1437.505493 3187.000000
1439.135254 3119.000000
1440.763916 3116.000000
1442.391968 3157.000000
1444.018921 3073.000000
1445.644653 3091.000000
1447.269775 3247.000000
1448.893799 3149.000000
1450.516846 3301.000000
1452.138916 3341.000000
1453.759888 3387.000000
1455.379883 3374.000000
1456.999146 3377.000000
1458.617065 3450.000000
1460.234375 3223.000000
1461.850708 3363.000000
1463.465820 3355.000000
1465.080078 3235.000000
1466.693481 3276.000000
1468.305786 3234.000000
1469.917236 3167.000000
1471.527832 3151.000000
1473.137207 3142.000000
1474.745605 3181.000000
1476.353149 3064.000000
1477.959717 3209.000000
1479.565552 3086.000000
1481.170166 3100.000000
1482.773926 3010.000000
1484.376465 3043.000000
1485.978394 2831.000000
1487.579102 2827.000000
1489.179077 2856.000000
1490.777954 2792.000000
1492.375977 2894.000000
1493.972900 2769.000000
1495.568970 2854.000000
1497.164063 3011.000000
1498.758179 3005.000000
1500.351563 2941.000000
1501.943848 2970.000000
1503.534912 3036.000000
1505.125488 2930.000000
1506.714722 2938.000000
1508.303345 2922.000000
1509.890869 2865.000000
1511.477295 2807.000000
1513.062988 2880.000000
1514.647583 2772.000000
1516.231323 2901.000000
1517.813965 2741.000000
1519.395874 2770.000000
1520.976685 2773.000000
1522.556763 2837.000000
1524.135620 2773.000000
1525.713623 2662.000000
1527.290894 2636.000000
1528.866943 2723.000000
1530.442261 2634.000000
1532.016479 2614.000000
1533.589966 2600.000000
1535.162231 2692.000000
1536.733765 2655.000000
1538.304321 2683.000000
1539.874023 2787.000000
1541.442505 2655.000000
1543.010254 2585.000000
1544.577148 2549.000000
1546.142822 2627.000000
1547.707764 2631.000000
1549.271606 2662.000000
1550.834839 2542.000000
1552.396729 2639.000000
1553.958008 2674.000000
1555.518188 2673.000000
1557.077637 2624.000000
1558.635986 2620.000000
1560.193604 2518.000000
1561.750122 2603.000000
1563.305420 2547.000000
1564.860107 2500.000000
1566.414063 2589.000000
1567.967041 2524.000000
1569.518677 2510.000000
1571.069580 2449.000000
1572.619751 2532.000000
1574.168945 2426.000000
1575.716797 2536.000000
1577.264160 2473.000000
1578.810547 2591.000000
1580.356079 2493.000000
1581.900635 2516.000000
1583.443970 2496.000000
1584.986694 2466.000000
1586.528564 2515.000000
1588.069336 2454.000000
1589.609131 2564.000000
1591.148193 2424.000000
1592.686157 2400.000000
1594.223633 2447.000000
1595.759766 2460.000000
1597.294800 2428.000000
1598.829346 2479.000000
1600.362915 2417.000000
1601.895630 2431.000000
1603.426758 2453.000000
1604.957642 2452.000000
1606.487671 2439.000000
1608.016479 2391.000000
1609.544189 2433.000000
1611.071289 2453.000000
1612.597656 2503.000000
1614.123047 2411.000000
1615.647583 2474.000000
1617.170776 2478.000000
1618.693237 2362.000000
1620.214966 2470.000000
1621.735840 2490.000000
1623.255249 2392.000000
1624.774170 2359.000000
1626.292358 2388.000000
1627.809692 2384.000000
1629.325928 2383.000000
1630.840820 2344.000000
1632.355225 2385.000000
1633.868896 2377.000000
1635.381470 2408.000000
1636.892822 2258.000000
1638.403809 2364.000000
1639.913696 2309.000000
1641.422729 2359.000000
1642.930420 2268.000000
1644.437744 2240.000000
1645.944214 2172.000000
1647.449707 2233.000000
1648.954346 2263.000000
1650.457520 2271.000000
1651.960083 2280.000000
1653.462280 2251.000000
1654.963135 2183.000000
1656.462891 2158.000000
1657.961792 2231.000000
1659.460327 2113.000000
1660.957642 2206.000000
1662.454224 2242.000000
1663.949219 2045.000000
1665.443970 2130.000000
1666.937866 2135.000000
1668.430786 2047.000000
1669.922363 1927.000000
1671.413452 2058.000000
1672.903931 2073.000000
1674.393311 2025.000000
1675.881226 2062.000000
1677.368896 2018.000000
1678.855591 2092.000000
1680.341431 2046.000000
1681.826416 2074.000000
1683.309937 2028.000000
1684.793213 2031.000000
1686.275635 1933.000000
1687.756958 2009.000000
1689.236816 1965.000000
1690.716431 1972.000000
1692.195313 1982.000000
1693.673218 1981.000000
1695.150146 1953.000000
1696.625854 2055.000000
1698.101196 1969.000000
1699.575317 1929.000000
1701.048828 1886.000000
1702.520874 1959.000000
1703.992676 1866.000000
1705.463501 2009.000000
1706.933472 1910.000000
1708.402100 2004.000000
1709.870239 1942.000000
1711.337646 1913.000000
1712.803955 1906.000000
1714.269653 1960.000000
1715.733643 1995.000000
1717.197510 2052.000000
1718.660522 2058.000000
1720.122559 1981.000000
1721.583374 1975.000000
1723.043579 2007.000000
1724.503052 1996.000000
1725.961670 1876.000000
1727.419312 1993.000000
1728.875610 1854.000000
1730.331665 1987.000000
1731.786743 1920.000000
1733.240845 1961.000000
1734.693726 1858.000000
1736.146362 2013.000000
1737.597900 1951.000000
1739.048706 1809.000000
1740.498535 1907.000000
1741.947021 1872.000000
1743.395142 1825.000000
1744.842407 1915.000000
1746.288940 1830.000000
1747.733887 1866.000000
1749.178589 1873.000000
1750.622437 1658.000000
1752.065430 1999.000000
1753.506958 1853.000000
1754.948242 1912.000000
1756.388672 1790.000000
1757.828125 1852.000000
1759.266602 1899.000000
1760.704102 1742.000000
1762.141113 1756.000000
1763.577148 1720.000000
1765.012329 1752.000000
1766.446045 1839.000000
1767.879639 1752.000000
1769.312256 1769.000000
1770.744019 1773.000000
1772.174927 1775.000000
1773.604614 1742.000000
1775.033569 1616.000000
1776.462036 1650.000000
1777.889526 1718.000000
1779.315674 1609.000000
1780.741577 1659.000000
1782.166382 1712.000000
1783.590576 1677.000000
1785.013306 1652.000000
1786.435547 1598.000000
1787.857056 1586.000000
1789.277832 1463.000000
1790.697632 1510.000000
1792.116089 1624.000000
1793.534058 1625.000000
1794.951416 1603.000000
1796.367920 1646.000000
1797.782959 1545.000000
1799.197632 1585.000000
1800.611694 1582.000000
1802.024536 1566.000000
1803.436768 1567.000000
1804.847656 1619.000000
1806.258057 1551.000000
1807.667725 1600.000000
1809.076416 1593.000000
1810.484009 1683.000000
1811.891113 1610.000000
1813.297363 1565.000000
1814.702637 1580.000000
1816.106812 1623.000000
1817.510620 1503.000000
1818.913452 1475.000000
1820.315430 1645.000000
1821.716797 1579.000000
1823.116699 1501.000000
1824.515991 1598.000000
1825.914795 1691.000000
1827.312744 1589.000000
1828.709351 1583.000000
1830.105347 1598.000000
1831.500610 1583.000000
1832.895264 1518.000000
1834.288940 1685.000000
1835.681274 1545.000000
1837.073120 1572.000000
1838.464355 1534.000000
1839.854614 1528.000000
1841.243652 1547.000000
1842.632324 1506.000000
1844.020020 1563.000000
1845.406982 1496.000000
1846.792603 1460.000000
1848.177979 1450.000000
1849.562500 1508.000000
1850.946289 1477.000000
1852.328979 1609.000000
1853.710449 1497.000000
1855.091431 1480.000000
1856.471924 1500.000000
1857.851440 1394.000000
1859.229492 1422.000000
1860.607422 1485.000000
1861.984375 1365.000000
1863.360596 1401.000000
1864.735962 1405.000000
1866.109863 1496.000000
1867.483643 1431.000000
1868.856567 1446.000000
1870.228394 1327.000000
1871.599243 1367.000000
1872.969727 1376.000000
1874.339111 1369.000000
1875.708008 1348.000000
1877.075317 1374.000000
1878.442505 1366.000000
1879.808716 1280.000000
1881.174194 1258.000000
1882.538940 1308.000000
1883.902100 1428.000000
1885.265137 1391.000000
1886.627319 1313.000000
1887.988647 1323.000000
1889.348633 1311.000000
1890.708252 1347.000000
1892.067261 1363.000000
1893.425293 1405.000000
1894.782471 1318.000000
1896.138428 1338.000000
1897.494141 1262.000000
1898.848877 1355.000000
1900.202759 1274.000000
1901.555542 1343.000000
1902.907837 1327.000000
1904.259399 1311.000000
1905.610107 1322.000000
1906.959595 1273.000000
1908.308594 1318.000000
1909.656738 1334.000000
1911.004272 1221.000000
1912.351074 1228.000000
1913.696289 1350.000000
1915.041260 1311.000000
1916.385498 1332.000000
1917.728882 1362.000000
1919.070923 1272.000000
1920.412720 1365.000000
1921.753662 1353.000000
1923.093872 1219.000000
1924.433105 1332.000000
1925.771362 1324.000000
1927.109009 1190.000000
1928.445923 1250.000000
1929.781982 1306.000000
1931.116821 1292.000000
1932.451294 1255.000000
1933.785034 1232.000000
1935.117920 1381.000000
1936.449341 1204.000000
1937.780884 1123.000000
1939.111084 1269.000000
1940.440796 1281.000000
1941.769653 1201.000000
1943.097290 1317.000000
1944.424438 1310.000000
1945.750854 1301.000000
1947.076538 1261.000000
1948.400879 1259.000000
1949.724976 1297.000000
1951.048218 1259.000000
1952.370728 1207.000000
1953.692139 1110.000000
1955.012573 1182.000000
1956.332397 1202.000000
1957.651855 1126.000000
1958.970337 1230.000000
1960.287476 1148.000000
1961.604248 1200.000000
1962.920288 1240.000000
1964.235596 1288.000000
1965.549438 1105.000000
1966.863037 1232.000000
1968.175903 1157.000000
1969.487915 1217.000000
1970.799316 1119.000000
1972.109375 1122.000000
1973.418945 1100.000000
1974.727783 1138.000000
1976.036011 1117.000000
1977.342896 1134.000000
1978.649170 1183.000000
1979.955078 1148.000000
1981.259766 1099.000000
1982.563965 1034.000000
1983.866943 1091.000000
1985.169556 1130.000000
1986.471191 1144.000000
1987.772217 1061.000000
1989.071655 1008.000000
1990.371216 1070.000000
1991.669678 1073.000000
1992.967651 1036.000000
1994.264038 1106.000000
1995.560425 1041.000000
1996.855835 1060.000000
1998.150513 1019.000000
1999.444336 1109.000000
2000.736938 1035.000000
2002.029053 926.000000
2003.320679 1052.000000
2004.611572 1043.000000
2005.900879 1094.000000
2007.189941 994.000000
2008.478271 992.000000
2009.765869 1000.000000
2011.052612 1063.000000
2012.338257 1016.000000
2013.623535 1001.000000
2014.907837 885.000000
2016.191528 985.000000
2017.473877 973.000000
2018.755859 1011.000000
2020.037354 954.000000
2021.317871 889.000000
2022.597656 911.000000
2023.876343 949.000000
2025.154297 915.000000
2026.431763 861.000000
2027.708618 970.000000
2028.983765 957.000000
2030.259033 998.000000
2031.533325 945.000000
2032.806641 930.000000
2034.079102 916.000000
2035.351196 1103.000000
2036.622192 949.000000
2037.892944 906.000000
2039.162354 1011.000000
2040.430664 891.000000
2041.698975 914.000000
2042.966309 998.000000
2044.232910 969.000000
2045.498291 885.000000
2046.763062 1077.000000
2048.027588 964.000000
2049.291016 1044.000000
2050.553955 910.000000
2051.814941 998.000000
2053.076416 869.000000
2054.336670 905.000000
2055.596191 797.000000
2056.854980 828.000000
2058.112793 936.000000
2059.370117 897.000000
2060.626709 999.000000
2061.881836 998.000000
2063.136963 840.000000
2064.391113 945.000000
2065.644531 930.000000
2066.897217 1027.000000
2068.148682 876.000000
2069.399902 912.000000
2070.650391 834.000000
2071.900146 863.000000
2073.148438 894.000000
2074.396729 820.000000
2075.644043 928.000000
2076.890625 913.000000
2078.136475 925.000000
2079.381104 928.000000
2080.625244 841.000000
2081.868896 827.000000
2083.111572 938.000000
2084.353027 886.000000
2085.594238 896.000000
2086.834961 923.000000
2088.074707 842.000000
2089.313232 908.000000
2090.551270 732.000000
2091.788574 777.000000
2093.025635 822.000000
2094.261230 888.000000
2095.496094 876.000000
2096.730713 804.000000
2097.964355 941.000000
2099.197021 840.000000
2100.428955 764.000000
2101.660400 893.000000
2102.890869 711.000000
2104.120605 674.000000
2105.350098 789.000000
2106.577637 841.000000
2107.805420 827.000000
2109.032471 786.000000
2110.258545 875.000000
2111.483154 850.000000
2112.708008 783.000000
2113.931641 741.000000
2115.154785 752.000000
2116.376709 685.000000
2117.598389 712.000000
2118.819092 770.000000
2120.039063 827.000000
2121.258545 744.000000
2122.476563 905.000000
2123.694580 779.000000
2124.911621 748.000000
2126.128174 741.000000
2127.343018 837.000000
2128.558105 871.000000
2129.772217 777.000000
2130.985596 771.000000
2132.198242 758.000000
2133.409424 746.000000
2134.620850 833.000000
2135.831055 751.000000
2137.040771 771.000000
2138.249023 752.000000
2139.457275 759.000000
2140.664795 738.000000
2141.871094 794.000000
2143.076660 798.000000
2144.281982 681.000000
2145.486328 762.000000
2146.689941 721.000000
2147.893066 779.000000
2149.094727 624.000000
2150.296143 742.000000
2151.496826 767.000000
2152.696777 771.000000
2153.895508 697.000000
2155.093994 749.000000
2156.291992 756.000000
2157.489014 718.000000
2158.685303 682.000000
2159.880371 707.000000
2161.075195 727.000000
2162.269287 660.000000
2163.462402 741.000000
2164.654541 672.000000
2165.846436 735.000000
2167.037598 638.000000
2168.227783 744.000000
2169.417236 654.000000
2170.606201 648.000000
2171.794189 698.000000
2172.981934 648.000000
2174.168213 607.000000
2175.353760 636.000000
2176.539063 705.000000
2177.723877 660.000000
2178.907471 632.000000
2180.090332 679.000000
2181.272217 679.000000
2182.453857 683.000000
2183.635010 704.000000
2184.814941 700.000000
2185.993896 601.000000
2187.172363 610.000000
2188.350586 630.000000
2189.527588 604.000000
2190.703613 593.000000
2191.879395 618.000000
2193.054688 667.000000
2194.228516 727.000000
2195.401855 627.000000
2196.574951 557.000000
2197.746826 587.000000
2198.918213 627.000000
2200.089111 611.000000
2201.258301 643.000000
2202.427490 619.000000
2203.596191 642.000000
2204.763916 553.000000
2205.930664 674.000000
2207.096680 598.000000
2208.262207 637.000000
2209.427490 645.000000
2210.591309 619.000000
2211.754639 648.000000
2212.916748 631.000000
2214.079102 593.000000
2215.240234 539.000000
2216.400391 589.000000
2217.560059 489.000000
2218.719482 577.000000
2219.877686 554.000000
2221.034912 577.000000
2222.191895 658.000000
2223.348145 587.000000
2224.503662 662.000000
2225.658447 567.000000
2226.812256 558.000000
2227.965088 557.000000
2229.118408 654.000000
2230.269775 555.000000
2231.420898 598.000000
2232.571289 608.000000
2233.721191 610.000000
2234.870117 544.000000
2236.018555 594.000000
2237.165527 575.000000
2238.312744 529.000000
2239.458740 567.000000
2240.604492 401.000000
2241.748535 580.000000
2242.892822 638.000000
2244.036133 570.000000
2245.178711 499.000000
2246.320313 511.000000
2247.461670 523.000000
2248.602051 475.000000
2249.741699 496.000000
2250.880859 533.000000
2252.018799 530.000000
2253.156738 478.000000
2254.293701 638.000000
2255.429932 628.000000
2256.565186 489.000000
2257.699707 516.000000
2258.833984 479.000000
2259.967773 563.000000
2261.100098 520.000000
2262.231934 525.000000
2263.363281 531.000000
2264.493652 538.000000
2265.623779 586.000000
2266.752686 448.000000
2267.881104 433.000000
2269.009033 511.000000
2270.135986 476.000000
2271.262207 507.000000
2272.387451 425.000000
2273.512695 471.000000
2274.637207 442.000000
2275.760498 516.000000
2276.883057 522.000000
2278.005127 434.000000
2279.126709 463.000000
2280.247559 504.000000
2281.367188 520.000000
2282.486328 457.000000
2283.605225 492.000000
2284.723389 503.000000
2285.840576 475.000000
2286.956787 427.000000
2288.072754 482.000000
2289.187988 425.000000
2290.302490 418.000000
2291.415771 475.000000
2292.529053 511.000000
2293.641602 552.000000
2294.753418 501.000000
2295.864502 540.000000
2296.974365 511.000000
2298.083740 449.000000
2299.192871 457.000000
2300.301025 506.000000
2301.408203 380.000000
2302.515137 405.000000
2303.621338 462.000000
2304.727051 502.000000
2305.831299 487.000000
2306.935303 447.000000
2308.038818 430.000000
2309.141846 477.000000
2310.243652 436.000000
2311.344727 358.000000
2312.445313 370.000000
2313.545410 509.000000
2314.644775 429.000000
2315.742676 444.000000
2316.841064 448.000000
2317.937988 419.000000
2319.034668 481.000000
2320.130859 503.000000
2321.225342 379.000000
2322.319824 416.000000
2323.413574 421.000000
2324.507080 514.000000
2325.598877 473.000000
2326.690674 382.000000
2327.781738 544.000000
2328.872070 543.000000
2329.961426 581.000000
2331.050781 554.000000
2332.138916 497.000000
2333.226563 532.000000
2334.313965 549.000000
2335.399658 507.000000
2336.485107 375.000000
2337.570313 555.000000
2338.654541 425.000000
2339.737793 405.000000
2340.820801 450.000000
2341.902832 470.000000
2342.984619 407.000000
2344.065674 422.000000
2345.145508 447.000000
2346.224854 300.000000
2347.303711 369.000000
2348.382080 322.000000
2349.458984 400.000000
2350.535645 390.000000
2351.612061 356.000000
2352.687500 395.000000
2353.761963 320.000000
2354.836182 368.000000
2355.909668 400.000000
2356.982666 337.000000
2358.054443 398.000000
2359.125977 389.000000
2360.196533 291.000000
2361.266846 381.000000
2362.336182 378.000000
2363.404541 424.000000
2364.472656 354.000000
2365.540039 323.000000
2366.606934 405.000000
2367.673096 348.000000
2368.738037 331.000000
2369.802979 344.000000
2370.867188 378.000000
2371.930664 358.000000
2372.992920 440.000000
2374.055176 355.000000
2375.116455 480.000000
2376.177490 388.000000
2377.237305 319.000000
2378.296387 296.000000
2379.355469 397.000000
2380.413574 339.000000
2381.470947 328.000000
2382.527344 333.000000
2383.583496 364.000000
2384.639160 294.000000
2385.694092 370.000000
2386.747559 389.000000
2387.801270 355.000000
2388.854004 308.000000
2389.906250 305.000000
2390.957764 425.000000
2392.008301 381.000000
2393.058594 346.000000
2394.107910 325.000000
2395.157227 362.000000
2396.205078 326.000000
2397.252441 379.000000
2398.299561 324.000000
2399.345703 338.000000
2400.391113 200.000000
2401.435791 428.000000
2402.480469 290.000000
2403.523682 343.000000
2404.566895 304.000000
2405.608643 337.000000
2406.650635 316.000000
2407.691895 256.000000
2408.732178 278.000000
2409.771729 452.000000
2410.810303 382.000000
2411.849121 220.000000
2412.886719 335.000000
2413.924072 357.000000
2414.960205 296.000000
2415.996094 368.000000
2417.031250 332.000000
2418.065918 351.000000
2419.099121 214.000000
2420.132568 329.000000
2421.165039 321.000000
2422.197266 300.000000
2423.228027 210.000000
2424.258789 359.000000
2425.289063 254.000000
2426.318115 322.000000
2427.347168 317.000000
2428.374512 280.000000
2429.402344 293.000000
2430.428955 219.000000
2431.455322 255.000000
2432.480225 253.000000
2433.505371 407.000000
2434.529541 335.000000
2435.553467 283.000000
2436.576172 293.000000
2437.598145 295.000000
2438.619873 246.000000
2439.640869 366.000000
2440.661377 273.000000
2441.680664 298.000000
2442.699951 286.000000
2443.718262 292.000000
2444.736328 232.000000
2445.752930 269.000000
2446.769531 259.000000
2447.785400 224.000000
2448.801270 339.000000
2449.815674 316.000000
2450.829346 262.000000
2451.842529 241.000000
2452.855469 249.000000
2453.867676 174.000000
2454.878906 248.000000
2455.889893 320.000000
2456.900146 259.000000
2457.909912 361.000000
2458.918701 369.000000
2459.926758 292.000000
2460.934814 128.000000
2461.941650 242.000000
2462.948242 247.000000
2463.953613 246.000000
2464.958740 280.000000
2465.963623 296.000000
2466.967285 344.000000
2467.970703 310.000000
2468.973145 240.000000
2469.975342 260.000000
2470.977051 125.000000
2471.977783 255.000000
2472.977539 216.000000
2473.977295 168.000000
2474.976074 315.000000
2475.974365 354.000000
2476.971680 215.000000
2477.968750 244.000000
2478.965820 204.000000
2479.961426 307.000000
2480.957031 276.000000
2481.950928 289.000000
2482.944824 176.000000
2483.938232 249.000000
2484.931152 245.000000
2485.923096 276.000000
2486.914307 229.000000
2487.905273 284.000000
2488.895752 286.000000
2489.885254 361.000000
2490.874023 156.000000
2491.862793 242.000000
2492.850586 225.000000
2493.837158 232.000000
2494.823730 410.000000
2495.809814 224.000000
2496.795166 271.000000
2497.779541 182.000000
2498.763672 268.000000
2499.747803 216.000000
2500.730469 172.000000
2501.712646 257.000000
2502.694336 304.000000
2503.675293 216.000000
2504.655762 240.000000
2505.635986 288.000000
2506.614746 267.000000
2507.593262 300.000000
2508.571289 259.000000
2509.548828 268.000000
2510.525391 312.000000
2511.501709 302.000000
2512.477295 232.000000
2513.452393 254.000000
2514.427002 219.000000
2515.400391 200.000000
2516.373535 188.000000
2517.346436 216.000000
2518.318359 196.000000
2519.289551 234.000000
2520.260254 208.000000
2521.230713 143.000000
2522.200439 308.000000
2523.169189 216.000000
2524.137207 159.000000
2525.105225 316.000000
2526.072266 221.000000
2527.039063 217.000000
2528.004639 236.000000
2528.970215 259.000000
2529.935059 163.000000
2530.899414 285.000000
2531.862549 163.000000
2532.825928 172.000000
2533.788330 227.000000
2534.750488 231.000000
2535.711426 186.000000
2536.671631 219.000000
2537.632080 221.000000
2538.591553 189.000000
2539.550293 159.000000
2540.508057 225.000000
2541.466064 195.000000
2542.423340 175.000000
2543.379639 191.000000
2544.335693 189.000000
2545.290527 198.000000
2546.245605 187.000000
2547.199951 113.000000
2548.153564 567.000000
2549.106201 223.000000
2550.058594 140.000000
2551.010498 150.000000
2551.961670 173.000000
2552.912109 307.000000
2553.862061 217.000000
2554.811768 220.000000
2555.760742 144.000000
2556.709229 293.000000
2557.656494 115.000000
2558.603760 183.000000
2559.550293 311.000000
2560.496338 112.000000
2561.441406 54.000000
2562.386230 254.000000
2563.330566 235.000000
2564.274414 155.000000
2565.217773 149.000000
2566.159668 256.000000
2567.101807 168.000000
2568.043213 234.000000
2568.983887 166.000000
2569.923828 243.000000
2570.863770 173.000000
2571.802734 195.000000
2572.741455 140.000000
2573.679199 185.000000
2574.616699 269.000000
2575.553467 125.000000
2576.489502 210.000000
2577.425049 200.000000
2578.359863 173.000000
2579.294678 134.000000
2580.228516 233.000000
2581.161865 208.000000
2582.094482 77.000000
2583.026855 146.000000
2583.958496 144.000000
2584.889648 211.000000
2585.820313 272.000000
2586.749756 189.000000
2587.679199 224.000000
2588.608154 213.000000
2589.536865 101.000000
2590.463867 236.000000
2591.391113 217.000000
2592.317871 205.000000
2593.243896 103.000000
2594.169678 178.000000
2595.094238 116.000000
2596.018555 131.000000
2596.942383 241.000000
2597.865723 123.000000
2598.788086 148.000000
2599.710205 195.000000
2600.631836 115.000000
2601.552734 183.000000
2602.472900 193.000000
2603.392822 144.000000
2604.312256 53.000000
2605.231445 142.000000
2606.149658 202.000000
2607.066650 251.000000
2607.983887 191.000000
2608.900879 186.000000
2609.816895 168.000000
2610.731689 151.000000
2611.646973 113.000000
2612.561523 155.000000
2613.475098 191.000000
2614.388672 276.000000
2615.301025 162.000000
2616.213379 78.000000
2617.124756 138.000000
2618.035889 198.000000
2618.946289 131.000000
2619.856445 149.000000
2620.765869 151.000000
2621.674805 93.000000
2622.582764 220.000000
2623.490967 90.000000
2624.398193 70.000000
2625.304932 147.000000
2626.210938 154.000000
2627.116699 167.000000
2628.021729 231.000000
2628.926514 156.000000
2629.830566 126.000000
2630.733643 160.000000
2631.636719 202.000000
2632.538818 170.000000
2633.440918 155.000000
2634.342773 91.000000
2635.242920 205.000000
2636.143311 172.000000
2637.042969 83.000000
2637.942383 75.000000
2638.840332 118.000000
2639.738770 195.000000
2640.636719 131.000000
2641.533936 143.000000
2642.429932 122.000000
2643.325928 216.000000
2644.221680 202.000000
2645.116699 154.000000
2646.011475 46.000000
2646.904785 168.000000
2647.798096 83.000000
2648.691162 92.000000
2649.583984 127.000000
2650.475098 168.000000
2651.366455 124.000000
2652.257324 99.000000
2653.147461 200.000000
2654.037354 194.000000
2654.926025 145.000000
2655.814941 11.000000
2656.703369 165.000000
2657.590820 44.000000
2658.477295 163.000000
2659.364258 34.000000
2660.250488 75.000000
2661.136230 103.000000
2662.020752 169.000000
2662.905273 54.000000
2663.789551 196.000000
2664.673096 207.000000
2665.556152 182.000000
2666.438477 162.000000
2667.320313 127.000000
2668.201416 188.000000
2669.082764 66.000000
2669.962646 124.000000
2670.842773 128.000000
2671.722168 229.000000
2672.601563 44.000000
2673.480225 108.000000
2674.357178 116.000000
2675.234863 96.000000
2676.111816 66.000000
2676.988037 47.000000
2677.863770 115.000000
2678.738770 113.000000
2679.614014 107.000000
2680.488281 136.000000
2681.362061 135.000000
2682.235107 118.000000
2683.107910 147.000000
2683.980469 190.000000
2684.852295 100.000000
2685.723389 219.000000
2686.594238 65.000000
2687.464600 42.000000
2688.334717 105.000000
2689.203125 72.000000
2690.072266 102.000000
2690.940674 179.000000
2691.808838 164.000000
2692.676270 166.000000
2693.542480 96.000000
2694.409180 124.000000
2695.274902 106.000000
2696.140625 100.000000
2697.004883 260.000000
2697.869873 100.000000
2698.733398 67.000000
2699.597168 93.000000
2700.459473 113.000000
2701.322266 168.000000
2702.184082 25.000000
2703.045410 146.000000
2703.906738 158.000000
2704.766846 118.000000
2705.626953 -24.000000
2706.486572 118.000000
2707.345947 153.000000
2708.203613 73.000000
2709.061523 104.000000
2709.919922 64.000000
2710.777100 147.000000
2711.633545 90.000000
2712.489502 111.000000
2713.345459 53.000000
2714.200684 84.000000
2715.055176 125.000000
2715.909180 151.000000
2716.763184 82.000000
2717.616211 181.000000
2718.469482 41.000000
2719.321045 150.000000
2720.173096 134.000000
2721.024902 124.000000
2721.875488 111.000000
2722.726074 110.000000
2723.576172 37.000000
2724.425537 109.000000
2725.274902 64.000000
2726.123047 151.000000
2726.970703 209.000000
2727.818848 38.000000
2728.665771 118.000000
2729.513184 52.000000
2730.359131 138.000000
2731.204346 -6.000000
2732.050049 195.000000
2732.894775 164.000000
2733.739502 69.000000
2734.583008 164.000000
2735.426758 88.000000
2736.269775 58.000000
2737.112305 161.000000
2737.953857 138.000000
2738.795898 149.000000
2739.636963 60.000000
2740.477783 152.000000
2741.318359 103.000000
2742.157715 148.000000
2742.997070 39.000000
2743.836426 117.000000
2744.674561 -11.000000
2745.512207 114.000000
2746.349854 115.000000
2747.187012 42.000000
2748.023926 63.000000
2748.860352 141.000000
2749.695557 208.000000
2750.531006 147.000000
2751.365967 79.000000
2752.200195 86.000000
2753.034180 106.000000
2753.867676 165.000000
2754.701172 103.000000
2755.533691 -6.000000
2756.365723 133.000000
2757.197266 55.000000
2758.028809 107.000000
2758.859375 31.000000
2759.690186 144.000000
2760.519775 107.000000
2761.349365 147.000000
2762.178711 65.000000
2763.007324 147.000000
2763.835449 72.000000
2764.663086 70.000000
2765.490723 138.000000
2766.317871 78.000000
2767.144287 111.000000
2767.970215 72.000000
2768.795654 113.000000
2769.620850 112.000000
2770.446045 20.000000
2771.270020 138.000000
2772.093994 113.000000
2772.917969 22.000000
2773.740723 8.000000
2774.563721 16.000000
2775.385498 85.000000
2776.207275 -10.000000
2777.029053 109.000000
2777.849854 -12.000000
2778.669922 63.000000
2779.490234 2.000000
2780.310059 36.000000
2781.129883 54.000000
2781.947754 85.000000
2782.766846 37.000000
2783.584717 47.000000
2784.402344 81.000000
2785.219482 177.000000
2786.036133 25.000000
2786.852539 67.000000
2787.668457 58.000000
2788.484131 77.000000
2789.298828 50.000000
2790.114014 70.000000
2790.928467 77.000000
2791.742432 84.000000
2792.556152 53.000000
2793.368652 63.000000
2794.181396 60.000000
2794.993652 13.000000
2795.805420 52.000000
2796.616455 98.000000
2797.428223 58.000000
2798.238770 72.000000
2799.049316 21.000000
2799.858398 92.000000
2800.668213 36.000000
2801.477295 65.000000
2802.286133 35.000000
2803.094482 29.000000
2803.901855 96.000000
2804.709717 8.000000
2805.516846 42.000000
2806.323730 95.000000
2807.129395 13.000000
2807.935547 128.000000
2808.740967 84.000000
2809.546387 31.000000
2810.351074 126.000000
2811.154785 107.000000
2811.958984 67.000000
2812.762695 59.000000
2813.566162 250.000000
2814.368164 49.000000
2815.170898 -54.000000
2815.972900 46.000000
2816.774658 35.000000
2817.575928 24.000000
2818.376709 86.000000
2819.177002 72.000000
2819.977539 128.000000
2820.777100 26.000000
2821.576172 107.000000
2822.375244 155.000000
2823.174072 91.000000
2823.972412 41.000000
2824.769775 41.000000
2825.567383 47.000000
2826.364258 54.000000
2827.161377 30.000000
2827.957764 5.000000
2828.753418 82.000000
2829.549072 27.000000
2830.344482 187.000000
2831.139404 19.000000
2831.933594 18.000000
2832.727783 140.000000
2833.521729 -17.000000
2834.315186 -39.000000
2835.107910 30.000000
2835.900391 33.000000
2836.692871 -12.000000
2837.485107 34.000000
2838.276855 79.000000
2839.067627 176.000000
2839.858398 74.000000
2840.649414 81.000000
2841.439453 63.000000
2842.229004 35.000000
2843.018799 -12.000000
2843.807617 144.000000
2844.596436 18.000000
2845.385254 -7.000000
2846.173096 26.000000
2846.960449 36.000000
2847.748047 8.000000
2848.535156 96.000000
2849.321533 89.000000
2850.107910 135.000000
2850.894043 -1.000000
2851.679688 33.000000
2852.464355 55.000000
2853.249512 114.000000
2854.034424 106.000000
2854.818604 85.000000
2855.602783 93.000000
2856.385742 22.000000
2857.168945 33.000000
2857.951904 104.000000
2858.734375 58.000000
2859.516602 -59.000000
2860.298340 15.000000
2861.079834 77.000000
2861.861572 56.000000
2862.642578 45.000000
2863.422852 95.000000
2864.202881 94.000000
2864.982910 106.000000
2865.762695 -29.000000
2866.541504 94.000000
2867.320557 2.000000
2868.099121 51.000000
2868.877441 55.000000
2869.655273 151.000000
2870.432861 108.000000
2871.210205 84.000000
2871.987305 138.000000
2872.763916 118.000000
2873.540039 118.000000
2874.316162 109.000000
2875.091797 129.000000
2875.867188 84.000000
2876.642090 72.000000
2877.416748 67.000000
2878.191406 70.000000
2878.965820 149.000000
2879.739502 124.000000
2880.512451 99.000000
2881.286133 31.000000
2882.058838 69.000000
2882.831543 58.000000
2883.603516 131.000000
2884.375244 125.000000
2885.147461 107.000000
2885.918457 129.000000
2886.688965 141.000000
2887.459961 22.000000
2888.230957 54.000000
2889.001221 30.000000
2889.770508 98.000000
2890.540039 86.000000
2891.309570 168.000000
2892.078613 68.000000
2892.847168 120.000000
2893.615723 67.000000
2894.383301 113.000000
2895.151367 88.000000
2895.918945 75.000000
2896.686523 104.000000
2897.452881 50.000000
2898.220215 86.000000
2898.986328 120.000000
2899.752686 43.000000
2900.517578 65.000000
2901.282959 131.000000
2902.048828 99.000000
2902.813232 104.000000
2903.577637 34.000000
2904.342285 86.000000
2905.105957 131.000000
2905.870361 63.000000
2906.634033 188.000000
2907.396973 -27.000000
2908.159668 145.000000
2908.922852 62.000000
2909.685547 85.000000
2910.447021 87.000000
2911.208984 87.000000
spectrumdark 2048
-97.021919 6187.000000
-94.395050 6187.000000
-91.770058 6041.000000
-89.146957 6383.000000
-86.525726 5805.000000
-83.906395 6223.000000
-81.288925 6086.000000
-78.673332 6419.000000
-76.059616 6154.000000
-73.447777 5830.000000
-70.837799 6043.000000
-68.229706 5981.000000
-65.623459 5967.000000
-63.019093 5973.000000
-60.416584 6076.000000
-57.815929 5647.000000
-55.217136 6206.000000
-52.620201 6882.000000
-50.025120 6474.000000
-47.431892 6457.000000
-44.840515 6255.000000
-42.250984 6704.000000
-39.663296 5832.000000
-37.077457 5981.000000
-34.493462 6431.000000
-31.911301 5738.000000
-29.330988 6289.000000
-26.752502 5633.000000
-24.175859 6138.000000
-21.601042 6207.000000
-19.028065 6433.000000
-16.456907 6467.000000
-13.887584 6791.000000
-11.320086 7764.000000
-8.754406 6306.000000
-6.190553 6499.000000
-3.628512 5922.000000
-1.068296 5814.000000
1.490112 6165.000000
4.046699 6953.000000
6.601481 6610.000000
9.154447 5932.000000
11.705611 6756.000000
14.254963 6503.000000
16.802519 6682.000000
19.348263 5940.000000
21.892214 5696.000000
24.434361 6597.000000
26.974710 6806.000000
29.513275 6772.000000
32.050041 6160.000000
34.585007 5736.000000
37.118195 7214.000000
39.649601 6373.000000
42.179214 7024.000000
44.707031 6484.000000
47.233089 7869.000000
49.757359 5656.000000
52.279858 6167.000000
54.800560 6684.000000
57.319508 6312.000000
59.836681 6418.000000
62.352077 6569.000000
64.865700 5622.000000
67.377563 5688.000000
69.887680 6496.000000
72.396004 6513.000000
74.902573 5971.000000
77.407394 6364.000000
79.910461 6364.000000
82.411751 6248.000000
84.911301 6107.000000
87.409096 6342.000000
89.905159 5761.000000
92.399445 7204.000000
94.891991 5785.000000
97.382820 6906.000000
99.871880 7157.000000
102.359192 6339.000000
104.844780 6209.000000
107.328629 6350.000000
109.810730 5737.000000
112.291107 6490.000000
114.769760 6162.000000
117.246689 6446.000000
119.721863 7181.000000
122.195328 6803.000000
124.667061 5872.000000
127.137085 6704.000000
129.605347 6276.000000
132.071945 6247.000000
134.536789 5730.000000
136.999939 6164.000000
139.461349 7264.000000
141.921066 6833.000000
144.379059 6343.000000
146.835358 5992.000000
149.289948 5824.000000
151.742813 6757.000000
154.194000 6371.000000
156.643494 6566.000000
159.091263 6064.000000
161.537323 6561.000000
163.981705 8774.000000
166.424408 6362.000000
168.865417 6780.000000
171.304718 6208.000000
173.742310 7235.000000
176.178268 6577.000000
178.612488 6925.000000
181.045029 7017.000000
183.475922 6653.000000
185.905090 7158.000000
188.332611 6706.000000
190.758453 6294.000000
193.182617 6658.000000
195.605118 7099.000000
198.025925 7325.000000
200.445068 6493.000000
202.862549 6049.000000
205.278336 7613.000000
207.692474 7034.000000
210.104980 6386.000000
212.515808 6003.000000
214.924957 6186.000000
217.332474 7387.000000
219.738281 6084.000000
222.142502 6472.000000
224.545013 6694.000000
226.945908 6949.000000
229.345154 6443.000000
231.742737 6817.000000
234.138657 7221.000000
236.532959 6521.000000
238.925598 5807.000000
241.316620 6787.000000
243.705978 6591.000000
246.093719 6394.000000
248.479813 6942.000000
250.864273 6118.000000
253.247086 7819.000000
255.628326 6546.000000
258.007874 6664.000000
260.385834 6453.000000
262.762115 7472.000000
265.136841 7590.000000
267.509918 7856.000000
269.881348 6161.000000
272.251129 6430.000000
274.619354 5833.000000
276.985931 6293.000000
279.350922 6713.000000
281.714294 6034.000000
284.076019 6248.000000
286.436157 7047.000000
288.794678 5978.000000
291.151611 6462.000000
293.506927 6365.000000
295.860657 5952.000000
298.212738 5906.000000
300.563263 6357.000000
302.912201 6264.000000
305.259491 6815.000000
307.605255 6404.000000
309.949341 6453.000000
312.291901 7311.000000
314.632843 7533.000000
316.972168 7182.000000
319.309937 6965.000000
321.646149 8030.000000
323.980713 6235.000000
326.313721 6474.000000
328.645172 6000.000000
330.975037 6574.000000
333.303314 6348.000000
335.629974 7186.000000
337.955139 6276.000000
340.278687 6229.000000
342.600677 6005.000000
344.921112 7472.000000
347.239929 7664.000000
349.557190 5920.000000
351.872925 5830.000000
354.187073 6951.000000
356.499634 6297.000000
358.810638 6432.000000
361.120117 7032.000000
363.428070 6389.000000
365.734406 5675.000000
368.039154 6394.000000
370.342438 6441.000000
372.644104 6265.000000
374.944275 6335.000000
377.242889 6271.000000
379.539948 5728.000000
381.835449 6071.000000
384.129425 5834.000000
386.421814 5203.000000
388.712708 5606.000000
391.002075 6169.000000
393.289856 6242.000000
395.576111 6457.000000
397.860870 6999.000000
400.144012 6056.000000
402.425720 6358.000000
404.705902 6120.000000
406.984497 7207.000000
409.261566 6399.000000
411.537109 6740.000000
413.811127 6473.000000
416.083710 6472.000000
418.354675 6315.000000
420.624146 6399.000000
422.892120 7104.000000
425.158539 7214.000000
427.423462 6265.000000
429.686920 6302.000000
431.948792 6426.000000
434.209198 5961.000000
436.468048 6593.000000
438.725433 6106.000000
440.981323 5684.000000
443.235718 5829.000000
445.488586 5479.000000
447.739899 6870.000000
449.989807 6048.000000
452.238129 6281.000000
454.485016 5622.000000
456.730438 6479.000000
458.974304 6444.000000
461.216675 6801.000000
463.457550 5679.000000
465.697021 6668.000000
467.934906 5414.000000
470.171356 5853.000000
472.406281 6007.000000
474.639740 7414.000000
476.871765 6665.000000
479.102264 5668.000000
481.331268 6455.000000
483.558807 6323.000000
485.784851 5941.000000
488.009460 6522.000000
490.232605 5865.000000
492.454285 6367.000000
494.674408 6643.000000
496.893127 5666.000000
499.110352 6237.000000
501.326202 5487.000000
503.540436 6135.000000
505.753357 6406.000000
507.964691 6405.000000
510.174591 6826.000000
512.383057 6454.000000
514.590149 6506.000000
516.795654 6408.000000
518.999756 6502.000000
521.202332 6173.000000
523.403503 6485.000000
525.603333 6712.000000
527.801636 6949.000000
529.998413 5296.000000
532.193848 5826.000000
534.387756 5522.000000
536.580322 7548.000000
538.771362 6670.000000
540.960999 6008.000000
543.149231 6857.000000
545.335938 7088.000000
547.521179 6828.000000
549.705139 6217.000000
551.887512 6389.000000
554.068542 6106.000000
556.248047 6037.000000
558.426270 5829.000000
560.602966 6003.000000
562.778259 6375.000000
564.952148 6456.000000
567.124573 5814.000000
569.295593 6066.000000
571.465149 6291.000000
573.633423 5243.000000
575.800171 6428.000000
577.965454 6317.000000
580.129333 6140.000000
582.291931 5654.000000
584.453003 6010.000000
586.612671 5589.000000
588.770996 5787.000000
590.927795 6105.000000
593.083252 6580.000000
595.237305 5704.000000
597.390015 6139.000000
599.541199 7155.000000
601.691040 6771.000000
603.839539 6613.000000
605.986450 5929.000000
608.132141 6486.000000
610.276428 6439.000000
612.419250 7031.000000
614.560608 6182.000000
616.700745 6427.000000
618.839355 7636.000000
620.976685 5703.000000
623.112549 6598.000000
625.247009 6828.000000
627.380005 7211.000000
629.511841 6633.000000
631.642212 6578.000000
633.771179 6736.000000
635.898682 6472.000000
638.024902 6195.000000
640.149597 7262.000000
642.273071 6316.000000
644.395203 6809.000000
646.515869 6801.000000
648.635193 6479.000000
650.753113 5645.000000
652.869690 5625.000000
654.984863 6399.000000
657.098694 6451.000000
659.211060 5811.000000
661.322205 6090.000000
663.431946 5367.000000
665.540222 5975.000000
667.647339 6243.000000
669.752991 6751.000000
671.857178 5852.000000
673.960144 5739.000000
676.061707 6966.000000
678.161926 5327.000000
680.260742 6719.000000
682.358215 6224.000000
684.454407 7058.000000
686.549133 6148.000000
688.642639 7007.000000
690.734802 6630.000000
692.825439 7929.000000
694.914856 6612.000000
697.002991 6412.000000
699.089661 6007.000000
701.175110 6660.000000
703.259033 5222.000000
705.341736 5937.000000
707.423157 5888.000000
709.503113 7502.000000
711.581848 6305.000000
713.659119 5481.000000
715.735107 6590.000000
717.809814 6037.000000
719.883240 7017.000000
721.955139 6290.000000
724.025879 7382.000000
726.095276 5753.000000
728.163269 6443.000000
730.229919 6310.000000
732.295349 7029.000000
734.359436 5752.000000
736.422180 6135.000000
738.483582 6506.000000
740.543701 6604.000000
742.602417 5978.000000
744.659912 6604.000000
746.716125 6395.000000
748.770935 6661.000000
750.824463 6368.000000
752.876587 7448.000000
754.927490 5728.000000
756.977173 6718.000000
759.025391 6359.000000
761.072388 6149.000000
763.118103 7036.000000
765.162415 5289.000000
767.205444 5760.000000
769.247253 15118.000000
771.287720 6891.000000
773.326782 6321.000000
775.364685 6103.000000
777.401245 5941.000000
779.436584 5337.000000
781.470581 5750.000000
783.503174 6783.000000
785.534607 5502.000000
787.564636 11530.000000
789.593384 6042.000000
791.620972 6281.000000
793.647217 6307.000000
795.672058 5777.000000
797.695801 5521.000000
799.718140 6357.000000
801.739258 5870.000000
803.759033 6686.000000
805.777527 4866.000000
807.794800 6679.000000
809.810669 6830.000000
811.825378 5680.000000
813.838745 6384.000000
815.850891 6220.000000
817.861816 6047.000000
819.871399 6529.000000
821.879761 5320.000000
823.886719 5685.000000
825.892456 5989.000000
827.896973 5738.000000
829.900208 5639.000000
831.902161 6428.000000
833.902832 6098.000000
835.902283 5914.000000
837.900391 6345.000000
839.897400 6935.000000
841.893005 6232.000000
843.887451 5973.000000
845.880554 6101.000000
847.872437 6794.000000
849.862976 5579.000000
851.852234 6736.000000
853.840454 5931.000000
855.827271 5774.000000
857.812866 6380.000000
859.797180 7250.000000
861.780396 6293.000000
863.762207 6435.000000
865.742798 5813.000000
867.722107 7733.000000
869.700256 7029.000000
871.677063 6142.000000
873.652588 5899.000000
875.627075 6179.000000
877.600098 5995.000000
879.572083 5383.000000
881.542725 6344.000000
883.512207 6062.000000
885.480347 5518.000000
887.447327 5210.000000
889.412964 6054.000000
891.377441 5797.000000
893.340698 5964.000000
895.302734 6456.000000
897.263489 5852.000000
899.223022 6448.000000
901.181274 6683.000000
903.138428 6388.000000
905.094421 5985.000000
907.049011 6852.000000
909.002380 6485.000000
910.954590 6407.000000
912.905579 6316.000000
914.855286 7131.000000
916.803833 6289.000000
918.751160 6142.000000
920.697205 6086.000000
922.641968 6033.000000
924.585693 6234.000000
926.528259 6034.000000
928.469543 5521.000000
930.409485 6377.000000
932.348328 5731.000000
934.285889 5452.000000
936.222229 5996.000000
938.157410 5846.000000
940.091309 6038.000000
942.024109 5883.000000
943.955688 6753.000000
945.886108 5173.000000
947.815308 6400.000000
949.743164 7033.000000
951.669983 6642.000000
953.595520 5882.000000
955.519775 5410.000000
957.442932 5940.000000
959.364929 6618.000000
961.285645 7321.000000
963.205200 6428.000000
965.123596 5320.000000
967.040955 6404.000000
968.956848 6385.000000
970.871643 6114.000000
972.785217 5957.000000
974.697632 6368.000000
976.608826 6444.000000
978.518860 5403.000000
980.427612 6164.000000
982.335327 6131.000000
984.241821 6360.000000
986.147095 5705.000000
988.051270 6790.000000
989.954224 6180.000000
991.855957 6815.000000
993.756531 6600.000000
995.655945 6563.000000
997.554138 5265.000000
999.451172 6501.000000
1001.346985 6538.000000
1003.241638 7704.000000
1005.135193 5610.000000
1007.027466 7059.000000
1008.918823 6078.000000
1010.808838 5301.000000
1012.697632 6588.000000
1014.585266 6261.000000
1016.471741 6935.000000
1018.357056 6717.000000
1020.241211 5919.000000
1022.124146 5848.000000
1024.005981 6182.000000
1025.886597 5159.000000
1027.766113 5827.000000
1029.644653 6070.000000
1031.521851 5408.000000
1033.397705 6169.000000
1035.272583 5879.000000
1037.146484 6571.000000
1039.018921 6985.000000
1040.890381 6680.000000
1042.760498 5479.000000
1044.629639 5439.000000
1046.497559 5738.000000
1048.364380 7134.000000
1050.230103 6684.000000
1052.094604 6491.000000
1053.958008 6394.000000
1055.820068 6397.000000
1057.681152 5861.000000
1059.541138 6433.000000
1061.399780 6703.000000
1063.257324 5789.000000
1065.113770 6731.000000
1066.969116 5915.000000
1068.823242 5758.000000
1070.676514 6198.000000
1072.528320 6307.000000
1074.379150 6142.000000
1076.228760 6079.000000
1078.077148 5720.000000
1079.924683 7932.000000
1081.770874 5575.000000
1083.615845 6156.000000
1085.459961 5426.000000
1087.302734 5476.000000
1089.144287 6500.000000
1090.985107 5482.000000
1092.824341 5733.000000
1094.662842 5977.000000
1096.500000 6097.000000
1098.335938 6817.000000
1100.170898 6520.000000
1102.004639 5375.000000
1103.837402 5599.000000
1105.668823 6122.000000
1107.499390 7283.000000
1109.328613 6481.000000
1111.156860 6414.000000
1112.983887 7079.000000
1114.809937 5440.000000
1116.634766 6291.000000
1118.458496 7123.000000
1120.281006 6093.000000
1122.102417 5891.000000
1123.922974 5872.000000
1125.742065 6598.000000
1127.560303 7047.000000
1129.377197 6875.000000
1131.193237 6671.000000
1133.008057 6460.000000
1134.821777 5584.000000
1136.634399 5770.000000
1138.445801 5674.000000
1140.256226 6106.000000
1142.065552 6680.000000
1143.873535 6984.000000
1145.680786 5905.000000
1147.486572 5944.000000
1149.291504 5380.000000
1151.095337 5320.000000
1152.897949 6120.000000
1154.699707 6046.000000
1156.500000 5965.000000
1158.299316 6088.000000
1160.097656 5865.000000
1161.894653 5409.000000
1163.690918 5880.000000
1165.485840 6087.000000
1167.279663 6353.000000
1169.072632 7695.000000
1170.864258 5746.000000
1172.654907 6457.000000
1174.444580 5979.000000
1176.232788 5818.000000
1178.020142 7458.000000
1179.806396 6832.000000
1181.591553 5731.000000
1183.375610 5911.000000
1185.158569 7717.000000
1186.940552 5800.000000
1188.721313 5900.000000
1190.501099 6271.000000
1192.279785 6907.000000
1194.057495 6615.000000
1195.833984 7124.000000
1197.609375 6580.000000
1199.383667 6478.000000
1201.156860 6690.000000
1202.929199 6431.000000
1204.700195 6672.000000
1206.470337 5720.000000
1208.239258 6144.000000
1210.007080 6348.000000
1211.774048 5706.000000
1213.539673 5868.000000
1215.304321 6945.000000
1217.067871 6524.000000
1218.830322 5900.000000
1220.591919 6692.000000
1222.352295 5889.000000
1224.111572 6295.000000
1225.869995 6072.000000
1227.627197 7053.000000
1229.383301 6453.000000
1231.138306 5515.000000
1232.892456 5990.000000
1234.645264 5793.000000
1236.397095 5955.000000
1238.148071 5978.000000
1239.897705 4910.000000
1241.646484 6972.000000
1243.393921 6439.000000
1245.140625 6583.000000
1246.886108 6468.000000
1248.630737 6408.000000
1250.374023 6752.000000
1252.116333 6615.000000
1253.857544 5343.000000
1255.597900 5025.000000
1257.337158 5788.000000
1259.075195 6585.000000
1260.812378 7070.000000
1262.548340 6095.000000
1264.283325 6446.000000
1266.017334 7204.000000
1267.750366 5951.000000
1269.482178 6165.000000
1271.213013 6430.000000
1272.942627 7265.000000
1274.671387 5953.000000
1276.399048 5639.000000
1278.125610 5571.000000
1279.851318 5505.000000
1281.575684 6426.000000
1283.299194 5182.000000
1285.021729 6810.000000
1286.743286 6558.000000
1288.463623 6058.000000
1290.182983 6629.000000
1291.901245 7225.000000
1293.618530 6389.000000
1295.334839 5701.000000
1297.049927 6373.000000
1298.764038 6075.000000
1300.477173 5778.000000
1302.189453 6431.000000
1303.900513 8334.000000
1305.610596 5226.000000
1307.319580 6210.000000
1309.027344 6597.000000
1310.734497 7054.000000
1312.440186 5788.000000
1314.145142 6820.000000
1315.849121 6124.000000
1317.551880 5954.000000
1319.253662 6560.000000
1320.954590 6056.000000
1322.654175 10036.000000
1324.352905 31389.000000
1326.050903 5557.000000
1327.747559 6457.000000
1329.443115 7072.000000
1331.137817 6820.000000
1332.831299 5695.000000
1334.523926 5322.000000
1336.215698 7158.000000
1337.906128 6253.000000
1339.595825 6596.000000
1341.284424 6046.000000
1342.971924 7600.000000
1344.658447 5644.000000
1346.343872 6775.000000
1348.028320 5981.000000
1349.711914 7217.000000
1351.394287 6381.000000
1353.075684 5916.000000
1354.756226 6486.000000
1356.435547 6614.000000
1358.114258 5867.000000
1359.791626 6635.000000
1361.467896 5777.000000
1363.143188 5544.000000
1364.817749 6572.000000
1366.491089 6463.000000
1368.163452 6810.000000
1369.834839 5142.000000
1371.505249 6752.000000
1373.174561 6109.000000
1374.842896 5614.000000
1376.510376 5989.000000
1378.176758 6476.000000
1379.842163 6144.000000
1381.506592 5814.000000
1383.169800 5945.000000
1384.832397 5659.000000
1386.493652 6345.000000
1388.154053 6509.000000
1389.813354 6385.000000
1391.471680 6439.000000
1393.129272 6815.000000
1394.785645 6470.000000
1396.441162 7014.000000
1398.095459 6342.000000
1399.748901 5850.000000
1401.401245 6062.000000
1403.052856 6464.000000
1404.703247 7185.000000
1406.352539 6269.000000
1408.001099 7508.000000
1409.648560 7856.000000
1411.295044 6136.000000
1412.940674 6203.000000
1414.585327 5958.000000
1416.228760 6977.000000
1417.871338 7141.000000
1419.512817 6865.000000
1421.153442 6378.000000
1422.793091 6380.000000
1424.431641 6015.000000
1426.069336 6606.000000
1427.705933 6302.000000
1429.341553 6005.000000
1430.976440 6344.000000
1432.610229 5862.000000
1434.242920 6053.000000
1435.874634 5649.000000
1437.505493 6055.000000
1439.135254 6080.000000
1440.763916 7804.000000
1442.391968 5962.000000
1444.018921 6227.000000
1445.644653 6178.000000
1447.269775 6100.000000
1448.893799 6540.000000
1450.516846 5981.000000
1452.138916 5963.000000
1453.759888 7332.000000
1455.379883 6244.000000
1456.999146 6853.000000
1458.617065 5650.000000
1460.234375 16538.000000
1461.850708 5472.000000
1463.465820 7225.000000
1465.080078 6230.000000
1466.693481 5209.000000
1468.305786 5584.000000
1469.917236 6308.000000
1471.527832 6346.000000
1473.137207 5973.000000
1474.745605 5934.000000
1476.353149 6208.000000
1477.959717 6613.000000
1479.565552 5273.000000
1481.170166 6251.000000
1482.773926 5528.000000
1484.376465 6581.000000
1485.978394 5558.000000
1487.579102 5483.000000
1489.179077 5554.000000
1490.777954 6280.000000
1492.375977 6435.000000
1493.972900 6665.000000
1495.568970 6343.000000
1497.164063 5973.000000
1498.758179 5492.000000
1500.351563 6582.000000
1501.943848 5514.000000
1503.534912 6114.000000
1505.125488 6743.000000
1506.714722 6448.000000
1508.303345 6129.000000
1509.890869 6468.000000
1511.477295 6853.000000
1513.062988 6151.000000
1514.647583 6625.000000
1516.231323 6234.000000
1517.813965 6117.000000
1519.395874 6603.000000
1520.976685 6646.000000
1522.556763 5966.000000
1524.135620 6209.000000
1525.713623 6391.000000
1527.290894 6278.000000
1528.866943 5620.000000
1530.442261 5920.000000
1532.016479 6354.000000
1533.589966 5474.000000
1535.162231 5908.000000
1536.733765 6360.000000
1538.304321 6349.000000
1539.874023 6233.000000
1541.442505 5397.000000
1543.010254 6536.000000
1544.577148 5589.000000
1546.142822 6746.000000
1547.707764 5942.000000
1549.271606 4930.000000
1550.834839 7440.000000
1552.396729 6286.000000
1553.958008 5944.000000
1555.518188 5685.000000
1557.077637 5656.000000
1558.635986 6040.000000
1560.193604 6220.000000
1561.750122 7005.000000
1563.305420 5834.000000
1564.860107 6324.000000
1566.414063 5604.000000
1567.967041 6313.000000
1569.518677 5663.000000
1571.069580 5897.000000
1572.619751 6184.000000
1574.168945 6360.000000
1575.716797 5750.000000
1577.264160 5542.000000
1578.810547 5674.000000
1580.356079 5060.000000
1581.900635 6609.000000
1583.443970 6356.000000
1584.986694 6585.000000
1586.528564 6444.000000
1588.069336 6741.000000
1589.609131 5786.000000
1591.148193 6717.000000
1592.686157 5874.000000
1594.223633 6092.000000
1595.759766 5894.000000
1597.294800 6649.000000
1598.829346 6199.000000
1600.362915 5956.000000
1601.895630 6016.000000
1603.426758 6268.000000
1604.957642 6263.000000
1606.487671 5718.000000
1608.016479 6104.000000
1609.544189 6129.000000
1611.071289 5997.000000
1612.597656 5835.000000
1614.123047 6236.000000
1615.647583 5788.000000
1617.170776 5738.000000
1618.693237 5651.000000
1620.214966 6574.000000
1621.735840 6897.000000
1623.255249 15537.000000
1624.774170 6205.000000
1626.292358 6055.000000
1627.809692 5892.000000
1629.325928 6399.000000
1630.840820 7022.000000
1632.355225 6767.000000
1633.868896 5730.000000
1635.381470 6832.000000
1636.892822 6023.000000
1638.403809 6449.000000
1639.913696 6239.000000
1641.422729 6116.000000
1642.930420 5585.000000
1644.437744 6110.000000
1645.944214 7163.000000
1647.449707 6239.000000
1648.954346 6812.000000
1650.457520 6127.000000
1651.960083 6536.000000
1653.462280 6319.000000
1654.963135 6666.000000
1656.462891 7612.000000
1657.961792 5910.000000
1659.460327 6504.000000
1660.957642 6166.000000
1662.454224 5828.000000
1663.949219 6500.000000
1665.443970 6349.000000
1666.937866 5184.000000
1668.430786 5681.000000
1669.922363 20341.000000
1671.413452 6493.000000
1672.903931 6066.000000
1674.393311 5993.000000
1675.881226 6947.000000
1677.368896 6858.000000
1678.855591 5998.000000
1680.341431 5349.000000
1681.826416 6063.000000
1683.309937 6094.000000
1684.793213 6149.000000
1686.275635 5900.000000
1687.756958 6230.000000
1689.236816 6234.000000
1690.716431 5560.000000
1692.195313 6543.000000
1693.673218 5993.000000
1695.150146 6101.000000
1696.625854 5692.000000
1698.101196 6004.000000
1699.575317 6322.000000
1701.048828 5515.000000
1702.520874 5570.000000
1703.992676 6917.000000
1705.463501 6329.000000
1706.933472 7092.000000
1708.402100 5155.000000
1709.870239 5804.000000
1711.337646 6366.000000
1712.803955 5491.000000
1714.269653 5729.000000
1715.733643 6143.000000
1717.197510 5925.000000
1718.660522 6909.000000
1720.122559 6326.000000
1721.583374 6603.000000
1723.043579 5434.000000
1724.503052 6307.000000
1725.961670 6134.000000
1727.419312 5985.000000
1728.875610 6239.000000
1730.331665 5992.000000
1731.786743 6455.000000
1733.240845 5964.000000
1734.693726 6943.000000
1736.146362 5870.000000
1737.597900 6680.000000
1739.048706 5990.000000
1740.498535 6528.000000
1741.947021 5902.000000
1743.395142 7377.000000
1744.842407 6520.000000
1746.288940 6677.000000
1747.733887 6656.000000
1749.178589 6104.000000
1750.622437 5975.000000
1752.065430 5428.000000
1753.506958 6502.000000
1754.948242 6317.000000
1756.388672 19321.000000
1757.828125 6198.000000
1759.266602 5220.000000
1760.704102 6089.000000
1762.141113 7503.000000
1763.577148 5906.000000
1765.012329 7101.000000
1766.446045 6148.000000
1767.879639 6442.000000
1769.312256 6670.000000
1770.744019 5780.000000
1772.174927 5803.000000
1773.604614 6385.000000
1775.033569 6197.000000
1776.462036 6264.000000
1777.889526 6676.000000
1779.315674 6231.000000
1780.741577 5619.000000
1782.166382 6826.000000
1783.590576 5544.000000
1785.013306 6660.000000
1786.435547 6538.000000
1787.857056 6879.000000
1789.277832 5965.000000
1790.697632 5992.000000
1792.116089 6185.000000
1793.534058 6816.000000
1794.951416 5503.000000
1796.367920 6027.000000
1797.782959 6540.000000
1799.197632 5842.000000
1800.611694 6613.000000
1802.024536 5999.000000
1803.436768 6935.000000
1804.847656 7136.000000
1806.258057 7776.000000
1807.667725 6475.000000
1809.076416 5858.000000
1810.484009 5342.000000
1811.891113 6404.000000
1813.297363 6341.000000
1814.702637 6706.000000
1816.106812 5960.000000
1817.510620 6004.000000
1818.913452 6261.000000
1820.315430 5947.000000
1821.716797 5849.000000
1823.116699 6397.000000
1824.515991 6505.000000
1825.914795 6530.000000
1827.312744 7423.000000
1828.709351 5686.000000
1830.105347 6738.000000
1831.500610 5855.000000
1832.895264 8089.000000
1834.288940 5955.000000
1835.681274 6821.000000
1837.073120 6353.000000
1838.464355 5891.000000
1839.854614 7106.000000
1841.243652 6010.000000
1842.632324 6099.000000
1844.020020 5963.000000
1845.406982 5827.000000
1846.792603 6908.000000
1848.177979 5861.000000
1849.562500 6386.000000
1850.946289 6271.000000
1852.328979 6322.000000
1853.710449 5424.000000
1855.091431 6523.000000
1856.471924 6284.000000
1857.851440 5718.000000
1859.229492 6009.000000
1860.607422 6177.000000
1861.984375 7854.000000
1863.360596 6056.000000
1864.735962 6056.000000
1866.109863 5570.000000
1867.483643 5694.000000
1868.856567 6188.000000
1870.228394 6004.000000
1871.599243 6904.000000
1872.969727 5440.000000
1874.339111 6041.000000
1875.708008 6085.000000
1877.075317 7148.000000
1878.442505 6033.000000
1879.808716 5985.000000
1881.174194 6847.000000
1882.538940 7499.000000
1883.902100 6684.000000
1885.265137 6867.000000
1886.627319 6338.000000
1887.988647 6479.000000
1889.348633 5615.000000
1890.708252 5753.000000
1892.067261 6066.000000
1893.425293 6601.000000
1894.782471 7259.000000
1896.138428 5891.000000
1897.494141 7594.000000
1898.848877 5828.000000
1900.202759 5570.000000
1901.555542 5911.000000
1902.907837 5859.000000
1904.259399 5929.000000
1905.610107 6844.000000
1906.959595 6552.000000
1908.308594 6599.000000
1909.656738 5782.000000
1911.004272 6207.000000
1912.351074 6309.000000
1913.696289 6804.000000
1915.041260 6047.000000
1916.385498 5413.000000
1917.728882 6415.000000
1919.070923 5983.000000
1920.412720 6652.000000
1921.753662 6919.000000
1923.093872 6191.000000
1924.433105 6246.000000
1925.771362 6234.000000
1927.109009 6545.000000
1928.445923 7034.000000
1929.781982 6726.000000
1931.116821 5560.000000
1932.451294 6705.000000
1933.785034 7259.000000
1935.117920 6184.000000
1936.449341 5753.000000
1937.780884 6337.000000
1939.111084 6639.000000
1940.440796 5714.000000
1941.769653 6121.000000
1943.097290 5738.000000
1944.424438 4982.000000
1945.750854 5799.000000
1947.076538 6477.000000
1948.400879 5738.000000
1949.724976 6625.000000
1951.048218 6317.000000
1952.370728 6430.000000
1953.692139 5830.000000
1955.012573 7377.000000
1956.332397 6006.000000
1957.651855 5587.000000
1958.970337 6800.000000
1960.287476 5892.000000
1961.604248 5786.000000
1962.920288 6537.000000
1964.235596 6523.000000
1965.549438 6268.000000
1966.863037 5561.000000
1968.175903 6176.000000
1969.487915 5966.000000
1970.799316 6079.000000
1972.109375 6308.000000
1973.418945 5851.000000
1974.727783 6157.000000
1976.036011 6569.000000
1977.342896 6082.000000
1978.649170 7193.000000
1979.955078 5523.000000
1981.259766 6327.000000
1982.563965 5923.000000
1983.866943 5693.000000
1985.169556 7494.000000
1986.471191 6066.000000
1987.772217 6787.000000
1989.071655 6103.000000
1990.371216 6570.000000
1991.669678 5224.000000
1992.967651 6060.000000
1994.264038 6107.000000
1995.560425 5742.000000
1996.855835 5556.000000
1998.150513 6504.000000
1999.444336 5656.000000
2000.736938 6479.000000
2002.029053 5781.000000
2003.320679 7120.000000
2004.611572 6324.000000
2005.900879 6161.000000
2007.189941 6806.000000
2008.478271 5982.000000
2009.765869 5984.000000
2011.052612 6596.000000
2012.338257 5586.000000
2013.623535 6328.000000
2014.907837 6000.000000
2016.191528 5556.000000
2017.473877 6013.000000
2018.755859 6481.000000
2020.037354 6748.000000
2021.317871 5921.000000
2022.597656 6096.000000
2023.876343 6759.000000
2025.154297 5870.000000
2026.431763 5988.000000
2027.708618 6230.000000
2028.983765 5749.000000
2030.259033 6571.000000
2031.533325 6021.000000
2032.806641 5981.000000
2034.079102 5933.000000
2035.351196 6050.000000
2036.622192 6958.000000
2037.892944 6643.000000
2039.162354 5931.000000
2040.430664 6943.000000
2041.698975 6640.000000
2042.966309 5876.000000
2044.232910 5974.000000
2045.498291 5651.000000
2046.763062 5803.000000
2048.027588 5369.000000
2049.291016 5777.000000
2050.553955 6397.000000
2051.814941 6106.000000
2053.076416 6119.000000
2054.336670 5894.000000
2055.596191 6486.000000
2056.854980 6254.000000
2058.112793 6829.000000
2059.370117 6203.000000
2060.626709 5948.000000
2061.881836 6445.000000
2063.136963 5669.000000
2064.391113 5558.000000
2065.644531 5635.000000
2066.897217 6740.000000
2068.148682 6287.000000
2069.399902 6259.000000
2070.650391 5624.000000
2071.900146 5423.000000
2073.148438 6120.000000
2074.396729 6535.000000
2075.644043 7378.000000
2076.890625 5584.000000
2078.136475 6011.000000
2079.381104 6952.000000
2080.625244 7614.000000
2081.868896 5509.000000
2083.111572 5989.000000
2084.353027 6906.000000
2085.594238 5896.000000
2086.834961 6312.000000
2088.074707 6743.000000
2089.313232 7030.000000
2090.551270 6208.000000
2091.788574 5812.000000
2093.025635 6624.000000
2094.261230 6014.000000
2095.496094 6193.000000
2096.730713 6112.000000
2097.964355 5561.000000
2099.197021 6073.000000
2100.428955 6852.000000
2101.660400 6366.000000
2102.890869 6797.000000
2104.120605 6035.000000
2105.350098 5986.000000
2106.577637 5988.000000
2107.805420 5956.000000
2109.032471 6258.000000
2110.258545 5455.000000
2111.483154 6345.000000
2112.708008 6912.000000
2113.931641 7057.000000
2115.154785 6268.000000
2116.376709 7563.000000
2117.598389 5994.000000
2118.819092 6856.000000
2120.039063 6018.000000
2121.258545 6121.000000
2122.476563 6523.000000
2123.694580 7001.000000
2124.911621 5696.000000
2126.128174 5825.000000
2127.343018 6518.000000
2128.558105 6278.000000
2129.772217 6919.000000
2130.985596 5677.000000
2132.198242 6067.000000
2133.409424 5797.000000
2134.620850 6485.000000
2135.831055 6598.000000
2137.040771 5918.000000
2138.249023 6170.000000
2139.457275 5671.000000
2140.664795 5870.000000
2141.871094 7620.000000
2143.076660 5896.000000
2144.281982 5724.000000
2145.486328 5531.000000
2146.689941 6288.000000
2147.893066 6149.000000
2149.094727 6492.000000
2150.296143 5309.000000
2151.496826 6235.000000
2152.696777 6048.000000
2153.895508 5955.000000
2155.093994 6888.000000
2156.291992 6138.000000
2157.489014 5974.000000
2158.685303 5157.000000
2159.880371 5266.000000
2161.075195 6096.000000
2162.269287 5565.000000
2163.462402 6012.000000
2164.654541 6922.000000
2165.846436 5868.000000
2167.037598 6301.000000
2168.227783 6219.000000
2169.417236 6512.000000
2170.606201 6804.000000
2171.794189 6004.000000
2172.981934 5715.000000
2174.168213 5991.000000
2175.353760 6592.000000
2176.539063 5976.000000
2177.723877 5881.000000
2178.907471 6363.000000
2180.090332 7442.000000
2181.272217 6305.000000
2182.453857 5928.000000
2183.635010 6510.000000
2184.814941 5638.000000
2185.993896 5589.000000
2187.172363 6339.000000
2188.350586 6896.000000
2189.527588 7208.000000
2190.703613 6748.000000
2191.879395 6050.000000
2193.054688 5547.000000
2194.228516 6609.000000
2195.401855 6189.000000
2196.574951 6165.000000
2197.746826 6413.000000
2198.918213 7086.000000
2200.089111 6306.000000
2201.258301 6866.000000
2202.427490 7534.000000
2203.596191 6218.000000
2204.763916 5965.000000
2205.930664 5633.000000
2207.096680 7168.000000
2208.262207 6649.000000
2209.427490 5964.000000
2210.591309 6726.000000
2211.754639 5362.000000
2212.916748 6181.000000
2214.079102 6191.000000
2215.240234 6692.000000
2216.400391 6645.000000
2217.560059 6308.000000
2218.719482 6611.000000
2219.877686 6346.000000
2221.034912 6345.000000
2222.191895 6683.000000
2223.348145 6572.000000
2224.503662 6735.000000
2225.658447 6301.000000
2226.812256 6386.000000
2227.965088 6082.000000
2229.118408 6900.000000
2230.269775 6207.000000
2231.420898 6171.000000
2232.571289 6477.000000
2233.721191 7657.000000
2234.870117 6305.000000
2236.018555 5198.000000
2237.165527 6803.000000
2238.312744 7094.000000
2239.458740 6063.000000
2240.604492 7306.000000
2241.748535 7300.000000
2242.892822 6595.000000
2244.036133 6141.000000
2245.178711 5994.000000
2246.320313 5724.000000
2247.461670 5809.000000
2248.602051 6427.000000
2249.741699 6442.000000
2250.880859 5781.000000
2252.018799 5828.000000
2253.156738 6210.000000
2254.293701 5235.000000
2255.429932 6241.000000
2256.565186 6127.000000
2257.699707 7260.000000
2258.833984 6369.000000
2259.967773 5355.000000
2261.100098 6122.000000
2262.231934 6787.000000
2263.363281 6253.000000
2264.493652 6411.000000
2265.623779 8047.000000
2266.752686 6692.000000
2267.881104 6103.000000
2269.009033 5498.000000
2270.135986 6119.000000
2271.262207 5927.000000
2272.387451 6752.000000
2273.512695 6522.000000
2274.637207 6404.000000
2275.760498 5926.000000
2276.883057 6402.000000
2278.005127 6001.000000
2279.126709 7416.000000
2280.247559 6373.000000
2281.367188 6392.000000
2282.486328 7128.000000
2283.605225 7671.000000
2284.723389 7188.000000
2285.840576 5863.000000
2286.956787 6457.000000
2288.072754 6972.000000
2289.187988 6866.000000
2290.302490 7413.000000
2291.415771 5786.000000
2292.529053 6322.000000
2293.641602 5953.000000
2294.753418 5357.000000
2295.864502 6758.000000
2296.974365 6416.000000
2298.083740 6141.000000
2299.192871 6658.000000
2300.301025 6271.000000
2301.408203 6776.000000
2302.515137 5901.000000
2303.621338 6214.000000
2304.727051 6557.000000
2305.831299 6563.000000
2306.935303 5453.000000
2308.038818 5751.000000
2309.141846 6508.000000
2310.243652 7410.000000
2311.344727 7391.000000
2312.445313 6659.000000
2313.545410 5486.000000
2314.644775 6341.000000
2315.742676 6452.000000
2316.841064 6971.000000
2317.937988 8227.000000
2319.034668 6805.000000
2320.130859 5726.000000
2321.225342 6865.000000
2322.319824 7611.000000
2323.413574 5819.000000
2324.507080 6014.000000
2325.598877 6437.000000
2326.690674 6946.000000
2327.781738 6102.000000
2328.872070 6206.000000
2329.961426 6928.000000
2331.050781 6039.000000
2332.138916 6268.000000
2333.226563 6820.000000
2334.313965 6449.000000
2335.399658 6664.000000
2336.485107 7751.000000
2337.570313 6240.000000
2338.654541 6720.000000
2339.737793 5907.000000
2340.820801 6397.000000
2341.902832 7022.000000
2342.984619 5968.000000
2344.065674 7457.000000
2345.145508 6630.000000
2346.224854 5710.000000
2347.303711 6796.000000
2348.382080 6588.000000
2349.458984 6282.000000
2350.535645 6992.000000
2351.612061 6029.000000
2352.687500 6380.000000
2353.761963 5973.000000
2354.836182 6316.000000
2355.909668 6737.000000
2356.982666 6150.000000
2358.054443 6992.000000
2359.125977 6222.000000
2360.196533 6825.000000
2361.266846 7518.000000
2362.336182 7537.000000
2363.404541 6789.000000
2364.472656 6701.000000
2365.540039 7062.000000
2366.606934 7069.000000
2367.673096 6075.000000
2368.738037 6887.000000
2369.802979 6978.000000
2370.867188 6305.000000
2371.930664 6910.000000
2372.992920 5795.000000
2374.055176 6294.000000
2375.116455 6277.000000
2376.177490 5910.000000
2377.237305 6249.000000
2378.296387 7895.000000
2379.355469 6381.000000
2380.413574 7607.000000
2381.470947 6948.000000
2382.527344 8015.000000
2383.583496 7762.000000
2384.639160 6235.000000
2385.694092 7006.000000
2386.747559 6736.000000
2387.801270 6542.000000
2388.854004 6336.000000
2389.906250 6798.000000
2390.957764 6092.000000
2392.008301 6613.000000
2393.058594 6488.000000
2394.107910 6196.000000
2395.157227 6149.000000
2396.205078 6881.000000
2397.252441 6962.000000
2398.299561 6276.000000
2399.345703 6701.000000
2400.391113 6231.000000
2401.435791 6666.000000
2402.480469 7740.000000
2403.523682 7489.000000
2404.566895 6550.000000
2405.608643 5734.000000
2406.650635 6693.000000
2407.691895 7149.000000
2408.732178 6162.000000
2409.771729 6336.000000
2410.810303 6317.000000
2411.849121 5979.000000
2412.886719 6495.000000
2413.924072 6852.000000
2414.960205 7336.000000
2415.996094 6202.000000
2417.031250 6259.000000
2418.065918 6630.000000
2419.099121 7285.000000
2420.132568 6468.000000
2421.165039 6684.000000
2422.197266 6775.000000
2423.228027 7081.000000
2424.258789 6307.000000
2425.289063 6849.000000
2426.318115 6889.000000
2427.347168 6614.000000
2428.374512 7382.000000
2429.402344 6723.000000
2430.428955 7331.000000
2431.455322 6943.000000
2432.480225 7725.000000
2433.505371 6477.000000
2434.529541 7038.000000
2435.553467 6718.000000
2436.576172 5799.000000
2437.598145 6306.000000
2438.619873 6638.000000
2439.640869 6620.000000
2440.661377 5985.000000
2441.680664 6479.000000
2442.699951 6572.000000
2443.718262 8408.000000
2444.736328 6261.000000
2445.752930 6495.000000
2446.769531 6527.000000
2447.785400 5961.000000
2448.801270 6965.000000
2449.815674 6807.000000
2450.829346 5543.000000
2451.842529 7239.000000
2452.855469 5982.000000
2453.867676 7194.000000
2454.878906 6711.000000
2455.889893 7614.000000
2456.900146 6318.000000
2457.909912 7561.000000
2458.918701 5888.000000
2459.926758 5955.000000
2460.934814 6368.000000
2461.941650 7360.000000
2462.948242 5410.000000
2463.953613 7397.000000
2464.958740 6927.000000
2465.963623 5844.000000
2466.967285 6477.000000
2467.970703 6320.000000
2468.973145 7595.000000
2469.975342 7311.000000
2470.977051 6936.000000
2471.977783 6595.000000
2472.977539 6909.000000
2473.977295 6778.000000
2474.976074 5651.000000
2475.974365 6473.000000
2476.971680 7022.000000
2477.968750 6110.000000
2478.965820 6936.000000
2479.961426 5778.000000
2480.957031 7127.000000
2481.950928 6645.000000
2482.944824 8104.000000
2483.938232 6828.000000
2484.931152 6753.000000
2485.923096 7479.000000
2486.914307 7243.000000
2487.905273 6712.000000
2488.895752 5809.000000
2489.885254 6459.000000
2490.874023 6511.000000
2491.862793 5663.000000
2492.850586 6804.000000
2493.837158 6595.000000
2494.823730 7863.000000
2495.809814 6747.000000
2496.795166 7067.000000
2497.779541 8037.000000
2498.763672 6014.000000
2499.747803 6871.000000
2500.730469 5735.000000
2501.712646 6983.000000
2502.694336 6846.000000
2503.675293 7240.000000
2504.655762 6506.000000
2505.635986 5674.000000
2506.614746 6282.000000
2507.593262 7553.000000
2508.571289 6709.000000
2509.548828 7064.000000
2510.525391 6033.000000
2511.501709 5917.000000
2512.477295 6379.000000
2513.452393 6195.000000
2514.427002 6421.000000
2515.400391 7623.000000
2516.373535 6811.000000
2517.346436 6882.000000
2518.318359 6087.000000
2519.289551 6803.000000
2520.260254 6918.000000
2521.230713 7835.000000
2522.200439 8005.000000
2523.169189 6095.000000
2524.137207 6143.000000
2525.105225 7725.000000
2526.072266 6283.000000
2527.039063 5446.000000
2528.004639 7214.000000
2528.970215 6958.000000
2529.935059 7783.000000
2530.899414 6279.000000
2531.862549 6348.000000
2532.825928 5857.000000
2533.788330 5916.000000
2534.750488 6658.000000
2535.711426 6359.000000
2536.671631 6100.000000
2537.632080 6126.000000
2538.591553 6745.000000
2539.550293 6816.000000
2540.508057 6702.000000
2541.466064 6208.000000
2542.423340 6780.000000
2543.379639 6086.000000
2544.335693 7121.000000
2545.290527 6172.000000
2546.245605 7648.000000
2547.199951 7041.000000
2548.153564 6368.000000
2549.106201 7202.000000
2550.058594 6793.000000
2551.010498 6981.000000
2551.961670 6379.000000
2552.912109 7668.000000
2553.862061 7345.000000
2554.811768 7339.000000
2555.760742 6659.000000
2556.709229 6191.000000
2557.656494 7116.000000
2558.603760 6262.000000
2559.550293 6503.000000
2560.496338 6759.000000
2561.441406 7443.000000
2562.386230 6681.000000
2563.330566 7120.000000
2564.274414 6858.000000
2565.217773 6650.000000
2566.159668 6523.000000
2567.101807 6507.000000
2568.043213 6124.000000
2568.983887 7168.000000
2569.923828 7300.000000
2570.863770 5686.000000
2571.802734 6139.000000
2572.741455 7481.000000
2573.679199 7180.000000
2574.616699 5377.000000
2575.553467 6985.000000
2576.489502 6779.000000
2577.425049 7507.000000
2578.359863 6397.000000
2579.294678 5991.000000
2580.228516 7043.000000
2581.161865 7194.000000
2582.094482 5906.000000
2583.026855 6915.000000
2583.958496 5470.000000
2584.889648 7046.000000
2585.820313 6913.000000
2586.749756 6845.000000
2587.679199 7207.000000
2588.608154 6432.000000
2589.536865 7633.000000
2590.463867 7295.000000
2591.391113 5915.000000
2592.317871 6738.000000
2593.243896 6296.000000
2594.169678 5618.000000
2595.094238 7646.000000
2596.018555 7642.000000
2596.942383 5317.000000
2597.865723 7308.000000
2598.788086 6264.000000
2599.710205 6841.000000
2600.631836 8344.000000
2601.552734 6382.000000
2602.472900 5745.000000
2603.392822 6356.000000
2604.312256 6407.000000
2605.231445 6416.000000
2606.149658 5808.000000
2607.066650 5946.000000
2607.983887 7273.000000
2608.900879 5906.000000
2609.816895 7556.000000
2610.731689 6677.000000
2611.646973 6637.000000
2612.561523 6518.000000
2613.475098 6505.000000
2614.388672 6037.000000
2615.301025 7583.000000
2616.213379 7046.000000
2617.124756 6804.000000
2618.035889 5702.000000
2618.946289 7263.000000
2619.856445 6678.000000
2620.765869 6161.000000
2621.674805 6672.000000
2622.582764 6188.000000
2623.490967 6842.000000
2624.398193 6677.000000
2625.304932 7034.000000
2626.210938 6001.000000
2627.116699 6601.000000
2628.021729 6477.000000
2628.926514 7794.000000
2629.830566 6496.000000
2630.733643 6391.000000
2631.636719 6367.000000
2632.538818 5575.000000
2633.440918 6725.000000
2634.342773 6993.000000
2635.242920 6670.000000
2636.143311 6343.000000
2637.042969 6459.000000
2637.942383 6010.000000
2638.840332 6862.000000
2639.738770 6672.000000
2640.636719 6379.000000
2641.533936 6062.000000
2642.429932 6169.000000
2643.325928 6837.000000
2644.221680 6005.000000
2645.116699 6418.000000
2646.011475 6668.000000
2646.904785 7043.000000
2647.798096 6295.000000
2648.691162 6762.000000
2649.583984 6401.000000
2650.475098 7413.000000
2651.366455 6403.000000
2652.257324 7598.000000
2653.147461 7253.000000
2654.037354 6535.000000
2654.926025 7234.000000
2655.814941 6647.000000
2656.703369 6581.000000
2657.590820 7335.000000
2658.477295 6459.000000
2659.364258 7077.000000
2660.250488 6846.000000
2661.136230 6846.000000
2662.020752 6486.000000
2662.905273 6422.000000
2663.789551 6167.000000
2664.673096 6988.000000
2665.556152 7748.000000
2666.438477 7281.000000
2667.320313 6197.000000
2668.201416 6579.000000
2669.082764 6109.000000
2669.962646 6565.000000
2670.842773 7374.000000
2671.722168 7119.000000
2672.601563 6355.000000
2673.480225 6162.000000
2674.357178 6394.000000
2675.234863 6761.000000
2676.111816 6418.000000
2676.988037 8103.000000
2677.863770 7181.000000
2678.738770 6244.000000
2679.614014 7727.000000
2680.488281 6981.000000
2681.362061 7346.000000
2682.235107 6958.000000
2683.107910 6216.000000
2683.980469 6019.000000
2684.852295 6927.000000
2685.723389 6468.000000
2686.594238 6896.000000
2687.464600 7116.000000
2688.334717 6678.000000
2689.203125 6298.000000
2690.072266 7400.000000
2690.940674 7044.000000
2691.808838 6656.000000
2692.676270 6821.000000
2693.542480 5876.000000
2694.409180 7116.000000
2695.274902 7352.000000
2696.140625 7177.000000
2697.004883 7822.000000
2697.869873 6577.000000
2698.733398 7253.000000
2699.597168 5820.000000
2700.459473 7438.000000
2701.322266 6805.000000
2702.184082 5918.000000
2703.045410 6839.000000
2703.906738 6716.000000
2704.766846 7365.000000
2705.626953 7371.000000
2706.486572 6572.000000
2707.345947 6806.000000
2708.203613 7136.000000
2709.061523 6827.000000
2709.919922 7327.000000
2710.777100 6713.000000
2711.633545 5952.000000
2712.489502 6860.000000
2713.345459 6110.000000
2714.200684 6890.000000
2715.055176 6103.000000
2715.909180 6825.000000
2716.763184 7281.000000
2717.616211 6189.000000
2718.469482 6620.000000
2719.321045 7751.000000
2720.173096 6775.000000
2721.024902 6295.000000
2721.875488 6514.000000
2722.726074 6377.000000
2723.576172 7110.000000
2724.425537 7030.000000
2725.274902 6966.000000
2726.123047 6604.000000
2726.970703 6462.000000
2727.818848 7021.000000
2728.665771 6837.000000
2729.513184 5577.000000
2730.359131 7413.000000
2731.204346 6985.000000
2732.050049 6323.000000
2732.894775 6958.000000
2733.739502 7310.000000
2734.583008 6874.000000
2735.426758 7755.000000
2736.269775 7062.000000
2737.112305 5976.000000
2737.953857 6189.000000
2738.795898 6756.000000
2739.636963 6907.000000
2740.477783 5765.000000
2741.318359 5892.000000
2742.157715 7719.000000
2742.997070 6856.000000
2743.836426 6862.000000
2744.674561 6822.000000
2745.512207 7817.000000
2746.349854 6283.000000
2747.187012 7153.000000
2748.023926 6220.000000
2748.860352 5913.000000
2749.695557 6595.000000
2750.531006 6266.000000
2751.365967 6371.000000
2752.200195 6221.000000
2753.034180 6862.000000
2753.867676 6762.000000
2754.701172 8024.000000
2755.533691 6779.000000
2756.365723 7218.000000
2757.197266 6841.000000
2758.028809 7036.000000
2758.859375 7204.000000
2759.690186 7190.000000
2760.519775 7248.000000
2761.349365 6622.000000
2762.178711 7309.000000
2763.007324 6800.000000
2763.835449 6801.000000
2764.663086 6932.000000
2765.490723 6613.000000
2766.317871 7879.000000
2767.144287 5792.000000
2767.970215 7483.000000
2768.795654 6828.000000
2769.620850 7798.000000
2770.446045 7143.000000
2771.270020 6733.000000
2772.093994 6522.000000
2772.917969 7645.000000
2773.740723 6664.000000
2774.563721 6983.000000
2775.385498 6862.000000
2776.207275 6964.000000
2777.029053 6466.000000
2777.849854 7940.000000
2778.669922 6535.000000
2779.490234 7001.000000
2780.310059 7285.000000
2781.129883 6436.000000
2781.947754 5884.000000
2782.766846 8043.000000
2783.584717 6559.000000
2784.402344 6730.000000
2785.219482 7052.000000
2786.036133 7205.000000
2786.852539 7186.000000
2787.668457 6223.000000
2788.484131 5937.000000
2789.298828 6393.000000
2790.114014 6950.000000
2790.928467 7129.000000
2791.742432 6563.000000
2792.556152 7431.000000
2793.368652 8755.000000
2794.181396 6932.000000
2794.993652 7459.000000
2795.805420 7182.000000
2796.616455 7283.000000
2797.428223 6550.000000
2798.238770 7265.000000
2799.049316 7051.000000
2799.858398 7364.000000
2800.668213 8183.000000
2801.477295 7796.000000
2802.286133 6671.000000
2803.094482 7203.000000
2803.901855 6168.000000
2804.709717 6486.000000
2805.516846 6952.000000
2806.323730 6934.000000
2807.129395 7171.000000
2807.935547 6624.000000
2808.740967 6440.000000
2809.546387 7361.000000
2810.351074 6125.000000
2811.154785 7642.000000
2811.958984 7449.000000
2812.762695 6325.000000
2813.566162 5942.000000
2814.368164 6294.000000
2815.170898 7357.000000
2815.972900 7783.000000
2816.774658 6170.000000
2817.575928 6560.000000
2818.376709 7205.000000
2819.177002 6466.000000
2819.977539 6635.000000
2820.777100 7985.000000
2821.576172 7137.000000
2822.375244 6403.000000
2823.174072 6813.000000
2823.972412 6362.000000
2824.769775 7066.000000
2825.567383 7414.000000
2826.364258 6651.000000
2827.161377 7382.000000
2827.957764 7985.000000
2828.753418 6968.000000
2829.549072 7328.000000
2830.344482 7563.000000
2831.139404 7409.000000
2831.933594 6666.000000
2832.727783 6765.000000
2833.521729 5668.000000
2834.315186 6963.000000
2835.107910 7147.000000
2835.900391 8112.000000
2836.692871 7694.000000
2837.485107 7528.000000
2838.276855 6398.000000
2839.067627 6727.000000
2839.858398 8816.000000
2840.649414 7460.000000
2841.439453 6229.000000
2842.229004 7636.000000
2843.018799 7198.000000
2843.807617 7276.000000
2844.596436 7833.000000
2845.385254 7767.000000
2846.173096 7508.000000
2846.960449 7204.000000
2847.748047 7493.000000
2848.535156 7299.000000
2849.321533 6627.000000
2850.107910 7401.000000
2850.894043 7249.000000
2851.679688 7526.000000
2852.464355 7107.000000
2853.249512 6898.000000
2854.034424 7402.000000
2854.818604 7167.000000
2855.602783 6913.000000
2856.385742 8303.000000
2857.168945 6844.000000
2857.951904 6704.000000
2858.734375 7759.000000
2859.516602 6287.000000
2860.298340 6663.000000
2861.079834 7569.000000
2861.861572 7460.000000
2862.642578 7594.000000
2863.422852 6550.000000
2864.202881 6742.000000
2864.982910 8110.000000
2865.762695 7485.000000
2866.541504 8053.000000
2867.320557 7688.000000
2868.099121 6805.000000
2868.877441 7017.000000
2869.655273 7182.000000
2870.432861 6943.000000
2871.210205 7492.000000
2871.987305 6942.000000
2872.763916 6430.000000
2873.540039 7417.000000
2874.316162 7138.000000
2875.091797 8244.000000
2875.867188 7213.000000
2876.642090 6649.000000
2877.416748 8051.000000
2878.191406 6745.000000
2878.965820 7777.000000
2879.739502 6807.000000
2880.512451 7239.000000
2881.286133 6770.000000
2882.058838 7626.000000
2882.831543 7894.000000
2883.603516 8215.000000
2884.375244 6223.000000
2885.147461 6828.000000
2885.918457 6845.000000
2886.688965 6116.000000
2887.459961 8274.000000
2888.230957 7343.000000
2889.001221 7993.000000
2889.770508 7634.000000
2890.540039 6996.000000
2891.309570 7148.000000
2892.078613 7407.000000
2892.847168 7830.000000
2893.615723 7701.000000
2894.383301 6956.000000
2895.151367 6596.000000
2895.918945 7363.000000
2896.686523 8308.000000
2897.452881 7362.000000
2898.220215 6481.000000
2898.986328 7184.000000
2899.752686 6998.000000
2900.517578 8292.000000
2901.282959 6965.000000
2902.048828 6447.000000
2902.813232 7752.000000
2903.577637 7693.000000
2904.342285 8360.000000
2905.105957 6650.000000
2905.870361 8450.000000
2906.634033 6637.000000
2907.396973 8414.000000
2908.159668 6440.000000
2908.922852 9156.000000
2909.685547 6961.000000
2910.447021 6827.000000
2911.208984 6827.000000
