scanname Analyse022
timestamp 2017-02-10 20:23:51
ccdbias 904.336914
ccdgain 3.473401
sigmaread 8.960639
laserwavenum -0.536207
wavenumcorrection -0.013243
scancount 1
totalexposurems 10000
singleexposurems 10000
measurementstate Unknown
scanmode Manual
snr 246.647552 6.656128 5.808868
replacelist 4
374 47872.000000 15058.000000
383 47772.000000 12165.000000
672 38036.000000 30910.000000
673 33068.000000 5597.000000
peaks 45
278.249939 0.688368 0.000000 1.603725 0.000196
287.658051 0.687874 0.000000 0.795495 0.000043
301.089813 0.688982 0.000000 0.168220 0.000022
329.848541 0.703962 0.000000 0.815023 0.000137
342.643555 0.707345 0.000000 0.697454 0.000032
350.558258 0.710868 0.000000 0.573490 0.000022
360.740173 0.714602 0.000000 0.705666 0.000061
386.282257 0.716559 0.000000 1.328097 0.000289
463.005676 0.727169 0.000000 0.573233 0.000031
492.062225 0.736514 0.000000 0.988639 0.000046
534.056091 0.736162 0.000000 0.637256 0.000143
559.362000 0.766370 0.000000 1.169998 0.000208
569.238037 0.773413 0.000000 1.198758 0.000075
575.518921 0.771505 0.000000 0.497633 0.000045
584.126953 0.768799 0.000000 0.797557 0.000115
660.673279 0.777549 0.000000 1.102924 0.000106
673.374390 0.776734 0.000000 1.255520 0.000243
715.624084 0.778635 0.000000 5.227201 0.001061
741.893372 0.770658 0.000000 1.184834 0.000088
752.977234 0.772796 0.000000 0.533609 0.000031
765.027832 0.790255 0.000000 1.651693 0.000483
779.651672 0.779395 0.000000 0.966274 0.000152
830.386230 0.755383 0.000000 0.977752 0.000157
852.863342 0.767024 0.000000 0.809316 0.000221
874.326355 0.766826 0.000000 2.027591 0.000403
940.214783 0.758749 0.000000 1.221795 0.000208
954.915833 0.758334 0.000000 3.576520 0.000979
1028.429810 0.741371 0.000000 0.843355 0.000178
1036.390991 0.738470 0.000000 0.481624 0.000038
1044.939453 0.748673 0.000000 3.395590 0.001022
1101.904175 0.716845 0.000000 1.226139 0.000350
1121.072876 0.724181 0.000000 0.686958 0.000174
1135.937256 0.726405 0.000000 1.821314 0.000708
1149.960205 0.718359 0.000000 1.816927 0.000698
1172.161499 0.705165 0.000000 0.618964 0.000256
1212.302612 0.704898 0.000000 0.582465 0.000088
1236.542969 0.710764 0.000000 0.832399 0.000513
1259.781128 0.713164 0.000000 2.011651 0.000586
1277.601929 0.693214 0.000000 0.349336 0.000382
1319.574219 0.788845 0.000000 19.479605 0.006645
1381.741943 0.682519 0.000000 0.131129 0.000043
1454.923584 0.721274 0.000000 8.452348 0.003566
1611.971436 0.639140 0.000000 1.167177 0.000296
1662.951782 0.649609 0.000000 5.546237 0.002319
1747.682739 0.600730 0.000000 1.905910 0.000733
finalresult GLS_NoMatch 0
spectrum 2048
-97.065247 45721.000000
-94.438377 45721.000000
-91.813385 46336.000000
-89.190285 46281.000000
-86.569054 46968.000000
-83.949722 46801.000000
-81.332253 47133.000000
-78.716660 46864.000000
-76.102943 47137.000000
-73.491104 47447.000000
-70.881126 47353.000000
-68.273033 47469.000000
-65.666786 47568.000000
-63.062416 47626.000000
-60.459908 47451.000000
-57.859253 47942.000000
-55.260460 47422.000000
-52.663525 46696.000000
-50.068443 47148.000000
-47.475216 46978.000000
-44.883839 47340.000000
-42.294308 46772.000000
-39.706619 47656.000000
-37.120781 47375.000000
-34.536785 47040.000000
-31.954628 47773.000000
-29.374315 47148.000000
-26.795830 47816.000000
-24.219187 47334.000000
-21.644369 47144.000000
-19.071392 46955.000000
-16.500235 46865.000000
-13.930911 46608.000000
-11.363413 45476.000000
-8.797733 46936.000000
-6.233880 46729.000000
-3.671839 47127.000000
-1.111623 47264.000000
1.446785 46689.000000
4.003372 45884.000000
6.558154 46062.000000
9.111119 46491.000000
11.662284 45488.000000
14.211636 45338.000000
16.759192 44663.000000
19.304935 44884.000000
21.848886 44454.000000
24.391033 42131.000000
26.931383 39877.000000
29.469948 37066.000000
32.006718 33040.000000
34.541683 23547.000000
37.074871 13978.000000
39.606277 9194.000000
42.135891 8375.000000
44.663708 8075.000000
47.189766 7051.000000
49.714035 6207.000000
52.236534 5549.000000
54.757236 5329.000000
57.276184 5322.000000
59.793358 6254.000000
62.308754 7783.000000
64.822372 8003.000000
67.334236 7954.000000
69.844353 6575.000000
72.352676 4360.000000
74.859245 3522.000000
77.364067 2915.000000
79.867134 2479.000000
82.368423 2238.000000
84.867973 2097.000000
87.365768 2124.000000
89.861832 2449.000000
92.356117 3051.000000
94.848663 3464.000000
97.339493 3082.000000
99.828552 2583.000000
102.315865 2034.000000
104.801453 1725.000000
107.285301 1720.000000
109.767403 1595.000000
112.247780 1430.000000
114.726433 1425.000000
117.203362 1394.000000
119.678535 1388.000000
122.152000 1447.000000
124.623734 1337.000000
127.093758 1571.000000
129.562027 1633.000000
132.028625 1792.000000
134.493469 2059.000000
136.956619 2247.000000
139.418030 2697.000000
141.877747 3146.000000
144.335739 4083.000000
146.792038 5038.000000
149.246628 6150.000000
151.699493 7430.000000
154.150681 9187.000000
156.600174 11210.000000
159.047943 13304.000000
161.494003 15660.000000
163.938385 17452.000000
166.381088 19965.000000
168.822098 22048.000000
171.261398 24605.000000
173.698990 25091.000000
176.134949 26569.000000
178.569168 27063.000000
181.001709 27711.000000
183.432602 29230.000000
185.861771 30182.000000
188.289291 32618.000000
190.715134 34983.000000
193.139297 35682.000000
195.561798 36279.000000
197.982605 36912.000000
200.401749 38721.000000
202.819229 40163.000000
205.235016 39691.000000
207.649155 41341.000000
210.061661 42735.000000
212.472488 43429.000000
214.881638 43666.000000
217.289154 42849.000000
219.694962 44361.000000
222.099182 44246.000000
224.501694 44231.000000
226.902588 44112.000000
229.301834 44670.000000
231.699417 44342.000000
234.095337 43967.000000
236.489639 44791.000000
238.882278 45125.000000
241.273300 44508.000000
243.662659 44745.000000
246.050400 44971.000000
248.436493 44410.000000
250.820953 45278.000000
253.203766 43387.000000
255.585007 44783.000000
257.964539 44690.000000
260.342499 44772.000000
262.718781 43776.000000
265.093506 43769.000000
267.466583 43451.000000
269.838013 45139.000000
272.207794 44876.000000
274.576019 45401.000000
276.942596 44950.000000
279.307587 44837.000000
281.670959 45231.000000
284.032684 45033.000000
286.392822 44173.000000
288.751343 45349.000000
291.108276 44691.000000
293.463593 44826.000000
295.817322 45354.000000
298.169403 45266.000000
300.519928 44918.000000
302.868866 44779.000000
305.216156 44417.000000
307.561920 44764.000000
309.906006 44673.000000
312.248566 43776.000000
314.589508 43597.000000
316.928833 44035.000000
319.266602 44252.000000
321.602814 43077.000000
323.937378 44868.000000
326.270386 44631.000000
328.601837 45138.000000
330.931702 44520.000000
333.259979 44678.000000
335.586639 43872.000000
337.911804 44775.000000
340.235352 44941.000000
342.557343 45141.000000
344.877777 43648.000000
347.196594 43400.000000
349.513855 45158.000000
351.829590 45434.000000
354.143738 44202.000000
356.456299 44864.000000
358.767303 44756.000000
361.076782 44105.000000
363.384735 44749.000000
365.691071 45608.000000
367.995819 44584.000000
370.299103 44779.000000
372.600769 44897.000000
374.900940 44891.000000
377.199554 44951.000000
379.496613 45268.000000
381.792114 45157.000000
384.086090 45362.000000
386.378479 46050.000000
388.669373 45723.000000
390.958740 45044.000000
393.246521 45038.000000
395.532776 44868.000000
397.817535 44311.000000
400.100677 45227.000000
402.382385 44900.000000
404.662567 45159.000000
406.941162 44081.000000
409.218231 44878.000000
411.493774 44473.000000
413.767792 44665.000000
416.040375 44698.000000
418.311340 44746.000000
420.580811 44752.000000
422.848785 44078.000000
425.115204 43918.000000
427.380127 44735.000000
429.643585 44769.000000
431.905457 44595.000000
434.165863 45068.000000
436.424713 44417.000000
438.682098 44802.000000
440.937988 45306.000000
443.192383 45139.000000
445.445251 45481.000000
447.696564 44014.000000
449.946472 44841.000000
452.194794 44621.000000
454.441681 45221.000000
456.687103 44354.000000
458.930969 44339.000000
461.173340 44290.000000
463.414215 45215.000000
465.653687 44149.000000
467.891571 45375.000000
470.128021 44990.000000
472.362946 44745.000000
474.596405 43511.000000
476.828430 44122.000000
479.058929 45109.000000
481.287933 44327.000000
483.515472 44497.000000
485.741516 44898.000000
487.966125 44304.000000
490.189270 44945.000000
492.410950 44497.000000
494.631073 44230.000000
496.849792 45273.000000
499.067017 44660.000000
501.282867 45331.000000
503.497101 44815.000000
505.710022 44427.000000
507.921356 44454.000000
510.131256 44072.000000
512.339722 44481.000000
514.546814 44313.000000
516.752319 44426.000000
518.956421 44212.000000
521.158997 44584.000000
523.360168 44235.000000
525.559998 44058.000000
527.758301 43757.000000
529.955078 45332.000000
532.150513 44756.000000
534.344421 45086.000000
536.536987 43031.000000
538.728027 43863.000000
540.917664 44516.000000
543.105896 43567.000000
545.292603 43284.000000
547.477844 43529.000000
549.661804 44005.000000
551.844177 43863.000000
554.025208 44051.000000
556.204712 44172.000000
558.382935 44254.000000
560.559631 44162.000000
562.734924 43778.000000
564.908813 43790.000000
567.081238 44249.000000
569.252258 44205.000000
571.421814 43868.000000
573.590088 44915.000000
575.756836 43809.000000
577.922119 43813.000000
580.085999 44123.000000
582.248596 44536.000000
584.409668 44333.000000
586.569336 44569.000000
588.727661 44450.000000
590.884460 44250.000000
593.039917 43776.000000
595.193970 44594.000000
597.346680 44193.000000
599.497864 43076.000000
601.647705 43577.000000
603.796204 43568.000000
605.943115 44219.000000
608.088806 43690.000000
610.233093 43668.000000
612.375916 43139.000000
614.517273 43892.000000
616.657410 43534.000000
618.796021 42233.000000
620.933350 44215.000000
623.069214 43199.000000
625.203674 42923.000000
627.336670 42448.000000
629.468506 42906.000000
631.598877 42934.000000
633.727844 42671.000000
635.855347 43006.000000
637.981567 43171.000000
640.106262 41920.000000
642.229736 42748.000000
644.351868 42365.000000
646.472534 42368.000000
648.591858 42562.000000
650.709778 43476.000000
652.826355 43380.000000
654.941528 42575.000000
657.055359 42600.000000
659.167725 43243.000000
661.278870 42921.000000
663.388611 43676.000000
665.496887 43094.000000
667.604004 42859.000000
669.709656 42306.000000
671.813843 43461.000000
673.916809 43452.000000
676.018372 42071.000000
678.118591 43874.000000
680.217407 42456.000000
682.314880 42929.000000
684.411072 42320.000000
686.505798 42807.000000
688.599304 42111.000000
690.691467 42407.000000
692.782104 41153.000000
694.871521 42357.000000
696.959656 42474.000000
699.046326 42821.000000
701.131775 42103.000000
703.215698 43530.000000
705.298401 42673.000000
707.379822 42612.000000
709.459778 40814.000000
711.538513 42110.000000
713.615784 42677.000000
715.691772 41630.000000
717.766479 42200.000000
719.839905 41160.000000
721.911804 41900.000000
723.982544 40663.000000
726.051941 42168.000000
728.119934 41295.000000
730.186584 41401.000000
732.252014 40672.000000
734.316101 41834.000000
736.378845 41385.000000
738.440247 41013.000000
740.500366 40977.000000
742.559082 41456.000000
744.616577 40864.000000
746.672791 40986.000000
748.727600 40806.000000
750.781128 41093.000000
752.833252 40027.000000
754.884155 41712.000000
756.933838 40724.000000
758.982056 41087.000000
761.029053 41326.000000
763.074768 40554.000000
765.119080 42296.000000
767.162109 41876.000000
769.203918 41274.000000
771.244385 40672.000000
773.283447 41048.000000
775.321350 41267.000000
777.357910 41444.000000
779.393250 42111.000000
781.427246 41876.000000
783.459839 40848.000000
785.491272 42253.000000
787.521301 41991.000000
789.550049 41729.000000
791.577637 41084.000000
793.603882 41069.000000
795.628723 41541.000000
797.652466 41734.000000
799.674805 40881.000000
801.695923 41364.000000
803.715698 40363.000000
805.734192 42075.000000
807.751465 40152.000000
809.767334 39894.000000
811.782043 40899.000000
813.795410 39970.000000
815.807556 39974.000000
817.818481 39951.000000
819.828064 39304.000000
821.836426 40414.000000
823.843384 39883.000000
825.849121 39469.000000
827.853638 39710.000000
829.856873 39716.000000
831.858826 38875.000000
833.859497 39230.000000
835.858948 39213.000000
837.857056 38792.000000
839.854065 38109.000000
841.849670 38837.000000
843.844116 38885.000000
845.837219 38682.000000
847.829102 38017.000000
849.819641 39226.000000
851.808899 37882.000000
853.797119 38762.000000
855.783936 38991.000000
857.769531 38374.000000
859.753845 37608.000000
861.737061 38556.000000
863.718872 38468.000000
865.699463 39010.000000
867.678772 37243.000000
869.656921 37832.000000
871.633728 38816.000000
873.609253 38824.000000
875.583740 38829.000000
877.556763 38926.000000
879.528748 39588.000000
881.499390 38432.000000
883.468872 38732.000000
885.437012 39141.000000
887.403992 39440.000000
889.369629 38403.000000
891.334106 38616.000000
893.297363 38411.000000
895.259399 37903.000000
897.220154 38385.000000
899.179688 37735.000000
901.137939 37367.000000
903.095093 37591.000000
905.051086 37826.000000
907.005676 36867.000000
908.959045 37117.000000
910.911255 37102.000000
912.862244 36837.000000
914.811951 35993.000000
916.760498 36547.000000
918.707825 36465.000000
920.653870 36275.000000
922.598633 36063.000000
924.542358 35630.000000
926.484924 35677.000000
928.426208 35883.000000
930.366150 34942.000000
932.304993 35571.000000
934.242554 35816.000000
936.178894 35450.000000
938.114075 35710.000000
940.047974 35524.000000
941.980774 35787.000000
943.912354 34995.000000
945.842773 36691.000000
947.771973 35592.000000
949.699829 35072.000000
951.626648 35502.000000
953.552185 36250.000000
955.476440 36859.000000
957.399597 36405.000000
959.321594 35808.000000
961.242310 35356.000000
963.161865 36116.000000
965.080261 37171.000000
966.997620 36115.000000
968.913513 36179.000000
970.828308 36416.000000
972.741882 36647.000000
974.654297 36166.000000
976.565491 36023.000000
978.475525 36993.000000
980.384277 36197.000000
982.291992 36145.000000
984.198486 35889.000000
986.103760 36549.000000
988.007935 35435.000000
989.910889 35914.000000
991.812622 35174.000000
993.713196 35298.000000
995.612610 34966.000000
997.510803 35994.000000
999.407837 34680.000000
1001.303650 34372.000000
1003.198303 33061.000000
1005.091858 34721.000000
1006.984131 32788.000000
1008.875488 33703.000000
1010.765503 34285.000000
1012.654297 33025.000000
1014.541931 33266.000000
1016.428406 32776.000000
1018.313721 32749.000000
1020.197876 33391.000000
1022.080811 33466.000000
1023.962708 33060.000000
1025.843262 34068.000000
1027.722778 33481.000000
1029.601318 33391.000000
1031.478516 34087.000000
1033.354370 33484.000000
1035.229248 33928.000000
1037.103149 33301.000000
1038.975586 32798.000000
1040.847046 33086.000000
1042.717163 34183.000000
1044.586304 34300.000000
1046.454224 34318.000000
1048.321045 33313.000000
1050.186768 33797.000000
1052.051270 34093.000000
1053.914673 34139.000000
1055.776733 34104.000000
1057.637817 34562.000000
1059.497803 33986.000000
1061.356445 33862.000000
1063.213989 34610.000000
1065.070435 33799.000000
1066.925781 34553.000000
1068.779907 34556.000000
1070.633179 34113.000000
1072.484985 34035.000000
1074.335815 33947.000000
1076.185425 34130.000000
1078.033813 34412.000000
1079.881348 32291.000000
1081.727539 34306.000000
1083.572510 33437.000000
1085.416626 34141.000000
1087.259399 33884.000000
1089.100952 32770.000000
1090.941772 33565.000000
1092.781006 33038.000000
1094.619507 32795.000000
1096.456665 32668.000000
1098.292603 31747.000000
1100.127563 31610.000000
1101.961304 32356.000000
1103.794067 32019.000000
1105.625488 31628.000000
1107.456055 30622.000000
1109.285278 31041.000000
1111.113525 30817.000000
1112.940552 30057.000000
1114.766602 31543.000000
1116.591431 30772.000000
1118.415161 30018.000000
1120.237671 31082.000000
1122.059082 31334.000000
1123.879639 31410.000000
1125.698730 31015.000000
1127.516968 30544.000000
1129.333862 30643.000000
1131.149902 30884.000000
1132.964722 31164.000000
1134.778442 31973.000000
1136.591064 31843.000000
1138.402466 32202.000000
1140.212891 31960.000000
1142.022217 31495.000000
1143.830200 31235.000000
1145.637451 32038.000000
1147.443237 31873.000000
1149.248169 32264.000000
1151.052002 32346.000000
1152.854614 31617.000000
1154.656372 31717.000000
1156.456665 31561.000000
1158.255981 31436.000000
1160.054321 31524.000000
1161.851318 31741.000000
1163.647583 31254.000000
1165.442505 31046.000000
1167.236328 30663.000000
1169.029297 29204.000000
1170.820923 30837.000000
1172.611572 29879.000000
1174.401245 30451.000000
1176.189453 30563.000000
1177.976807 29049.000000
1179.763062 29498.000000
1181.548218 30330.000000
1183.332275 30125.000000
1185.115234 28462.000000
1186.897217 30143.000000
1188.677979 29940.000000
1190.457764 29396.000000
1192.236450 28854.000000
1194.014160 29076.000000
1195.790649 28270.000000
1197.566040 28531.000000
1199.340332 28407.000000
1201.113525 28043.000000
1202.885864 27999.000000
1204.656860 27709.000000
1206.427002 28662.000000
1208.195923 28109.000000
1209.963745 27959.000000
1211.730713 28461.000000
1213.496338 28397.000000
1215.260986 27396.000000
1217.024536 27874.000000
1218.786987 28342.000000
1220.548584 27549.000000
1222.308960 28347.000000
1224.068237 27820.000000
1225.826660 28201.000000
1227.583862 27216.000000
1229.339966 28010.000000
1231.094971 28850.000000
1232.849121 28412.000000
1234.601929 28738.000000
1236.353760 28692.000000
1238.104736 28760.000000
1239.854370 29816.000000
1241.603149 27975.000000
1243.350586 28669.000000
1245.097290 28347.000000
1246.842773 28332.000000
1248.587402 28376.000000
1250.330688 27769.000000
1252.072998 27657.000000
1253.814209 28579.000000
1255.554565 28676.000000
1257.293823 27984.000000
1259.031860 27341.000000
1260.769043 26870.000000
1262.505005 27926.000000
1264.239990 27860.000000
1265.973999 27233.000000
1267.707031 28598.000000
1269.438843 28405.000000
1271.169678 28207.000000
1272.899292 27464.000000
1274.628052 28611.000000
1276.355713 28731.000000
1278.082275 28798.000000
1279.807983 28871.000000
1281.532349 28029.000000
1283.255859 29246.000000
1284.978394 27662.000000
1286.699951 27976.000000
1288.420288 28023.000000
1290.139648 27594.000000
1291.857910 26920.000000
1293.575195 27620.000000
1295.291504 28209.000000
1297.006592 27571.000000
1298.720703 27804.000000
1300.433838 27953.000000
1302.146118 27240.000000
1303.857178 25418.000000
1305.567261 28095.000000
1307.276245 27028.000000
1308.984009 26873.000000
1310.691162 26673.000000
1312.396851 27975.000000
1314.101807 27174.000000
1315.805786 28295.000000
1317.508545 28930.000000
1319.210327 28925.000000
1320.911255 30007.000000
1322.610840 27895.000000
1324.309570 27683.000000
1326.007568 16364.500000
1327.704224 25603.000000
1329.399780 25070.000000
1331.094482 25042.000000
1332.787964 25523.000000
1334.480591 25846.000000
1336.172363 24382.000000
1337.862793 25128.000000
1339.552490 24775.000000
1341.241089 25330.000000
1342.928589 24135.000000
1344.615112 25405.000000
1346.300537 24572.000000
1347.984985 25394.000000
1349.668579 24511.000000
1351.350952 25273.000000
1353.032349 25709.000000
1354.712891 25504.000000
1356.392212 25423.000000
1358.070923 26182.000000
1359.748291 25778.000000
1361.424561 26310.000000
1363.099854 26629.000000
1364.774414 25823.000000
1366.447754 25916.000000
1368.120117 25472.000000
1369.791504 26848.000000
1371.461914 25334.000000
1373.131226 25942.000000
1374.799561 26227.000000
1376.467041 25956.000000
1378.133423 25676.000000
1379.798828 25681.000000
1381.463257 25689.000000
1383.126465 25494.000000
1384.789063 25712.000000
1386.450317 25196.000000
1388.110718 24910.000000
1389.770020 24902.000000
1391.428345 24875.000000
1393.085938 24693.000000
1394.742310 24915.000000
1396.397827 24499.000000
1398.052124 24864.000000
1399.705566 25105.000000
1401.357910 25031.000000
1403.009521 24966.000000
1404.659912 24202.000000
1406.309204 24556.000000
1407.957764 23494.000000
1409.605225 22982.000000
1411.251709 23380.000000
1412.897339 23312.000000
1414.541992 23536.000000
1416.185425 23043.000000
1417.828003 22904.000000
1419.469482 22788.000000
1421.110107 22872.000000
1422.749756 22863.000000
1424.388306 22970.000000
1426.026001 22668.000000
1427.662598 22587.000000
1429.298218 22616.000000
1430.933105 22362.000000
1432.566895 22456.000000
1434.199585 22237.000000
1435.831299 22305.000000
1437.462158 22395.000000
1439.091919 22691.000000
1440.720581 21836.000000
1442.348633 22454.000000
1443.975586 22435.000000
1445.601318 22466.000000
1447.226440 22626.000000
1448.850464 22597.000000
1450.473511 22860.000000
1452.095581 23010.000000
1453.716553 22689.000000
1455.336548 23800.000000
1456.955811 24211.000000
1458.573730 26627.000000
1460.191040 18556.000000
1461.807373 23133.000000
1463.422485 22476.000000
1465.036743 22614.000000
1466.650146 23165.000000
1468.262451 23263.000000
1469.873901 22994.000000
1471.484497 22895.000000
1473.093872 22919.000000
1474.702271 22935.000000
1476.309814 23182.000000
1477.916382 22676.000000
1479.522217 23290.000000
1481.126831 22690.000000
1482.730591 22634.000000
1484.333130 21819.000000
1485.935059 21548.000000
1487.535767 21484.000000
1489.135742 21300.000000
1490.734619 20892.000000
1492.332642 21274.000000
1493.929565 21055.000000
1495.525635 21892.000000
1497.120728 22543.000000
1498.714844 22552.000000
1500.308228 22264.000000
1501.900513 22342.000000
1503.491577 22120.000000
1505.082153 21866.000000
1506.671387 21803.000000
1508.260010 21895.000000
1509.847534 21560.000000
1511.433960 21348.000000
1513.019653 21388.000000
1514.604248 21259.000000
1516.187988 21306.000000
1517.770630 21396.000000
1519.352539 21283.000000
1520.933350 21380.000000
1522.513428 21166.000000
1524.092285 20708.000000
1525.670288 20612.000000
1527.247559 20466.000000
1528.823608 20480.000000
1530.398926 20556.000000
1531.973145 20264.000000
1533.546631 20369.000000
1535.118896 20352.000000
1536.690430 20247.000000
1538.260986 20053.000000
1539.830688 20112.000000
1541.399170 20081.000000
1542.966919 19965.000000
1544.533813 19930.000000
1546.099487 19714.000000
1547.664429 19916.000000
1549.228271 19918.000000
1550.791504 19618.000000
1552.353394 19452.000000
1553.914673 19553.000000
1555.474854 19684.000000
1557.034302 19688.000000
1558.592651 19476.000000
1560.150269 19320.000000
1561.706787 19334.000000
1563.262085 19432.000000
1564.816772 19396.000000
1566.370728 19464.000000
1567.923706 19240.000000
1569.475342 19576.000000
1571.026245 19480.000000
1572.576416 19449.000000
1574.125610 19668.000000
1575.673462 19589.000000
1577.220825 19500.000000
1578.767212 19580.000000
1580.312744 19722.000000
1581.857300 19613.000000
1583.400635 19594.000000
1584.943359 19528.000000
1586.485229 19575.000000
1588.026001 19356.000000
1589.565796 19574.000000
1591.104858 19253.000000
1592.642822 19373.000000
1594.180298 19062.000000
1595.716431 19179.000000
1597.251465 19207.000000
1598.786011 19058.000000
1600.319580 19145.000000
1601.852295 19009.000000
1603.383423 19186.000000
1604.914307 19403.000000
1606.444336 19341.000000
1607.973145 18926.000000
1609.500854 18973.000000
1611.027954 19120.000000
1612.554321 19290.000000
1614.079712 19174.000000
1615.604248 19040.000000
1617.127441 19010.000000
1618.649902 18988.000000
1620.171631 19137.000000
1621.692505 21000.000000
1623.211914 16024.000000
1624.730835 18828.000000
1626.249023 18928.000000
1627.766357 18682.000000
1629.282593 18615.000000
1630.797485 18517.000000
1632.311890 18588.000000
1633.825562 18404.000000
1635.338135 18320.000000
1636.849487 18230.000000
1638.360474 18089.000000
1639.870361 18239.000000
1641.379395 18340.000000
1642.887085 18140.000000
1644.394409 18088.000000
1645.900879 17990.000000
1647.406372 17983.000000
1648.911011 17804.000000
1650.414185 17968.000000
1651.916748 17675.000000
1653.418945 17664.000000
1654.919800 17466.000000
1656.419556 17387.000000
1657.918457 17383.000000
1659.416992 17406.000000
1660.914307 17373.000000
1662.410889 17377.000000
1663.905884 17310.000000
1665.400635 17031.000000
1666.894531 17016.000000
1668.387451 20911.000000
1669.879028 11181.000000
1671.370117 16524.000000
1672.860596 16529.000000
1674.349976 16571.000000
1675.837891 16411.000000
1677.325562 16586.000000
1678.812256 16695.000000
1680.298096 16769.000000
1681.783081 16506.000000
1683.266602 16165.000000
1684.749878 16124.000000
1686.232300 16190.000000
1687.713623 16129.000000
1689.193481 16085.000000
1690.673096 16134.000000
1692.151978 16107.000000
1693.629883 15648.000000
1695.106812 15991.000000
1696.582520 16017.000000
1698.057861 16003.000000
1699.531982 16014.000000
1701.005493 15979.000000
1702.477539 16006.000000
1703.949341 16042.000000
1705.420166 16186.000000
1706.890137 16033.000000
1708.358765 16202.000000
1709.826904 16173.000000
1711.294312 16096.000000
1712.760620 16081.000000
1714.226318 16043.000000
1715.690308 16101.000000
1717.154175 16126.000000
1718.617188 15935.000000
1720.079224 16054.000000
1721.540039 16006.000000
1723.000244 16109.000000
1724.459717 16041.000000
1725.918335 16031.000000
1727.375977 15933.000000
1728.832275 15956.000000
1730.288330 16109.000000
1731.743408 15834.000000
1733.197510 15951.000000
1734.650391 15890.000000
1736.103027 15924.000000
1737.554565 15774.000000
1739.005371 15836.000000
1740.455200 15870.000000
1741.903687 15716.000000
1743.351807 15527.000000
1744.799072 15452.000000
1746.245605 15433.000000
1747.690552 15397.000000
1749.135254 15431.000000
1750.579102 15374.000000
1752.022095 15388.000000
1753.463623 15211.000000
1754.904907 17685.000000
1756.345337 11886.000000
1757.784790 15101.000000
1759.223267 15172.000000
1760.660767 14977.000000
1762.097778 14626.000000
1763.533813 14825.000000
1764.968994 14715.000000
1766.402710 14783.000000
1767.836304 15115.000000
1769.268921 14932.000000
1770.700684 15101.000000
1772.131592 15011.000000
1773.561279 14902.000000
1774.990234 14491.000000
1776.418701 14343.000000
1777.846191 13890.000000
1779.272339 13262.000000
1780.698242 14181.000000
1782.123047 14153.000000
1783.547241 14073.000000
1784.969971 14064.000000
1786.392212 13967.000000
1787.813721 13977.000000
1789.234497 13993.000000
1790.654297 13706.000000
1792.072754 13697.000000
1793.490723 13618.000000
1794.908081 13858.000000
1796.324585 13674.000000
1797.739624 13508.000000
1799.154297 13631.000000
1800.568359 13471.000000
1801.981201 13713.000000
1803.393433 13492.000000
1804.804321 13451.000000
1806.214722 13394.000000
1807.624390 13403.000000
1809.033081 13463.000000
1810.440674 13511.000000
1811.847778 13354.000000
1813.254028 13439.000000
1814.659302 13491.000000
1816.063477 13541.000000
1817.467285 13634.000000
1818.870117 13576.000000
1820.272095 13499.000000
1821.673462 13461.000000
1823.073364 13443.000000
1824.472656 13528.000000
1825.871460 13407.000000
1827.269409 13302.000000
1828.666016 13358.000000
1830.062012 13181.000000
1831.457275 13328.000000
1832.851929 13122.000000
1834.245605 13256.000000
1835.637939 13289.000000
1837.029785 13309.000000
1838.421021 13356.000000
1839.811279 13372.000000
1841.200317 13169.000000
1842.588989 13189.000000
1843.976685 13205.000000
1845.363647 13240.000000
1846.749268 12973.000000
1848.134644 13118.000000
1849.519165 12953.000000
1850.902954 13078.000000
1852.285645 12816.000000
1853.667114 12959.000000
1855.048096 12671.000000
1856.428589 12701.000000
1857.808105 12744.000000
1859.186157 12729.000000
1860.564087 12658.000000
1861.941040 12610.000000
1863.317261 12515.000000
1864.692627 12475.000000
1866.066528 12430.000000
1867.440308 12263.000000
1868.813232 12253.000000
1870.185059 12085.000000
1871.555908 12182.000000
1872.926392 12007.000000
1874.295776 12127.000000
1875.664673 11911.000000
1877.031982 11942.000000
1878.399170 11916.000000
1879.765381 11829.000000
1881.130859 11807.000000
1882.495605 11750.000000
1883.858765 11780.000000
1885.221802 11819.000000
1886.583984 11770.000000
1887.945313 11695.000000
1889.305298 11680.000000
1890.664917 11661.000000
1892.023926 11627.000000
1893.381958 11421.000000
1894.739136 11431.000000
1896.095093 11457.000000
1897.450806 11318.000000
1898.805542 11426.000000
1900.159424 11477.000000
1901.512207 11489.000000
1902.864502 11513.000000
1904.216064 11628.000000
1905.566772 11511.000000
1906.916260 11526.000000
1908.265259 11523.000000
1909.613403 11574.000000
1910.960938 11448.000000
1912.307739 11425.000000
1913.652954 11429.000000
1914.997925 11527.000000
1916.342163 11509.000000
1917.685547 11577.000000
1919.027588 11526.000000
1920.369385 11453.000000
1921.710327 11410.000000
1923.050537 11546.000000
1924.389771 11478.000000
1925.728027 11497.000000
1927.065674 11529.000000
1928.402588 11383.000000
1929.738647 11380.000000
1931.073486 11347.000000
1932.407959 11331.000000
1933.741699 11201.000000
1935.074585 11234.000000
1936.406006 11168.000000
1937.737549 11053.000000
1939.067749 11029.000000
1940.397461 11054.000000
1941.726318 11104.000000
1943.053955 11157.000000
1944.381104 11054.000000
1945.707520 11195.000000
1947.033203 11104.000000
1948.357544 10983.000000
1949.681641 11058.000000
1951.004883 10885.000000
1952.327393 10967.000000
1953.648804 10811.000000
1954.969238 10747.000000
1956.289063 10783.000000
1957.608521 10803.000000
1958.927002 10670.000000
1960.244141 10794.000000
1961.560913 10646.000000
1962.876953 10554.000000
1964.192261 10585.000000
1965.506104 10507.000000
1966.819702 10475.000000
1968.132568 10423.000000
1969.444580 10581.000000
1970.755981 10522.000000
1972.066040 10426.000000
1973.375610 10277.000000
1974.684448 10082.000000
1975.992676 10231.000000
1977.299561 10065.000000
1978.605835 10075.000000
1979.911743 10155.000000
1981.216431 10224.000000
1982.520630 10045.000000
1983.823608 10102.000000
1985.126221 10089.000000
1986.427856 9878.000000
1987.728882 9881.000000
1989.028320 9898.000000
1990.327881 9817.000000
1991.626343 9779.000000
1992.924316 9584.000000
1994.220703 9661.000000
1995.517090 9641.000000
1996.812500 9673.000000
1998.107178 9510.000000
1999.401001 9492.000000
2000.693604 9402.000000
2001.985718 9379.000000
2003.277344 9286.000000
2004.568237 9268.000000
2005.857544 9436.000000
2007.146606 9448.000000
2008.434937 9275.000000
2009.722534 9331.000000
2011.009277 9203.000000
2012.294922 9228.000000
2013.580200 9173.000000
2014.864502 9190.000000
2016.148193 9142.000000
2017.430542 9042.000000
2018.712524 9068.000000
2019.994019 9159.000000
2021.274536 9104.000000
2022.554321 9137.000000
2023.833008 9080.000000
2025.110962 9084.000000
2026.388428 9070.000000
2027.665283 9069.000000
2028.940430 9171.000000
2030.215698 9176.000000
2031.489990 9131.000000
2032.763306 9189.000000
2034.035767 9153.000000
2035.307861 9275.000000
2036.578857 9193.000000
2037.849609 9115.000000
2039.119019 9275.000000
2040.387329 9214.000000
2041.655640 9126.000000
2042.922974 9142.000000
2044.189575 9010.000000
2045.454956 9125.000000
2046.719727 8752.000000
2047.984253 9012.000000
2049.247559 8917.000000
2050.510498 8996.000000
2051.771484 8975.000000
2053.032959 8851.000000
2054.293213 8675.000000
2055.552734 8847.000000
2056.811523 8709.000000
2058.069336 8771.000000
2059.326660 8806.000000
2060.583252 8698.000000
2061.838379 8773.000000
2063.093506 8769.000000
2064.347656 8723.000000
2065.601074 8552.000000
2066.853760 8584.000000
2068.105225 8478.000000
2069.356445 8427.000000
2070.606934 8717.000000
2071.856689 8672.000000
2073.104980 8431.000000
2074.353271 8489.000000
2075.600586 8470.000000
2076.847168 8530.000000
2078.093018 8395.000000
2079.337646 8370.000000
2080.581787 8327.000000
2081.825439 8265.000000
2083.068115 8377.000000
2084.309570 8070.000000
2085.550781 8152.000000
2086.791504 8158.000000
2088.031250 8137.000000
2089.269775 8153.000000
2090.507813 8076.000000
2091.745117 8163.000000
2092.982178 7960.000000
2094.217773 7973.000000
2095.452637 8070.000000
2096.687256 8112.000000
2097.920898 8079.000000
2099.153564 8048.000000
2100.385498 7899.000000
2101.616943 7872.000000
2102.847412 7816.000000
2104.077148 7862.000000
2105.306641 7827.000000
2106.534180 7770.000000
2107.761963 7696.000000
2108.989014 7580.000000
2110.215088 7676.000000
2111.439697 7617.000000
2112.664551 7537.000000
2113.888184 7471.000000
2115.111328 7481.000000
2116.333252 7535.000000
2117.554932 7665.000000
2118.775635 7534.000000
2119.995605 7654.000000
2121.215088 7601.000000
2122.433105 7599.000000
2123.651123 7554.000000
2124.868164 7616.000000
2126.084717 7647.000000
2127.299561 7662.000000
2128.514648 7583.000000
2129.728760 7537.000000
2130.942139 7513.000000
2132.154785 7341.000000
2133.365967 7571.000000
2134.577393 7681.000000
2135.787598 7510.000000
2136.997314 7435.000000
2138.205566 7495.000000
2139.413818 7526.000000
2140.621338 7389.000000
2141.827637 7188.000000
2143.033203 7343.000000
2144.238525 7426.000000
2145.442871 7435.000000
2146.646484 7446.000000
2147.849609 7359.000000
2149.051270 7351.000000
2150.252686 7448.000000
2151.453369 7262.000000
2152.653320 7328.000000
2153.852051 7214.000000
2155.050537 7334.000000
2156.248535 7331.000000
2157.445557 7152.000000
2158.641846 7093.000000
2159.836914 7096.000000
2161.031738 7035.000000
2162.225830 6978.000000
2163.418945 6953.000000
2164.611084 6922.000000
2165.802979 6924.000000
2166.994141 6986.000000
2168.184326 6857.000000
2169.373779 6738.000000
2170.562744 6655.000000
2171.750732 6731.000000
2172.938477 6535.000000
2174.124756 6433.000000
2175.310303 6416.000000
2176.495605 6479.000000
2177.680420 6422.000000
2178.864014 6387.000000
2180.046875 6369.000000
2181.228760 6412.000000
2182.410400 6467.000000
2183.591553 6285.000000
2184.771484 6426.000000
2185.950439 6330.000000
2187.128906 6339.000000
2188.307129 6299.000000
2189.484131 6302.000000
2190.660156 6360.000000
2191.835938 6235.000000
2193.011230 6327.000000
2194.185059 6278.000000
2195.358398 6281.000000
2196.531494 6465.000000
2197.703369 6331.000000
2198.874756 6381.000000
2200.045654 6356.000000
2201.214844 6398.000000
2202.384033 6366.000000
2203.552734 6291.000000
2204.720459 6450.000000
2205.887207 6305.000000
2207.053223 6317.000000
2208.218750 6359.000000
2209.384033 6306.000000
2210.547852 6317.000000
2211.711182 6238.000000
2212.873291 6157.000000
2214.035645 6267.000000
2215.196777 6252.000000
2216.356934 6302.000000
2217.516602 6264.000000
2218.676025 6078.000000
2219.834229 6118.000000
2220.991455 6059.000000
2222.148438 6005.000000
2223.304688 6168.000000
2224.460205 6124.000000
2225.614990 5916.000000
2226.768799 6111.000000
2227.921631 6047.000000
2229.074951 5868.000000
2230.226318 5867.000000
2231.377441 6001.000000
2232.527832 5981.000000
2233.677734 5911.000000
2234.826660 5920.000000
2235.975098 5926.000000
2237.122070 5690.000000
2238.269287 5786.000000
2239.415283 5845.000000
2240.561035 5740.000000
2241.705078 5657.000000
2242.849365 5664.000000
2243.992676 5604.000000
2245.135254 5607.000000
2246.276855 5612.000000
2247.418213 5414.000000
2248.558594 5553.000000
2249.698242 5549.000000
2250.837402 5423.000000
2251.975342 5505.000000
2253.113281 5439.000000
2254.250244 5351.000000
2255.386475 5350.000000
2256.521729 5414.000000
2257.656250 5333.000000
2258.790527 5357.000000
2259.924316 5457.000000
2261.056641 5584.000000
2262.188477 5360.000000
2263.319824 5209.000000
2264.450195 5158.000000
2265.580322 5138.000000
2266.709229 5165.000000
2267.837646 5073.000000
2268.965576 5146.000000
2270.092529 5072.000000
2271.218750 5059.000000
2272.343994 5034.000000
2273.469238 5079.000000
2274.593750 5201.000000
2275.717041 5228.000000
2276.839600 5022.000000
2277.961670 5004.000000
2279.083252 5087.000000
2280.204102 4887.000000
2281.323730 5095.000000
2282.442871 4940.000000
2283.561768 4905.000000
2284.679932 4835.000000
2285.797119 4993.000000
2286.913330 4918.000000
2288.029297 4872.000000
2289.144531 4993.000000
2290.259033 4882.000000
2291.372314 4903.000000
2292.485596 4909.000000
2293.598145 4972.000000
2294.709961 5034.000000
2295.821045 5048.000000
2296.930908 4970.000000
2298.040283 5046.000000
2299.149414 5055.000000
2300.257568 5100.000000
2301.364746 5085.000000
2302.471680 5000.000000
2303.577881 4964.000000
2304.683594 5127.000000
2305.787842 4856.000000
2306.891846 4939.000000
2307.995361 4972.000000
2309.098389 4973.000000
2310.200195 4863.000000
2311.301270 4833.000000
2312.401855 5046.000000
2313.501953 4828.000000
2314.601318 4733.000000
2315.699219 4834.000000
2316.797607 4751.000000
2317.894531 4727.000000
2318.991211 4739.000000
2320.087402 4782.000000
2321.181885 4699.000000
2322.276367 4665.000000
2323.370117 4702.000000
2324.463623 4673.000000
2325.555420 4667.000000
2326.647217 4657.000000
2327.738281 4585.000000
2328.828613 4732.000000
2329.917969 4699.000000
2331.007324 4633.000000
2332.095459 4665.000000
2333.183105 4633.000000
2334.270508 4592.000000
2335.356201 4533.000000
2336.441650 4430.000000
2337.526855 4589.000000
2338.611084 4514.000000
2339.694336 4476.000000
2340.777344 4459.000000
2341.859375 4325.000000
2342.941162 4270.000000
2344.022217 4288.000000
2345.102051 4248.000000
2346.181396 4285.000000
2347.260254 4286.000000
2348.338623 4269.000000
2349.415527 4280.000000
2350.492188 4328.000000
2351.568604 4182.000000
2352.644043 4079.000000
2353.718506 4205.000000
2354.792725 4185.000000
2355.866211 4137.000000
2356.939209 4068.000000
2358.010986 4074.000000
2359.082520 4090.000000
2360.153076 3975.000000
2361.223389 4054.000000
2362.292725 3933.000000
2363.361084 4051.000000
2364.429199 4071.000000
2365.496582 3997.000000
2366.563477 3949.000000
2367.629639 4010.000000
2368.694580 3858.000000
2369.759521 3947.000000
2370.823730 3846.000000
2371.887207 3866.000000
2372.949463 3932.000000
2374.011719 3876.000000
2375.072998 3871.000000
2376.134033 3820.000000
2377.193848 3840.000000
2378.252930 3771.000000
2379.312012 3909.000000
2380.370117 3847.000000
2381.427490 3828.000000
2382.483887 3828.000000
2383.540039 3813.000000
2384.595703 3774.000000
2385.650635 3730.000000
2386.704102 3812.000000
2387.757813 3792.000000
2388.810547 3781.000000
2389.862793 3785.000000
2390.914307 3735.000000
2391.964844 3840.000000
2393.015137 3780.000000
2394.064453 3819.000000
2395.113770 3822.000000
2396.161621 3767.000000
2397.208984 3747.000000
2398.256104 3776.000000
2399.302246 3729.000000
2400.347656 3613.000000
2401.392334 3657.000000
2402.437012 3699.000000
2403.480225 3791.000000
2404.523438 3650.000000
2405.565186 3810.000000
2406.607178 3690.000000
2407.648438 3782.000000
2408.688721 3662.000000
2409.728271 3629.000000
2410.766846 3640.000000
2411.805664 3620.000000
2412.843262 3679.000000
2413.880615 3684.000000
2414.916748 3699.000000
2415.952637 3680.000000
2416.987793 3705.000000
2418.022461 3731.000000
2419.055664 3744.000000
2420.089111 3610.000000
2421.121582 3631.000000
2422.153809 3609.000000
2423.184570 3593.000000
2424.215332 3569.000000
2425.245605 3564.000000
2426.274658 3582.000000
2427.303711 3590.000000
2428.331055 3559.000000
2429.358887 3615.000000
2430.385498 3512.000000
2431.411865 3553.000000
2432.436768 3387.000000
2433.461914 3318.000000
2434.486084 3511.000000
2435.510010 3400.000000
2436.532715 3426.000000
2437.554688 3405.000000
2438.576416 3357.000000
2439.597412 3398.000000
2440.617920 3380.000000
2441.637207 3427.000000
2442.656494 3335.000000
2443.674805 3305.000000
2444.692871 3285.000000
2445.709473 3193.000000
2446.726074 3294.000000
2447.741943 3266.000000
2448.757813 3210.000000
2449.772217 3287.000000
2450.785889 3246.000000
2451.799072 3344.000000
2452.812012 3215.000000
2453.824219 3079.000000
2454.835449 3175.000000
2455.846436 3185.000000
2456.856689 3300.000000
2457.866455 3150.000000
2458.875244 3035.000000
2459.883301 3089.000000
2460.891357 3130.000000
2461.898193 3007.000000
2462.904785 3156.000000
2463.910156 2927.000000
2464.915283 2957.000000
2465.920166 3008.000000
2466.923828 3030.000000
2467.927246 2968.000000
2468.929688 3051.000000
2469.931885 3077.000000
2470.933594 3055.000000
2471.934326 2885.000000
2472.934082 2917.000000
2473.933838 2883.000000
2474.932617 2926.000000
2475.930908 2861.000000
2476.928223 2967.000000
2477.925293 2929.000000
2478.922363 2946.000000
2479.917969 2872.000000
2480.913574 2938.000000
2481.907471 2830.000000
2482.901367 2938.000000
2483.894775 2887.000000
2484.887695 2925.000000
2485.879639 2972.000000
2486.870850 2932.000000
2487.861816 2909.000000
2488.852295 2933.000000
2489.841797 2901.000000
2490.830566 2927.000000
2491.819336 3013.000000
2492.807129 2871.000000
2493.793701 2894.000000
2494.780273 2902.000000
2495.766357 2814.000000
2496.751709 2865.000000
2497.736084 2893.000000
2498.720215 2891.000000
2499.704346 2815.000000
2500.687012 2904.000000
2501.669189 2766.000000
2502.650879 2906.000000
2503.631836 2870.000000
2504.612305 2778.000000
2505.592529 2728.000000
2506.571289 2828.000000
2507.549805 2864.000000
2508.527832 2877.000000
2509.505371 2747.000000
2510.481934 2856.000000
2511.458252 2869.000000
2512.433838 2828.000000
2513.408936 2731.000000
2514.383545 2746.000000
2515.356934 2681.000000
2516.330078 2726.000000
2517.302979 2791.000000
2518.274902 2753.000000
2519.246094 2624.000000
2520.216797 2635.000000
2521.187256 2556.000000
2522.156982 2679.000000
2523.125732 2594.000000
2524.093750 2719.000000
2525.061768 2623.000000
2526.028809 2584.000000
2526.995605 2621.000000
2527.961182 2625.000000
2528.926758 2610.000000
2529.891602 2547.000000
2530.855957 2511.000000
2531.819092 2602.000000
2532.782471 2566.000000
2533.744873 2564.000000
2534.707031 2602.000000
2535.667969 2559.000000
2536.628174 2644.000000
2537.588623 2645.000000
2538.548096 2539.000000
2539.506836 2579.000000
2540.464600 2535.000000
2541.422607 2532.000000
2542.379883 2502.000000
2543.336182 2545.000000
2544.292236 2483.000000
2545.247070 2462.000000
2546.202148 2384.000000
2547.156494 2439.000000
2548.110107 2601.000000
2549.062744 2393.000000
2550.015137 2359.000000
2550.967041 2332.000000
2551.918213 2498.000000
2552.868652 2235.000000
2553.818604 2467.000000
2554.768311 2363.000000
2555.717285 2343.000000
2556.665771 2345.000000
2557.613037 2407.000000
2558.560303 2377.000000
2559.506836 2342.000000
2560.452881 2213.000000
2561.397949 2290.000000
2562.342773 2265.000000
2563.287109 2298.000000
2564.230957 2323.000000
2565.174316 2217.000000
2566.116211 2312.000000
2567.058350 2326.000000
2567.999756 2264.000000
2568.940430 2250.000000
2569.880371 2254.000000
2570.820313 2289.000000
2571.759277 2311.000000
2572.697998 2245.000000
2573.635742 2224.000000
2574.573242 2363.000000
2575.510010 2261.000000
2576.446045 2289.000000
2577.381592 2154.000000
2578.316406 2272.000000
2579.251221 2266.000000
2580.185059 2185.000000
2581.118408 2281.000000
2582.051025 2231.000000
2582.983398 2171.000000
2583.915039 2204.000000
2584.846191 2255.000000
2585.776855 2210.000000
2586.706299 2254.000000
2587.635742 2178.000000
2588.564697 2311.000000
2589.493408 2214.000000
2590.420410 2296.000000
2591.347656 2157.000000
2592.274414 2180.000000
2593.200439 2154.000000
2594.126221 2100.000000
2595.050781 2091.000000
2595.975098 2191.000000
2596.898926 2212.000000
2597.822266 2176.000000
2598.744629 2152.000000
2599.666748 2255.000000
2600.588379 2122.000000
2601.509277 2216.000000
2602.429443 2081.000000
2603.349365 2097.000000
2604.268799 2089.000000
2605.187988 2064.000000
2606.106201 2040.000000
2607.023193 2109.000000
2607.940430 2037.000000
2608.857422 2126.000000
2609.773438 2027.000000
2610.688232 2085.000000
2611.603516 2067.000000
2612.518066 2069.000000
2613.431641 2071.000000
2614.345215 2062.000000
2615.257568 2013.000000
2616.169922 2025.000000
2617.081299 2046.000000
2617.992432 2086.000000
2618.902832 1980.000000
2619.812988 2038.000000
2620.722412 2038.000000
2621.631348 2016.000000
2622.539307 1991.000000
2623.447510 1988.000000
2624.354736 2020.000000
2625.261475 1964.000000
2626.167480 1975.000000
2627.073242 1897.000000
2627.978271 1940.000000
2628.883057 1961.000000
2629.787109 1916.000000
2630.690186 1965.000000
2631.593262 1977.000000
2632.495361 1931.000000
2633.397461 1838.000000
2634.299316 1884.000000
2635.199463 1938.000000
2636.099854 1863.000000
2636.999512 1898.000000
2637.898926 1867.000000
2638.796875 1872.000000
2639.695313 1848.000000
2640.593262 1865.000000
2641.490479 1880.000000
2642.386475 1918.000000
2643.282471 1915.000000
2644.178223 1792.000000
2645.073242 1869.000000
2645.968018 1765.000000
2646.861328 1836.000000
2647.754639 1783.000000
2648.647705 1752.000000
2649.540527 1553.000000
2650.431641 1743.000000
2651.322998 1867.000000
2652.213867 1745.000000
2653.104004 1740.000000
2653.993896 1674.000000
2654.882568 1738.000000
2655.771484 1662.000000
2656.659912 1686.000000
2657.547363 1608.000000
2658.433838 1681.000000
2659.320801 1692.000000
2660.207031 1715.000000
2661.092773 1707.000000
2661.977295 1696.000000
2662.861816 1710.000000
2663.746094 1667.000000
2664.629639 1694.000000
2665.512695 1729.000000
2666.395020 1627.000000
2667.276855 1781.000000
2668.157959 1666.000000
2669.039307 1707.000000
2669.919189 1718.000000
2670.799316 1678.000000
2671.678711 1610.000000
2672.558105 1733.000000
2673.436768 1617.000000
2674.313721 1647.000000
2675.191406 1663.000000
2676.068359 1703.000000
2676.944580 1697.000000
2677.820313 1681.000000
2678.695313 1711.000000
2679.570557 1637.000000
2680.444824 1622.000000
2681.318604 1587.000000
2682.191650 1598.000000
2683.064453 1671.000000
2683.937012 1537.000000
2684.808838 1560.000000
2685.679932 1622.000000
2686.550781 1549.000000
2687.421143 1549.000000
2688.291260 1683.000000
2689.159668 1652.000000
2690.028809 1669.000000
2690.897217 1642.000000
2691.765381 1518.000000
2692.632813 1627.000000
2693.499023 1552.000000
2694.365723 1467.000000
2695.231445 1552.000000
2696.097168 1601.000000
2696.961426 1554.000000
2697.826416 1549.000000
2698.689941 1506.000000
2699.553711 1601.000000
2700.416016 1462.000000
2701.278809 1493.000000
2702.140625 1569.000000
2703.001953 1457.000000
2703.863281 1639.000000
2704.723389 1516.000000
2705.583496 1514.000000
2706.443115 1555.000000
2707.302490 1426.000000
2708.160156 1429.000000
2709.018066 1500.000000
2709.876465 1473.000000
2710.733643 1501.000000
2711.590088 1411.000000
2712.446045 1377.000000
2713.302002 1479.000000
2714.157227 1450.000000
2715.011719 1399.000000
2715.865723 1370.000000
2716.719727 1378.000000
2717.572754 1434.000000
2718.426025 1344.000000
2719.277588 1331.000000
2720.129639 1356.000000
2720.981445 1405.000000
2721.832031 1433.000000
2722.682617 1527.000000
2723.532715 1406.000000
2724.382080 1392.000000
2725.231445 1462.000000
2726.079590 1346.000000
2726.927246 1422.000000
2727.775391 1335.000000
2728.622314 1352.000000
2729.469727 1377.000000
2730.315674 1365.000000
2731.160889 1361.000000
2732.006592 1382.000000
2732.851318 1228.000000
2733.696045 1310.000000
2734.539551 1231.000000
2735.383301 1282.000000
2736.226318 1459.000000
2737.068848 1367.000000
2737.910400 1304.000000
2738.752441 1345.000000
2739.593506 683.000000
2740.434326 1347.000000
2741.274902 1275.000000
2742.114258 1380.000000
2742.953613 1406.000000
2743.792969 1294.000000
2744.631104 1306.000000
2745.468750 1282.000000
2746.306396 1296.000000
2747.143555 1264.000000
2747.980469 1364.000000
2748.816895 1319.000000
2749.652100 1252.000000
2750.487549 1351.000000
2751.322510 1276.000000
2752.156738 1369.000000
2752.990723 1279.000000
2753.824219 1220.000000
2754.657715 1237.000000
2755.490234 1308.000000
2756.322266 1274.000000
2757.153809 1278.000000
2757.985352 1239.000000
2758.815918 1190.000000
2759.646729 1291.000000
2760.476318 1296.000000
2761.305908 1285.000000
2762.135254 1242.000000
2762.963867 1128.000000
2763.791992 1235.000000
2764.619629 1332.000000
2765.447266 1242.000000
2766.274414 1205.000000
2767.100830 1240.000000
2767.926758 1198.000000
2768.752197 1199.000000
2769.577393 1231.000000
2770.402588 1106.000000
2771.226563 1208.000000
2772.050537 1189.000000
2772.874512 1233.000000
2773.697266 1123.000000
2774.520264 1281.000000
2775.342041 1112.000000
2776.163818 1147.000000
2776.985596 1263.000000
2777.806396 1250.000000
2778.626465 1166.000000
2779.446777 1121.000000
2780.266602 1153.000000
2781.086426 1118.000000
2781.904297 1128.000000
2782.723389 1213.000000
2783.541260 1166.000000
2784.358887 1199.000000
2785.176025 1129.000000
2785.992676 1112.000000
2786.809082 1142.000000
2787.625000 1133.000000
2788.440674 1106.000000
2789.255371 1129.000000
2790.070557 1132.000000
2790.885010 1056.000000
2791.698975 1037.000000
2792.512695 1091.000000
2793.325195 1019.000000
2794.137939 1100.000000
2794.950195 1088.000000
2795.761963 1035.000000
2796.572998 1053.000000
2797.384766 1029.000000
2798.195313 1073.000000
2799.005859 1005.000000
2799.814941 1082.000000
2800.624756 870.000000
2801.433838 1049.000000
2802.242676 1010.000000
2803.051025 1085.000000
2803.858398 1091.000000
2804.666260 983.000000
2805.473389 1106.000000
2806.280273 1045.000000
2807.085938 1137.000000
2807.892090 1061.000000
2808.697510 983.000000
2809.502930 1008.000000
2810.307617 1039.000000
2811.111328 1045.000000
2811.915527 1005.000000
2812.719238 1022.000000
2813.522705 1040.000000
2814.324707 919.000000
2815.127441 1018.000000
2815.929443 1057.000000
2816.731201 1012.000000
2817.532471 987.000000
2818.333252 998.000000
2819.133545 1011.000000
2819.934082 1055.000000
2820.733643 988.000000
2821.532715 990.000000
2822.331787 1031.000000
2823.130615 937.000000
2823.928955 977.000000
2824.726318 1056.000000
2825.523926 981.000000
2826.320801 946.000000
2827.117920 917.000000
2827.914307 1082.000000
2828.709961 923.000000
2829.505615 965.000000
2830.301025 999.000000
2831.095947 1002.000000
2831.890137 972.000000
2832.684326 999.000000
2833.478271 1062.000000
2834.271729 951.000000
2835.064453 917.000000
2835.856934 1041.000000
2836.649414 1061.000000
2837.441650 936.000000
2838.233398 961.000000
2839.024170 978.000000
2839.814941 869.000000
2840.605957 901.000000
2841.395996 940.000000
2842.185547 974.000000
2842.975342 1052.000000
2843.764160 865.000000
2844.552979 1014.000000
2845.341797 925.000000
2846.129639 957.000000
2846.916992 927.000000
2847.704590 841.000000
2848.491699 920.000000
2849.278076 942.000000
2850.064453 882.000000
2850.850586 978.000000
2851.636230 942.000000
2852.420898 885.000000
2853.206055 880.000000
2853.990967 865.000000
2854.775146 864.000000
2855.559326 957.000000
2856.342285 838.000000
2857.125488 892.000000
2857.908447 902.000000
2858.690918 920.000000
2859.473145 823.000000
2860.254883 913.000000
2861.036377 884.000000
2861.818115 853.000000
2862.599121 853.000000
2863.379395 883.000000
2864.159424 835.000000
2864.939453 912.000000
2865.719238 882.000000
2866.498047 834.000000
2867.277100 913.000000
2868.055664 878.000000
2868.833984 932.000000
2869.611816 911.000000
2870.389404 892.000000
2871.166748 922.000000
2871.943848 960.000000
2872.720459 908.000000
2873.496582 941.000000
2874.272705 940.000000
2875.048340 953.000000
2875.823730 945.000000
2876.598633 968.000000
2877.373291 1005.000000
2878.147949 1011.000000
2878.922363 991.000000
2879.696045 922.000000
2880.468994 961.000000
2881.242676 954.000000
2882.015381 909.000000
2882.788086 978.000000
2883.560059 917.000000
2884.331787 981.000000
2885.104004 1020.000000
2885.875000 877.000000
2886.645508 948.000000
2887.416504 1010.000000
2888.187500 923.000000
2888.957764 967.000000
2889.727051 882.000000
2890.496582 899.000000
2891.266113 793.000000
2892.035156 854.000000
2892.803711 790.000000
2893.572266 931.000000
2894.339844 925.000000
2895.107910 919.000000
2895.875488 867.000000
2896.643066 932.000000
2897.409424 934.000000
2898.176758 898.000000
2898.942871 778.000000
2899.709229 921.000000
2900.474121 876.000000
2901.239502 925.000000
2902.005371 859.000000
2902.769775 843.000000
2903.534180 734.000000
2904.298828 727.000000
2905.062500 770.000000
2905.826904 838.000000
2906.590576 943.000000
2907.353516 733.000000
2908.116211 775.000000
2908.879395 891.000000
2909.642090 788.000000
2910.403564 798.000000
2911.165527 798.000000
spectrumdark 2048
-97.065247 6220.000000
-94.438377 6220.000000
-91.813385 6032.000000
-89.190285 6425.000000
-86.569054 5904.000000
-83.949722 6261.000000
-81.332253 6085.000000
-78.716660 6457.000000
-76.102943 6235.000000
-73.491104 5973.000000
-70.881126 6123.000000
-68.273033 6035.000000
-65.666786 5967.000000
-63.062416 5966.000000
-60.459908 6122.000000
-57.859253 5647.000000
-55.260460 6223.000000
-52.663525 6875.000000
-50.068443 6429.000000
-47.475216 6560.000000
-44.883839 6234.000000
-42.294308 6758.000000
-39.706619 5887.000000
-37.120781 6131.000000
-34.536785 6485.000000
-31.954628 5724.000000
-29.374315 6324.000000
-26.795830 5646.000000
-24.219187 6130.000000
-21.644369 6251.000000
-19.071392 6456.000000
-16.500235 6504.000000
-13.930911 6761.000000
-11.363413 7808.000000
-8.797733 6298.000000
-6.233880 6473.000000
-3.671839 6020.000000
-1.111623 5814.000000
1.446785 6260.000000
4.003372 6949.000000
6.558154 6666.000000
9.111119 6016.000000
11.662284 6773.000000
14.211636 6492.000000
16.759192 6699.000000
19.304935 6032.000000
21.848886 5721.000000
24.391033 6655.000000
26.931383 6800.000000
29.469948 6859.000000
32.006718 6200.000000
34.541683 5755.000000
37.074871 7178.000000
39.606277 6337.000000
42.135891 7103.000000
44.663708 6469.000000
47.189766 7790.000000
49.714035 5705.000000
52.236534 6226.000000
54.757236 6703.000000
57.276184 6303.000000
59.793358 6521.000000
62.308754 6598.000000
64.822372 5636.000000
67.334236 5711.000000
69.844353 6531.000000
72.352676 6543.000000
74.859245 5925.000000
77.364067 6404.000000
79.867134 6463.000000
82.368423 6314.000000
84.867973 6154.000000
87.365768 6347.000000
89.861832 5749.000000
92.356117 7226.000000
94.848663 5780.000000
97.339493 6933.000000
99.828552 7123.000000
102.315865 6390.000000
104.801453 6205.000000
107.285301 6345.000000
109.767403 5719.000000
112.247780 6775.000000
114.726433 6204.000000
117.203362 6427.000000
119.678535 7127.000000
122.152000 6794.000000
124.623734 5934.000000
127.093758 6724.000000
129.562027 6246.000000
132.028625 6302.000000
134.493469 5660.000000
136.956619 6224.000000
139.418030 7289.000000
141.877747 6932.000000
144.335739 6309.000000
146.792038 5928.000000
149.246628 5768.000000
151.699493 6875.000000
154.150681 6353.000000
156.600174 6587.000000
159.047943 6117.000000
161.494003 6645.000000
163.938385 8706.000000
166.381088 6403.000000
168.822098 6815.000000
171.261398 6206.000000
173.698990 7223.000000
176.134949 6624.000000
178.569168 6950.000000
181.001709 7143.000000
183.432602 6673.000000
185.861771 7151.000000
188.289291 6708.000000
190.715134 6296.000000
193.139297 6646.000000
195.561798 7127.000000
197.982605 7419.000000
200.401749 6524.000000
202.819229 6028.000000
205.235016 7649.000000
207.649155 7143.000000
210.061661 6347.000000
212.472488 6069.000000
214.881638 6273.000000
217.289154 7415.000000
219.694962 6211.000000
222.099182 6519.000000
224.501694 6714.000000
226.902588 6923.000000
229.301834 6467.000000
231.699417 6887.000000
234.095337 7303.000000
236.489639 6508.000000
238.882278 6154.000000
241.273300 6807.000000
243.662659 6574.000000
246.050400 6390.000000
248.436493 6980.000000
250.820953 6097.000000
253.203766 7915.000000
255.585007 6604.000000
257.964539 6673.000000
260.342499 6544.000000
262.718781 7595.000000
265.093506 7571.000000
267.466583 7876.000000
269.838013 6179.000000
272.207794 6425.000000
274.576019 5870.000000
276.942596 6307.000000
279.307587 6469.000000
281.670959 6042.000000
284.032684 6266.000000
286.392822 7121.000000
288.751343 5934.000000
291.108276 6566.000000
293.463593 6413.000000
295.817322 5917.000000
298.169403 5991.000000
300.519928 6313.000000
302.868866 6436.000000
305.216156 6830.000000
307.561920 6442.000000
309.906006 6546.000000
312.248566 7418.000000
314.589508 7625.000000
316.928833 7184.000000
319.266602 6961.000000
321.602814 8101.000000
323.937378 6300.000000
326.270386 6510.000000
328.601837 6017.000000
330.931702 6634.000000
333.259979 6475.000000
335.586639 7285.000000
337.911804 6380.000000
340.235352 6230.000000
342.557343 6008.000000
344.877777 7538.000000
347.196594 7751.000000
349.513855 6017.000000
351.829590 5776.000000
354.143738 6957.000000
356.456299 6349.000000
358.767303 6430.000000
361.076782 7110.000000
363.384735 6456.000000
365.691071 5631.000000
367.995819 6591.000000
370.299103 6449.000000
372.600769 6313.000000
374.900940 6352.000000
377.199554 6307.000000
379.496613 5983.000000
381.792114 6115.000000
384.086090 5938.000000
386.378479 5257.000000
388.669373 5606.000000
390.958740 6258.000000
393.246521 6283.000000
395.532776 6501.000000
397.817535 7035.000000
400.100677 6120.000000
402.382385 6460.000000
404.662567 6163.000000
406.941162 7226.000000
409.218231 6463.000000
411.493774 6805.000000
413.767792 6600.000000
416.040375 6578.000000
418.311340 6472.000000
420.580811 6443.000000
422.848785 7086.000000
425.115204 7244.000000
427.380127 6341.000000
429.643585 6324.000000
431.905457 6515.000000
434.165863 5993.000000
436.424713 6644.000000
438.682098 6203.000000
440.937988 5700.000000
443.192383 5826.000000
445.445251 5466.000000
447.696564 6913.000000
449.946472 6082.000000
452.194794 6264.000000
454.441681 5669.000000
456.687103 6525.000000
458.930969 6535.000000
461.173340 6533.000000
463.414215 5652.000000
465.653687 6719.000000
467.891571 5487.000000
470.128021 5879.000000
472.362946 6110.000000
474.596405 7348.000000
476.828430 6735.000000
479.058929 5743.000000
481.287933 6511.000000
483.515472 6381.000000
485.741516 5968.000000
487.966125 6579.000000
490.189270 5891.000000
492.410950 6443.000000
494.631073 6671.000000
496.849792 5636.000000
499.067017 6246.000000
501.282867 5578.000000
503.497101 6118.000000
505.710022 6503.000000
507.921356 6485.000000
510.131256 6856.000000
512.339722 6441.000000
514.546814 6593.000000
516.752319 6446.000000
518.956421 6610.000000
521.158997 6233.000000
523.360168 6550.000000
525.559998 6682.000000
527.758301 6956.000000
529.955078 5349.000000
532.150513 5866.000000
534.344421 5540.000000
536.536987 7557.000000
538.728027 6676.000000
540.917664 6027.000000
543.105896 6897.000000
545.292603 7128.000000
547.477844 6839.000000
549.661804 6245.000000
551.844177 6387.000000
554.025208 6170.000000
556.204712 6024.000000
558.382935 5922.000000
560.559631 6010.000000
562.734924 6422.000000
564.908813 6401.000000
567.081238 5932.000000
569.252258 5996.000000
571.421814 6312.000000
573.590088 5281.000000
575.756836 6414.000000
577.922119 6429.000000
580.085999 6148.000000
582.248596 5737.000000
584.409668 5979.000000
586.569336 5673.000000
588.727661 5862.000000
590.884460 6097.000000
593.039917 6590.000000
595.193970 5762.000000
597.346680 6091.000000
599.497864 7233.000000
601.647705 6726.000000
603.796204 6693.000000
605.943115 6005.000000
608.088806 6471.000000
610.233093 6478.000000
612.375916 6996.000000
614.517273 6194.000000
616.657410 6471.000000
618.796021 7690.000000
620.933350 5693.000000
623.069214 6628.000000
625.203674 6845.000000
627.336670 7223.000000
629.468506 6693.000000
631.598877 6591.000000
633.727844 6764.000000
635.855347 6447.000000
637.981567 6191.000000
640.106262 7354.000000
642.229736 6494.000000
644.351868 6833.000000
646.472534 6807.000000
648.591858 6587.000000
650.709778 5633.000000
652.826355 5701.000000
654.941528 6498.000000
657.055359 6495.000000
659.167725 5823.000000
661.278870 6150.000000
663.388611 5422.000000
665.496887 6020.000000
667.604004 6251.000000
669.709656 6870.000000
671.813843 5701.000000
673.916809 5729.000000
676.018372 7089.000000
678.118591 5303.000000
680.217407 6769.000000
682.314880 6283.000000
684.411072 6903.000000
686.505798 6366.000000
688.599304 7039.000000
690.691467 6707.000000
692.782104 7951.000000
694.871521 6666.000000
696.959656 6473.000000
699.046326 6043.000000
701.131775 6682.000000
703.215698 5195.000000
705.298401 5945.000000
707.379822 5927.000000
709.459778 7639.000000
711.538513 6209.000000
713.615784 5542.000000
715.691772 6590.000000
717.766479 6070.000000
719.839905 7038.000000
721.911804 6319.000000
723.982544 7476.000000
726.051941 5828.000000
728.119934 6505.000000
730.186584 6388.000000
732.252014 7026.000000
734.316101 5825.000000
736.378845 6136.000000
738.440247 6523.000000
740.500366 6549.000000
742.559082 6060.000000
744.616577 6619.000000
746.672791 6500.000000
748.727600 6698.000000
750.781128 6387.000000
752.833252 7473.000000
754.884155 5790.000000
756.933838 6697.000000
758.982056 6353.000000
761.029053 6122.000000
763.074768 6963.000000
765.119080 5344.000000
767.162109 5815.000000
769.203918 6518.000000
771.244385 7221.000000
773.283447 6379.000000
775.321350 6057.000000
777.357910 5978.000000
779.393250 5373.000000
781.427246 5726.000000
783.459839 6855.000000
785.491272 5543.000000
787.521301 5797.000000
789.550049 6051.000000
791.577637 6321.000000
793.603882 6346.000000
795.628723 5819.000000
797.652466 5546.000000
799.674805 6351.000000
801.695923 5867.000000
803.715698 6728.000000
805.734192 4902.000000
807.751465 6673.000000
809.767334 6814.000000
811.782043 5703.000000
813.795410 6437.000000
815.807556 6273.000000
817.818481 6079.000000
819.828064 6604.000000
821.836426 5343.000000
823.843384 5719.000000
825.849121 6102.000000
827.853638 5778.000000
829.856873 5673.000000
831.858826 6471.000000
833.859497 6070.000000
835.858948 5917.000000
837.857056 6317.000000
839.854065 6998.000000
841.849670 6211.000000
843.844116 5996.000000
845.837219 6178.000000
847.829102 6778.000000
849.819641 5576.000000
851.808899 6862.000000
853.797119 6029.000000
855.783936 5761.000000
857.769531 6428.000000
859.753845 7272.000000
861.737061 6333.000000
863.718872 6414.000000
865.699463 5870.000000
867.678772 7737.000000
869.656921 7161.000000
871.633728 6174.000000
873.609253 6173.000000
875.583740 6180.000000
877.556763 6055.000000
879.528748 5415.000000
881.499390 6464.000000
883.468872 6114.000000
885.437012 5601.000000
887.403992 5214.000000
889.369629 6127.000000
891.334106 5869.000000
893.297363 5969.000000
895.259399 6450.000000
897.220154 5856.000000
899.179688 6418.000000
901.137939 6675.000000
903.095093 6358.000000
905.051086 6024.000000
907.005676 6872.000000
908.959045 6545.000000
910.911255 6402.000000
912.862244 6437.000000
914.811951 7112.000000
916.760498 6320.000000
918.707825 6155.000000
920.653870 6129.000000
922.598633 6090.000000
924.542358 6288.000000
926.484924 6013.000000
928.426208 5618.000000
930.366150 6459.000000
932.304993 5740.000000
934.242554 5516.000000
936.178894 5962.000000
938.114075 5832.000000
940.047974 6090.000000
941.980774 5936.000000
943.912354 6829.000000
945.842773 5209.000000
947.771973 6389.000000
949.699829 7033.000000
951.626648 6680.000000
953.552185 5926.000000
955.476440 5414.000000
957.399597 6002.000000
959.321594 6751.000000
961.242310 7284.000000
963.161865 6481.000000
965.080261 5372.000000
966.997620 6412.000000
968.913513 6427.000000
970.828308 6153.000000
972.741882 5883.000000
974.654297 6381.000000
976.565491 6496.000000
978.475525 5463.000000
980.384277 6198.000000
982.291992 6223.000000
984.198486 6446.000000
986.103760 5709.000000
988.007935 6758.000000
989.910889 6217.000000
991.812622 6799.000000
993.713196 6512.000000
995.612610 6591.000000
997.510803 5277.000000
999.407837 6487.000000
1001.303650 6586.000000
1003.198303 7628.000000
1005.091858 5570.000000
1006.984131 7326.000000
1008.875488 6151.000000
1010.765503 5352.000000
1012.654297 6673.000000
1014.541931 6460.000000
1016.428406 6908.000000
1018.313721 6771.000000
1020.197876 5980.000000
1022.080811 5866.000000
1023.962708 6256.000000
1025.843262 5216.000000
1027.722778 5899.000000
1029.601318 6124.000000
1031.478516 5445.000000
1033.354370 6181.000000
1035.229248 5873.000000
1037.103149 6623.000000
1038.975586 7165.000000
1040.847046 6726.000000
1042.717163 5523.000000
1044.586304 5515.000000
1046.454224 5810.000000
1048.321045 7082.000000
1050.186768 6716.000000
1052.051270 6443.000000
1053.914673 6451.000000
1055.776733 6452.000000
1057.637817 5880.000000
1059.497803 6521.000000
1061.356445 6659.000000
1063.213989 5799.000000
1065.070435 6713.000000
1066.925781 5912.000000
1068.779907 5838.000000
1070.633179 6250.000000
1072.484985 6319.000000
1074.335815 6270.000000
1076.185425 6129.000000
1078.033813 5765.000000
1079.881348 7916.000000
1081.727539 5603.000000
1083.572510 6233.000000
1085.416626 5366.000000
1087.259399 5522.000000
1089.100952 6573.000000
1090.941772 5526.000000
1092.781006 5815.000000
1094.619507 6044.000000
1096.456665 6017.000000
1098.292603 6783.000000
1100.127563 6508.000000
1101.961304 5410.000000
1103.794067 5696.000000
1105.625488 6202.000000
1107.456055 7214.000000
1109.285278 6520.000000
1111.113525 6420.000000
1112.940552 7077.000000
1114.766602 5485.000000
1116.591431 6301.000000
1118.415161 7201.000000
1120.237671 6132.000000
1122.059082 5807.000000
1123.879639 5883.000000
1125.698730 6531.000000
1127.516968 7151.000000
1129.333862 7041.000000
1131.149902 6738.000000
1132.964722 6458.000000
1134.778442 5631.000000
1136.591064 5859.000000
1138.402466 5714.000000
1140.212891 6164.000000
1142.022217 6781.000000
1143.830200 6982.000000
1145.637451 5955.000000
1147.443237 5964.000000
1149.248169 5437.000000
1151.052002 5418.000000
1152.854614 6173.000000
1154.656372 6118.000000
1156.456665 6129.000000
1158.255981 6115.000000
1160.054321 5844.000000
1161.851318 5511.000000
1163.647583 5941.000000
1165.442505 6055.000000
1167.236328 6339.000000
1169.029297 7749.000000
1170.820923 5787.000000
1172.611572 6567.000000
1174.401245 5999.000000
1176.189453 5810.000000
1177.976807 7414.000000
1179.763062 6879.000000
1181.548218 5778.000000
1183.332275 5951.000000
1185.115234 7680.000000
1186.897217 5872.000000
1188.677979 5886.000000
1190.457764 6412.000000
1192.236450 6963.000000
1194.014160 6636.000000
1195.790649 7185.000000
1197.566040 6617.000000
1199.340332 6513.000000
1201.113525 6703.000000
1202.885864 6561.000000
1204.656860 6718.000000
1206.427002 5659.000000
1208.195923 6151.000000
1209.963745 6322.000000
1211.730713 5787.000000
1213.496338 5861.000000
1215.260986 7018.000000
1217.024536 6563.000000
1218.786987 5937.000000
1220.548584 6723.000000
1222.308960 5894.000000
1224.068237 6393.000000
1225.826660 6078.000000
1227.583862 7238.000000
1229.339966 6474.000000
1231.094971 5537.000000
1232.849121 6023.000000
1234.601929 5821.000000
1236.353760 5977.000000
1238.104736 5984.000000
1239.854370 4987.000000
1241.603149 7023.000000
1243.350586 6434.000000
1245.097290 6583.000000
1246.842773 6521.000000
1248.587402 6351.000000
1250.330688 6791.000000
1252.072998 6669.000000
1253.814209 5426.000000
1255.554565 5091.000000
1257.293823 5831.000000
1259.031860 6559.000000
1260.769043 7135.000000
1262.505005 6145.000000
1264.239990 6431.000000
1265.973999 7262.000000
1267.707031 5991.000000
1269.438843 6178.000000
1271.169678 6463.000000
1272.899292 7270.000000
1274.628052 5956.000000
1276.355713 5667.000000
1278.082275 5592.000000
1279.807983 5570.000000
1281.532349 6440.000000
1283.255859 5224.000000
1284.978394 6870.000000
1286.699951 6577.000000
1288.420288 6368.000000
1290.139648 6704.000000
1291.857910 7337.000000
1293.575195 6496.000000
1295.291504 5746.000000
1297.006592 6348.000000
1298.720703 6124.000000
1300.433838 5794.000000
1302.146118 6492.000000
1303.857178 8288.000000
1305.567261 5268.000000
1307.276245 6332.000000
1308.984009 6645.000000
1310.691162 7004.000000
1312.396851 5761.000000
1314.101807 6881.000000
1315.805786 6173.000000
1317.508545 6022.000000
1319.210327 6637.000000
1320.911255 6138.000000
1322.610840 9195.000000
1324.309570 7396.000000
1326.007568 18696.000000
1327.704224 6482.000000
1329.399780 7104.000000
1331.094482 6830.000000
1332.787964 5737.000000
1334.480591 5410.000000
1336.172363 7349.000000
1337.862793 6284.000000
1339.552490 6665.000000
1341.241089 6086.000000
1342.928589 7617.000000
1344.615112 5666.000000
1346.300537 6857.000000
1347.984985 6038.000000
1349.668579 7257.000000
1351.350952 6363.000000
1353.032349 5945.000000
1354.712891 6503.000000
1356.392212 6765.000000
1358.070923 5871.000000
1359.748291 6486.000000
1361.424561 5807.000000
1363.099854 5598.000000
1364.774414 6586.000000
1366.447754 6458.000000
1368.120117 6836.000000
1369.791504 5135.000000
1371.461914 6877.000000
1373.131226 6153.000000
1374.799561 5681.000000
1376.467041 6032.000000
1378.133423 6375.000000
1379.798828 6182.000000
1381.463257 5898.000000
1383.126465 5986.000000
1384.789063 5708.000000
1386.450317 6327.000000
1388.110718 6584.000000
1389.770020 6409.000000
1391.428345 6505.000000
1393.085938 6836.000000
1394.742310 6539.000000
1396.397827 6989.000000
1398.052124 6278.000000
1399.705566 5955.000000
1401.357910 6184.000000
1403.009521 6438.000000
1404.659912 7198.000000
1406.309204 6233.000000
1407.957764 7543.000000
1409.605225 7929.000000
1411.251709 6221.000000
1412.897339 6261.000000
1414.541992 5951.000000
1416.185425 7011.000000
1417.828003 7114.000000
1419.469482 6847.000000
1421.110107 6526.000000
1422.749756 6547.000000
1424.388306 6078.000000
1426.026001 6637.000000
1427.662598 6343.000000
1429.298218 6029.000000
1430.933105 6431.000000
1432.566895 5885.000000
1434.199585 6162.000000
1435.831299 5683.000000
1437.462158 6155.000000
1439.091919 6099.000000
1440.720581 7867.000000
1442.348633 6036.000000
1443.975586 6226.000000
1445.601318 6194.000000
1447.226440 6106.000000
1448.850464 6518.000000
1450.473511 6028.000000
1452.095581 6112.000000
1453.716553 7452.000000
1455.336548 6304.000000
1456.955811 6928.000000
1458.573730 5661.000000
1460.191040 15072.000000
1461.807373 5573.000000
1463.422485 7225.000000
1465.036743 6337.000000
1466.650146 5203.000000
1468.262451 5569.000000
1469.873901 6271.000000
1471.484497 6399.000000
1473.093872 6027.000000
1474.702271 6002.000000
1476.309814 6095.000000
1477.916382 6839.000000
1479.522217 5306.000000
1481.126831 6263.000000
1482.730591 5492.000000
1484.333130 6751.000000
1485.935059 5502.000000
1487.535767 5517.000000
1489.135742 5602.000000
1490.734619 6337.000000
1492.332642 6566.000000
1493.929565 6677.000000
1495.525635 6362.000000
1497.120728 5997.000000
1498.714844 5503.000000
1500.308228 6557.000000
1501.900513 5531.000000
1503.491577 6229.000000
1505.082153 6747.000000
1506.671387 6471.000000
1508.260010 6071.000000
1509.847534 6583.000000
1511.433960 6863.000000
1513.019653 6111.000000
1514.604248 6650.000000
1516.187988 6459.000000
1517.770630 6163.000000
1519.352539 6571.000000
1520.933350 6651.000000
1522.513428 6052.000000
1524.092285 6267.000000
1525.670288 6438.000000
1527.247559 6246.000000
1528.823608 5718.000000
1530.398926 5840.000000
1531.973145 6323.000000
1533.546631 5476.000000
1535.118896 5949.000000
1536.690430 6349.000000
1538.260986 6468.000000
1539.830688 6343.000000
1541.399170 5489.000000
1542.966919 6634.000000
1544.533813 5699.000000
1546.099487 6813.000000
1547.664429 5894.000000
1549.228271 5027.000000
1550.791504 7445.000000
1552.353394 6330.000000
1553.914673 6014.000000
1555.474854 5697.000000
1557.034302 5706.000000
1558.592651 6126.000000
1560.150269 6297.000000
1561.706787 7053.000000
1563.262085 5874.000000
1564.816772 6372.000000
1566.370728 5712.000000
1567.923706 6359.000000
1569.475342 5659.000000
1571.026245 5912.000000
1572.576416 6288.000000
1574.125610 6309.000000
1575.673462 5770.000000
1577.220825 5563.000000
1578.767212 5637.000000
1580.312744 5044.000000
1581.857300 6662.000000
1583.400635 6369.000000
1584.943359 6598.000000
1586.485229 6443.000000
1588.026001 6673.000000
1589.565796 5828.000000
1591.104858 6674.000000
1592.642822 5904.000000
1594.180298 6154.000000
1595.716431 5943.000000
1597.251465 6749.000000
1598.786011 6296.000000
1600.319580 5941.000000
1601.852295 6264.000000
1603.383423 6387.000000
1604.914307 6282.000000
1606.444336 5764.000000
1607.973145 6143.000000
1609.500854 6201.000000
1611.027954 6039.000000
1612.554321 5837.000000
1614.079712 6272.000000
1615.604248 5875.000000
1617.127441 5727.000000
1618.649902 5667.000000
1620.171631 6634.000000
1621.692505 7021.000000
1623.211914 15578.000000
1624.730835 6222.000000
1626.249023 6027.000000
1627.766357 5917.000000
1629.282593 6403.000000
1630.797485 7008.000000
1632.311890 6740.000000
1633.825562 5803.000000
1635.338135 6854.000000
1636.849487 5975.000000
1638.360474 6513.000000
1639.870361 6273.000000
1641.379395 6151.000000
1642.887085 5644.000000
1644.394409 6126.000000
1645.900879 7131.000000
1647.406372 6254.000000
1648.911011 6866.000000
1650.414185 6169.000000
1651.916748 6609.000000
1653.418945 6354.000000
1654.919800 6753.000000
1656.419556 7417.000000
1657.918457 6171.000000
1659.416992 6511.000000
1660.914307 6288.000000
1662.410889 5918.000000
1663.905884 6491.000000
1665.400635 6346.000000
1666.894531 5286.000000
1668.387451 5716.000000
1669.879028 21165.000000
1671.370117 6550.000000
1672.860596 6029.000000
1674.349976 5965.000000
1675.837891 6936.000000
1677.325562 6891.000000
1678.812256 6081.000000
1680.298096 5459.000000
1681.783081 6066.000000
1683.266602 6261.000000
1684.749878 6218.000000
1686.232300 5891.000000
1687.713623 6259.000000
1689.193481 6280.000000
1690.673096 5526.000000
1692.151978 6541.000000
1693.629883 6054.000000
1695.106812 6142.000000
1696.582520 5781.000000
1698.057861 5973.000000
1699.531982 6379.000000
1701.005493 5585.000000
1702.477539 5608.000000
1703.949341 6902.000000
1705.420166 6398.000000
1706.890137 7134.000000
1708.358765 5179.000000
1709.826904 5812.000000
1711.294312 6380.000000
1712.760620 5512.000000
1714.226318 5784.000000
1715.690308 6218.000000
1717.154175 6040.000000
1718.617188 7049.000000
1720.079224 6392.000000
1721.540039 6649.000000
1723.000244 5437.000000
1724.459717 6452.000000
1725.918335 6086.000000
1727.375977 6028.000000
1728.832275 6234.000000
1730.288330 6075.000000
1731.743408 6465.000000
1733.197510 6036.000000
1734.650391 6841.000000
1736.103027 5969.000000
1737.554565 6886.000000
1739.005371 5974.000000
1740.455200 6616.000000
1741.903687 5975.000000
1743.351807 7555.000000
1744.799072 6616.000000
1746.245605 6688.000000
1747.690552 6728.000000
1749.135254 6147.000000
1750.579102 5903.000000
1752.022095 5585.000000
1753.463623 6588.000000
1754.904907 6349.000000
1756.345337 19474.000000
1757.784790 6286.000000
1759.223267 5231.000000
1760.660767 6097.000000
1762.097778 7567.000000
1763.533813 5856.000000
1764.968994 7252.000000
1766.402710 6207.000000
1767.836304 6482.000000
1769.268921 6667.000000
1770.700684 5837.000000
1772.131592 5872.000000
1773.561279 6398.000000
1774.990234 6192.000000
1776.418701 6247.000000
1777.846191 6746.000000
1779.272339 6252.000000
1780.698242 5592.000000
1782.123047 6905.000000
1783.547241 5587.000000
1784.969971 6632.000000
1786.392212 6541.000000
1787.813721 6865.000000
1789.234497 5903.000000
1790.654297 6175.000000
1792.072754 6160.000000
1793.490723 6878.000000
1794.908081 5471.000000
1796.324585 6070.000000
1797.739624 6574.000000
1799.154297 5816.000000
1800.568359 6637.000000
1801.981201 5950.000000
1803.393433 7037.000000
1804.804321 7149.000000
1806.214722 7760.000000
1807.624390 6522.000000
1809.033081 5952.000000
1810.440674 5431.000000
1811.847778 6478.000000
1813.254028 6337.000000
1814.659302 6728.000000
1816.063477 5973.000000
1817.467285 5959.000000
1818.870117 6308.000000
1820.272095 6054.000000
1821.673462 5897.000000
1823.073364 6414.000000
1824.472656 6506.000000
1825.871460 6565.000000
1827.269409 7453.000000
1828.666016 5707.000000
1830.062012 6801.000000
1831.457275 5924.000000
1832.851929 8138.000000
1834.245605 6082.000000
1835.637939 6874.000000
1837.029785 6403.000000
1838.421021 5888.000000
1839.811279 7088.000000
1841.200317 6020.000000
1842.588989 6069.000000
1843.976685 6015.000000
1845.363647 5808.000000
1846.749268 6912.000000
1848.134644 5861.000000
1849.519165 6431.000000
1850.902954 6278.000000
1852.285645 6413.000000
1853.667114 5408.000000
1855.048096 6599.000000
1856.428589 6371.000000
1857.808105 5749.000000
1859.186157 5930.000000
1860.564087 6293.000000
1861.941040 7831.000000
1863.317261 6134.000000
1864.692627 6135.000000
1866.066528 5668.000000
1867.440308 5751.000000
1868.813232 6246.000000
1870.185059 6001.000000
1871.555908 6879.000000
1872.926392 5473.000000
1874.295776 6046.000000
1875.664673 6112.000000
1877.031982 7195.000000
1878.399170 5994.000000
1879.765381 5979.000000
1881.130859 6812.000000
1882.495605 7552.000000
1883.858765 6819.000000
1885.221802 6917.000000
1886.583984 6342.000000
1887.945313 6480.000000
1889.305298 5665.000000
1890.664917 5762.000000
1892.023926 6134.000000
1893.381958 6704.000000
1894.739136 7288.000000
1896.095093 5918.000000
1897.450806 7637.000000
1898.805542 5908.000000
1900.159424 5553.000000
1901.512207 5893.000000
1902.864502 5965.000000
1904.216064 5947.000000
1905.566772 6885.000000
1906.916260 6531.000000
1908.265259 6670.000000
1909.613403 5806.000000
1910.960938 6131.000000
1912.307739 6287.000000
1913.652954 6866.000000
1914.997925 6112.000000
1916.342163 5468.000000
1917.685547 6522.000000
1919.027588 6046.000000
1920.369385 6729.000000
1921.710327 7033.000000
1923.050537 6132.000000
1924.389771 6360.000000
1925.728027 6324.000000
1927.065674 6479.000000
1928.402588 7023.000000
1929.738647 6737.000000
1931.073486 5589.000000
1932.407959 6684.000000
1933.741699 7299.000000
1935.074585 6251.000000
1936.406006 5750.000000
1937.737549 6359.000000
1939.067749 6617.000000
1940.397461 5754.000000
1941.726318 6126.000000
1943.053955 5852.000000
1944.381104 5014.000000
1945.707520 5794.000000
1947.033203 6509.000000
1948.357544 5809.000000
1949.681641 6701.000000
1951.004883 6360.000000
1952.327393 6392.000000
1953.648804 5799.000000
1954.969238 7506.000000
1956.289063 6071.000000
1957.608521 5592.000000
1958.927002 6893.000000
1960.244141 5919.000000
1961.560913 5800.000000
1962.876953 6607.000000
1964.192261 6585.000000
1965.506104 6279.000000
1966.819702 5715.000000
1968.132568 6233.000000
1969.444580 6038.000000
1970.755981 5971.000000
1972.066040 6283.000000
1973.375610 5879.000000
1974.684448 6202.000000
1975.992676 6584.000000
1977.299561 6098.000000
1978.605835 7231.000000
1979.911743 5574.000000
1981.216431 6480.000000
1982.520630 5909.000000
1983.823608 5693.000000
1985.126221 7611.000000
1986.427856 6157.000000
1987.728882 6800.000000
1989.028320 6019.000000
1990.327881 6610.000000
1991.626343 5290.000000
1992.924316 6131.000000
1994.220703 6125.000000
1995.517090 5842.000000
1996.812500 5649.000000
1998.107178 6621.000000
1999.401001 5714.000000
2000.693604 6599.000000
2001.985718 5748.000000
2003.277344 7166.000000
2004.568237 6503.000000
2005.857544 6240.000000
2007.146606 6787.000000
2008.434937 5972.000000
2009.722534 6041.000000
2011.009277 6899.000000
2012.294922 5625.000000
2013.580200 6322.000000
2014.864502 6045.000000
2016.148193 5631.000000
2017.430542 6062.000000
2018.712524 6611.000000
2019.994019 6708.000000
2021.274536 5946.000000
2022.554321 6086.000000
2023.833008 6741.000000
2025.110962 5838.000000
2026.388428 5864.000000
2027.665283 6284.000000
2028.940430 5860.000000
2030.215698 6590.000000
2031.489990 6073.000000
2032.763306 5972.000000
2034.035767 5977.000000
2035.307861 6156.000000
2036.578857 6968.000000
2037.849609 6594.000000
2039.119019 5980.000000
2040.387329 6951.000000
2041.655640 6592.000000
2042.922974 5968.000000
2044.189575 6029.000000
2045.454956 5621.000000
2046.719727 5894.000000
2047.984253 5441.000000
2049.247559 5896.000000
2050.510498 6374.000000
2051.771484 6126.000000
2053.032959 6177.000000
2054.293213 5931.000000
2055.552734 6648.000000
2056.811523 6292.000000
2058.069336 6928.000000
2059.326660 5907.000000
2060.583252 6031.000000
2061.838379 6513.000000
2063.093506 5605.000000
2064.347656 5644.000000
2065.601074 5687.000000
2066.853760 6886.000000
2068.105225 6315.000000
2069.356445 6438.000000
2070.606934 5569.000000
2071.856689 5411.000000
2073.104980 6557.000000
2074.353271 6494.000000
2075.600586 7417.000000
2076.847168 5547.000000
2078.093018 6039.000000
2079.337646 7043.000000
2080.581787 7628.000000
2081.825439 5534.000000
2083.068115 6054.000000
2084.309570 6998.000000
2085.550781 5982.000000
2086.791504 6377.000000
2088.031250 6777.000000
2089.269775 7105.000000
2090.507813 6257.000000
2091.745117 5825.000000
2092.982178 6663.000000
2094.217773 6099.000000
2095.452637 6218.000000
2096.687256 6075.000000
2097.920898 5646.000000
2099.153564 6074.000000
2100.385498 6938.000000
2101.616943 6420.000000
2102.847412 6842.000000
2104.077148 5988.000000
2105.306641 5993.000000
2106.534180 6028.000000
2107.761963 6032.000000
2108.989014 6385.000000
2110.215088 5488.000000
2111.439697 6403.000000
2112.664551 7020.000000
2113.888184 7053.000000
2115.111328 6246.000000
2116.333252 7561.000000
2117.554932 6007.000000
2118.775635 6812.000000
2119.995605 6007.000000
2121.215088 6149.000000
2122.433105 6618.000000
2123.651123 7047.000000
2124.868164 5753.000000
2126.084717 5807.000000
2127.299561 6539.000000
2128.514648 6416.000000
2129.728760 7022.000000
2130.942139 5682.000000
2132.154785 6055.000000
2133.365967 5811.000000
2134.577393 6397.000000
2135.787598 6633.000000
2136.997314 5916.000000
2138.205566 6214.000000
2139.413818 5639.000000
2140.621338 5963.000000
2141.827637 7766.000000
2143.033203 5956.000000
2144.238525 5713.000000
2145.442871 5575.000000
2146.646484 6282.000000
2147.849609 6245.000000
2149.051270 6448.000000
2150.252686 5330.000000
2151.453369 6327.000000
2152.653320 6137.000000
2153.852051 6058.000000
2155.050537 6985.000000
2156.248535 6185.000000
2157.445557 6034.000000
2158.641846 5222.000000
2159.836914 5272.000000
2161.031738 6171.000000
2162.225830 5650.000000
2163.418945 6004.000000
2164.611084 6901.000000
2165.802979 5900.000000
2166.994141 6295.000000
2168.184326 6272.000000
2169.373779 6460.000000
2170.562744 6755.000000
2171.750732 6013.000000
2172.938477 5771.000000
2174.124756 5993.000000
2175.310303 6629.000000
2176.495605 5994.000000
2177.680420 5855.000000
2178.864014 6378.000000
2180.046875 7475.000000
2181.228760 6375.000000
2182.410400 5992.000000
2183.591553 6594.000000
2184.771484 5729.000000
2185.950439 5578.000000
2187.128906 6331.000000
2188.307129 6920.000000
2189.484131 7237.000000
2190.660156 6739.000000
2191.835938 6209.000000
2193.011230 5590.000000
2194.185059 6745.000000
2195.358398 6146.000000
2196.531494 6122.000000
2197.703369 6582.000000
2198.874756 7141.000000
2200.045654 6322.000000
2201.214844 6928.000000
2202.384033 7577.000000
2203.552734 6292.000000
2204.720459 5874.000000
2205.887207 5668.000000
2207.053223 7176.000000
2208.218750 6687.000000
2209.384033 5976.000000
2210.547852 6756.000000
2211.711182 5464.000000
2212.873291 6253.000000
2214.035645 6186.000000
2215.196777 6637.000000
2216.356934 6681.000000
2217.516602 6277.000000
2218.676025 6651.000000
2219.834229 6349.000000
2220.991455 6379.000000
2222.148438 6834.000000
2223.304688 6559.000000
2224.460205 6770.000000
2225.614990 6347.000000
2226.768799 6402.000000
2227.921631 6108.000000
2229.074951 6962.000000
2230.226318 6237.000000
2231.377441 6194.000000
2232.527832 6521.000000
2233.677734 7700.000000
2234.826660 6341.000000
2235.975098 5218.000000
2237.122070 6792.000000
2238.269287 7082.000000
2239.415283 6077.000000
2240.561035 7259.000000
2241.705078 7344.000000
2242.849365 6740.000000
2243.992676 6197.000000
2245.135254 6030.000000
2246.276855 5690.000000
2247.418213 5869.000000
2248.558594 6416.000000
2249.698242 6382.000000
2250.837402 5828.000000
2251.975342 5828.000000
2253.113281 6207.000000
2254.250244 5340.000000
2255.386475 6377.000000
2256.521729 6152.000000
2257.656250 7257.000000
2258.790527 6407.000000
2259.924316 5433.000000
2261.056641 6131.000000
2262.188477 6840.000000
2263.319824 6327.000000
2264.450195 6542.000000
2265.580322 8127.000000
2266.709229 6710.000000
2267.837646 6080.000000
2268.965576 5547.000000
2270.092529 6157.000000
2271.218750 5915.000000
2272.343994 6765.000000
2273.469238 6528.000000
2274.593750 6422.000000
2275.717041 5923.000000
2276.839600 6347.000000
2277.961670 6027.000000
2279.083252 7392.000000
2280.204102 6464.000000
2281.323730 6411.000000
2282.442871 7147.000000
2283.561768 7726.000000
2284.679932 7276.000000
2285.797119 5905.000000
2286.913330 6426.000000
2288.029297 7014.000000
2289.144531 6913.000000
2290.259033 7417.000000
2291.372314 5898.000000
2292.485596 6372.000000
2293.598145 5989.000000
2294.709961 5411.000000
2295.821045 6779.000000
2296.930908 6457.000000
2298.040283 6173.000000
2299.149414 6699.000000
2300.257568 6323.000000
2301.364746 6786.000000
2302.471680 5922.000000
2303.577881 6287.000000
2304.683594 6578.000000
2305.787842 6646.000000
2306.891846 5488.000000
2307.995361 5713.000000
2309.098389 6570.000000
2310.200195 7408.000000
2311.301270 7372.000000
2312.401855 6525.000000
2313.501953 5554.000000
2314.601318 6413.000000
2315.699219 6604.000000
2316.797607 7020.000000
2317.894531 8243.000000
2318.991211 6929.000000
2320.087402 5795.000000
2321.181885 6913.000000
2322.276367 7641.000000
2323.370117 5843.000000
2324.463623 6063.000000
2325.555420 6459.000000
2326.647217 7059.000000
2327.738281 6195.000000
2328.828613 6290.000000
2329.917969 7002.000000
2331.007324 6067.000000
2332.095459 6375.000000
2333.183105 6855.000000
2334.270508 6556.000000
2335.356201 6717.000000
2336.441650 7782.000000
2337.526855 6251.000000
2338.611084 6786.000000
2339.694336 5820.000000
2340.777344 6422.000000
2341.859375 7188.000000
2342.941162 6055.000000
2344.022217 7425.000000
2345.102051 6652.000000
2346.181396 5725.000000
2347.260254 6797.000000
2348.338623 6622.000000
2349.415527 6335.000000
2350.492188 6937.000000
2351.568604 6018.000000
2352.644043 6523.000000
2353.718506 5965.000000
2354.792725 6282.000000
2355.866211 6782.000000
2356.939209 6260.000000
2358.010986 7070.000000
2359.082520 6310.000000
2360.153076 6812.000000
2361.223389 7465.000000
2362.292725 7588.000000
2363.361084 6857.000000
2364.429199 6709.000000
2365.496582 7097.000000
2366.563477 7182.000000
2367.629639 6012.000000
2368.694580 6946.000000
2369.759521 6962.000000
2370.823730 6450.000000
2371.887207 6961.000000
2372.949463 5812.000000
2374.011719 6352.000000
2375.072998 6324.000000
2376.134033 5948.000000
2377.193848 6322.000000
2378.252930 7949.000000
2379.312012 6408.000000
2380.370117 7552.000000
2381.427490 6948.000000
2382.483887 8093.000000
2383.540039 7843.000000
2384.595703 6269.000000
2385.650635 7076.000000
2386.704102 6776.000000
2387.757813 6539.000000
2388.810547 6315.000000
2389.862793 6754.000000
2390.914307 6221.000000
2391.964844 6621.000000
2393.015137 6535.000000
2394.064453 6274.000000
2395.113770 6208.000000
2396.161621 6926.000000
2397.208984 7007.000000
2398.256104 6354.000000
2399.302246 6681.000000
2400.347656 6212.000000
2401.392334 6781.000000
2402.437012 7726.000000
2403.480225 7437.000000
2404.523438 6559.000000
2405.565186 5809.000000
2406.607178 6754.000000
2407.648438 7120.000000
2408.688721 6115.000000
2409.728271 6482.000000
2410.766846 6370.000000
2411.805664 6012.000000
2412.843262 6561.000000
2413.880615 6842.000000
2414.916748 7408.000000
2415.952637 6240.000000
2416.987793 6236.000000
2418.022461 6630.000000
2419.055664 7140.000000
2420.089111 6481.000000
2421.121582 6713.000000
2422.153809 6809.000000
2423.184570 7065.000000
2424.215332 6372.000000
2425.245605 6851.000000
2426.274658 6846.000000
2427.303711 6694.000000
2428.331055 7382.000000
2429.358887 6720.000000
2430.385498 7270.000000
2431.411865 6952.000000
2432.436768 7765.000000
2433.461914 6621.000000
2434.486084 7136.000000
2435.510010 6732.000000
2436.532715 5832.000000
2437.554688 6363.000000
2438.576416 6658.000000
2439.597412 6629.000000
2440.617920 6012.000000
2441.637207 6473.000000
2442.656494 6522.000000
2443.674805 8401.000000
2444.692871 6238.000000
2445.709473 6488.000000
2446.726074 6555.000000
2447.741943 5980.000000
2448.757813 6978.000000
2449.772217 6784.000000
2450.785889 5568.000000
2451.799072 7207.000000
2452.812012 6009.000000
2453.824219 7265.000000
2454.835449 6700.000000
2455.846436 7708.000000
2456.856689 6334.000000
2457.866455 7630.000000
2458.875244 5986.000000
2459.883301 5973.000000
2460.891357 6325.000000
2461.898193 7389.000000
2462.904785 5349.000000
2463.910156 7484.000000
2464.915283 6935.000000
2465.920166 5890.000000
2466.923828 6570.000000
2467.927246 6394.000000
2468.929688 7596.000000
2469.931885 7411.000000
2470.933594 6837.000000
2471.934326 6632.000000
2472.934082 6976.000000
2473.933838 6768.000000
2474.932617 5703.000000
2475.930908 6615.000000
2476.928223 7064.000000
2477.925293 6097.000000
2478.922363 7009.000000
2479.917969 5867.000000
2480.913574 7158.000000
2481.907471 6780.000000
2482.901367 8134.000000
2483.894775 6907.000000
2484.887695 6714.000000
2485.879639 7480.000000
2486.870850 7225.000000
2487.861816 6756.000000
2488.852295 5839.000000
2489.841797 6545.000000
2490.830566 6557.000000
2491.819336 5618.000000
2492.807129 6840.000000
2493.793701 6530.000000
2494.780273 8062.000000
2495.766357 6762.000000
2496.751709 7109.000000
2497.736084 8221.000000
2498.720215 6049.000000
2499.704346 6937.000000
2500.687012 5733.000000
2501.669189 7094.000000
2502.650879 6871.000000
2503.631836 7251.000000
2504.612305 6550.000000
2505.592529 5786.000000
2506.571289 6304.000000
2507.549805 7595.000000
2508.527832 6710.000000
2509.505371 7093.000000
2510.481934 6040.000000
2511.458252 5960.000000
2512.433838 6414.000000
2513.408936 6264.000000
2514.383545 6506.000000
2515.356934 7660.000000
2516.330078 6825.000000
2517.302979 6881.000000
2518.274902 6069.000000
2519.246094 6888.000000
2520.216797 6992.000000
2521.187256 7831.000000
2522.156982 8086.000000
2523.125732 6134.000000
2524.093750 6153.000000
2525.061768 7720.000000
2526.028809 6291.000000
2526.995605 5553.000000
2527.961182 7276.000000
2528.926758 7006.000000
2529.891602 7784.000000
2530.855957 6387.000000
2531.819092 6382.000000
2532.782471 5893.000000
2533.744873 6001.000000
2534.707031 6665.000000
2535.667969 6442.000000
2536.628174 6136.000000
2537.588623 6106.000000
2538.548096 6799.000000
2539.506836 6903.000000
2540.464600 6660.000000
2541.422607 6193.000000
2542.379883 6797.000000
2543.336182 6075.000000
2544.292236 7078.000000
2545.247070 6201.000000
2546.202148 7758.000000
2547.156494 7043.000000
2548.110107 6807.000000
2549.062744 7233.000000
2550.015137 6783.000000
2550.967041 7037.000000
2551.918213 6390.000000
2552.868652 7810.000000
2553.818604 7074.000000
2554.768311 7390.000000
2555.717285 6679.000000
2556.665771 6276.000000
2557.613037 7064.000000
2558.560303 6309.000000
2559.506836 6517.000000
2560.452881 6835.000000
2561.397949 7428.000000
2562.342773 6761.000000
2563.287109 7191.000000
2564.230957 6827.000000
2565.174316 6691.000000
2566.116211 6601.000000
2567.058350 6563.000000
2567.999756 6190.000000
2568.940430 7187.000000
2569.880371 7314.000000
2570.820313 5678.000000
2571.759277 6095.000000
2572.697998 7504.000000
2573.635742 7258.000000
2574.573242 5433.000000
2575.510010 6949.000000
2576.446045 6811.000000
2577.381592 7544.000000
2578.316406 6296.000000
2579.251221 6011.000000
2580.185059 7091.000000
2581.118408 7063.000000
2582.051025 5849.000000
2582.983398 6877.000000
2583.915039 5443.000000
2584.846191 7038.000000
2585.776855 7027.000000
2586.706299 6867.000000
2587.635742 7266.000000
2588.564697 6487.000000
2589.493408 7469.000000
2590.420410 7250.000000
2591.347656 5914.000000
2592.274414 6789.000000
2593.200439 6319.000000
2594.126221 5651.000000
2595.050781 7661.000000
2595.975098 7568.000000
2596.898926 5338.000000
2597.822266 7411.000000
2598.744629 6294.000000
2599.666748 6846.000000
2600.588379 8364.000000
2601.509277 6373.000000
2602.429443 5834.000000
2603.349365 6352.000000
2604.268799 6389.000000
2605.187988 6476.000000
2606.106201 5898.000000
2607.023193 5969.000000
2607.940430 7313.000000
2608.857422 5894.000000
2609.773438 7573.000000
2610.688232 6672.000000
2611.603516 6662.000000
2612.518066 6567.000000
2613.431641 6509.000000
2614.345215 6155.000000
2615.257568 7637.000000
2616.169922 7013.000000
2617.081299 6791.000000
2617.992432 5723.000000
2618.902832 7250.000000
2619.812988 6690.000000
2620.722412 6163.000000
2621.631348 6607.000000
2622.539307 6235.000000
2623.447510 6928.000000
2624.354736 6625.000000
2625.261475 7062.000000
2626.167480 6023.000000
2627.073242 6651.000000
2627.978271 6457.000000
2628.883057 7798.000000
2629.787109 6485.000000
2630.690186 6407.000000
2631.593262 6459.000000
2632.495361 5595.000000
2633.397461 6772.000000
2634.299316 7022.000000
2635.199463 6791.000000
2636.099854 6418.000000
2636.999512 6418.000000
2637.898926 6017.000000
2638.796875 6900.000000
2639.695313 6794.000000
2640.593262 6393.000000
2641.490479 6121.000000
2642.386475 6151.000000
2643.282471 6761.000000
2644.178223 6093.000000
2645.073242 6499.000000
2645.968018 6686.000000
2646.861328 7271.000000
2647.754639 6322.000000
2648.647705 6778.000000
2649.540527 6539.000000
2650.431641 7484.000000
2651.322998 6363.000000
2652.213867 7625.000000
2653.104004 7348.000000
2653.993896 6603.000000
2654.882568 7313.000000
2655.771484 6655.000000
2656.659912 6594.000000
2657.547363 7357.000000
2658.433838 6470.000000
2659.320801 7095.000000
2660.207031 6831.000000
2661.092773 6777.000000
2661.977295 6562.000000
2662.861816 6333.000000
2663.746094 6227.000000
2664.629639 7038.000000
2665.512695 7731.000000
2666.395020 7385.000000
2667.276855 6210.000000
2668.157959 6638.000000
2669.039307 6125.000000
2669.919189 6587.000000
2670.799316 7427.000000
2671.678711 7245.000000
2672.558105 6364.000000
2673.436768 6175.000000
2674.313721 6491.000000
2675.191406 6791.000000
2676.068359 6363.000000
2676.944580 8057.000000
2677.820313 7119.000000
2678.695313 6226.000000
2679.570557 7751.000000
2680.444824 7010.000000
2681.318604 7334.000000
2682.191650 7079.000000
2683.064453 6216.000000
2683.937012 6123.000000
2684.808838 7041.000000
2685.679932 6536.000000
2686.550781 6906.000000
2687.421143 7125.000000
2688.291260 6698.000000
2689.159668 6303.000000
2690.028809 7308.000000
2690.897217 7112.000000
2691.765381 6663.000000
2692.632813 6840.000000
2693.499023 5854.000000
2694.365723 7160.000000
2695.231445 7412.000000
2696.097168 7150.000000
2696.961426 7964.000000
2697.826416 6628.000000
2698.689941 7260.000000
2699.553711 5828.000000
2700.416016 7445.000000
2701.278809 6884.000000
2702.140625 5925.000000
2703.001953 6952.000000
2703.863281 6648.000000
2704.723389 7466.000000
2705.583496 7340.000000
2706.443115 6562.000000
2707.302490 6909.000000
2708.160156 7189.000000
2709.018066 6880.000000
2709.876465 7292.000000
2710.733643 6733.000000
2711.590088 6039.000000
2712.446045 6895.000000
2713.302002 6081.000000
2714.157227 6912.000000
2715.011719 6162.000000
2715.865723 6842.000000
2716.719727 7363.000000
2717.572754 6271.000000
2718.426025 6689.000000
2719.277588 7776.000000
2720.129639 6792.000000
2720.981445 6254.000000
2721.832031 6570.000000
2722.682617 6559.000000
2723.532715 7132.000000
2724.382080 6989.000000
2725.231445 6972.000000
2726.079590 6689.000000
2726.927246 6554.000000
2727.775391 7065.000000
2728.622314 6827.000000
2729.469727 5580.000000
2730.315674 7434.000000
2731.160889 7044.000000
2732.006592 6430.000000
2732.851318 7158.000000
2733.696045 7404.000000
2734.539551 6928.000000
2735.383301 7817.000000
2736.226318 6973.000000
2737.068848 6049.000000
2737.910400 6253.000000
2738.752441 6769.000000
2739.593506 7503.000000
2740.434326 5786.000000
2741.274902 5934.000000
2742.114258 7726.000000
2742.953613 6819.000000
2743.792969 6930.000000
2744.631104 6801.000000
2745.468750 7929.000000
2746.306396 6329.000000
2747.143555 7111.000000
2747.980469 6180.000000
2748.816895 6019.000000
2749.652100 6663.000000
2750.487549 6295.000000
2751.322510 6346.000000
2752.156738 6280.000000
2752.990723 6894.000000
2753.824219 6863.000000
2754.657715 8059.000000
2755.490234 6749.000000
2756.322266 7317.000000
2757.153809 6809.000000
2757.985352 7223.000000
2758.815918 7255.000000
2759.646729 7211.000000
2760.476318 7295.000000
2761.305908 6678.000000
2762.135254 7278.000000
2762.963867 6894.000000
2763.791992 6762.000000
2764.619629 6835.000000
2765.447266 6608.000000
2766.274414 7952.000000
2767.100830 5805.000000
2767.926758 7440.000000
2768.752197 6903.000000
2769.577393 7805.000000
2770.402588 7096.000000
2771.226563 6779.000000
2772.050537 6496.000000
2772.874512 7631.000000
2773.697266 6702.000000
2774.520264 6936.000000
2775.342041 6939.000000
2776.163818 6956.000000
2776.985596 6438.000000
2777.806396 7921.000000
2778.626465 6580.000000
2779.446777 7002.000000
2780.266602 7241.000000
2781.086426 6500.000000
2781.904297 5931.000000
2782.723389 7996.000000
2783.541260 6497.000000
2784.358887 6726.000000
2785.176025 7172.000000
2785.992676 7322.000000
2786.809082 7213.000000
2787.625000 6270.000000
2788.440674 5989.000000
2789.255371 6353.000000
2790.070557 6980.000000
2790.885010 7170.000000
2791.698975 6605.000000
2792.512695 7423.000000
2793.325195 8854.000000
2794.137939 6888.000000
2794.950195 7416.000000
2795.761963 7218.000000
2796.572998 7359.000000
2797.384766 6549.000000
2798.195313 7208.000000
2799.005859 7052.000000
2799.814941 7400.000000
2800.624756 8254.000000
2801.433838 7855.000000
2802.242676 6696.000000
2803.051025 7161.000000
2803.858398 6149.000000
2804.666260 6505.000000
2805.473389 6954.000000
2806.280273 7016.000000
2807.085938 7127.000000
2807.892090 6671.000000
2808.697510 6546.000000
2809.502930 7377.000000
2810.307617 6232.000000
2811.111328 7659.000000
2811.915527 7531.000000
2812.719238 6360.000000
2813.522705 6166.000000
2814.324707 6648.000000
2815.127441 7375.000000
2815.929443 7827.000000
2816.731201 6184.000000
2817.532471 6565.000000
2818.333252 7232.000000
2819.133545 6543.000000
2819.934082 6678.000000
2820.733643 8057.000000
2821.532715 7163.000000
2822.331787 6509.000000
2823.130615 6915.000000
2823.928955 6357.000000
2824.726318 7043.000000
2825.523926 7414.000000
2826.320801 6718.000000
2827.117920 7407.000000
2827.914307 8018.000000
2828.709961 7051.000000
2829.505615 7393.000000
2830.301025 7577.000000
2831.095947 7439.000000
2831.890137 6693.000000
2832.684326 6842.000000
2833.478271 5722.000000
2834.271729 6898.000000
2835.064453 7174.000000
2835.856934 8110.000000
2836.649414 7649.000000
2837.441650 7516.000000
2838.233398 6453.000000
2839.024170 6797.000000
2839.814941 8909.000000
2840.605957 7523.000000
2841.395996 6289.000000
2842.185547 7671.000000
2842.975342 7111.000000
2843.764160 7363.000000
2844.552979 7767.000000
2845.341797 7762.000000
2846.129639 7522.000000
2846.916992 7195.000000
2847.704590 7547.000000
2848.491699 7378.000000
2849.278076 6577.000000
2850.064453 7449.000000
2850.850586 7210.000000
2851.636230 7519.000000
2852.420898 7132.000000
2853.206055 6859.000000
2853.990967 7506.000000
2854.775146 7121.000000
2855.559326 6882.000000
2856.342285 8316.000000
2857.125488 6818.000000
2857.908447 6736.000000
2858.690918 7726.000000
2859.473145 6316.000000
2860.254883 6720.000000
2861.036377 7604.000000
2861.818115 7508.000000
2862.599121 7640.000000
2863.379395 6588.000000
2864.159424 6728.000000
2864.939453 8189.000000
2865.719238 7513.000000
2866.498047 8160.000000
2867.277100 7677.000000
2868.055664 6784.000000
2868.833984 6970.000000
2869.611816 7199.000000
2870.389404 6993.000000
2871.166748 7482.000000
2871.943848 6984.000000
2872.720459 6461.000000
2873.496582 7531.000000
2874.272705 7230.000000
2875.048340 8324.000000
2875.823730 7220.000000
2876.598633 6691.000000
2877.373291 8051.000000
2878.147949 6753.000000
2878.922363 7892.000000
2879.696045 6868.000000
2880.468994 7242.000000
2881.242676 6815.000000
2882.015381 7631.000000
2882.788086 7877.000000
2883.560059 8280.000000
2884.331787 6197.000000
2885.104004 6783.000000
2885.875000 6903.000000
2886.645508 6135.000000
2887.416504 8276.000000
2888.187500 7386.000000
2888.957764 7975.000000
2889.727051 7650.000000
2890.496582 6915.000000
2891.266113 7328.000000
2892.035156 7384.000000
2892.803711 7955.000000
2893.572266 7645.000000
2894.339844 6983.000000
2895.107910 6580.000000
2895.875488 7441.000000
2896.643066 8391.000000
2897.409424 7382.000000
2898.176758 6538.000000
2898.942871 7240.000000
2899.709229 6967.000000
2900.474121 8290.000000
2901.239502 6996.000000
2902.005371 6489.000000
2902.769775 7809.000000
2903.534180 7782.000000
2904.298828 8497.000000
2905.062500 6693.000000
2905.826904 8482.000000
2906.590576 6646.000000
2907.353516 8452.000000
2908.116211 6550.000000
2908.879395 9111.000000
2909.642090 6984.000000
2910.403564 6845.000000
2911.165527 6845.000000
