scanname Analyse098
timestamp 2017-02-10 22:31:28
ccdbias 953.914551
ccdgain 3.473401
sigmaread 8.960639
laserwavenum -0.447885
wavenumcorrection 0.075079
scancount 1
totalexposurems 10000
singleexposurems 10000
measurementstate Unknown
scanmode Manual
snr 12.009251 0.619867 0.297959
replacelist 1
1415 7164.000000 7698.000000
peaks 8
400.276764 0.034892 0.000000 0.294809 0.000029
809.625366 0.029780 0.000000 0.859208 0.000102
841.987976 0.027598 0.000000 0.388498 0.000078
972.877686 0.019310 0.000000 0.187271 0.000021
1153.627563 0.022702 0.000000 0.369190 0.000067
1332.510986 0.026879 0.000000 0.219732 0.000031
1458.572266 0.028621 0.000000 0.154989 0.000043
1556.068604 0.024016 0.000000 0.170760 0.000070
finalresult GLS_Multiple 88
A11883	Polypropylene (Isotactic)	5.415285e-001
A13500	Poly(propylene-co-ethylene)	5.400485e-001
A0115	Polypropylene	5.366571e-001
A13180	Polypropylene (lot B)	5.112793e-001
A1531	Ethyl formate	2.643731e-001
A2703	Acetaldehyde dimethyl acetal	2.511114e-001
A10674	Dibutyl succinate	2.477014e-001
A9321	Methyl 2-hydroxyisobutyrate	2.437481e-001
A13507	Poly(methyl methacrylate-co-ethyl acrylate)	2.431766e-001
A11885	Poly(methyl methacrylate-co-butyl methacrylate)	2.405844e-001
A14069	(R)-(-)-1,2-Propanediol	2.401930e-001
A0400	Potassium permanganate	2.369961e-001
A0518	Propylene glycol	2.356396e-001
A11872	Poly(methyl methacrylate)	2.350844e-001
A1676	Trifluoroacetic acid	2.312380e-001
A6290	Bis(2,2,2-trifluoroethyl) phosphite	2.309561e-001
A3573	Ammonium tartrate dibasic	2.277758e-001
A1584	Pentane	2.275490e-001
A3653	(R)-(+)-3-Methylcyclopentanone	2.270015e-001
A2313	Barium peroxide	2.262207e-001
A2098	Diethylene glycol dibutyl ether	2.243305e-001
A9660	3-(4-Methoxybenzoyl)propionic acid	2.221128e-001
A0369	2,4,6-Tribromophenol	2.201840e-001
A2839	5-Azacytidine	2.197450e-001
A10529	1-Formylpiperazine	2.173119e-001
A7225	Dibutyl adipate	2.168392e-001
A3868	N-formylmorpholine	2.138355e-001
A3222	Potassium nitrite	2.133378e-001
A2210	Calcium peroxide hydrate	2.132579e-001
A1270	Methyl DL-lactate	2.115624e-001
A2721	Formaldehyde diethyl acetal	2.111329e-001
A4269	2,4-Dibromoanisole	2.109678e-001
A14007	1,2-Dichlorotetramethyldisilane	2.103985e-001
A8580	Sodium permanganate solution	2.088816e-001
A12448	Tribromofluoromethane	2.088492e-001
A0098	Roundup (weed and grass killer)	2.049780e-001
A0642	1,4-Diazabicyclo[2.2.2]octane	2.032347e-001
A9092	p-Tolyl ether	2.029270e-001
A12725	Cerium(III) fluoride	2.024095e-001
A13820	(-)-Methyl L-lactate	2.022602e-001
A14792	N-Guanylurea sulfate salt hydrate	2.021180e-001
A0524	Propionic acid	2.017661e-001
A2727	Acrolein diethyl acetal	2.010231e-001
A8920	Perrhenic acid solution	1.996346e-001
A2385	Amphotericin B	1.986271e-001
A1928	Ammonium sulfate	1.968739e-001
A5382	3-Methoxypropionic acid	1.962774e-001
A6278	6-Methylnicotinamide	1.956050e-001
A0673	Hexachlorocyclopentadiene	1.951423e-001
A4881	2-(2-Chloroethoxy)tetrahydro-2H-pyran	1.946273e-001
A0544	1,4-Dioxane	1.939574e-001
A6025	2-Nitrothiophene	1.932783e-001
A1644	Ethyl isobutyrate	1.924015e-001
A0408	Chromium(VI) oxide	1.920083e-001
A1754	N,N-Dimethylhydrazine	1.911142e-001
A13034	4'-Nitrobenzo-15-crown-5	1.910150e-001
A2423	Hydroxyurea	1.899241e-001
A0199	Isobutyric acid	1.893717e-001
A15973	Silver azide	1.892656e-001
A5377	4-Methyl-2-nitroanisole	1.885545e-001
A2863	Streptomycin sulfate salt	1.879073e-001
A3574	Sodium hexanitrocobaltate(III)	1.877755e-001
A4645	1-Bromo-4-(trifluoromethoxy)benzene	1.874829e-001
A0761	N,N,N',N'-Tetrakis(2-Hydroxypropyl)ethylenediamine	1.874601e-001
A10745	Neomycin sulfate salt	1.871848e-001
A7024	Hydrazine monohydrobromide	1.868543e-001
A7885	beta-Carotene	1.867440e-001
A2926	Arsenic (III) Chloride	1.864988e-001
A8663	4-Methyl-3,5-dinitrobenzoic acid	1.857281e-001
A9546	4-Methoxy-alpha-methylbenzyl alcohol	1.855993e-001
A8248	5-Hydroxy-2-nitrobenzaldehyde	1.854211e-001
A14724	Ammonium metatungstate hydrate	1.847455e-001
A8797	6-Nitroindoline	1.845123e-001
A1547	Isovaleric acid	1.843451e-001
A14252	2-Methyl-5-nitrophenol	1.843212e-001
A0629	Cyanuric chloride	1.843111e-001
A5797	5-Nitroindazole	1.838376e-001
A13181	Polyethersulfone	1.834296e-001
A3625	1-Dimethylamino-2-propanol	1.828295e-001
A5042	2,4,6-Trichloropyrimidine	1.826585e-001
A2413	Sodium selenate	1.814568e-001
A2322	Silver sulfate	1.814491e-001
A14340	Titanium(IV) fluoride	1.814418e-001
A8610	5-Methyl-2-pyrrolidinone	1.798973e-001
A2147	Hydrazine sulfate salt	1.797758e-001
A3285	4,N,N-Trimethylaniline	1.789625e-001
A6700	4'-Methoxypropiophenone	1.765865e-001
A0419	Sodium chlorite	1.750955e-001
spectrum 2048
-97.153572 44804.000000
-94.526703 44804.000000
-91.901711 45498.000000
-89.278610 45582.000000
-86.657379 46522.000000
-84.038048 46298.000000
-81.420578 46636.000000
-78.804985 46436.000000
-76.191269 46715.000000
-73.579430 47072.000000
-70.969452 46919.000000
-68.361359 47064.000000
-65.755112 47189.000000
-63.150738 47130.000000
-60.548229 47140.000000
-57.947575 47582.000000
-55.348782 46932.000000
-52.751846 46327.000000
-50.156765 46673.000000
-47.563538 46672.000000
-44.972160 46868.000000
-42.382629 46397.000000
-39.794941 47201.000000
-37.209103 47059.000000
-34.625107 46688.000000
-32.042950 47392.000000
-29.462637 46803.000000
-26.884151 47446.000000
-24.307508 46906.000000
-21.732691 46805.000000
-19.159714 46540.000000
-16.588556 46514.000000
-14.019233 46147.000000
-11.451735 45071.000000
-8.886055 46582.000000
-6.322201 46204.000000
-3.760160 46631.000000
-1.199945 46683.000000
1.358463 46162.000000
3.915051 45049.000000
6.469832 44935.000000
9.022798 44886.000000
11.573962 43322.000000
14.123314 42304.000000
16.670870 40566.000000
19.216614 39822.000000
21.760565 38299.000000
24.302711 34913.000000
26.843061 31871.000000
29.381626 29045.000000
31.918394 24623.000000
34.453362 17066.000000
36.986549 10567.000000
39.517956 7393.000000
42.047569 6801.000000
44.575386 6659.000000
47.101444 6157.000000
49.625713 5518.000000
52.148212 4690.000000
54.668915 4199.000000
57.187862 4422.000000
59.705036 5263.000000
62.220432 6604.000000
64.734047 7752.000000
67.245911 7746.000000
69.756027 5807.000000
72.264351 3794.000000
74.770920 2936.000000
77.275742 2377.000000
79.778809 1852.000000
82.280098 1754.000000
84.779648 1752.000000
87.277443 1605.000000
89.773506 1631.000000
92.267792 1955.000000
94.760338 2384.000000
97.251167 2471.000000
99.740227 2118.000000
102.227539 1551.000000
104.713127 1386.000000
107.196976 1123.000000
109.679077 1154.000000
112.159454 1104.000000
114.638107 979.000000
117.115036 985.000000
119.590210 850.000000
122.063675 812.000000
124.535408 877.000000
127.005432 886.000000
129.473709 778.000000
131.940308 828.000000
134.405151 920.000000
136.868301 1038.000000
139.329712 903.000000
141.789429 1080.000000
144.247421 1188.000000
146.703720 1285.000000
149.158310 1369.000000
151.611176 1445.000000
154.062363 1588.000000
156.511856 1807.000000
158.959625 2130.000000
161.405685 2330.000000
163.850067 2542.000000
166.292770 2836.000000
168.733780 2993.000000
171.173080 3136.000000
173.610672 3244.000000
176.046631 3120.000000
178.480850 3191.000000
180.913391 3210.000000
183.344284 3072.000000
185.773453 3008.000000
188.200974 2936.000000
190.626816 2990.000000
193.050980 2836.000000
195.473480 2836.000000
197.894287 2852.000000
200.313431 2819.000000
202.730911 2876.000000
205.146698 2980.000000
207.560837 2912.000000
209.973343 3011.000000
212.384171 3209.000000
214.793320 3292.000000
217.200836 3340.000000
219.606644 3499.000000
222.010864 3654.000000
224.413376 3750.000000
226.814270 3575.000000
229.213516 3695.000000
231.611099 3686.000000
234.007019 3803.000000
236.401321 3721.000000
238.793961 3709.000000
241.184982 3613.000000
243.574341 3499.000000
245.962082 3627.000000
248.348175 3363.000000
250.732635 3399.000000
253.115448 3291.000000
255.496689 3241.000000
257.876221 3233.000000
260.254181 3070.000000
262.630463 3063.000000
265.005188 3125.000000
267.378265 2882.000000
269.749695 2882.000000
272.119476 2884.000000
274.487701 2806.000000
276.854279 2710.000000
279.219269 2791.000000
281.582642 2676.000000
283.944366 2672.000000
286.304504 2604.000000
288.663025 2483.000000
291.019958 2466.000000
293.375275 2471.000000
295.729004 2424.000000
298.081085 2435.000000
300.431610 2478.000000
302.780548 2401.000000
305.127838 2294.000000
307.473602 2317.000000
309.817688 2282.000000
312.160248 2311.000000
314.501190 2198.000000
316.840515 2203.000000
319.178284 2291.000000
321.514496 2291.000000
323.849060 2126.000000
326.182068 2193.000000
328.513519 2187.000000
330.843384 2110.000000
333.171661 2035.000000
335.498322 2143.000000
337.823486 2137.000000
340.147034 2139.000000
342.469025 2103.000000
344.789459 2021.000000
347.108276 2002.000000
349.425537 1941.000000
351.741272 2046.000000
354.055420 2010.000000
356.367981 1946.000000
358.678986 2024.000000
360.988464 1943.000000
363.296417 2000.000000
365.602753 1897.000000
367.907501 1969.000000
370.210785 1993.000000
372.512451 1949.000000
374.812622 1980.000000
377.111237 1950.000000
379.408295 1858.000000
381.703796 1978.000000
383.997772 1963.000000
386.290161 1965.000000
388.581055 2056.000000
390.870422 2064.000000
393.158203 2116.000000
395.444458 2219.000000
397.729218 2323.000000
400.012360 2249.000000
402.294067 2264.000000
404.574249 2235.000000
406.852844 2154.000000
409.129913 2110.000000
411.405457 2025.000000
413.679474 1948.000000
415.952057 1946.000000
418.223022 1980.000000
420.492493 1956.000000
422.760468 1941.000000
425.026886 1927.000000
427.291809 1865.000000
429.555267 1836.000000
431.817139 1885.000000
434.077545 1807.000000
436.336395 1942.000000
438.593781 1885.000000
440.849670 1864.000000
443.104065 1783.000000
445.356934 1751.000000
447.608246 1840.000000
449.858154 1801.000000
452.106476 1880.000000
454.353363 1887.000000
456.598785 1870.000000
458.842651 1784.000000
461.085022 1822.000000
463.325897 1816.000000
465.565369 1794.000000
467.803253 1789.000000
470.039703 1704.000000
472.274628 1652.000000
474.508087 1615.000000
476.740112 1708.000000
478.970612 1775.000000
481.199615 1848.000000
483.427155 1695.000000
485.653198 1711.000000
487.877808 1661.000000
490.100952 1746.000000
492.322632 1581.000000
494.542755 1570.000000
496.761475 1686.000000
498.978699 1598.000000
501.194550 1751.000000
503.408783 1698.000000
505.621704 1627.000000
507.833038 1663.000000
510.042938 1719.000000
512.251404 1631.000000
514.458496 1705.000000
516.664001 1687.000000
518.868103 1711.000000
521.070679 1647.000000
523.271851 1666.000000
525.471680 1717.000000
527.669983 1681.000000
529.866760 1725.000000
532.062195 1671.000000
534.256104 1580.000000
536.448669 1577.000000
538.639709 1554.000000
540.829346 1537.000000
543.017578 1526.000000
545.204285 1556.000000
547.389526 1438.000000
549.573486 1392.000000
551.755859 1470.000000
553.936890 1460.000000
556.116394 1435.000000
558.294617 1488.000000
560.471313 1533.000000
562.646606 1432.000000
564.820496 1499.000000
566.992920 1422.000000
569.163940 1521.000000
571.333496 1418.000000
573.501770 1377.000000
575.668518 1318.000000
577.833801 1456.000000
579.997681 1382.000000
582.160278 1447.000000
584.321350 1459.000000
586.481018 1403.000000
588.639343 1465.000000
590.796143 1336.000000
592.951599 1427.000000
595.105652 1394.000000
597.258362 1478.000000
599.409546 1455.000000
601.559387 1420.000000
603.707886 1302.000000
605.854797 1423.000000
608.000488 1328.000000
610.144775 1397.000000
612.287598 1299.000000
614.428955 1459.000000
616.569092 1361.000000
618.707703 1340.000000
620.845032 1365.000000
622.980896 1458.000000
625.115356 1394.000000
627.248352 1370.000000
629.380188 1404.000000
631.510559 1338.000000
633.639526 1380.000000
635.767029 1265.000000
637.893250 1369.000000
640.017944 1331.000000
642.141418 1296.000000
644.263550 1299.000000
646.384216 1242.000000
648.503540 1242.000000
650.621460 1341.000000
652.738037 1291.000000
654.853210 1230.000000
656.967041 1291.000000
659.079407 1264.000000
661.190552 1278.000000
663.300293 1294.000000
665.408569 1471.000000
667.515686 1321.000000
669.621338 1163.000000
671.725525 1143.000000
673.828491 1220.000000
675.930054 1259.000000
678.030273 1291.000000
680.129089 1262.000000
682.226563 1273.000000
684.322754 1237.000000
686.417480 1350.000000
688.510986 1166.000000
690.603149 1220.000000
692.693787 1263.000000
694.783203 1238.000000
696.871338 1263.000000
698.958008 1315.000000
701.043457 1296.000000
703.127380 1290.000000
705.210083 1284.000000
707.291504 1302.000000
709.371460 1245.000000
711.450195 1184.000000
713.527466 1120.000000
715.603455 1239.000000
717.678162 1187.000000
719.751587 1211.000000
721.823486 1332.000000
723.894226 1304.000000
725.963623 1179.000000
728.031616 1223.000000
730.098267 1267.000000
732.163696 1171.000000
734.227783 1268.000000
736.290527 1166.000000
738.351929 1259.000000
740.412048 1190.000000
742.470764 1178.000000
744.528259 1200.000000
746.584473 1140.000000
748.639282 1173.000000
750.692810 1099.000000
752.744934 1100.000000
754.795837 1195.000000
756.845520 1199.000000
758.893738 1134.000000
760.940735 1198.000000
762.986450 1191.000000
765.030762 1046.000000
767.073792 1197.000000
769.115601 1220.000000
771.156067 1195.000000
773.195129 1121.000000
775.233032 1120.000000
777.269592 1178.000000
779.304932 1128.000000
781.338928 1143.000000
783.371521 1135.000000
785.402954 1200.000000
787.432983 1217.000000
789.461731 1084.000000
791.489319 1122.000000
793.515564 1115.000000
795.540405 1176.000000
797.564148 1190.000000
799.586487 1264.000000
801.607605 1351.000000
803.627380 1350.000000
805.645874 1541.000000
807.663147 1620.000000
809.679016 1636.000000
811.693726 1631.000000
813.707092 1599.000000
815.719238 1386.000000
817.730164 1228.000000
819.739746 1223.000000
821.748108 1239.000000
823.755066 1175.000000
825.760803 1215.000000
827.765320 1151.000000
829.768555 1241.000000
831.770508 1162.000000
833.771179 1366.000000
835.770630 1273.000000
837.768738 1365.000000
839.765747 1358.000000
841.761353 1459.000000
843.755798 1436.000000
845.748901 1374.000000
847.740784 1243.000000
849.731323 1112.000000
851.720581 1055.000000
853.708801 1021.000000
855.695618 1105.000000
857.681213 1103.000000
859.665527 1069.000000
861.648743 1014.000000
863.630554 994.000000
865.611145 1025.000000
867.590454 1046.000000
869.568604 1055.000000
871.545410 984.000000
873.520935 1007.000000
875.495422 1042.000000
877.468445 1081.000000
879.440430 1022.000000
881.411072 968.000000
883.380554 1001.000000
885.348694 1039.000000
887.315674 1061.000000
889.281311 1121.000000
891.245789 1032.000000
893.209045 1031.000000
895.171082 981.000000
897.131836 1027.000000
899.091370 1111.000000
901.049622 1004.000000
903.006775 1102.000000
904.962769 1058.000000
906.917358 945.000000
908.870728 943.000000
910.822937 940.000000
912.773926 945.000000
914.723633 924.000000
916.672180 986.000000
918.619507 894.000000
920.565552 820.000000
922.510315 895.000000
924.454041 888.000000
926.396606 805.000000
928.337891 817.000000
930.277832 804.000000
932.216675 802.000000
934.154236 764.000000
936.090576 847.000000
938.025757 993.000000
939.959656 848.000000
941.892456 848.000000
943.824036 868.000000
945.754456 873.000000
947.683655 807.000000
949.611511 688.000000
951.538330 775.000000
953.463867 761.000000
955.388123 803.000000
957.311279 822.000000
959.233276 745.000000
961.153992 830.000000
963.073547 898.000000
964.991943 857.000000
966.909302 888.000000
968.825195 870.000000
970.739990 868.000000
972.653564 1028.000000
974.565979 987.000000
976.477173 1027.000000
978.387207 932.000000
980.295959 915.000000
982.203674 813.000000
984.110168 807.000000
986.015442 782.000000
987.919617 819.000000
989.822571 827.000000
991.724304 834.000000
993.624878 1062.000000
995.524292 844.000000
997.422485 938.000000
999.319519 877.000000
1001.215332 841.000000
1003.109985 855.000000
1005.003540 697.000000
1006.895813 740.000000
1008.787170 833.000000
1010.677185 695.000000
1012.565979 805.000000
1014.453613 593.000000
1016.340088 761.000000
1018.225403 719.000000
1020.109558 755.000000
1021.992493 750.000000
1023.874390 778.000000
1025.755005 807.000000
1027.634521 725.000000
1029.513062 733.000000
1031.390259 748.000000
1033.266113 807.000000
1035.140991 798.000000
1037.014893 819.000000
1038.887329 805.000000
1040.758789 816.000000
1042.628906 775.000000
1044.498047 769.000000
1046.365967 833.000000
1048.232788 762.000000
1050.098511 684.000000
1051.963013 710.000000
1053.826416 786.000000
1055.688477 747.000000
1057.549561 695.000000
1059.409546 715.000000
1061.268188 672.000000
1063.125732 740.000000
1064.982178 690.000000
1066.837524 809.000000
1068.691650 754.000000
1070.544922 652.000000
1072.396729 704.000000
1074.247559 729.000000
1076.097168 737.000000
1077.945557 724.000000
1079.793091 632.000000
1081.639282 691.000000
1083.484253 693.000000
1085.328369 643.000000
1087.171143 623.000000
1089.012695 700.000000
1090.853516 590.000000
1092.692749 654.000000
1094.531250 730.000000
1096.368408 758.000000
1098.204346 748.000000
1100.039307 636.000000
1101.873047 679.000000
1103.705811 665.000000
1105.537231 689.000000
1107.367798 665.000000
1109.197021 703.000000
1111.025269 541.000000
1112.852295 598.000000
1114.678345 639.000000
1116.503174 649.000000
1118.326904 610.000000
1120.149414 622.000000
1121.970825 632.000000
1123.791382 598.000000
1125.610474 538.000000
1127.428711 599.000000
1129.245605 565.000000
1131.061646 639.000000
1132.876465 660.000000
1134.690186 659.000000
1136.502808 665.000000
1138.314209 570.000000
1140.124634 767.000000
1141.933960 685.000000
1143.741943 742.000000
1145.549194 801.000000
1147.354980 916.000000
1149.159912 945.000000
1150.963745 986.000000
1152.766357 1067.000000
1154.568115 998.000000
1156.368408 1029.000000
1158.167725 919.000000
1159.966064 853.000000
1161.763062 854.000000
1163.559326 925.000000
1165.354248 843.000000
1167.148071 934.000000
1168.941040 837.000000
1170.732666 651.000000
1172.523315 791.000000
1174.312988 706.000000
1176.101196 720.000000
1177.888550 687.000000
1179.674805 551.000000
1181.459961 701.000000
1183.244019 637.000000
1185.026978 748.000000
1186.808960 630.000000
1188.589722 705.000000
1190.369507 745.000000
1192.148193 694.000000
1193.925903 680.000000
1195.702393 653.000000
1197.477783 693.000000
1199.252075 658.000000
1201.025269 632.000000
1202.797607 568.000000
1204.568604 647.000000
1206.338745 526.000000
1208.107666 643.000000
1209.875488 728.000000
1211.642456 652.000000
1213.408081 606.000000
1215.172729 743.000000
1216.936279 723.000000
1218.698730 704.000000
1220.460327 759.000000
1222.220703 780.000000
1223.979980 701.000000
1225.738403 714.000000
1227.495605 717.000000
1229.251709 605.000000
1231.006714 704.000000
1232.760864 638.000000
1234.513672 700.000000
1236.265503 714.000000
1238.016479 678.000000
1239.766113 725.000000
1241.514893 669.000000
1243.262329 704.000000
1245.009033 753.000000
1246.754517 623.000000
1248.499146 785.000000
1250.242432 777.000000
1251.984741 684.000000
1253.725952 761.000000
1255.466309 725.000000
1257.205566 710.000000
1258.943604 694.000000
1260.680786 640.000000
1262.416748 686.000000
1264.151733 713.000000
1265.885742 768.000000
1267.618774 745.000000
1269.350586 767.000000
1271.081421 671.000000
1272.811035 770.000000
1274.539795 697.000000
1276.267456 727.000000
1277.994019 638.000000
1279.719727 701.000000
1281.444092 783.000000
1283.167603 721.000000
1284.890137 682.000000
1286.611694 649.000000
1288.332031 754.000000
1290.051392 751.000000
1291.769653 710.000000
1293.486938 749.000000
1295.203247 787.000000
1296.918335 789.000000
1298.632446 862.000000
1300.345581 709.000000
1302.057861 783.000000
1303.768921 830.000000
1305.479004 681.000000
1307.187988 776.000000
1308.895752 694.000000
1310.602905 850.000000
1312.308594 717.000000
1314.013550 847.000000
1315.717529 868.000000
1317.420288 800.000000
1319.122070 816.000000
1320.822998 842.000000
1322.522583 1349.000000
1324.221313 335.000000
1325.919312 981.000000
1327.615967 1061.000000
1329.311523 1032.000000
1331.006226 1049.000000
1332.699707 1026.000000
1334.392334 994.000000
1336.084106 874.000000
1337.774536 957.000000
1339.464233 927.000000
1341.152832 792.000000
1342.840332 888.000000
1344.526855 852.000000
1346.212280 770.000000
1347.896729 913.000000
1349.580322 892.000000
1351.262695 872.000000
1352.944092 849.000000
1354.624634 823.000000
1356.303955 841.000000
1357.982666 897.000000
1359.660034 991.000000
1361.336304 921.000000
1363.011597 881.000000
1364.686157 938.000000
1366.359497 1002.000000
1368.031860 890.000000
1369.703247 919.000000
1371.373657 926.000000
1373.042969 885.000000
1374.711304 865.000000
1376.378784 928.000000
1378.045166 849.000000
1379.710571 848.000000
1381.375000 809.000000
1383.038208 689.000000
1384.700806 784.000000
1386.362061 833.000000
1388.022461 667.000000
1389.681763 709.000000
1391.340088 735.000000
1392.997681 797.000000
1394.654053 710.000000
1396.309570 734.000000
1397.963867 790.000000
1399.617310 737.000000
1401.269653 775.000000
1402.921265 825.000000
1404.571655 832.000000
1406.220947 785.000000
1407.869507 755.000000
1409.516968 674.000000
1411.163452 606.000000
1412.809082 615.000000
1414.453735 697.000000
1416.097168 799.000000
1417.739746 665.000000
1419.381226 680.000000
1421.021851 667.000000
1422.661499 578.000000
1424.300049 645.000000
1425.937744 731.000000
1427.574341 641.000000
1429.209961 750.000000
1430.844849 720.000000
1432.478638 654.000000
1434.111328 703.000000
1435.743042 778.000000
1437.373901 784.000000
1439.003662 783.000000
1440.632324 775.000000
1442.260376 765.000000
1443.887329 764.000000
1445.513062 715.000000
1447.138184 762.000000
1448.762207 853.000000
1450.385254 815.000000
1452.007324 936.000000
1453.628296 898.000000
1455.248291 980.000000
1456.867554 997.000000
1458.485474 999.000000
1460.102783 796.000000
1461.719116 1000.000000
1463.334229 971.000000
1464.948486 931.000000
1466.561890 889.000000
1468.174194 820.000000
1469.785645 797.000000
1471.396240 759.000000
1473.005615 774.000000
1474.614014 650.000000
1476.221558 713.000000
1477.828125 654.000000
1479.433960 661.000000
1481.038574 752.000000
1482.642334 687.000000
1484.244873 611.000000
1485.846802 629.000000
1487.447510 663.000000
1489.047485 608.000000
1490.646362 534.000000
1492.244385 649.000000
1493.841309 606.000000
1495.437378 666.000000
1497.032471 624.000000
1498.626587 687.000000
1500.219971 662.000000
1501.812256 716.000000
1503.403320 640.000000
1504.993896 673.000000
1506.583130 631.000000
1508.171753 692.000000
1509.759277 608.000000
1511.345703 656.000000
1512.931396 594.000000
1514.515991 638.000000
1516.099731 605.000000
1517.682373 680.000000
1519.264282 667.000000
1520.845093 671.000000
1522.425171 627.000000
1524.004028 614.000000
1525.582031 536.000000
1527.159302 562.000000
1528.735352 674.000000
1530.310669 738.000000
1531.884888 633.000000
1533.458374 624.000000
1535.030640 560.000000
1536.602173 633.000000
1538.172729 597.000000
1539.742432 566.000000
1541.310913 615.000000
1542.878662 525.000000
1544.445557 555.000000
1546.011230 702.000000
1547.576172 671.000000
1549.140015 551.000000
1550.703247 642.000000
1552.265137 673.000000
1553.826416 645.000000
1555.386597 769.000000
1556.946045 777.000000
1558.504395 844.000000
1560.062012 642.000000
1561.618530 586.000000
1563.173828 654.000000
1564.728516 498.000000
1566.282471 552.000000
1567.835449 628.000000
1569.387085 576.000000
1570.937988 571.000000
1572.488159 640.000000
1574.037354 696.000000
1575.585205 616.000000
1577.132568 539.000000
1578.678955 618.000000
1580.224487 625.000000
1581.769043 660.000000
1583.312378 533.000000
1584.855103 597.000000
1586.396973 537.000000
1587.937744 690.000000
1589.477539 565.000000
1591.016602 610.000000
1592.554565 663.000000
1594.092041 638.000000
1595.628174 605.000000
1597.163208 633.000000
1598.697754 604.000000
1600.231323 703.000000
1601.764038 575.000000
1603.295166 622.000000
1604.826050 609.000000
1606.356079 639.000000
1607.884888 690.000000
1609.412598 754.000000
1610.939697 549.000000
1612.466064 694.000000
1613.991455 694.000000
1615.515991 704.000000
1617.039185 628.000000
1618.561646 753.000000
1620.083374 668.000000
1621.604248 565.000000
1623.123657 732.000000
1624.642578 609.000000
1626.160767 711.000000
1627.678101 777.000000
1629.194336 669.000000
1630.709229 704.000000
1632.223633 669.000000
1633.737305 642.000000
1635.249878 745.000000
1636.761230 723.000000
1638.272217 767.000000
1639.782104 786.000000
1641.291138 589.000000
1642.798828 394.000000
1644.306152 689.000000
1645.812622 707.000000
1647.318115 684.000000
1648.822754 594.000000
1650.325928 685.000000
1651.828491 642.000000
1653.330688 706.000000
1654.831543 721.000000
1656.331299 701.000000
1657.830200 638.000000
1659.328735 764.000000
1660.826050 605.000000
1662.322632 603.000000
1663.817627 551.000000
1665.312378 604.000000
1666.806274 608.000000
1668.299194 759.000000
1669.790771 613.000000
1671.281860 562.000000
1672.772339 656.000000
1674.261719 476.000000
1675.749634 585.000000
1677.237305 470.000000
1678.723999 555.000000
1680.209839 583.000000
1681.694824 537.000000
1683.178345 498.000000
1684.661621 507.000000
1686.144043 529.000000
1687.625366 565.000000
1689.105225 563.000000
1690.584839 603.000000
1692.063721 518.000000
1693.541626 514.000000
1695.018555 441.000000
1696.494263 506.000000
1697.969604 451.000000
1699.443726 452.000000
1700.917236 539.000000
1702.389282 543.000000
1703.861084 432.000000
1705.331909 410.000000
1706.801880 472.000000
1708.270508 498.000000
1709.738647 422.000000
1711.206055 460.000000
1712.672363 419.000000
1714.138062 480.000000
1715.602051 395.000000
1717.065918 444.000000
1718.528931 379.000000
1719.990967 419.000000
1721.451782 487.000000
1722.911987 514.000000
1724.371460 432.000000
1725.830078 438.000000
1727.287720 505.000000
1728.744019 374.000000
1730.200073 376.000000
1731.655151 424.000000
1733.109253 512.000000
1734.562134 381.000000
1736.014771 340.000000
1737.466309 289.000000
1738.917114 340.000000
1740.366943 384.000000
1741.815430 373.000000
1743.263550 336.000000
1744.710815 514.000000
1746.157349 435.000000
1747.602295 484.000000
1749.046997 375.000000
1750.490845 441.000000
1751.933838 431.000000
1753.375366 331.000000
1754.816650 456.000000
1756.257080 362.000000
1757.696533 478.000000
1759.135010 338.000000
1760.572510 362.000000
1762.009521 380.000000
1763.445557 353.000000
1764.880737 268.000000
1766.314453 324.000000
1767.748047 349.000000
1769.180664 368.000000
1770.612427 403.000000
1772.043335 367.000000
1773.473022 347.000000
1774.901978 413.000000
1776.330444 365.000000
1777.757935 378.000000
1779.184082 333.000000
1780.609985 321.000000
1782.034790 261.000000
1783.458984 273.000000
1784.881714 360.000000
1786.303955 310.000000
1787.725464 370.000000
1789.146240 317.000000
1790.566040 290.000000
1791.984497 372.000000
1793.402466 269.000000
1794.819824 308.000000
1796.236328 326.000000
1797.651367 305.000000
1799.066040 299.000000
1800.480103 210.000000
1801.892944 351.000000
1803.305176 292.000000
1804.716064 274.000000
1806.126465 262.000000
1807.536133 277.000000
1808.944824 273.000000
1810.352417 281.000000
1811.759521 264.000000
1813.165771 215.000000
1814.571045 254.000000
1815.975220 309.000000
1817.379028 262.000000
1818.781860 321.000000
1820.183838 335.000000
1821.585205 224.000000
1822.985107 291.000000
1824.384399 304.000000
1825.783203 326.000000
1827.181152 329.000000
1828.577759 307.000000
1829.973755 322.000000
1831.369019 273.000000
1832.763672 220.000000
1834.157349 297.000000
1835.549683 241.000000
1836.941528 273.000000
1838.332764 371.000000
1839.723022 247.000000
1841.112061 257.000000
1842.500732 366.000000
1843.888428 242.000000
1845.275391 402.000000
1846.661011 314.000000
1848.046387 269.000000
1849.430908 268.000000
1850.814697 303.000000
1852.197388 351.000000
1853.578857 233.000000
1854.959839 270.000000
1856.340332 225.000000
1857.719849 258.000000
1859.097900 358.000000
1860.475830 281.000000
1861.852783 335.000000
1863.229004 233.000000
1864.604370 315.000000
1865.978271 332.000000
1867.352051 287.000000
1868.724976 222.000000
1870.096802 299.000000
1871.467651 222.000000
1872.838135 217.000000
1874.207520 174.000000
1875.576416 227.000000
1876.943726 343.000000
1878.310913 296.000000
1879.677124 239.000000
1881.042603 189.000000
1882.407349 267.000000
1883.770508 255.000000
1885.133545 368.000000
1886.495728 314.000000
1887.857056 230.000000
1889.217041 190.000000
1890.576660 213.000000
1891.935669 236.000000
1893.293701 352.000000
1894.650879 236.000000
1896.006836 251.000000
1897.362549 257.000000
1898.717285 239.000000
1900.071167 241.000000
1901.423950 212.000000
1902.776245 297.000000
1904.127808 274.000000
1905.478516 222.000000
1906.828003 234.000000
1908.177002 224.000000
1909.525146 255.000000
1910.872681 215.000000
1912.219482 220.000000
1913.564697 224.000000
1914.909668 292.000000
1916.253906 283.000000
1917.597290 199.000000
1918.939331 264.000000
1920.281128 195.000000
1921.622070 125.000000
1922.962280 286.000000
1924.301514 298.000000
1925.639771 269.000000
1926.977417 130.000000
1928.314331 266.000000
1929.650391 196.000000
1930.985229 223.000000
1932.319702 173.000000
1933.653442 223.000000
1934.986328 241.000000
1936.317749 228.000000
1937.649292 217.000000
1938.979492 309.000000
1940.309204 294.000000
1941.638062 207.000000
1942.965698 180.000000
1944.292847 267.000000
1945.619263 223.000000
1946.944946 256.000000
1948.269287 141.000000
1949.593384 96.000000
1950.916626 225.000000
1952.239136 277.000000
1953.560547 243.000000
1954.880981 238.000000
1956.200806 247.000000
1957.520264 269.000000
1958.838745 293.000000
1960.155884 249.000000
1961.472656 139.000000
1962.788696 235.000000
1964.104004 238.000000
1965.417847 230.000000
1966.731445 122.000000
1968.044312 231.000000
1969.356323 178.000000
1970.667725 173.000000
1971.977783 148.000000
1973.287354 248.000000
1974.596191 214.000000
1975.904419 264.000000
1977.211304 181.000000
1978.517578 149.000000
1979.823486 268.000000
1981.128174 236.000000
1982.432373 241.000000
1983.735352 155.000000
1985.037964 261.000000
1986.339600 216.000000
1987.640625 159.000000
1988.940063 238.000000
1990.239624 151.000000
1991.538086 234.000000
1992.836060 175.000000
1994.132446 186.000000
1995.428833 237.000000
1996.724243 177.000000
1998.018921 144.000000
1999.312744 177.000000
2000.605347 180.000000
2001.897461 134.000000
2003.189087 226.000000
2004.479980 172.000000
2005.769287 294.000000
2007.058350 216.000000
2008.346680 172.000000
2009.634277 167.000000
2010.921021 259.000000
2012.206665 212.000000
2013.491943 227.000000
2014.776245 124.000000
2016.059937 257.000000
2017.342285 146.000000
2018.624268 112.000000
2019.905762 206.000000
2021.186279 196.000000
2022.466064 167.000000
2023.744751 100.000000
2025.022705 223.000000
2026.300171 163.000000
2027.577026 125.000000
2028.852173 178.000000
2030.127441 233.000000
2031.401733 214.000000
2032.675049 182.000000
2033.947510 157.000000
2035.219604 200.000000
2036.490601 194.000000
2037.761353 151.000000
2039.030762 168.000000
2040.299072 118.000000
2041.567383 188.000000
2042.834717 205.000000
2044.101318 314.000000
2045.366699 99.000000
2046.631470 451.000000
2047.895996 199.000000
2049.159180 225.000000
2050.422119 167.000000
2051.683105 165.000000
2052.944580 209.000000
2054.204834 126.000000
2055.464355 121.000000
2056.723145 226.000000
2057.980957 163.000000
2059.238281 158.000000
2060.494873 188.000000
2061.750000 218.000000
2063.005127 252.000000
2064.259277 214.000000
2065.512695 155.000000
2066.765381 132.000000
2068.016846 188.000000
2069.268066 76.000000
2070.518555 176.000000
2071.768311 178.000000
2073.016602 -148.000000
2074.264893 139.000000
2075.512207 144.000000
2076.758789 199.000000
2078.004639 184.000000
2079.249268 197.000000
2080.493408 194.000000
2081.737061 179.000000
2082.979736 162.000000
2084.221191 167.000000
2085.462402 203.000000
2086.703125 229.000000
2087.942871 121.000000
2089.181396 136.000000
2090.419434 225.000000
2091.656738 153.000000
2092.893799 202.000000
2094.129395 165.000000
2095.364258 145.000000
2096.598877 101.000000
2097.832520 161.000000
2099.065186 117.000000
2100.297119 101.000000
2101.528564 175.000000
2102.759033 205.000000
2103.988770 121.000000
2105.218262 234.000000
2106.445801 163.000000
2107.673584 74.000000
2108.900635 138.000000
2110.126709 186.000000
2111.351318 196.000000
2112.576172 95.000000
2113.799805 92.000000
2115.022949 127.000000
2116.244873 200.000000
2117.466553 103.000000
2118.687256 58.000000
2119.907227 148.000000
2121.126709 158.000000
2122.344727 187.000000
2123.562744 210.000000
2124.779785 91.000000
2125.996338 244.000000
2127.211182 199.000000
2128.426270 142.000000
2129.640381 151.000000
2130.853760 150.000000
2132.066406 93.000000
2133.277588 150.000000
2134.489014 239.000000
2135.699219 97.000000
2136.908936 121.000000
2138.117188 149.000000
2139.325439 145.000000
2140.532959 103.000000
2141.739258 69.000000
2142.944824 242.000000
2144.150146 193.000000
2145.354492 298.000000
2146.558105 198.000000
2147.761230 170.000000
2148.962891 224.000000
2150.164307 198.000000
2151.364990 160.000000
2152.564941 219.000000
2153.763672 224.000000
2154.962158 263.000000
2156.160156 217.000000
2157.357178 135.000000
2158.553467 213.000000
2159.748535 176.000000
2160.943359 261.000000
2162.137451 94.000000
2163.330566 122.000000
2164.522705 74.000000
2165.714600 137.000000
2166.905762 85.000000
2168.095947 155.000000
2169.285400 48.000000
2170.474365 164.000000
2171.662354 194.000000
2172.850098 182.000000
2174.036377 155.000000
2175.221924 144.000000
2176.407227 120.000000
2177.592041 153.000000
2178.775635 96.000000
2179.958496 154.000000
2181.140381 173.000000
2182.322021 103.000000
2183.503174 94.000000
2184.683105 124.000000
2185.862061 132.000000
2187.040527 93.000000
2188.218750 163.000000
2189.395752 136.000000
2190.571777 72.000000
2191.747559 147.000000
2192.922852 202.000000
2194.096680 246.000000
2195.270020 160.000000
2196.443115 185.000000
2197.614990 113.000000
2198.786377 52.000000
2199.957275 123.000000
2201.126465 171.000000
2202.295654 122.000000
2203.464355 182.000000
2204.632080 195.000000
2205.798828 70.000000
2206.964844 121.000000
2208.130371 -1.000000
2209.295654 148.000000
2210.459473 18.000000
2211.622803 160.000000
2212.784912 158.000000
2213.947266 42.000000
2215.108398 128.000000
2216.268555 121.000000
2217.428223 69.000000
2218.587646 212.000000
2219.745850 65.000000
2220.903076 104.000000
2222.060059 66.000000
2223.216309 239.000000
2224.371826 220.000000
2225.526611 123.000000
2226.680420 148.000000
2227.833252 120.000000
2228.986572 130.000000
2230.137939 125.000000
2231.289063 98.000000
2232.439453 100.000000
2233.589355 104.000000
2234.738281 36.000000
2235.886719 69.000000
2237.033691 173.000000
2238.180908 96.000000
2239.326904 21.000000
2240.472656 169.000000
2241.616699 170.000000
2242.760986 63.000000
2243.904297 123.000000
2245.046875 117.000000
2246.188477 22.000000
2247.329834 157.000000
2248.470215 138.000000
2249.609863 90.000000
2250.749023 123.000000
2251.886963 171.000000
2253.024902 62.000000
2254.161865 104.000000
2255.298096 161.000000
2256.433350 74.000000
2257.567871 18.000000
2258.702148 8.000000
2259.835938 152.000000
2260.968262 54.000000
2262.100098 124.000000
2263.231445 84.000000
2264.361816 93.000000
2265.491943 95.000000
2266.620850 92.000000
2267.749268 48.000000
2268.877197 100.000000
2270.004150 98.000000
2271.130371 55.000000
2272.255615 73.000000
2273.380859 167.000000
2274.505371 25.000000
2275.628662 44.000000
2276.751221 11.000000
2277.873291 129.000000
2278.994873 127.000000
2280.115723 42.000000
2281.235352 149.000000
2282.354492 83.000000
2283.473389 57.000000
2284.591553 83.000000
2285.708740 87.000000
2286.824951 133.000000
2287.940918 119.000000
2289.056152 91.000000
2290.170654 79.000000
2291.283936 93.000000
2292.397217 46.000000
2293.509766 114.000000
2294.621582 75.000000
2295.732666 6.000000
2296.842529 74.000000
2297.951904 5.000000
2299.061035 113.000000
2300.169189 7.000000
2301.276367 120.000000
2302.383301 36.000000
2303.489502 15.000000
2304.595215 13.000000
2305.699463 45.000000
2306.803467 124.000000
2307.906982 121.000000
2309.010010 118.000000
2310.111816 47.000000
2311.212891 154.000000
2312.313477 35.000000
2313.413574 82.000000
2314.512939 113.000000
2315.610840 102.000000
2316.709229 59.000000
2317.806152 50.000000
2318.902832 153.000000
2319.999023 21.000000
2321.093506 100.000000
2322.187988 74.000000
2323.281738 143.000000
2324.375244 134.000000
2325.467041 135.000000
2326.558838 132.000000
2327.649902 151.000000
2328.740234 133.000000
2329.829590 152.000000
2330.918945 226.000000
2332.007080 152.000000
2333.094727 215.000000
2334.182129 106.000000
2335.267822 221.000000
2336.353271 35.000000
2337.438477 87.000000
2338.522705 101.000000
2339.605957 -16.000000
2340.688965 71.000000
2341.770996 82.500000
2342.852783 94.000000
2343.933838 162.000000
2345.013672 164.000000
2346.093018 109.000000
2347.171875 45.000000
2348.250244 116.000000
2349.327148 15.000000
2350.403809 96.000000
2351.480225 6.000000
2352.555664 130.000000
2353.630127 24.000000
2354.704346 67.000000
2355.777832 61.000000
2356.850830 44.000000
2357.922607 11.000000
2358.994141 57.000000
2360.064697 129.000000
2361.135010 91.000000
2362.204346 28.000000
2363.272705 38.000000
2364.340820 58.000000
2365.408203 101.000000
2366.475098 74.000000
2367.541260 27.000000
2368.606201 21.000000
2369.671143 92.000000
2370.735352 127.000000
2371.798828 71.000000
2372.861084 39.000000
2373.923340 70.000000
2374.984619 119.000000
2376.045654 74.000000
2377.105469 90.000000
2378.164551 55.000000
2379.223633 44.000000
2380.281738 90.000000
2381.339111 -8.000000
2382.395508 65.000000
2383.451660 66.000000
2384.507324 179.000000
2385.562256 160.000000
2386.615723 167.000000
2387.669434 94.000000
2388.722168 68.000000
2389.774414 77.000000
2390.825928 76.000000
2391.876465 29.000000
2392.926758 95.000000
2393.976074 155.000000
2395.025391 14.000000
2396.073242 29.000000
2397.120605 -10.000000
2398.167725 87.000000
2399.213867 142.000000
2400.259277 36.000000
2401.303955 62.000000
2402.348633 116.000000
2403.391846 90.000000
2404.435059 103.000000
2405.476807 -4.000000
2406.518799 72.000000
2407.560059 -17.000000
2408.600342 19.000000
2409.639893 10.000000
2410.678467 0.000000
2411.717285 75.000000
2412.754883 -13.000000
2413.792236 -14.000000
2414.828369 71.000000
2415.864258 24.000000
2416.899414 42.000000
2417.934082 30.000000
2418.967285 105.000000
2420.000732 -57.000000
2421.033203 20.000000
2422.065430 156.000000
2423.096191 59.000000
2424.126953 17.000000
2425.157227 14.000000
2426.186279 49.000000
2427.215332 49.000000
2428.242676 42.000000
2429.270508 31.000000
2430.297119 116.000000
2431.323486 78.000000
2432.348389 85.000000
2433.373535 13.000000
2434.397705 125.000000
2435.421631 97.000000
2436.444336 101.000000
2437.466309 10.000000
2438.488037 106.000000
2439.509033 9.000000
2440.529541 105.000000
2441.548828 54.000000
2442.568115 13.000000
2443.586426 55.000000
2444.604492 -19.000000
2445.621094 -26.000000
2446.637695 49.000000
2447.653564 1.000000
2448.669434 1.000000
2449.683838 130.000000
2450.697510 27.000000
2451.710693 30.000000
2452.723633 85.000000
2453.735840 51.000000
2454.747070 67.000000
2455.758057 99.000000
2456.768311 93.000000
2457.778076 -54.000000
2458.786865 74.000000
2459.794922 -2.000000
2460.802979 31.000000
2461.809814 35.000000
2462.816406 60.000000
2463.821777 73.000000
2464.826904 16.000000
2465.831787 19.000000
2466.835449 81.000000
2467.838867 55.000000
2468.841309 10.000000
2469.843506 112.000000
2470.845215 -23.000000
2471.845947 41.000000
2472.845703 -107.000000
2473.845459 16.000000
2474.844238 57.000000
2475.842529 18.000000
2476.839844 -34.000000
2477.836914 22.000000
2478.833984 89.000000
2479.829590 111.000000
2480.825195 43.000000
2481.819092 44.000000
2482.812988 1.000000
2483.806396 101.000000
2484.799316 86.000000
2485.791260 38.000000
2486.782471 28.000000
2487.773438 66.000000
2488.763916 11.000000
2489.753418 20.000000
2490.742188 97.000000
2491.730957 68.000000
2492.718750 3.000000
2493.705322 81.000000
2494.691895 72.000000
2495.677979 62.000000
2496.663330 -44.000000
2497.647705 -41.000000
2498.631836 94.000000
2499.615967 17.000000
2500.598633 17.000000
2501.580811 -16.000000
2502.562500 41.000000
2503.543457 148.000000
2504.523926 -23.000000
2505.504150 6.000000
2506.482910 -8.000000
2507.461426 78.000000
2508.439453 43.000000
2509.416992 -46.000000
2510.393555 -4.000000
2511.369873 -79.000000
2512.345459 52.000000
2513.320557 13.000000
2514.295166 1.000000
2515.268555 19.000000
2516.241699 59.000000
2517.214600 20.000000
2518.186523 82.000000
2519.157715 49.000000
2520.128418 -26.000000
2521.098877 -26.000000
2522.068604 52.000000
2523.037354 68.000000
2524.005371 15.000000
2524.973389 31.000000
2525.940430 -8.000000
2526.907227 64.000000
2527.872803 -25.000000
2528.838379 93.000000
2529.803223 -42.000000
2530.767578 -81.000000
2531.730713 73.000000
2532.694092 -9.000000
2533.656494 -5.000000
2534.618652 39.000000
2535.579590 -22.000000
2536.539795 81.000000
2537.500244 2.000000
2538.459717 -93.000000
2539.418457 38.000000
2540.376221 -7.000000
2541.334229 -11.000000
2542.291504 60.000000
2543.247803 30.000000
2544.203857 77.000000
2545.158691 22.000000
2546.113770 62.000000
2547.068115 -1.000000
2548.021729 -283.000000
2548.974365 21.000000
2549.926758 -13.000000
2550.878662 47.000000
2551.829834 78.000000
2552.780273 38.000000
2553.730225 -17.000000
2554.679932 41.000000
2555.628906 -73.000000
2556.577393 24.000000
2557.524658 40.000000
2558.471924 2.000000
2559.418457 42.000000
2560.364502 7.000000
2561.309570 40.000000
2562.254395 21.000000
2563.198730 65.000000
2564.142578 -1.000000
2565.085938 42.000000
2566.027832 145.000000
2566.969971 47.000000
2567.911377 85.000000
2568.852051 -49.000000
2569.791992 -39.000000
2570.731934 50.000000
2571.670898 -34.000000
2572.609619 50.000000
2573.547363 37.000000
2574.484863 17.000000
2575.421631 -84.000000
2576.357666 -65.000000
2577.293213 -36.000000
2578.228027 19.000000
2579.162842 42.000000
2580.096680 28.000000
2581.030029 305.000000
2581.962646 -4.000000
2582.895020 102.000000
2583.826660 36.000000
2584.757813 28.000000
2585.688477 89.000000
2586.617920 27.000000
2587.547363 29.000000
2588.476318 -31.000000
2589.405029 4.000000
2590.332031 134.000000
2591.259277 90.000000
2592.186035 37.000000
2593.112061 11.000000
2594.037842 32.000000
2594.962402 27.000000
2595.886719 43.000000
2596.810547 11.000000
2597.733887 78.000000
2598.656250 17.000000
2599.578369 -6.000000
2600.500000 50.000000
2601.420898 -14.000000
2602.341064 80.000000
2603.260986 66.000000
2604.180420 -13.000000
2605.099609 80.000000
2606.017822 -16.000000
2606.934814 -11.000000
2607.852051 -16.000000
2608.769043 -13.000000
2609.685059 32.000000
2610.599854 83.000000
2611.515137 70.000000
2612.429688 36.000000
2613.343262 37.000000
2614.256836 -108.000000
2615.169189 69.000000
2616.081543 0.000000
2616.992920 24.000000
2617.904053 82.000000
2618.814453 89.000000
2619.724609 -9.000000
2620.634033 28.000000
2621.542969 76.000000
2622.450928 -41.000000
2623.359131 -30.000000
2624.266357 -6.000000
2625.173096 19.000000
2626.079102 -80.000000
2626.984863 73.000000
2627.889893 195.000000
2628.794678 36.000000
2629.698730 -2.000000
2630.601807 73.000000
2631.504883 3.000000
2632.406982 66.000000
2633.309082 -28.000000
2634.210938 21.000000
2635.111084 -86.000000
2636.011475 39.000000
2636.911133 43.000000
2637.810547 83.000000
2638.708496 21.000000
2639.606934 -117.000000
2640.504883 -7.000000
2641.402100 -2.000000
2642.298096 -34.000000
2643.194092 89.000000
2644.089844 58.000000
2644.984863 47.000000
2645.879639 69.000000
2646.772949 -24.000000
2647.666260 14.000000
2648.559326 43.000000
2649.452148 19.000000
2650.343262 79.000000
2651.234619 -13.000000
2652.125488 -97.000000
2653.015625 38.000000
2653.905518 54.000000
2654.794189 13.000000
2655.683105 -82.000000
2656.571533 -7.000000
2657.458984 -21.000000
2658.345459 3.000000
2659.232422 74.000000
2660.118652 -36.000000
2661.004395 -6.000000
2661.888916 -7.000000
2662.773438 -31.000000
2663.657715 52.000000
2664.541260 -47.000000
2665.424316 -4.000000
2666.306641 2.000000
2667.188477 70.000000
2668.069580 77.000000
2668.950928 -30.000000
2669.830811 88.000000
2670.710938 -84.000000
2671.590332 -57.000000
2672.469727 73.000000
2673.348389 81.000000
2674.225342 -64.000000
2675.103027 23.000000
2675.979980 9.000000
2676.856201 -15.000000
2677.731934 -53.000000
2678.606934 36.000000
2679.482178 122.000000
2680.356445 -114.000000
2681.230225 2.000000
2682.103271 22.000000
2682.976074 24.000000
2683.848633 35.000000
2684.720459 -41.000000
2685.591553 16.000000
2686.462402 16.000000
2687.332764 -9.000000
2688.202881 -30.000000
2689.071289 -46.000000
2689.940430 16.000000
2690.808838 4.000000
2691.677002 30.000000
2692.544434 -12.000000
2693.410645 37.000000
2694.277344 -1.000000
2695.143066 61.000000
2696.008789 -83.000000
2696.873047 116.000000
2697.738037 10.000000
2698.601563 -54.000000
2699.465332 35.000000
2700.327637 74.000000
2701.190430 -76.000000
2702.052246 -1.000000
2702.913574 -40.000000
2703.774902 14.000000
2704.635010 -7.000000
2705.495117 -39.000000
2706.354736 -37.000000
2707.214111 -3.000000
2708.071777 -25.000000
2708.929688 -74.000000
2709.788086 75.000000
2710.645264 -13.000000
2711.501709 -6.000000
2712.357666 37.000000
2713.213623 -23.000000
2714.068848 14.000000
2714.923340 10.000000
2715.777344 0.000000
2716.631348 39.000000
2717.484375 -99.000000
2718.337646 0.000000
2719.189209 -1.000000
2720.041260 -43.000000
2720.893066 117.000000
2721.743652 -61.000000
2722.594238 43.000000
2723.444336 62.000000
2724.293701 49.000000
2725.143066 3.000000
2725.991211 19.000000
2726.838867 46.000000
2727.687012 48.000000
2728.533936 -54.000000
2729.381348 31.000000
2730.227295 -38.000000
2731.072510 -31.000000
2731.918213 0.000000
2732.762939 0.000000
2733.607666 -66.000000
2734.451172 33.000000
2735.294922 -10.000000
2736.137939 16.000000
2736.980469 -17.000000
2737.822021 -61.000000
2738.664063 -35.000000
2739.505127 -15.000000
2740.345947 48.000000
2741.186523 6.000000
2742.025879 -66.000000
2742.865234 19.000000
2743.704590 -21.000000
2744.542725 -20.000000
2745.380371 8.000000
2746.218018 -92.000000
2747.055176 -19.000000
2747.892090 90.000000
2748.728516 -24.000000
2749.563721 55.000000
2750.399170 -55.000000
2751.234131 -66.000000
2752.068359 -96.000000
2752.902344 -79.000000
2753.735840 -54.000000
2754.569336 -38.000000
2755.401855 16.000000
2756.233887 36.000000
2757.065430 46.000000
2757.896973 -9.000000
2758.727539 -7.000000
2759.558350 15.000000
2760.387939 4.000000
2761.217529 -19.000000
2762.046875 7.000000
2762.875488 -14.000000
2763.703613 30.000000
2764.531250 -200.000000
2765.358887 -26.000000
2766.186035 -74.000000
2767.012451 -44.000000
2767.838379 61.000000
2768.663818 -40.000000
2769.489014 -48.000000
2770.314209 40.000000
2771.138184 3.000000
2771.962158 -6.000000
2772.786133 -36.000000
2773.608887 -36.000000
2774.431885 84.000000
2775.253662 -38.000000
2776.075439 -84.000000
2776.897217 36.000000
2777.718018 12.000000
2778.538086 29.000000
2779.358398 37.000000
2780.178223 39.000000
2780.998047 -9.000000
2781.815918 20.000000
2782.635010 -54.000000
2783.452881 25.000000
2784.270508 34.000000
2785.087646 58.000000
2785.904297 53.000000
2786.720703 60.000000
2787.536621 -34.000000
2788.352295 -20.000000
2789.166992 -8.000000
2789.982178 30.000000
2790.796631 -84.000000
2791.610596 -21.000000
2792.424316 16.000000
2793.236816 -72.000000
2794.049561 5.000000
2794.861816 -88.000000
2795.673584 -62.000000
2796.484619 7.000000
2797.296387 -4.000000
2798.106934 26.000000
2798.917480 -32.000000
2799.726563 7.000000
2800.536377 -17.000000
2801.345459 41.000000
2802.154297 111.000000
2802.962646 -49.000000
2803.770020 6.000000
2804.577881 49.000000
2805.385010 -121.000000
2806.191895 -15.000000
2806.997559 -37.000000
2807.803711 -5.000000
2808.609131 -87.000000
2809.414551 -41.000000
2810.219238 91.000000
2811.022949 47.000000
2811.827148 122.000000
2812.630859 11.000000
2813.434326 -39.000000
2814.236328 -27.000000
2815.039063 25.000000
2815.841064 -31.000000
2816.642822 -2.000000
2817.444092 7.000000
2818.244873 45.000000
2819.045166 22.000000
2819.845703 -6.000000
2820.645264 -8.000000
2821.444336 -43.000000
2822.243408 -13.000000
2823.042236 -55.000000
2823.840576 53.000000
2824.637939 -72.000000
2825.435547 -46.000000
2826.232422 -42.000000
2827.029541 -15.000000
2827.825928 61.000000
2828.621582 -87.000000
2829.417236 -60.000000
2830.212646 -16.000000
2831.007568 10.000000
2831.801758 -10.000000
2832.595947 25.000000
2833.389893 19.000000
2834.183350 -17.000000
2834.976074 40.000000
2835.768555 -64.000000
2836.561035 41.000000
2837.353271 51.000000
2838.145020 -9.000000
2838.935791 29.000000
2839.726563 51.000000
2840.517578 13.000000
2841.307617 30.000000
2842.097168 54.000000
2842.886963 -38.000000
2843.675781 -35.000000
2844.464600 46.000000
2845.253418 4.000000
2846.041260 -63.000000
2846.828613 -13.000000
2847.616211 -21.000000
2848.403320 -52.000000
2849.189697 37.000000
2849.976074 49.000000
2850.762207 -34.000000
2851.547852 19.000000
2852.332520 60.000000
2853.117676 -39.000000
2853.902588 110.000000
2854.686768 0.000000
2855.470947 11.000000
2856.253906 -135.000000
2857.037109 47.000000
2857.820068 4.000000
2858.602539 -112.000000
2859.384766 30.000000
2860.166504 49.000000
2860.947998 74.000000
2861.729736 20.000000
2862.510742 -7.000000
2863.291016 45.000000
2864.071045 6.000000
2864.851074 -5.000000
2865.630859 -4.000000
2866.409668 77.000000
2867.188721 26.000000
2867.967285 4.000000
2868.745605 42.000000
2869.523438 -7.000000
2870.301025 94.000000
2871.078369 35.000000
2871.855469 13.000000
2872.632080 155.000000
2873.408203 47.000000
2874.184326 77.000000
2874.959961 -14.000000
2875.735352 38.000000
2876.510254 2.000000
2877.284912 78.000000
2878.059570 22.000000
2878.833984 -84.000000
2879.607666 57.000000
2880.380615 -40.000000
2881.154297 44.000000
2881.927002 56.000000
2882.699707 55.000000
2883.471680 18.000000
2884.243408 123.000000
2885.015625 43.000000
2885.786621 89.000000
2886.557129 31.000000
2887.328125 67.000000
2888.099121 33.000000
2888.869385 50.000000
2889.638672 21.000000
2890.408203 74.000000
2891.177734 95.000000
2891.946777 86.000000
2892.715332 29.000000
2893.483887 -14.000000
2894.251465 0.000000
2895.019531 -81.000000
2895.787109 232.000000
2896.554688 90.000000
2897.321045 -27.000000
2898.088379 96.000000
2898.854492 27.000000
2899.620850 15.000000
2900.385742 72.000000
2901.151123 99.000000
2901.916992 16.000000
2902.681396 66.000000
2903.445801 46.000000
2904.210449 39.000000
2904.974121 37.000000
2905.738525 43.000000
2906.502197 -4.000000
2907.265137 4.000000
2908.027832 13.000000
2908.791016 -23.000000
2909.553711 86.000000
2910.315186 64.000000
2911.077148 64.000000
spectrumdark 2048
-97.153572 6267.000000
-94.526703 6267.000000
-91.901711 6088.000000
-89.278610 6462.000000
-86.657379 5803.000000
-84.038048 6221.000000
-81.420578 6098.000000
-78.804985 6392.000000
-76.191269 6189.000000
-73.579430 5926.000000
-70.969452 6107.000000
-68.361359 6009.000000
-65.755112 5960.000000
-63.150738 6042.000000
-60.548229 6124.000000
-57.947575 5630.000000
-55.348782 6274.000000
-52.751846 6888.000000
-50.156765 6536.000000
-47.563538 6528.000000
-44.972160 6316.000000
-42.382629 6764.000000
-39.794941 5937.000000
-37.209103 6124.000000
-34.625107 6464.000000
-32.042950 5736.000000
-29.462637 6344.000000
-26.884151 5695.000000
-24.307508 6137.000000
-21.732691 6256.000000
-19.159714 6497.000000
-16.588556 6492.000000
-14.019233 6791.000000
-11.451735 7851.000000
-8.886055 6265.000000
-6.322201 6535.000000
-3.760160 5997.000000
-1.199945 5822.000000
1.358463 6162.000000
3.915051 6994.000000
6.469832 6687.000000
9.022798 6031.000000
11.573962 6757.000000
14.123314 6468.000000
16.670870 6612.000000
19.216614 6026.000000
21.760565 5771.000000
24.302711 6654.000000
26.843061 6813.000000
29.381626 6896.000000
31.918394 6217.000000
34.453362 5822.000000
36.986549 7336.000000
39.517956 6323.000000
42.047569 7129.000000
44.575386 6530.000000
47.101444 7852.000000
49.625713 5629.000000
52.148212 6262.000000
54.668915 6782.000000
57.187862 6309.000000
59.705036 6436.000000
62.220432 6615.000000
64.734047 5628.000000
67.245911 5685.000000
69.756027 6571.000000
72.264351 6592.000000
74.770920 5979.000000
77.275742 6344.000000
79.778809 6523.000000
82.280098 6278.000000
84.779648 6140.000000
87.277443 6354.000000
89.773506 5816.000000
92.267792 7235.000000
94.760338 5808.000000
97.251167 6941.000000
99.740227 7140.000000
102.227539 6376.000000
104.713127 6159.000000
107.196976 6461.000000
109.679077 5783.000000
112.159454 6565.000000
114.638107 6280.000000
117.115036 6446.000000
119.590210 7259.000000
122.063675 6871.000000
124.535408 5918.000000
127.005432 6732.000000
129.473709 6337.000000
131.940308 6350.000000
134.405151 5715.000000
136.868301 6149.000000
139.329712 7273.000000
141.789429 6827.000000
144.247421 6364.000000
146.703720 5982.000000
149.158310 5810.000000
151.611176 6839.000000
154.062363 6430.000000
156.511856 6685.000000
158.959625 6065.000000
161.405685 6577.000000
163.850067 8682.000000
166.292770 6397.000000
168.733780 6827.000000
171.173080 6234.000000
173.610672 7163.000000
176.046631 6660.000000
178.480850 6943.000000
180.913391 7119.000000
183.344284 6744.000000
185.773453 6806.000000
188.200974 6680.000000
190.626816 6294.000000
193.050980 6683.000000
195.473480 7180.000000
197.894287 7380.000000
200.313431 6549.000000
202.730911 6044.000000
205.146698 7615.000000
207.560837 7096.000000
209.973343 6397.000000
212.384171 6047.000000
214.793320 6289.000000
217.200836 7423.000000
219.606644 6153.000000
222.010864 6519.000000
224.413376 6678.000000
226.814270 6975.000000
229.213516 6475.000000
231.611099 6923.000000
234.007019 7275.000000
236.401321 6540.000000
238.793961 5835.000000
241.184982 6831.000000
243.574341 6615.000000
245.962082 6350.000000
248.348175 6996.000000
250.732635 6058.000000
253.115448 7842.000000
255.496689 6639.000000
257.876221 6673.000000
260.254181 6528.000000
262.630463 7536.000000
265.005188 7509.000000
267.378265 7883.000000
269.749695 6194.000000
272.119476 6425.000000
274.487701 5881.000000
276.854279 6358.000000
279.219269 6751.000000
281.582642 6037.000000
283.944366 6171.000000
286.304504 7079.000000
288.663025 5953.000000
291.019958 6487.000000
293.375275 6403.000000
295.729004 5946.000000
298.081085 5975.000000
300.431610 6339.000000
302.780548 6402.000000
305.127838 6822.000000
307.473602 6432.000000
309.817688 6515.000000
312.160248 7355.000000
314.501190 7596.000000
316.840515 7193.000000
319.178284 6964.000000
321.514496 8047.000000
323.849060 6339.000000
326.182068 6476.000000
328.513519 6022.000000
330.843384 6629.000000
333.171661 6566.000000
335.498322 7143.000000
337.823486 6301.000000
340.147034 6220.000000
342.469025 6047.000000
344.789459 7517.000000
347.108276 7658.000000
349.425537 6007.000000
351.741272 5813.000000
354.055420 6883.000000
356.367981 6307.000000
358.678986 6381.000000
360.988464 7046.000000
363.296417 6358.000000
365.602753 5718.000000
367.907501 6390.000000
370.210785 6458.000000
372.512451 6277.000000
374.812622 6356.000000
377.111237 6329.000000
379.408295 5797.000000
381.703796 6084.000000
383.997772 5886.000000
386.290161 5220.000000
388.581055 5610.000000
390.870422 6207.000000
393.158203 6272.000000
395.444458 6456.000000
397.729218 6944.000000
400.012360 6060.000000
402.294067 6486.000000
404.574249 6093.000000
406.852844 7240.000000
409.129913 6440.000000
411.405457 6733.000000
413.679474 6552.000000
415.952057 6458.000000
418.223022 6292.000000
420.492493 6445.000000
422.760468 7119.000000
425.026886 7229.000000
427.291809 6332.000000
429.555267 6301.000000
431.817139 6494.000000
434.077545 6074.000000
436.336395 6547.000000
438.593781 6101.000000
440.849670 5639.000000
443.104065 5864.000000
445.356934 5516.000000
447.608246 6931.000000
449.858154 6087.000000
452.106476 6239.000000
454.353363 5620.000000
456.598785 6504.000000
458.842651 6522.000000
461.085022 6814.000000
463.325897 5663.000000
465.565369 6729.000000
467.803253 5472.000000
470.039703 5920.000000
472.274628 6120.000000
474.508087 7363.000000
476.740112 6702.000000
478.970612 5660.000000
481.199615 6389.000000
483.427155 6329.000000
485.653198 5962.000000
487.877808 6548.000000
490.100952 5856.000000
492.322632 6410.000000
494.542755 6726.000000
496.761475 5680.000000
498.978699 6309.000000
501.194550 5529.000000
503.408783 6140.000000
505.621704 6481.000000
507.833038 6473.000000
510.042938 6811.000000
512.251404 6482.000000
514.458496 6548.000000
516.664001 6434.000000
518.868103 6518.000000
521.070679 6218.000000
523.271851 6553.000000
525.471680 6685.000000
527.669983 6965.000000
529.866760 5313.000000
532.062195 5840.000000
534.256104 5610.000000
536.448669 7575.000000
538.639709 6706.000000
540.829346 6063.000000
543.017578 6932.000000
545.204285 7157.000000
547.389526 6878.000000
549.573486 6317.000000
551.755859 6406.000000
553.936890 6192.000000
556.116394 6075.000000
558.294617 5869.000000
560.471313 6018.000000
562.646606 6393.000000
564.820496 6437.000000
566.992920 5915.000000
569.163940 5998.000000
571.333496 6344.000000
573.501770 5310.000000
575.668518 6455.000000
577.833801 6274.000000
579.997681 6128.000000
582.160278 5753.000000
584.321350 5992.000000
586.481018 5655.000000
588.639343 5828.000000
590.796143 6180.000000
592.951599 6606.000000
595.105652 5760.000000
597.258362 6115.000000
599.409546 7260.000000
601.559387 6797.000000
603.707886 6737.000000
605.854797 6013.000000
608.000488 6558.000000
610.144775 6465.000000
612.287598 7047.000000
614.428955 6115.000000
616.569092 6511.000000
618.707703 7581.000000
620.845032 5739.000000
622.980896 6570.000000
625.115356 6830.000000
627.248352 7190.000000
629.380188 6606.000000
631.510559 6659.000000
633.639526 6753.000000
635.767029 6528.000000
637.893250 6112.000000
640.017944 7285.000000
642.141418 6415.000000
644.263550 6783.000000
646.384216 6944.000000
648.503540 6580.000000
650.621460 5691.000000
652.738037 5663.000000
654.853210 6470.000000
656.967041 6453.000000
659.079407 5853.000000
661.190552 6147.000000
663.300293 5403.000000
665.408569 6049.000000
667.515686 6215.000000
669.621338 6871.000000
671.725525 5695.000000
673.828491 5747.000000
675.930054 6998.000000
678.030273 5330.000000
680.129089 6762.000000
682.226563 6267.000000
684.322754 6950.000000
686.417480 6176.000000
688.510986 7076.000000
690.603149 6661.000000
692.693787 7942.000000
694.783203 6632.000000
696.871338 6517.000000
698.958008 6025.000000
701.043457 6707.000000
703.127380 5177.000000
705.210083 5893.000000
707.291504 5902.000000
709.371460 7515.000000
711.450195 6283.000000
713.527466 5598.000000
715.603455 6535.000000
717.678162 6093.000000
719.751587 6874.000000
721.823486 6271.000000
723.894226 7321.000000
725.963623 5810.000000
728.031616 6450.000000
730.098267 6360.000000
732.163696 7051.000000
734.227783 5774.000000
736.290527 6189.000000
738.351929 6448.000000
740.412048 6617.000000
742.470764 6067.000000
744.528259 6633.000000
746.584473 6490.000000
748.639282 6709.000000
750.692810 6415.000000
752.744934 7478.000000
754.795837 5759.000000
756.845520 6613.000000
758.893738 6331.000000
760.940735 6167.000000
762.986450 7001.000000
765.030762 5390.000000
767.073792 5731.000000
769.115601 14923.000000
771.156067 6887.000000
773.195129 6391.000000
775.233032 6101.000000
777.269592 6002.000000
779.304932 5390.000000
781.338928 5818.000000
783.371521 6926.000000
785.402954 5539.000000
787.432983 11608.000000
789.461731 6161.000000
791.489319 6349.000000
793.515564 6424.000000
795.540405 5831.000000
797.564148 5628.000000
799.586487 6358.000000
801.607605 5815.000000
803.627380 6729.000000
805.645874 4890.000000
807.663147 6681.000000
809.679016 6857.000000
811.693726 5766.000000
813.707092 6363.000000
815.719238 6264.000000
817.730164 6098.000000
819.739746 6559.000000
821.748108 5348.000000
823.755066 5750.000000
825.760803 6049.000000
827.765320 5789.000000
829.768555 5627.000000
831.770508 6504.000000
833.771179 5980.000000
835.770630 5923.000000
837.768738 6311.000000
839.765747 6966.000000
841.761353 6245.000000
843.755798 6028.000000
845.748901 6186.000000
847.740784 6846.000000
849.731323 5685.000000
851.720581 6798.000000
853.708801 6064.000000
855.695618 5724.000000
857.681213 6368.000000
859.665527 7214.000000
861.648743 6321.000000
863.630554 6412.000000
865.611145 5817.000000
867.590454 7728.000000
869.568604 7060.000000
871.545410 6246.000000
873.520935 6013.000000
875.495422 6174.000000
877.468445 6004.000000
879.440430 5405.000000
881.411072 6449.000000
883.380554 6107.000000
885.348694 5565.000000
887.315674 5177.000000
889.281311 6126.000000
891.245789 5859.000000
893.209045 5970.000000
895.171082 6531.000000
897.131836 5870.000000
899.091370 6392.000000
901.049622 6730.000000
903.006775 6321.000000
904.962769 6031.000000
906.917358 6893.000000
908.870728 6488.000000
910.822937 6401.000000
912.773926 6322.000000
914.723633 7038.000000
916.672180 6250.000000
918.619507 6149.000000
920.565552 6123.000000
922.510315 6064.000000
924.454041 6292.000000
926.396606 5960.000000
928.337891 5590.000000
930.277832 6486.000000
932.216675 5740.000000
934.154236 5492.000000
936.090576 5932.000000
938.025757 5789.000000
939.959656 6044.000000
941.892456 5937.000000
943.824036 6793.000000
945.754456 5225.000000
947.683655 6442.000000
949.611511 7072.000000
951.538330 6627.000000
953.463867 5978.000000
955.388123 5374.000000
957.311279 5972.000000
959.233276 6728.000000
961.153992 7271.000000
963.073547 6429.000000
964.991943 5297.000000
966.909302 6429.000000
968.825195 6433.000000
970.739990 6154.000000
972.653564 5914.000000
974.565979 6462.000000
976.477173 6479.000000
978.387207 5503.000000
980.295959 6249.000000
982.203674 6176.000000
984.110168 6384.000000
986.015442 5747.000000
987.919617 6747.000000
989.822571 6162.000000
991.724304 6845.000000
993.624878 6369.000000
995.524292 6615.000000
997.422485 5270.000000
999.319519 6509.000000
1001.215332 6498.000000
1003.109985 7575.000000
1005.003540 5606.000000
1006.895813 7161.000000
1008.787170 6047.000000
1010.677185 5372.000000
1012.565979 6587.000000
1014.453613 6445.000000
1016.340088 6882.000000
1018.225403 6722.000000
1020.109558 5904.000000
1021.992493 5859.000000
1023.874390 6230.000000
1025.755005 5160.000000
1027.634521 5829.000000
1029.513062 6085.000000
1031.390259 5435.000000
1033.266113 6145.000000
1035.140991 5913.000000
1037.014893 6574.000000
1038.887329 7003.000000
1040.758789 6735.000000
1042.628906 5514.000000
1044.498047 5546.000000
1046.365967 5733.000000
1048.232788 7083.000000
1050.098511 6742.000000
1051.963013 6436.000000
1053.826416 6413.000000
1055.688477 6482.000000
1057.549561 5883.000000
1059.409546 6497.000000
1061.268188 6692.000000
1063.125732 5778.000000
1064.982178 6720.000000
1066.837524 5927.000000
1068.691650 5786.000000
1070.544922 6245.000000
1072.396729 6340.000000
1074.247559 6136.000000
1076.097168 6167.000000
1077.945557 5728.000000
1079.793091 7974.000000
1081.639282 5573.000000
1083.484253 6233.000000
1085.328369 5474.000000
1087.171143 5577.000000
1089.012695 6508.000000
1090.853516 5555.000000
1092.692749 5763.000000
1094.531250 6032.000000
1096.368408 6018.000000
1098.204346 6792.000000
1100.039307 6618.000000
1101.873047 5387.000000
1103.705811 5552.000000
1105.537231 6184.000000
1107.367798 7224.000000
1109.197021 6501.000000
1111.025269 6523.000000
1112.852295 7156.000000
1114.678345 5440.000000
1116.503174 6285.000000
1118.326904 7131.000000
1120.149414 6127.000000
1121.970825 5893.000000
1123.791382 5920.000000
1125.610474 6642.000000
1127.428711 7143.000000
1129.245605 6870.000000
1131.061646 6683.000000
1132.876465 6449.000000
1134.690186 5629.000000
1136.502808 5803.000000
1138.314209 5653.000000
1140.124634 6082.000000
1141.933960 6762.000000
1143.741943 6962.000000
1145.549194 5903.000000
1147.354980 5894.000000
1149.159912 5385.000000
1150.963745 5384.000000
1152.766357 6105.000000
1154.568115 6127.000000
1156.368408 6060.000000
1158.167725 6134.000000
1159.966064 5912.000000
1161.763062 5470.000000
1163.559326 5938.000000
1165.354248 6084.000000
1167.148071 6300.000000
1168.941040 7685.000000
1170.732666 5757.000000
1172.523315 6532.000000
1174.312988 6016.000000
1176.101196 5857.000000
1177.888550 7474.000000
1179.674805 6882.000000
1181.459961 5765.000000
1183.244019 5964.000000
1185.026978 7635.000000
1186.808960 5904.000000
1188.589722 5949.000000
1190.369507 6303.000000
1192.148193 6949.000000
1193.925903 6639.000000
1195.702393 7192.000000
1197.477783 6599.000000
1199.252075 6495.000000
1201.025269 6743.000000
1202.797607 6610.000000
1204.568604 6724.000000
1206.338745 5746.000000
1208.107666 6163.000000
1209.875488 6327.000000
1211.642456 5801.000000
1213.408081 5969.000000
1215.172729 6925.000000
1216.936279 6542.000000
1218.698730 5934.000000
1220.460327 6747.000000
1222.220703 5855.000000
1223.979980 6335.000000
1225.738403 6089.000000
1227.495605 7060.000000
1229.251709 6467.000000
1231.006714 5554.000000
1232.760864 6042.000000
1234.513672 5839.000000
1236.265503 6016.000000
1238.016479 5962.000000
1239.766113 4880.000000
1241.514893 7012.000000
1243.262329 6482.000000
1245.009033 6572.000000
1246.754517 6493.000000
1248.499146 6525.000000
1250.242432 6741.000000
1251.984741 6717.000000
1253.725952 5301.000000
1255.466309 5075.000000
1257.205566 5803.000000
1258.943604 6571.000000
1260.680786 7114.000000
1262.416748 6138.000000
1264.151733 6383.000000
1265.885742 7214.000000
1267.618774 5970.000000
1269.350586 6149.000000
1271.081421 6481.000000
1272.811035 7198.000000
1274.539795 5956.000000
1276.267456 5676.000000
1277.994019 5574.000000
1279.719727 5575.000000
1281.444092 6401.000000
1283.167603 5249.000000
1284.890137 6908.000000
1286.611694 6632.000000
1288.332031 6186.000000
1290.051392 6666.000000
1291.769653 7282.000000
1293.486938 6480.000000
1295.203247 5784.000000
1296.918335 6380.000000
1298.632446 6104.000000
1300.345581 5844.000000
1302.057861 6456.000000
1303.768921 8313.000000
1305.479004 5329.000000
1307.187988 6304.000000
1308.895752 6692.000000
1310.602905 7004.000000
1312.308594 5830.000000
1314.013550 6822.000000
1315.717529 6133.000000
1317.420288 6025.000000
1319.122070 6581.000000
1320.822998 6008.000000
1322.522583 9737.000000
1324.221313 31179.000000
1325.919312 5622.000000
1327.615967 6486.000000
1329.311523 7216.000000
1331.006226 6851.000000
1332.699707 5727.000000
1334.392334 5385.000000
1336.084106 7132.000000
1337.774536 6280.000000
1339.464233 6566.000000
1341.152832 6143.000000
1342.840332 7555.000000
1344.526855 5657.000000
1346.212280 6805.000000
1347.896729 5913.000000
1349.580322 7314.000000
1351.262695 6374.000000
1352.944092 5966.000000
1354.624634 6571.000000
1356.303955 6739.000000
1357.982666 5880.000000
1359.660034 6557.000000
1361.336304 5781.000000
1363.011597 5615.000000
1364.686157 6551.000000
1366.359497 6425.000000
1368.031860 6806.000000
1369.703247 5162.000000
1371.373657 6774.000000
1373.042969 6202.000000
1374.711304 5674.000000
1376.378784 5952.000000
1378.045166 6433.000000
1379.710571 6065.000000
1381.375000 5873.000000
1383.038208 5957.000000
1384.700806 5717.000000
1386.362061 6411.000000
1388.022461 6583.000000
1389.681763 6427.000000
1391.340088 6478.000000
1392.997681 6786.000000
1394.654053 6498.000000
1396.309570 7018.000000
1397.963867 6266.000000
1399.617310 5853.000000
1401.269653 6088.000000
1402.921265 6400.000000
1404.571655 7145.000000
1406.220947 6232.000000
1407.869507 7490.000000
1409.516968 7928.000000
1411.163452 6217.000000
1412.809082 6307.000000
1414.453735 5969.000000
1416.097168 7004.000000
1417.739746 7168.000000
1419.381226 6871.000000
1421.021851 6526.000000
1422.661499 6534.000000
1424.300049 6021.000000
1425.937744 6564.000000
1427.574341 6338.000000
1429.209961 5937.000000
1430.844849 6356.000000
1432.478638 5915.000000
1434.111328 6196.000000
1435.743042 5677.000000
1437.373901 6090.000000
1439.003662 6049.000000
1440.632324 7719.000000
1442.260376 5981.000000
1443.887329 6194.000000
1445.513062 6173.000000
1447.138184 6178.000000
1448.762207 6523.000000
1450.385254 6038.000000
1452.007324 6016.000000
1453.628296 7419.000000
1455.248291 6288.000000
1456.867554 6899.000000
1458.485474 5640.000000
1460.102783 19156.000000
1461.719116 5546.000000
1463.334229 7245.000000
1464.948486 6238.000000
1466.561890 5185.000000
1468.174194 5604.000000
1469.785645 6256.000000
1471.396240 6346.000000
1473.005615 6008.000000
1474.614014 6019.000000
1476.221558 6156.000000
1477.828125 6841.000000
1479.433960 5301.000000
1481.038574 6260.000000
1482.642334 5571.000000
1484.244873 6732.000000
1485.846802 5554.000000
1487.447510 5518.000000
1489.047485 5640.000000
1490.646362 6335.000000
1492.244385 6429.000000
1493.841309 6628.000000
1495.437378 6292.000000
1497.032471 6005.000000
1498.626587 5531.000000
1500.219971 6547.000000
1501.812256 5456.000000
1503.403320 6013.000000
1504.993896 6714.000000
1506.583130 6454.000000
1508.171753 6130.000000
1509.759277 6533.000000
1511.345703 6851.000000
1512.931396 6229.000000
1514.515991 6601.000000
1516.099731 6192.000000
1517.682373 6099.000000
1519.264282 6583.000000
1520.845093 6647.000000
1522.425171 6011.000000
1524.004028 6244.000000
1525.582031 6418.000000
1527.159302 6302.000000
1528.735352 5619.000000
1530.310669 5838.000000
1531.884888 6316.000000
1533.458374 5428.000000
1535.030640 5985.000000
1536.602173 6350.000000
1538.172729 6412.000000
1539.742432 6349.000000
1541.310913 5437.000000
1542.878662 6578.000000
1544.445557 5632.000000
1546.011230 6720.000000
1547.576172 5927.000000
1549.140015 5094.000000
1550.703247 7412.000000
1552.265137 6277.000000
1553.826416 6000.000000
1555.386597 5687.000000
1556.946045 5685.000000
1558.504395 5888.000000
1560.062012 6259.000000
1561.618530 7069.000000
1563.173828 5839.000000
1564.728516 6374.000000
1566.282471 5660.000000
1567.835449 6259.000000
1569.387085 5707.000000
1570.937988 5919.000000
1572.488159 6200.000000
1574.037354 6277.000000
1575.585205 5770.000000
1577.132568 5559.000000
1578.678955 5739.000000
1580.224487 5088.000000
1581.769043 6666.000000
1583.312378 6404.000000
1584.855103 6627.000000
1586.396973 6462.000000
1587.937744 6693.000000
1589.477539 5848.000000
1591.016602 6692.000000
1592.554565 5886.000000
1594.092041 6140.000000
1595.628174 5882.000000
1597.163208 6705.000000
1598.697754 6256.000000
1600.231323 5924.000000
1601.764038 6073.000000
1603.295166 6313.000000
1604.826050 6299.000000
1606.356079 5769.000000
1607.884888 6161.000000
1609.412598 6143.000000
1610.939697 6034.000000
1612.466064 5839.000000
1613.991455 6234.000000
1615.515991 5782.000000
1617.039185 5791.000000
1618.561646 5553.000000
1620.083374 6563.000000
1621.604248 7024.000000
1623.123657 15561.000000
1624.642578 6170.000000
1626.160767 6098.000000
1627.678101 5826.000000
1629.194336 6365.000000
1630.709229 6999.000000
1632.223633 6665.000000
1633.737305 5800.000000
1635.249878 6901.000000
1636.761230 5974.000000
1638.272217 6415.000000
1639.782104 6223.000000
1641.291138 6188.000000
1642.798828 5935.000000
1644.306152 6053.000000
1645.812622 7086.000000
1647.318115 6207.000000
1648.822754 6896.000000
1650.325928 6150.000000
1651.828491 6558.000000
1653.330688 6305.000000
1654.831543 6622.000000
1656.331299 7520.000000
1657.830200 5949.000000
1659.328735 6457.000000
1660.826050 6258.000000
1662.322632 5920.000000
1663.817627 6568.000000
1665.312378 6343.000000
1666.806274 5222.000000
1668.299194 5544.000000
1669.790771 20841.000000
1671.281860 6457.000000
1672.772339 6078.000000
1674.261719 6004.000000
1675.749634 6913.000000
1677.237305 6862.000000
1678.723999 6031.000000
1680.209839 5341.000000
1681.694824 6048.000000
1683.178345 6206.000000
1684.661621 6181.000000
1686.144043 5891.000000
1687.625366 6215.000000
1689.105225 6192.000000
1690.584839 5513.000000
1692.063721 6586.000000
1693.541626 6011.000000
1695.018555 6179.000000
1696.494263 5724.000000
1697.969604 6026.000000
1699.443726 6360.000000
1700.917236 5479.000000
1702.389282 5570.000000
1703.861084 6893.000000
1705.331909 6372.000000
1706.801880 7104.000000
1708.270508 5107.000000
1709.738647 5905.000000
1711.206055 6351.000000
1712.672363 5525.000000
1714.138062 5732.000000
1715.602051 6247.000000
1717.065918 5975.000000
1718.528931 6959.000000
1719.990967 6402.000000
1721.451782 6597.000000
1722.911987 5471.000000
1724.371460 5694.000000
1725.830078 6114.000000
1727.287720 5957.000000
1728.744019 6239.000000
1730.200073 6038.000000
1731.655151 6457.000000
1733.109253 5944.000000
1734.562134 6883.000000
1736.014771 6002.000000
1737.466309 6944.000000
1738.917114 5978.000000
1740.366943 6588.000000
1741.815430 5963.000000
1743.263550 7277.000000
1744.710815 6500.000000
1746.157349 6641.000000
1747.602295 6681.000000
1749.046997 6106.000000
1750.490845 5846.000000
1751.933838 5517.000000
1753.375366 6582.000000
1754.816650 6338.000000
1756.257080 19356.000000
1757.696533 6224.000000
1759.135010 5298.000000
1760.572510 6049.000000
1762.009521 7541.000000
1763.445557 5896.000000
1764.880737 7121.000000
1766.314453 6200.000000
1767.748047 6466.000000
1769.180664 6686.000000
1770.612427 5780.000000
1772.043335 5783.000000
1773.473022 6377.000000
1774.901978 6129.000000
1776.330444 6244.000000
1777.757935 6725.000000
1779.184082 6235.000000
1780.609985 5615.000000
1782.034790 6891.000000
1783.458984 5621.000000
1784.881714 6614.000000
1786.303955 6558.000000
1787.725464 6859.000000
1789.146240 5923.000000
1790.566040 6083.000000
1791.984497 6136.000000
1793.402466 6864.000000
1794.819824 5546.000000
1796.236328 5974.000000
1797.651367 6546.000000
1799.066040 5833.000000
1800.480103 6624.000000
1801.892944 5993.000000
1803.305176 6972.000000
1804.716064 7129.000000
1806.126465 7778.000000
1807.536133 6492.000000
1808.944824 5963.000000
1810.352417 5432.000000
1811.759521 6443.000000
1813.165771 6393.000000
1814.571045 6732.000000
1815.975220 5959.000000
1817.379028 5953.000000
1818.781860 6254.000000
1820.183838 5994.000000
1821.585205 5924.000000
1822.985107 6354.000000
1824.384399 6430.000000
1825.783203 6560.000000
1827.181152 7493.000000
1828.577759 5761.000000
1829.973755 6749.000000
1831.369019 5920.000000
1832.763672 8096.000000
1834.157349 6003.000000
1835.549683 6851.000000
1836.941528 6410.000000
1838.332764 5888.000000
1839.723022 7105.000000
1841.112061 6071.000000
1842.500732 6027.000000
1843.888428 5985.000000
1845.275391 5712.000000
1846.661011 6919.000000
1848.046387 5867.000000
1849.430908 6367.000000
1850.814697 6315.000000
1852.197388 6345.000000
1853.578857 5382.000000
1854.959839 6530.000000
1856.340332 6326.000000
1857.719849 5779.000000
1859.097900 5939.000000
1860.475830 6213.000000
1861.852783 7813.000000
1863.229004 6133.000000
1864.604370 6023.000000
1865.978271 5578.000000
1867.352051 5670.000000
1868.724976 6235.000000
1870.096802 5994.000000
1871.467651 6935.000000
1872.838135 5476.000000
1874.207520 6092.000000
1875.576416 6123.000000
1876.943726 7144.000000
1878.310913 6054.000000
1879.677124 5964.000000
1881.042603 6800.000000
1882.407349 7446.000000
1883.770508 6768.000000
1885.133545 6824.000000
1886.495728 6312.000000
1887.857056 6469.000000
1889.217041 5661.000000
1890.576660 5861.000000
1891.935669 6129.000000
1893.293701 6565.000000
1894.650879 7303.000000
1896.006836 5935.000000
1897.362549 7603.000000
1898.717285 5887.000000
1900.071167 5558.000000
1901.423950 5934.000000
1902.776245 5979.000000
1904.127808 5959.000000
1905.478516 6854.000000
1906.828003 6564.000000
1908.177002 6640.000000
1909.525146 5794.000000
1910.872681 6159.000000
1912.219482 6301.000000
1913.564697 6805.000000
1914.909668 6052.000000
1916.253906 5432.000000
1917.597290 6530.000000
1918.939331 5955.000000
1920.281128 6679.000000
1921.622070 7064.000000
1922.962280 6153.000000
1924.301514 6273.000000
1925.639771 6198.000000
1926.977417 6531.000000
1928.314331 7017.000000
1929.650391 6734.000000
1930.985229 5551.000000
1932.319702 6673.000000
1933.653442 7259.000000
1934.986328 6262.000000
1936.317749 5717.000000
1937.649292 6307.000000
1938.979492 6579.000000
1940.309204 5726.000000
1941.638062 6128.000000
1942.965698 5826.000000
1944.292847 5022.000000
1945.619263 5826.000000
1946.944946 6404.000000
1948.269287 5813.000000
1949.593384 6693.000000
1950.916626 6289.000000
1952.239136 6349.000000
1953.560547 5789.000000
1954.880981 7406.000000
1956.200806 6003.000000
1957.520264 5511.000000
1958.838745 6791.000000
1960.155884 5911.000000
1961.472656 5897.000000
1962.788696 6590.000000
1964.104004 6539.000000
1965.417847 6243.000000
1966.731445 5726.000000
1968.044312 6258.000000
1969.356323 5969.000000
1970.667725 6034.000000
1971.977783 6318.000000
1973.287354 5800.000000
1974.596191 6153.000000
1975.904419 6599.000000
1977.211304 6121.000000
1978.517578 7244.000000
1979.823486 5524.000000
1981.128174 6355.000000
1982.432373 5918.000000
1983.735352 5778.000000
1985.037964 7497.000000
1986.339600 6100.000000
1987.640625 6819.000000
1988.940063 6053.000000
1990.239624 6620.000000
1991.538086 5279.000000
1992.836060 6093.000000
1994.132446 6118.000000
1995.428833 5786.000000
1996.724243 5609.000000
1998.018921 6578.000000
1999.312744 5715.000000
2000.605347 6564.000000
2001.897461 5696.000000
2003.189087 7134.000000
2004.479980 6445.000000
2005.769287 6203.000000
2007.058350 6800.000000
2008.346680 6057.000000
2009.634277 6009.000000
2010.921021 6591.000000
2012.206665 5630.000000
2013.491943 6349.000000
2014.776245 6014.000000
2016.059937 5611.000000
2017.342285 6059.000000
2018.624268 6513.000000
2019.905762 6779.000000
2021.186279 5889.000000
2022.466064 6042.000000
2023.744751 6779.000000
2025.022705 5851.000000
2026.300171 5891.000000
2027.577026 6306.000000
2028.852173 5761.000000
2030.127441 6510.000000
2031.401733 6050.000000
2032.675049 5910.000000
2033.947510 5981.000000
2035.219604 6139.000000
2036.490601 6876.000000
2037.761353 6549.000000
2039.030762 6020.000000
2040.299072 6822.000000
2041.567383 6611.000000
2042.834717 5928.000000
2044.101318 5955.000000
2045.366699 5697.000000
2046.631470 5529.000000
2047.895996 5447.000000
2049.159180 5885.000000
2050.422119 6399.000000
2051.683105 6159.000000
2052.944580 6119.000000
2054.204834 5946.000000
2055.464355 6471.000000
2056.723145 6239.000000
2057.980957 6950.000000
2059.238281 6154.000000
2060.494873 5953.000000
2061.750000 6507.000000
2063.005127 5587.000000
2064.259277 5560.000000
2065.512695 5673.000000
2066.765381 6827.000000
2068.016846 6291.000000
2069.268066 6315.000000
2070.518555 5652.000000
2071.768311 5418.000000
2073.016602 6475.000000
2074.264893 6535.000000
2075.512207 7470.000000
2076.758789 5597.000000
2078.004639 6009.000000
2079.249268 7006.000000
2080.493408 7643.000000
2081.737061 5509.000000
2082.979736 6026.000000
2084.221191 6991.000000
2085.462402 5960.000000
2086.703125 6362.000000
2087.942871 6767.000000
2089.181396 7085.000000
2090.419434 6159.000000
2091.656738 5817.000000
2092.893799 6581.000000
2094.129395 6083.000000
2095.364258 6170.000000
2096.598877 6091.000000
2097.832520 5651.000000
2099.065186 6138.000000
2100.297119 6819.000000
2101.528564 6436.000000
2102.759033 6787.000000
2103.988770 6027.000000
2105.218262 5960.000000
2106.445801 6010.000000
2107.673584 6045.000000
2108.900635 6278.000000
2110.126709 5495.000000
2111.351318 6365.000000
2112.576172 7012.000000
2113.799805 7098.000000
2115.022949 6249.000000
2116.244873 7507.000000
2117.466553 6047.000000
2118.687256 6873.000000
2119.907227 6025.000000
2121.126709 6167.000000
2122.344727 6571.000000
2123.562744 6979.000000
2124.779785 5767.000000
2125.996338 5758.000000
2127.211182 6519.000000
2128.426270 6355.000000
2129.640381 6803.000000
2130.853760 5727.000000
2132.066406 6148.000000
2133.277588 5815.000000
2134.489014 6411.000000
2135.699219 6731.000000
2136.908936 5962.000000
2138.117188 6209.000000
2139.325439 5686.000000
2140.532959 5898.000000
2141.739258 7691.000000
2142.944824 5845.000000
2144.150146 5619.000000
2145.354492 5437.000000
2146.558105 6313.000000
2147.761230 6171.000000
2148.962891 6487.000000
2150.164307 5303.000000
2151.364990 6275.000000
2152.564941 6015.000000
2153.763672 6019.000000
2154.962158 6891.000000
2156.160156 6138.000000
2157.357178 6031.000000
2158.553467 5159.000000
2159.748535 5298.000000
2160.943359 6051.000000
2162.137451 5648.000000
2163.330566 6034.000000
2164.522705 6919.000000
2165.714600 5884.000000
2166.905762 6355.000000
2168.095947 6313.000000
2169.285400 6501.000000
2170.474365 6790.000000
2171.662354 5985.000000
2172.850098 5703.000000
2174.036377 5962.000000
2175.221924 6567.000000
2176.407227 6005.000000
2177.592041 5846.000000
2178.775635 6335.000000
2179.958496 7485.000000
2181.140381 6306.000000
2182.322021 6099.000000
2183.503174 6589.000000
2184.683105 5686.000000
2185.862061 5594.000000
2187.040527 6349.000000
2188.218750 6862.000000
2189.395752 7223.000000
2190.571777 6669.000000
2191.747559 6097.000000
2192.922852 5574.000000
2194.096680 6673.000000
2195.270020 6170.000000
2196.443115 6154.000000
2197.614990 6379.000000
2198.786377 7120.000000
2199.957275 6339.000000
2201.126465 6837.000000
2202.295654 7580.000000
2203.464355 6262.000000
2204.632080 5813.000000
2205.798828 5686.000000
2206.964844 7067.000000
2208.130371 6753.000000
2209.295654 5960.000000
2210.459473 6762.000000
2211.622803 5445.000000
2212.784912 6186.000000
2213.947266 6203.000000
2215.108398 6692.000000
2216.268555 6688.000000
2217.428223 6322.000000
2218.587646 6544.000000
2219.745850 6398.000000
2220.903076 6340.000000
2222.060059 6797.000000
2223.216309 6484.000000
2224.371826 6741.000000
2225.526611 6292.000000
2226.680420 6448.000000
2227.833252 6030.000000
2228.986572 6892.000000
2230.137939 6210.000000
2231.289063 6189.000000
2232.439453 6565.000000
2233.589355 7720.000000
2234.738281 6296.000000
2235.886719 5225.000000
2237.033691 6746.000000
2238.180908 7223.000000
2239.326904 6104.000000
2240.472656 7188.000000
2241.616699 7298.000000
2242.760986 6788.000000
2243.904297 6147.000000
2245.046875 5965.000000
2246.188477 5789.000000
2247.329834 5832.000000
2248.470215 6404.000000
2249.609863 6430.000000
2250.749023 5850.000000
2251.886963 5787.000000
2253.024902 6228.000000
2254.161865 5309.000000
2255.298096 6304.000000
2256.433350 6153.000000
2257.567871 7242.000000
2258.702148 6397.000000
2259.835938 5403.000000
2260.968262 6180.000000
2262.100098 6778.000000
2263.231445 6312.000000
2264.361816 6486.000000
2265.491943 8095.000000
2266.620850 6680.000000
2267.749268 6133.000000
2268.877197 5548.000000
2270.004150 6105.000000
2271.130371 5994.000000
2272.255615 6728.000000
2273.380859 6487.000000
2274.505371 6464.000000
2275.628662 5991.000000
2276.751221 6416.000000
2277.873291 5953.000000
2278.994873 7362.000000
2280.115723 6448.000000
2281.235352 6414.000000
2282.354492 7144.000000
2283.473389 7723.000000
2284.591553 7296.000000
2285.708740 5909.000000
2286.824951 6389.000000
2287.940918 6976.000000
2289.056152 6826.000000
2290.170654 7376.000000
2291.283936 5727.000000
2292.397217 6363.000000
2293.509766 6024.000000
2294.621582 5432.000000
2295.732666 6829.000000
2296.842529 6435.000000
2297.951904 6218.000000
2299.061035 6652.000000
2300.169189 6352.000000
2301.276367 6742.000000
2302.383301 5939.000000
2303.489502 6256.000000
2304.595215 6641.000000
2305.699463 6625.000000
2306.803467 5457.000000
2307.906982 5750.000000
2309.010010 6548.000000
2310.111816 7414.000000
2311.212891 7330.000000
2312.313477 6603.000000
2313.413574 5520.000000
2314.512939 6356.000000
2315.610840 6564.000000
2316.709229 7017.000000
2317.806152 8227.000000
2318.902832 6848.000000
2319.999023 5869.000000
2321.093506 6820.000000
2322.187988 7535.000000
2323.281738 5807.000000
2324.375244 6036.000000
2325.467041 6438.000000
2326.558838 6964.000000
2327.649902 6119.000000
2328.740234 6243.000000
2329.829590 6908.000000
2330.918945 5992.000000
2332.007080 6365.000000
2333.094727 6810.000000
2334.182129 6526.000000
2335.267822 6668.000000
2336.353271 7849.000000
2337.438477 6299.000000
2338.522705 6705.000000
2339.605957 6017.000000
2340.688965 6464.000000
2341.770996 6227.000000
2342.852783 5990.000000
2343.933838 7390.000000
2345.013672 6598.000000
2346.093018 5721.000000
2347.171875 6800.000000
2348.250244 6533.000000
2349.327148 6313.000000
2350.403809 7004.000000
2351.480225 6074.000000
2352.555664 6420.000000
2353.630127 5955.000000
2354.704346 6330.000000
2355.777832 6784.000000
2356.850830 6248.000000
2357.922607 7129.000000
2358.994141 6282.000000
2360.064697 6789.000000
2361.135010 7492.000000
2362.204346 7561.000000
2363.272705 6823.000000
2364.340820 6744.000000
2365.408203 7071.000000
2366.475098 7157.000000
2367.541260 6051.000000
2368.606201 6874.000000
2369.671143 6960.000000
2370.735352 6290.000000
2371.798828 6891.000000
2372.861084 5782.000000
2373.923340 6277.000000
2374.984619 6321.000000
2376.045654 5900.000000
2377.105469 6310.000000
2378.164551 7892.000000
2379.223633 6475.000000
2380.281738 7594.000000
2381.339111 6941.000000
2382.395508 8012.000000
2383.451660 7837.000000
2384.507324 6179.000000
2385.562256 6981.000000
2386.615723 6719.000000
2387.669434 6536.000000
2388.722168 6259.000000
2389.774414 6739.000000
2390.825928 6095.000000
2391.876465 6683.000000
2392.926758 6449.000000
2393.976074 6159.000000
2395.025391 6242.000000
2396.073242 6934.000000
2397.120605 6998.000000
2398.167725 6314.000000
2399.213867 6643.000000
2400.259277 6196.000000
2401.303955 6724.000000
2402.348633 7684.000000
2403.391846 7433.000000
2404.435059 6571.000000
2405.476807 5812.000000
2406.518799 6692.000000
2407.560059 7181.000000
2408.600342 6123.000000
2409.639893 6470.000000
2410.678467 6441.000000
2411.717285 5917.000000
2412.754883 6542.000000
2413.792236 6934.000000
2414.828369 7217.000000
2415.864258 6226.000000
2416.899414 6258.000000
2417.934082 6885.000000
2418.967285 7176.000000
2420.000732 6526.000000
2421.033203 6676.000000
2422.065430 6809.000000
2423.096191 7051.000000
2424.126953 6397.000000
2425.157227 6893.000000
2426.186279 6860.000000
2427.215332 6626.000000
2428.242676 7406.000000
2429.270508 6714.000000
2430.297119 7274.000000
2431.323486 6961.000000
2432.348389 7697.000000
2433.373535 6564.000000
2434.397705 7093.000000
2435.421631 6692.000000
2436.444336 5814.000000
2437.466309 6351.000000
2438.488037 6561.000000
2439.509033 6651.000000
2440.529541 5989.000000
2441.548828 6548.000000
2442.568115 6618.000000
2443.586426 8439.000000
2444.604492 6287.000000
2445.621094 6479.000000
2446.637695 6552.000000
2447.653564 5993.000000
2448.669434 7023.000000
2449.683838 6766.000000
2450.697510 5559.000000
2451.710693 7272.000000
2452.723633 5995.000000
2453.735840 7162.000000
2454.747070 6649.000000
2455.758057 7706.000000
2456.768311 6296.000000
2457.778076 7687.000000
2458.786865 5925.000000
2459.794922 5990.000000
2460.802979 6356.000000
2461.809814 7360.000000
2462.816406 5458.000000
2463.821777 7370.000000
2464.826904 6920.000000
2465.831787 5856.000000
2466.835449 6545.000000
2467.838867 6373.000000
2468.841309 7592.000000
2469.843506 7341.000000
2470.845215 6917.000000
2471.845947 6563.000000
2472.845703 6979.000000
2473.845459 6801.000000
2474.844238 5698.000000
2475.842529 6575.000000
2476.839844 7062.000000
2477.836914 6126.000000
2478.833984 6794.000000
2479.829590 5800.000000
2480.825195 7155.000000
2481.819092 6725.000000
2482.812988 8116.000000
2483.806396 6869.000000
2484.799316 6692.000000
2485.791260 7487.000000
2486.782471 7234.000000
2487.773438 6765.000000
2488.763916 5870.000000
2489.753418 6601.000000
2490.742188 6438.000000
2491.730957 5652.000000
2492.718750 6839.000000
2493.705322 6569.000000
2494.691895 8042.000000
2495.677979 6757.000000
2496.663330 7145.000000
2497.647705 8434.000000
2498.631836 6003.000000
2499.615967 6900.000000
2500.598633 5786.000000
2501.580811 7010.000000
2502.562500 6861.000000
2503.543457 7187.000000
2504.523926 6541.000000
2505.504150 5781.000000
2506.482910 6389.000000
2507.461426 7594.000000
2508.439453 6715.000000
2509.416992 7146.000000
2510.393555 6078.000000
2511.369873 6018.000000
2512.345459 6420.000000
2513.320557 6223.000000
2514.295166 6488.000000
2515.268555 7497.000000
2516.241699 6832.000000
2517.214600 6880.000000
2518.186523 6107.000000
2519.157715 6837.000000
2520.128418 6938.000000
2521.098877 7785.000000
2522.068604 8028.000000
2523.037354 6122.000000
2524.005371 6178.000000
2524.973389 7809.000000
2525.940430 6343.000000
2526.907227 5508.000000
2527.872803 7269.000000
2528.838379 7009.000000
2529.803223 7742.000000
2530.767578 6415.000000
2531.730713 6380.000000
2532.694092 5882.000000
2533.656494 5950.000000
2534.618652 6693.000000
2535.579590 6447.000000
2536.539795 6109.000000
2537.500244 6157.000000
2538.459717 6888.000000
2539.418457 6819.000000
2540.376221 6690.000000
2541.334229 6223.000000
2542.291504 6779.000000
2543.247803 6056.000000
2544.203857 7082.000000
2545.158691 6213.000000
2546.113770 7707.000000
2547.068115 7055.000000
2548.021729 6984.000000
2548.974365 7217.000000
2549.926758 6719.000000
2550.878662 6923.000000
2551.829834 6375.000000
2552.780273 7765.000000
2553.730225 7318.000000
2554.679932 7351.000000
2555.628906 6678.000000
2556.577393 6299.000000
2557.524658 7098.000000
2558.471924 6280.000000
2559.418457 6551.000000
2560.364502 6784.000000
2561.309570 7562.000000
2562.254395 6724.000000
2563.198730 7168.000000
2564.142578 6843.000000
2565.085938 6640.000000
2566.027832 6500.000000
2566.969971 6564.000000
2567.911377 6145.000000
2568.852051 7194.000000
2569.791992 7324.000000
2570.731934 5625.000000
2571.670898 6193.000000
2572.609619 7478.000000
2573.547363 7181.000000
2574.484863 5501.000000
2575.421631 7022.000000
2576.357666 6835.000000
2577.293213 7556.000000
2578.228027 6326.000000
2579.162842 5974.000000
2580.096680 7060.000000
2581.030029 6959.000000
2581.962646 5869.000000
2582.895020 6908.000000
2583.826660 5444.000000
2584.757813 7040.000000
2585.688477 6967.000000
2586.617920 6879.000000
2587.547363 7344.000000
2588.476318 6540.000000
2589.405029 7404.000000
2590.332031 7259.000000
2591.259277 5866.000000
2592.186035 6845.000000
2593.112061 6324.000000
2594.037842 5596.000000
2594.962402 7647.000000
2595.886719 7609.000000
2596.810547 5362.000000
2597.733887 7253.000000
2598.656250 6268.000000
2599.578369 6882.000000
2600.500000 8278.000000
2601.420898 6453.000000
2602.341064 5731.000000
2603.260986 6321.000000
2604.180420 6413.000000
2605.099609 6413.000000
2606.017822 5858.000000
2606.934814 5994.000000
2607.852051 7262.000000
2608.769043 5910.000000
2609.685059 7522.000000
2610.599854 6625.000000
2611.515137 6581.000000
2612.429688 6569.000000
2613.343262 6545.000000
2614.256836 6168.000000
2615.169189 7607.000000
2616.081543 7074.000000
2616.992920 6827.000000
2617.904053 5611.000000
2618.814453 7156.000000
2619.724609 6666.000000
2620.634033 6185.000000
2621.542969 6611.000000
2622.450928 6251.000000
2623.359131 6824.000000
2624.266357 6653.000000
2625.173096 7023.000000
2626.079102 6094.000000
2626.984863 6651.000000
2627.889893 6461.000000
2628.794678 7835.000000
2629.698730 6546.000000
2630.601807 6320.000000
2631.504883 6402.000000
2632.406982 5623.000000
2633.309082 6794.000000
2634.210938 6960.000000
2635.111084 6789.000000
2636.011475 6436.000000
2636.911133 6375.000000
2637.810547 6009.000000
2638.708496 6901.000000
2639.606934 6735.000000
2640.504883 6425.000000
2641.402100 6126.000000
2642.298096 6202.000000
2643.194092 6803.000000
2644.089844 6054.000000
2644.984863 6478.000000
2645.879639 6524.000000
2646.772949 7096.000000
2647.666260 6286.000000
2648.559326 6817.000000
2649.452148 6464.000000
2650.343262 7412.000000
2651.234619 6413.000000
2652.125488 7697.000000
2653.015625 7351.000000
2653.905518 6548.000000
2654.794189 7309.000000
2655.683105 6686.000000
2656.571533 6643.000000
2657.458984 7347.000000
2658.345459 6529.000000
2659.232422 7059.000000
2660.118652 6873.000000
2661.004395 6835.000000
2661.888916 6535.000000
2662.773438 6371.000000
2663.657715 6246.000000
2664.541260 7070.000000
2665.424316 7911.000000
2666.306641 7371.000000
2667.188477 6175.000000
2668.069580 6580.000000
2668.950928 6116.000000
2669.830811 6566.000000
2670.710938 7414.000000
2671.590332 7263.000000
2672.469727 6181.000000
2673.348389 6160.000000
2674.225342 6465.000000
2675.103027 6733.000000
2675.979980 6383.000000
2676.856201 8135.000000
2677.731934 7204.000000
2678.606934 6255.000000
2679.482178 7647.000000
2680.356445 7066.000000
2681.230225 7339.000000
2682.103271 7021.000000
2682.976074 6190.000000
2683.848633 6111.000000
2684.720459 7013.000000
2685.591553 6559.000000
2686.462402 6866.000000
2687.332764 7125.000000
2688.202881 6707.000000
2689.071289 6310.000000
2689.940430 7338.000000
2690.808838 7152.000000
2691.677002 6647.000000
2692.544434 6943.000000
2693.410645 5904.000000
2694.277344 7177.000000
2695.143066 7432.000000
2696.008789 7238.000000
2696.873047 7859.000000
2697.738037 6584.000000
2698.601563 7354.000000
2699.465332 5868.000000
2700.327637 7400.000000
2701.190430 6834.000000
2702.052246 5945.000000
2702.913574 6900.000000
2703.774902 6724.000000
2704.635010 7448.000000
2705.495117 7400.000000
2706.354736 6586.000000
2707.214111 6848.000000
2708.071777 7153.000000
2708.929688 6916.000000
2709.788086 7288.000000
2710.645264 6728.000000
2711.501709 6029.000000
2712.357666 6879.000000
2713.213623 6116.000000
2714.068848 6937.000000
2714.923340 6120.000000
2715.777344 6822.000000
2716.631348 7286.000000
2717.484375 6341.000000
2718.337646 6482.000000
2719.189209 7773.000000
2720.041260 6828.000000
2720.893066 6293.000000
2721.743652 6530.000000
2722.594238 6441.000000
2723.444336 7099.000000
2724.293701 7025.000000
2725.143066 7018.000000
2725.991211 6656.000000
2726.838867 6558.000000
2727.687012 7027.000000
2728.533936 6879.000000
2729.381348 5508.000000
2730.227295 7524.000000
2731.072510 7028.000000
2731.918213 6435.000000
2732.762939 6978.000000
2733.607666 7364.000000
2734.451172 6908.000000
2735.294922 7820.000000
2736.137939 7139.000000
2736.980469 6105.000000
2737.822021 6349.000000
2738.664063 6825.000000
2739.505127 6956.000000
2740.345947 5811.000000
2741.186523 5958.000000
2742.025879 7794.000000
2742.865234 6790.000000
2743.704590 6936.000000
2744.542725 6830.000000
2745.380371 7764.000000
2746.218018 6421.000000
2747.055176 7153.000000
2747.892090 6205.000000
2748.728516 6045.000000
2749.563721 6613.000000
2750.399170 6378.000000
2751.234131 6402.000000
2752.068359 6314.000000
2752.902344 6950.000000
2753.735840 6803.000000
2754.569336 8049.000000
2755.401855 6789.000000
2756.233887 7256.000000
2757.065430 6841.000000
2757.896973 7123.000000
2758.727539 7198.000000
2759.558350 7223.000000
2760.387939 7280.000000
2761.217529 6682.000000
2762.046875 7286.000000
2762.875488 6849.000000
2763.703613 6755.000000
2764.531250 7089.000000
2765.358887 6732.000000
2766.186035 7916.000000
2767.012451 5855.000000
2767.838379 7454.000000
2768.663818 6918.000000
2769.489014 7797.000000
2770.314209 7116.000000
2771.138184 6767.000000
2771.962158 6540.000000
2772.786133 7669.000000
2773.608887 6434.000000
2774.431885 6948.000000
2775.253662 6931.000000
2776.075439 7024.000000
2776.897217 6467.000000
2777.718018 7953.000000
2778.538086 6532.000000
2779.358398 7014.000000
2780.178223 7249.000000
2780.998047 6443.000000
2781.815918 5963.000000
2782.635010 8044.000000
2783.452881 6513.000000
2784.270508 6695.000000
2785.087646 7102.000000
2785.904297 7290.000000
2786.720703 7188.000000
2787.536621 6322.000000
2788.352295 5991.000000
2789.166992 6389.000000
2789.982178 7116.000000
2790.796631 7208.000000
2791.610596 6601.000000
2792.424316 7431.000000
2793.236816 8866.000000
2794.049561 7008.000000
2794.861816 7516.000000
2795.673584 7222.000000
2796.484619 7355.000000
2797.296387 6528.000000
2798.106934 7200.000000
2798.917480 7120.000000
2799.726563 7385.000000
2800.536377 8254.000000
2801.345459 7736.000000
2802.154297 6605.000000
2802.962646 7185.000000
2803.770020 6202.000000
2804.577881 6441.000000
2805.385010 7016.000000
2806.191895 6887.000000
2806.997559 7262.000000
2807.803711 6645.000000
2808.609131 6495.000000
2809.414551 7332.000000
2810.219238 6174.000000
2811.022949 7584.000000
2811.827148 7426.000000
2812.630859 6342.000000
2813.434326 6141.000000
2814.236328 6361.000000
2815.039063 7353.000000
2815.841064 7840.000000
2816.642822 6145.000000
2817.444092 6534.000000
2818.244873 7231.000000
2819.045166 6478.000000
2819.845703 6724.000000
2820.645264 8026.000000
2821.444336 7205.000000
2822.243408 6486.000000
2823.042236 7008.000000
2823.840576 6304.000000
2824.637939 7084.000000
2825.435547 7431.000000
2826.232422 6700.000000
2827.029541 7361.000000
2827.825928 7957.000000
2828.621582 7044.000000
2829.417236 7382.000000
2830.212646 7596.000000
2831.007568 7463.000000
2831.801758 6707.000000
2832.595947 6885.000000
2833.389893 5737.000000
2834.183350 6873.000000
2834.976074 7191.000000
2835.768555 8242.000000
2836.561035 7635.000000
2837.353271 7494.000000
2838.145020 6430.000000
2838.935791 6838.000000
2839.726563 8857.000000
2840.517578 7495.000000
2841.307617 6240.000000
2842.097168 7624.000000
2842.886963 7256.000000
2843.675781 7395.000000
2844.464600 7799.000000
2845.253418 7740.000000
2846.041260 7588.000000
2846.828613 7233.000000
2847.616211 7534.000000
2848.403320 7391.000000
2849.189697 6664.000000
2849.976074 7457.000000
2850.762207 7227.000000
2851.547852 7476.000000
2852.332520 7167.000000
2853.117676 6969.000000
2853.902588 7470.000000
2854.686768 7143.000000
2855.470947 6964.000000
2856.253906 8310.000000
2857.037109 6798.000000
2857.820068 6757.000000
2858.602539 7843.000000
2859.384766 6252.000000
2860.166504 6605.000000
2860.947998 7540.000000
2861.729736 7495.000000
2862.510742 7674.000000
2863.291016 6552.000000
2864.071045 6779.000000
2864.851074 8169.000000
2865.630859 7527.000000
2866.409668 8089.000000
2867.188721 7676.000000
2867.967285 6803.000000
2868.745605 7014.000000
2869.523438 7318.000000
2870.301025 6955.000000
2871.078369 7509.000000
2871.855469 6974.000000
2872.632080 6381.000000
2873.408203 7488.000000
2874.184326 7114.000000
2874.959961 8354.000000
2875.735352 7229.000000
2876.510254 6619.000000
2877.284912 7936.000000
2878.059570 6633.000000
2878.833984 7884.000000
2879.607666 6770.000000
2880.380615 7262.000000
2881.154297 6760.000000
2881.927002 7619.000000
2882.699707 7873.000000
2883.471680 8220.000000
2884.243408 6217.000000
2885.015625 6757.000000
2885.786621 6874.000000
2886.557129 6134.000000
2887.328125 8345.000000
2888.099121 7411.000000
2888.869385 7979.000000
2889.638672 7581.000000
2890.408203 6901.000000
2891.177734 7222.000000
2891.946777 7379.000000
2892.715332 7882.000000
2893.483887 7751.000000
2894.251465 7042.000000
2895.019531 6668.000000
2895.787109 7315.000000
2896.554688 8285.000000
2897.321045 7382.000000
2898.088379 6552.000000
2898.854492 7232.000000
2899.620850 7047.000000
2900.385742 8291.000000
2901.151123 6996.000000
2901.916992 6477.000000
2902.681396 7652.000000
2903.445801 7726.000000
2904.210449 8463.000000
2904.974121 6677.000000
2905.738525 8491.000000
2906.502197 6753.000000
2907.265137 8433.000000
2908.027832 6527.000000
2908.791016 9019.000000
2909.553711 6955.000000
2910.315186 6854.000000
2911.077148 6854.000000
