scanname Analyse096
timestamp 2017-02-10 22:27:02
ccdbias 954.651855
ccdgain 3.473401
sigmaread 8.960639
laserwavenum -0.464192
wavenumcorrection 0.058772
scancount 1
totalexposurems 10000
singleexposurems 10000
measurementstate Unknown
scanmode Manual
snr 273.124451 8.709948 7.414785
replacelist 5
374 52100.000000 15017.000000
672 43112.000000 31257.000000
673 41925.000000 5604.000000
754 38465.000000 19199.000000
888 31865.000000 5600.000000
peaks 56
278.168854 0.713637 0.000000 1.558345 0.000194
291.669312 0.714052 0.000000 0.748893 0.000032
329.763458 0.731996 0.000000 0.842826 0.000141
342.347382 0.735344 0.000000 0.738614 0.000033
349.851318 0.738573 0.000000 0.612659 0.000023
360.401581 0.740004 0.000000 0.342950 0.000018
386.217194 0.742692 0.000000 1.461452 0.000310
459.835815 0.756862 0.000000 0.264473 0.000042
487.340637 0.769448 0.000000 0.774718 0.000103
534.807007 0.770763 0.000000 0.563583 0.000137
559.244934 0.809722 0.000000 1.383949 0.000237
572.813354 0.814443 0.000000 0.224727 0.000068
582.835938 0.809425 0.000000 0.663418 0.000106
661.227661 0.840026 0.000000 1.098229 0.000228
673.215820 0.836037 0.000000 1.465429 0.000277
715.618652 0.851620 0.000000 5.513249 0.001149
724.391174 0.833705 0.000000 1.143001 0.000049
741.477783 0.855526 0.000000 1.121134 0.000119
751.806702 0.860415 0.000000 1.094200 0.000050
765.238647 0.871891 0.000000 0.859964 0.000221
779.064087 0.879413 0.000000 7.803986 0.001671
832.827820 0.878366 0.000000 0.950529 0.000164
842.973206 0.881516 0.000000 1.008263 0.000051
853.059204 0.905573 0.000000 1.062165 0.000276
869.104370 0.904272 0.000000 0.841437 0.000163
935.514587 0.954547 0.000000 0.621668 0.000374
954.246399 0.938536 0.000000 3.692409 0.001090
1011.842285 0.958470 0.000000 1.497682 0.000623
1020.701599 0.962551 0.000000 0.769746 0.000127
1027.477661 0.974413 0.000000 0.493350 0.000227
1034.823486 0.966510 0.000000 0.853478 0.000102
1044.122559 0.974904 0.000000 4.330249 0.001370
1103.193848 0.946988 0.000000 1.985091 0.000542
1119.411865 0.969357 0.000000 1.707249 0.000349
1134.631958 0.950344 0.000000 2.138596 0.000871
1149.270508 0.920217 0.000000 2.279804 0.000894
1172.417603 0.901914 0.000000 1.108462 0.000384
1209.907837 0.915874 0.000000 0.380427 0.000158
1219.703735 0.922447 0.000000 0.834943 0.000069
1235.537842 0.923142 0.000000 1.043067 0.000630
1259.870728 0.939910 0.000000 2.934902 0.000866
1278.395508 0.905923 0.000000 0.550469 0.000486
1316.947388 0.968530 0.000000 11.336926 0.003132
1338.731079 0.928547 0.000000 7.355316 0.001126
1348.347778 0.904404 0.000000 0.547520 0.000150
1385.268433 0.884181 0.000000 0.191860 0.000150
1415.552979 0.868153 0.000000 0.968689 0.000477
1452.063843 0.924780 0.000000 1.394193 0.000436
1458.388794 0.958629 0.000000 6.766440 0.003157
1489.892578 0.873504 0.000000 2.474416 0.001432
1534.029785 0.828224 0.000000 0.514544 0.000096
1616.106079 0.857105 0.000000 8.325790 0.003247
1638.035645 0.804639 0.000000 0.142658 0.000052
1662.187744 0.835446 0.000000 10.913237 0.004636
1682.387207 0.799954 0.000000 5.639261 0.000985
1749.663452 0.764280 0.000000 5.634080 0.002741
finalresult GLS_NoMatch 0
spectrum 2048
-97.137260 44883.000000
-94.510391 44883.000000
-91.885399 45618.000000
-89.262299 45662.000000
-86.641068 46520.000000
-84.021736 46407.000000
-81.404266 46722.000000
-78.788673 46459.000000
-76.174957 46760.000000
-73.563118 47139.000000
-70.953140 46978.000000
-68.345047 47109.000000
-65.738800 47214.000000
-63.134434 47180.000000
-60.531925 47094.000000
-57.931271 47632.000000
-55.332478 47021.000000
-52.735542 46289.000000
-50.140461 46756.000000
-47.547234 46648.000000
-44.955856 46900.000000
-42.366325 46502.000000
-39.778637 47311.000000
-37.192799 47107.000000
-34.608803 46724.000000
-32.026642 47456.000000
-29.446329 46772.000000
-26.867844 47290.000000
-24.291201 46922.000000
-21.716383 46852.000000
-19.143406 46523.000000
-16.572248 46572.000000
-14.002926 46157.000000
-11.435428 45091.000000
-8.869748 46557.000000
-6.305894 46231.000000
-3.743854 46664.000000
-1.183638 46733.000000
1.374770 46261.000000
3.931357 45162.000000
6.486139 45041.000000
9.039104 44900.000000
11.590269 43297.000000
14.139621 42239.000000
16.687178 40692.000000
19.232922 40069.000000
21.776873 38779.000000
24.319019 35831.000000
26.859369 32742.000000
29.397934 29493.000000
31.934702 24791.000000
34.469666 17930.000000
37.002853 11061.000000
39.534260 7623.000000
42.063873 7114.000000
44.591690 7054.000000
47.117748 6393.000000
49.642017 5629.000000
52.164516 4701.000000
54.685219 4368.000000
57.204166 4700.000000
59.721340 5479.000000
62.236736 6829.000000
64.750359 8415.000000
67.262222 8615.000000
69.772339 6084.000000
72.280663 3951.000000
74.787231 3058.000000
77.292053 2551.000000
79.795120 2211.000000
82.296410 1971.000000
84.795959 2002.000000
87.293755 1972.000000
89.789818 1997.000000
92.284103 2341.000000
94.776649 2531.000000
97.267479 2675.000000
99.756538 2244.000000
102.243851 1958.000000
104.729439 1571.000000
107.213287 1434.000000
109.695389 1481.000000
112.175766 1420.000000
114.654419 1351.000000
117.131348 1353.000000
119.606522 1380.000000
122.079987 1394.000000
124.551720 1620.000000
127.021744 1823.000000
129.490005 1999.000000
131.956604 2280.000000
134.421448 2580.000000
136.884598 3117.000000
139.346008 3899.000000
141.805725 4783.000000
144.263718 18620.000000
146.720016 28919.000000
149.174606 35367.000000
151.627472 36091.000000
154.078659 38622.000000
156.528152 40504.000000
158.975922 42690.000000
161.421982 42934.000000
163.866364 41430.000000
166.309067 44135.000000
168.750076 44112.000000
171.189377 44913.000000
173.626968 44161.000000
176.062927 44927.000000
178.497147 44894.000000
180.929688 44853.000000
183.360580 45379.000000
185.789749 45362.000000
188.217270 45546.000000
190.643112 46060.000000
193.067276 45730.000000
195.489777 45342.000000
197.910583 45229.000000
200.329727 46087.000000
202.747208 46625.000000
205.162994 45047.000000
207.577133 45652.000000
209.989639 46454.000000
212.400467 46770.000000
214.809616 46630.000000
217.217133 45514.000000
219.622940 46808.000000
222.027161 46416.000000
224.429672 46344.000000
226.830566 46123.000000
229.229813 46540.000000
231.627396 46207.000000
234.023315 45736.000000
236.417618 46479.000000
238.810257 47123.000000
241.201279 46159.000000
243.590637 46390.000000
245.978378 46671.000000
248.364471 46005.000000
250.748932 46890.000000
253.131744 45099.000000
255.512985 46411.000000
257.892517 46281.000000
260.270477 46478.000000
262.646759 45408.000000
265.021484 45414.000000
267.394562 45130.000000
269.765991 46794.000000
272.135773 46588.000000
274.503998 47044.000000
276.870575 46648.000000
279.235565 46400.000000
281.598938 46972.000000
283.960663 46684.000000
286.320801 45825.000000
288.679321 46860.000000
291.036255 46379.000000
293.391571 46507.000000
295.745300 46869.000000
298.097382 46950.000000
300.447906 46556.000000
302.796844 46493.000000
305.144135 46099.000000
307.489899 46449.000000
309.833984 46405.000000
312.176544 45508.000000
314.517487 45314.000000
316.856812 45842.000000
319.194580 45922.000000
321.530792 44854.000000
323.865356 46668.000000
326.198364 46456.000000
328.529816 46880.000000
330.859680 46268.000000
333.187958 46500.000000
335.514618 45608.000000
337.839783 46604.000000
340.163330 46612.000000
342.485321 46932.000000
344.805756 45319.000000
347.124573 45220.000000
349.441833 46913.000000
351.757568 46988.000000
354.071716 46019.000000
356.384277 46549.000000
358.695282 46500.000000
361.004761 45850.000000
363.312714 46492.000000
365.619049 47297.000000
367.923798 46511.000000
370.227081 46456.000000
372.528748 46615.000000
374.828918 46571.000000
377.127533 46626.000000
379.424591 47155.000000
381.720093 46765.000000
384.014069 47086.000000
386.306458 47687.000000
388.597351 47349.000000
390.886719 46686.000000
393.174500 46697.000000
395.460754 46427.000000
397.745514 45914.000000
400.028656 46891.000000
402.310364 46484.000000
404.590546 46722.000000
406.869141 45630.000000
409.146210 46476.000000
411.421753 46173.000000
413.695770 46347.000000
415.968353 46404.000000
418.239319 46375.000000
420.508789 46517.000000
422.776764 45777.000000
425.043182 45610.000000
427.308105 46539.000000
429.571564 46586.000000
431.833435 46407.000000
434.093842 46897.000000
436.352692 46345.000000
438.610077 46642.000000
440.865967 47143.000000
443.120361 47030.000000
445.373230 47383.000000
447.624542 45911.000000
449.874451 46795.000000
452.122772 46590.000000
454.369659 47151.000000
456.615082 46330.000000
458.858948 46326.000000
461.101318 46029.000000
463.342194 47188.000000
465.581665 46110.000000
467.819550 47320.000000
470.056000 46881.000000
472.290924 46730.000000
474.524384 45523.000000
476.756409 46096.000000
478.986908 47069.000000
481.215912 46299.000000
483.443451 46475.000000
485.669495 46863.000000
487.894104 46228.000000
490.117249 46890.000000
492.338928 46350.000000
494.559052 46154.000000
496.777771 47093.000000
498.994995 46484.000000
501.210846 47233.000000
503.425079 46620.000000
505.638000 46339.000000
507.849335 46393.000000
510.059235 45933.000000
512.267700 46323.000000
514.474792 46197.000000
516.680298 46386.000000
518.884399 46169.000000
521.086975 46521.000000
523.288147 46226.000000
525.487976 46054.000000
527.686279 45773.000000
529.883057 47383.000000
532.078491 46878.000000
534.272400 47124.000000
536.464966 45132.000000
538.656006 46019.000000
540.845642 46707.000000
543.033875 45796.000000
545.220581 45549.000000
547.405823 45877.000000
549.589783 46430.000000
551.772156 46234.000000
553.953186 46549.000000
556.132690 46659.000000
558.310913 46802.000000
560.487610 46628.000000
562.662903 46240.000000
564.836792 46203.000000
567.009216 46769.000000
569.180237 46527.000000
571.349792 46311.000000
573.518066 47256.000000
575.684814 46158.000000
577.850098 46287.000000
580.013977 46518.000000
582.176575 46843.000000
584.337646 46560.000000
586.497314 47008.000000
588.655640 46827.000000
590.812439 46420.000000
592.967896 46043.000000
595.121948 46868.000000
597.274658 46492.000000
599.425842 45310.000000
601.575684 45925.000000
603.724182 45914.000000
605.871094 46580.000000
608.016785 46108.000000
610.161072 46077.000000
612.303894 45518.000000
614.445251 46372.000000
616.585388 46099.000000
618.723999 45023.000000
620.861328 46739.000000
622.997192 45948.000000
625.131653 45564.000000
627.264648 45367.000000
629.396484 45866.000000
631.526855 45915.000000
633.655823 45735.000000
635.783325 45961.000000
637.909546 46363.000000
640.034241 45103.000000
642.157715 46062.000000
644.279846 45599.000000
646.400513 45534.000000
648.519836 45902.000000
650.637756 46699.000000
652.754333 46744.000000
654.869507 45927.000000
656.983337 45921.000000
659.095703 46660.000000
661.206848 46327.000000
663.316589 47020.000000
665.424866 46114.000000
667.531982 46081.000000
669.637634 45643.000000
671.741821 46723.000000
673.844788 46668.000000
675.946350 45423.000000
678.046570 47087.000000
680.145386 45665.000000
682.242859 46149.000000
684.339050 45392.000000
686.433777 46218.000000
688.527283 45358.000000
690.619446 45795.000000
692.710083 44437.000000
694.799500 45716.000000
696.887634 45844.000000
698.974304 46389.000000
701.059753 45646.000000
703.143677 47039.000000
705.226379 46395.000000
707.307800 46303.000000
709.387756 44638.000000
711.466492 46015.000000
713.543762 46634.000000
715.619751 45566.000000
717.694458 46051.000000
719.767883 45269.000000
721.839783 45813.000000
723.910522 44840.000000
725.979919 46303.000000
728.047913 45710.000000
730.114563 45835.000000
732.179993 45138.000000
734.244080 46375.000000
736.306824 45951.000000
738.368225 45612.000000
740.428345 45475.000000
742.487061 46020.000000
744.544556 45481.000000
746.600769 45605.000000
748.655579 45344.000000
750.709106 45818.000000
752.761230 44673.000000
754.812134 46311.000000
756.861816 45355.000000
758.910034 45696.000000
760.957031 45861.000000
763.002747 45090.000000
765.047058 46674.000000
767.090088 46299.000000
769.131897 45747.000000
771.172363 45195.000000
773.211426 45708.000000
775.249329 46011.000000
777.285889 46118.000000
779.321228 46770.000000
781.355225 46354.000000
783.387817 45180.000000
785.419250 46475.000000
787.449280 39955.000000
789.478027 46036.000000
791.505615 45740.000000
793.531860 45627.000000
795.556702 46183.000000
797.580444 46433.000000
799.602783 45615.000000
801.623901 46155.000000
803.643677 45362.000000
805.662170 47062.000000
807.679443 45254.000000
809.695313 45178.000000
811.710022 46261.000000
813.723389 45524.000000
815.735535 45668.000000
817.746460 45816.000000
819.756042 45263.000000
821.764404 46611.000000
823.771362 46136.000000
825.777100 45720.000000
827.781616 46027.000000
829.784851 46082.000000
831.786804 45202.000000
833.787476 45657.000000
835.786926 45839.000000
837.785034 45399.000000
839.782043 44791.000000
841.777649 45515.000000
843.772095 45766.000000
845.765198 45542.000000
847.757080 44950.000000
849.747620 46131.000000
851.736877 44891.000000
853.725098 45724.000000
855.711914 45931.000000
857.697510 45367.000000
859.681824 44438.000000
861.665039 45498.000000
863.646851 45467.000000
865.627441 45938.000000
867.606750 44150.000000
869.584900 44752.000000
871.561707 45675.000000
873.537231 45890.000000
875.511719 45756.000000
877.484741 45868.000000
879.456726 46508.000000
881.427368 45458.000000
883.396851 45633.000000
885.364990 46191.000000
887.331970 46543.000000
889.297607 45544.000000
891.262085 45784.000000
893.225342 45599.000000
895.187378 45086.000000
897.148132 45710.000000
899.107666 45112.000000
901.065918 44761.000000
903.023071 45042.000000
904.979065 45363.000000
906.933655 44428.000000
908.887024 44844.000000
910.839233 44857.000000
912.790222 44841.000000
914.739929 44018.000000
916.688477 44777.000000
918.635803 45001.000000
920.581848 44999.000000
922.526611 44901.000000
924.470337 44697.000000
926.412903 44891.000000
928.354187 45353.000000
930.294128 44445.000000
932.232971 45154.000000
934.170532 45366.000000
936.106873 44822.000000
938.042053 44934.000000
939.975952 44754.000000
941.908752 44921.000000
943.840332 44100.000000
945.770752 45632.000000
947.699951 44469.000000
949.627808 43883.000000
951.554626 44202.000000
953.480164 44900.000000
955.404419 45533.000000
957.327576 44918.000000
959.249573 44243.000000
961.170288 43508.000000
963.089844 44308.000000
965.008240 45510.000000
966.925598 44429.000000
968.841492 44463.000000
970.756287 44731.000000
972.669861 44812.000000
974.582275 44380.000000
976.493469 44274.000000
978.403503 45233.000000
980.312256 44486.000000
982.219971 44540.000000
984.126465 44335.000000
986.031738 44904.000000
987.935913 43834.000000
989.838867 44392.000000
991.740601 43716.000000
993.641174 44090.000000
995.540588 43875.000000
997.438782 45063.000000
999.335815 43712.000000
1001.231628 43705.000000
1003.126282 42460.000000
1005.019836 44486.000000
1006.912109 43122.000000
1008.803467 43924.000000
1010.693481 44570.000000
1012.582275 43328.000000
1014.469910 43635.000000
1016.356384 43089.000000
1018.241699 43327.000000
1020.125854 44011.000000
1022.008789 44129.000000
1023.890686 43749.000000
1025.771362 44814.000000
1027.650879 44191.000000
1029.529419 43973.000000
1031.406616 44685.000000
1033.282471 43865.000000
1035.157349 44179.000000
1037.031250 43587.000000
1038.903687 43141.000000
1040.775146 43441.000000
1042.645264 44694.000000
1044.514404 44678.000000
1046.382324 44363.000000
1048.249146 43141.000000
1050.114868 43390.000000
1051.979370 43733.000000
1053.842773 43707.000000
1055.704834 43634.000000
1057.565918 44191.000000
1059.425903 43523.000000
1061.284546 43417.000000
1063.142090 44174.000000
1064.998535 43108.000000
1066.853882 43926.000000
1068.708008 44023.000000
1070.561279 43545.000000
1072.413086 43360.000000
1074.263916 43544.000000
1076.113525 43444.000000
1077.961914 43793.000000
1079.809448 41509.000000
1081.655640 43795.000000
1083.500610 43084.000000
1085.344727 43772.000000
1087.187500 43538.000000
1089.029053 42506.000000
1090.869873 43350.000000
1092.709106 43089.000000
1094.547607 42575.000000
1096.384766 42564.000000
1098.220703 41656.000000
1100.055664 41656.000000
1101.889404 42678.000000
1103.722168 42495.000000
1105.553589 41695.000000
1107.384155 40669.000000
1109.213379 41325.000000
1111.041626 41115.000000
1112.868652 40391.000000
1114.694702 42038.000000
1116.519531 41182.000000
1118.343262 40327.000000
1120.165771 41402.000000
1121.987183 41622.000000
1123.807739 41596.000000
1125.626831 40943.000000
1127.445068 40549.000000
1129.261963 40640.000000
1131.078003 40827.000000
1132.892822 41039.000000
1134.706543 41846.000000
1136.519165 41669.000000
1138.330566 41772.000000
1140.140991 41313.000000
1141.950317 40707.000000
1143.758301 40352.000000
1145.565552 41165.000000
1147.371338 40943.000000
1149.176270 41381.000000
1150.980103 41290.000000
1152.782715 40480.000000
1154.584473 40314.000000
1156.384766 40229.000000
1158.184082 40057.000000
1159.982422 40108.000000
1161.779419 40291.000000
1163.575684 39780.000000
1165.370605 39434.000000
1167.164429 39061.000000
1168.957397 37512.000000
1170.749023 39343.000000
1172.539673 38424.000000
1174.329346 38828.000000
1176.117554 38886.000000
1177.904907 37127.000000
1179.691162 37786.000000
1181.476318 38745.000000
1183.260376 38413.000000
1185.043335 36547.000000
1186.825317 38294.000000
1188.606079 38095.000000
1190.385864 37582.000000
1192.164551 36985.000000
1193.942261 37070.000000
1195.718750 36420.000000
1197.494141 36847.000000
1199.268433 36728.000000
1201.041626 36497.000000
1202.813965 36448.000000
1204.584961 36192.000000
1206.355103 37142.000000
1208.124023 36688.000000
1209.891846 36490.000000
1211.658813 36855.000000
1213.424438 36808.000000
1215.189087 35843.000000
1216.952637 36295.000000
1218.715088 36836.000000
1220.476685 36107.000000
1222.237061 36936.000000
1223.996338 36510.000000
1225.754761 36850.000000
1227.511963 35905.000000
1229.268066 36689.000000
1231.023071 37508.000000
1232.777222 37104.000000
1234.530029 37355.000000
1236.281860 37261.000000
1238.032837 37306.000000
1239.782471 38379.000000
1241.531250 36344.000000
1243.278687 36854.000000
1245.025391 36638.000000
1246.770874 36740.000000
1248.515503 36658.000000
1250.258789 36212.000000
1252.001099 36248.000000
1253.742310 37352.000000
1255.482666 37575.000000
1257.221924 36796.000000
1258.959961 36033.000000
1260.697144 35680.000000
1262.433105 36724.000000
1264.168091 36582.000000
1265.902100 35852.000000
1267.635132 37270.000000
1269.366943 37056.000000
1271.097778 36889.000000
1272.827393 35959.000000
1274.556152 37204.000000
1276.283813 37375.000000
1278.010376 37480.000000
1279.736084 37405.000000
1281.460449 36543.000000
1283.183960 37739.000000
1284.906494 35875.000000
1286.628052 36209.000000
1288.348389 36477.000000
1290.067749 35983.000000
1291.786011 35263.000000
1293.503296 36025.000000
1295.219604 36475.000000
1296.934692 35841.000000
1298.648804 35994.000000
1300.361938 36207.000000
1302.074219 35530.000000
1303.785278 33650.000000
1305.495361 36595.000000
1307.204346 35456.000000
1308.912109 35326.000000
1310.619263 35029.000000
1312.324951 36344.000000
1314.029907 35343.000000
1315.733887 36344.000000
1317.436646 36648.000000
1319.138428 36250.000000
1320.839355 36900.000000
1322.538940 33327.000000
1324.237671 34824.000000
1325.935669 22491.500000
1327.632324 33128.000000
1329.327881 32356.000000
1331.022583 32478.000000
1332.716064 33339.000000
1334.408691 33641.000000
1336.100464 32125.000000
1337.790894 32916.000000
1339.480591 32564.000000
1341.169189 33075.000000
1342.856689 31607.000000
1344.543213 33406.000000
1346.228638 32485.000000
1347.913086 33264.000000
1349.596680 32146.000000
1351.279053 33067.000000
1352.960449 33645.000000
1354.640991 33322.000000
1356.320313 33280.000000
1357.999023 34091.000000
1359.676392 33566.000000
1361.352661 34218.000000
1363.027954 34369.000000
1364.702515 33573.000000
1366.375854 33655.000000
1368.048218 33184.000000
1369.719604 34677.000000
1371.390015 33181.000000
1373.059326 33614.000000
1374.727661 33894.000000
1376.395142 33492.000000
1378.061523 33001.000000
1379.726929 33274.000000
1381.391357 33192.000000
1383.054565 33040.000000
1384.717163 33117.000000
1386.378418 32554.000000
1388.038818 32279.000000
1389.698120 32353.000000
1391.356445 32176.000000
1393.014038 31910.000000
1394.670410 32156.000000
1396.325928 31614.000000
1397.980225 32114.000000
1399.633667 32415.000000
1401.286011 32168.000000
1402.937622 31716.000000
1404.588013 30824.000000
1406.237305 31309.000000
1407.885864 29791.000000
1409.533325 29192.000000
1411.179810 30468.000000
1412.825439 30176.000000
1414.470093 30430.000000
1416.113525 29406.000000
1417.756104 29232.000000
1419.397583 29351.000000
1421.038208 29592.000000
1422.677856 29404.000000
1424.316406 29721.000000
1425.954102 29053.000000
1427.590698 29238.000000
1429.226318 29472.000000
1430.861206 29068.000000
1432.494995 29578.000000
1434.127686 29382.000000
1435.759399 29836.000000
1437.390259 29552.000000
1439.020020 29828.000000
1440.648682 28359.000000
1442.276733 30076.000000
1443.903687 29888.000000
1445.529419 30177.000000
1447.154541 30523.000000
1448.778564 30517.000000
1450.401611 31151.000000
1452.023682 31487.000000
1453.644653 30503.000000
1455.264648 31633.000000
1456.883911 31149.000000
1458.501831 32477.000000
1460.119141 32271.000000
1461.735474 32065.000000
1463.350586 28699.000000
1464.964844 29511.000000
1466.578247 30450.000000
1468.190552 30073.000000
1469.802002 29525.000000
1471.412598 29326.000000
1473.021973 29617.000000
1474.630371 29507.000000
1476.237915 29186.000000
1477.844482 28451.000000
1479.450317 29649.000000
1481.054932 28359.000000
1482.658691 28921.000000
1484.261230 27323.000000
1485.863159 28158.000000
1487.463867 28094.000000
1489.063843 28026.000000
1490.662720 27557.000000
1492.260742 27509.000000
1493.857666 27529.000000
1495.453735 28036.000000
1497.048828 28480.000000
1498.642944 28922.000000
1500.236328 27858.000000
1501.828613 28733.000000
1503.419678 28027.000000
1505.010254 27429.000000
1506.599487 27569.000000
1508.188110 27604.000000
1509.775635 27218.000000
1511.362061 26777.000000
1512.947754 27315.000000
1514.532349 26771.000000
1516.116089 27133.000000
1517.698730 26956.000000
1519.280640 26586.000000
1520.861450 26426.000000
1522.441528 26701.000000
1524.020386 26293.000000
1525.598389 25928.000000
1527.175659 25843.000000
1528.751709 26259.000000
1530.327026 25937.000000
1531.901245 25490.000000
1533.474731 26104.000000
1535.046997 25845.000000
1536.618530 25602.000000
1538.189087 25530.000000
1539.758789 25227.000000
1541.327271 25935.000000
1542.895020 24921.000000
1544.461914 25620.000000
1546.027588 24532.000000
1547.592529 25047.000000
1549.156372 25882.000000
1550.719604 24143.000000
1552.281494 24784.000000
1553.842773 24861.000000
1555.402954 24830.000000
1556.962402 24824.000000
1558.520752 24831.000000
1560.078369 24680.000000
1561.634888 24105.000000
1563.190186 24868.000000
1564.744873 24400.000000
1566.298828 24918.000000
1567.851807 24429.000000
1569.403442 24845.000000
1570.954346 24896.000000
1572.504517 24663.000000
1574.053711 24616.000000
1575.601563 24962.000000
1577.148926 24969.000000
1578.695313 24967.000000
1580.240845 25537.000000
1581.785400 24660.000000
1583.328735 24961.000000
1584.871460 24791.000000
1586.413330 24999.000000
1587.954102 24599.000000
1589.493896 25192.000000
1591.032959 24507.000000
1592.570923 24994.000000
1594.108398 24742.000000
1595.644531 25107.000000
1597.179565 24449.000000
1598.714111 24346.000000
1600.247681 24424.000000
1601.780396 24555.000000
1603.311523 24554.000000
1604.842407 24594.000000
1606.372437 24552.000000
1607.901245 24307.000000
1609.428955 24350.000000
1610.956055 24593.000000
1612.482422 24711.000000
1614.007813 24416.000000
1615.532349 24790.000000
1617.055542 24976.000000
1618.578003 25767.000000
1620.099731 25718.000000
1621.620605 26113.000000
1623.140015 18184.000000
1624.658936 24471.000000
1626.177124 24150.000000
1627.694458 24220.000000
1629.210693 24086.000000
1630.725586 23624.000000
1632.239990 23574.000000
1633.753662 23839.000000
1635.266235 23325.000000
1636.777588 23740.000000
1638.288574 23365.000000
1639.798462 23444.000000
1641.307495 23494.000000
1642.815186 23505.000000
1644.322510 23488.000000
1645.828979 22821.000000
1647.334473 23021.000000
1648.839111 22805.000000
1650.342285 23038.000000
1651.844849 22811.000000
1653.347046 22585.000000
1654.847900 22602.000000
1656.347656 21982.000000
1657.846558 22341.000000
1659.345093 22079.000000
1660.842407 22122.000000
1662.338989 22096.000000
1663.833984 21857.000000
1665.328735 21922.000000
1666.822632 23922.000000
1668.315552 18619.000000
1669.807129 13316.000000
1671.298218 21113.000000
1672.788696 20868.000000
1674.278076 21144.000000
1675.765991 20814.000000
1677.253662 20840.000000
1678.740356 21202.000000
1680.226196 21309.000000
1681.711182 20944.000000
1683.194702 20485.000000
1684.677979 20484.000000
1686.160400 20515.000000
1687.641724 20395.000000
1689.121582 20395.000000
1690.601196 20390.000000
1692.080078 20241.000000
1693.557983 20315.000000
1695.034912 20195.000000
1696.510620 20326.000000
1697.985962 20187.000000
1699.460083 20137.000000
1700.933594 19975.000000
1702.405640 20299.000000
1703.877441 20207.000000
1705.348267 20190.000000
1706.818237 20145.000000
1708.286865 20214.000000
1709.755005 20262.000000
1711.222412 20143.000000
1712.688721 20232.000000
1714.154419 20250.000000
1715.618408 20091.000000
1717.082275 20307.000000
1718.545288 20026.000000
1720.007324 20364.000000
1721.468140 19995.000000
1722.928345 20269.000000
1724.387817 20285.000000
1725.846436 20032.000000
1727.304077 20011.000000
1728.760376 19938.000000
1730.216431 20019.000000
1731.671509 19918.000000
1733.125610 19960.000000
1734.578491 19818.000000
1736.031128 19865.000000
1737.482666 19793.000000
1738.933472 19811.000000
1740.383301 19416.000000
1741.831787 19411.000000
1743.279907 19246.000000
1744.727173 19234.000000
1746.173706 19165.000000
1747.618652 19037.000000
1749.063354 19206.000000
1750.507202 19129.000000
1751.950195 19272.000000
1753.391724 19493.000000
1754.833008 22891.000000
1756.273438 13264.000000
1757.712891 18822.000000
1759.151367 18616.000000
1760.588867 18481.000000
1762.025879 18258.000000
1763.461914 18457.000000
1764.897095 18365.000000
1766.330811 18353.000000
1767.764404 18685.000000
1769.197021 18543.000000
1770.628784 18825.000000
1772.059692 18578.000000
1773.489380 18474.000000
1774.918335 17962.000000
1776.346802 17754.000000
1777.774292 17001.000000
1779.200439 16460.000000
1780.626343 17536.000000
1782.051147 17320.000000
1783.475342 17425.000000
1784.898071 17202.000000
1786.320313 17289.000000
1787.741821 17147.000000
1789.162598 17309.000000
1790.582397 17042.000000
1792.000854 16951.000000
1793.418823 16751.000000
1794.836182 16922.000000
1796.252686 17030.000000
1797.667725 16685.000000
1799.082397 16661.000000
1800.496460 16715.000000
1801.909302 16916.000000
1803.321533 16660.000000
1804.732422 16626.000000
1806.142822 16441.000000
1807.552490 16566.000000
1808.961182 16688.000000
1810.368774 16655.000000
1811.775879 16708.000000
1813.182129 16603.000000
1814.587402 16659.000000
1815.991577 16800.000000
1817.395386 16739.000000
1818.798218 16796.000000
1820.200195 16694.000000
1821.601563 16658.000000
1823.001465 16621.000000
1824.400757 16601.000000
1825.799561 16680.000000
1827.197510 16488.000000
1828.594116 16488.000000
1829.990112 16430.000000
1831.385376 16602.000000
1832.780029 16379.000000
1834.173706 16525.000000
1835.566040 16543.000000
1836.957886 16535.000000
1838.349121 16381.000000
1839.739380 16379.000000
1841.128418 16398.000000
1842.517090 16313.000000
1843.904785 16301.000000
1845.291748 16261.000000
1846.677368 16127.000000
1848.062744 16220.000000
1849.447266 15942.000000
1850.831055 16111.000000
1852.213745 15977.000000
1853.595215 15698.000000
1854.976196 15571.000000
1856.356689 15515.000000
1857.736206 15469.000000
1859.114258 15438.000000
1860.492188 15347.000000
1861.869141 15363.000000
1863.245361 15462.000000
1864.620728 15163.000000
1865.994629 15007.000000
1867.368408 15087.000000
1868.741333 14894.000000
1870.113159 14864.000000
1871.484009 14854.000000
1872.854492 14711.000000
1874.223877 14663.000000
1875.592773 14624.000000
1876.960083 14468.000000
1878.327271 14576.000000
1879.693481 14495.000000
1881.058960 14385.000000
1882.423706 14364.000000
1883.786865 14345.000000
1885.149902 14284.000000
1886.512085 14237.000000
1887.873413 14189.000000
1889.233398 14125.000000
1890.593018 14182.000000
1891.952026 14192.000000
1893.310059 14055.000000
1894.667236 14041.000000
1896.023193 14011.000000
1897.378906 13971.000000
1898.733643 14040.000000
1900.087524 14150.000000
1901.440308 14022.000000
1902.792603 13962.000000
1904.144165 14050.000000
1905.494873 14172.000000
1906.844360 14195.000000
1908.193359 14207.000000
1909.541504 14144.000000
1910.889038 14029.000000
1912.235840 13901.000000
1913.581055 14101.000000
1914.926025 13986.000000
1916.270264 14173.000000
1917.613647 14134.000000
1918.955688 14086.000000
1920.297485 14090.000000
1921.638428 13869.000000
1922.978638 14071.000000
1924.317871 13972.000000
1925.656128 13993.000000
1926.993774 13892.000000
1928.330688 13919.000000
1929.666748 13950.000000
1931.001587 13919.000000
1932.336060 13681.000000
1933.669800 13464.000000
1935.002686 13747.000000
1936.334106 13613.000000
1937.665649 13450.000000
1938.995850 13599.000000
1940.325562 13652.000000
1941.654419 13533.000000
1942.982056 13605.000000
1944.309204 13535.000000
1945.635620 13550.000000
1946.961304 13500.000000
1948.285645 13367.000000
1949.609741 13377.000000
1950.932983 13334.000000
1952.255493 13253.000000
1953.576904 13241.000000
1954.897339 13137.000000
1956.217163 13190.000000
1957.536621 13219.000000
1958.855103 12966.000000
1960.172241 12954.000000
1961.489014 12782.000000
1962.805054 12844.000000
1964.120361 12941.000000
1965.434204 12885.000000
1966.747803 12880.000000
1968.060669 12712.000000
1969.372681 12720.000000
1970.684082 12678.000000
1971.994141 12601.000000
1973.303711 12488.000000
1974.612549 12399.000000
1975.920776 12376.000000
1977.227661 12273.000000
1978.533936 12291.000000
1979.839844 12312.000000
1981.144531 12382.000000
1982.448730 12328.000000
1983.751709 12342.000000
1985.054321 12159.000000
1986.355957 12251.000000
1987.656982 11877.000000
1988.956421 11849.000000
1990.255981 11852.000000
1991.554443 11713.000000
1992.852417 11783.000000
1994.148804 11698.000000
1995.445190 11599.000000
1996.740601 11628.000000
1998.035278 11525.000000
1999.329102 11527.000000
2000.621704 11408.000000
2001.913818 11437.000000
2003.205444 11329.000000
2004.496338 11329.000000
2005.785645 11263.000000
2007.074707 11376.000000
2008.363037 11353.000000
2009.650635 11342.000000
2010.937378 11373.000000
2012.223022 11149.000000
2013.508301 11240.000000
2014.792603 11219.000000
2016.076294 11197.000000
2017.358643 11075.000000
2018.640625 11254.000000
2019.922119 11132.000000
2021.202637 11186.000000
2022.482422 11118.000000
2023.761108 11041.000000
2025.039063 11049.000000
2026.316528 11128.000000
2027.593384 11036.000000
2028.868530 11235.000000
2030.143799 11049.000000
2031.418091 11265.000000
2032.691406 11295.000000
2033.963867 11268.000000
2035.235962 11210.000000
2036.506958 11206.000000
2037.777710 11251.000000
2039.047119 11014.000000
2040.315430 11243.000000
2041.583740 11193.000000
2042.851074 11087.000000
2044.117676 11114.000000
2045.383057 11069.000000
2046.647827 11018.000000
2047.912354 10899.000000
2049.175537 10902.000000
2050.438477 10916.000000
2051.699463 10979.000000
2052.960938 10768.000000
2054.221191 10914.000000
2055.480713 10792.000000
2056.739502 10773.000000
2057.997314 10518.000000
2059.254639 10652.000000
2060.511230 10620.000000
2061.766357 10573.000000
2063.021484 10621.000000
2064.275635 10541.000000
2065.529053 10585.000000
2066.781738 10353.000000
2068.033203 10435.000000
2069.284424 10330.000000
2070.534912 10427.000000
2071.784668 10606.000000
2073.032959 10287.000000
2074.281250 10446.000000
2075.528564 10152.000000
2076.775146 10214.000000
2078.020996 10172.000000
2079.265625 10113.000000
2080.509766 10064.000000
2081.753418 10152.000000
2082.996094 9984.000000
2084.237549 9912.000000
2085.478760 9990.000000
2086.719482 9944.000000
2087.959229 9873.000000
2089.197754 10036.000000
2090.435791 9824.000000
2091.673096 9743.000000
2092.910156 9665.000000
2094.145752 9709.000000
2095.380615 9808.000000
2096.615234 9732.000000
2097.848877 9802.000000
2099.081543 9673.000000
2100.313477 9642.000000
2101.544922 9543.000000
2102.775391 9569.000000
2104.005127 9401.000000
2105.234619 9443.000000
2106.462158 9391.000000
2107.689941 9263.000000
2108.916992 9255.000000
2110.143066 9234.000000
2111.367676 9187.000000
2112.592529 9143.000000
2113.816162 9250.000000
2115.039307 9327.000000
2116.261230 9211.000000
2117.482910 9330.000000
2118.703613 9198.000000
2119.923584 9335.000000
2121.143066 9350.000000
2122.361084 9301.000000
2123.579102 9360.000000
2124.796143 9273.000000
2126.012695 9403.000000
2127.227539 9388.000000
2128.442627 9305.000000
2129.656738 9224.000000
2130.870117 9258.000000
2132.082764 8962.000000
2133.293945 9219.000000
2134.505371 9073.000000
2135.715576 9309.000000
2136.925293 9132.000000
2138.133545 9140.000000
2139.341797 9126.000000
2140.549316 9130.000000
2141.755615 8917.000000
2142.961182 9057.000000
2144.166504 8932.000000
2145.370850 9020.000000
2146.574463 8916.000000
2147.777588 8926.000000
2148.979248 9002.000000
2150.180664 9001.000000
2151.381348 8824.000000
2152.581299 8957.000000
2153.780029 8987.000000
2154.978516 8871.000000
2156.176514 8846.000000
2157.373535 8657.000000
2158.569824 8690.000000
2159.764893 8566.000000
2160.959717 8425.000000
2162.153809 8364.000000
2163.346924 8407.000000
2164.539063 8408.000000
2165.730957 8289.000000
2166.922119 8263.000000
2168.112305 8200.000000
2169.301758 8139.000000
2170.490723 8085.000000
2171.678711 8059.000000
2172.866455 7898.000000
2174.052734 7887.000000
2175.238281 7881.000000
2176.423584 7846.000000
2177.608398 7821.000000
2178.791992 7833.000000
2179.974854 7821.000000
2181.156738 7911.000000
2182.338379 7808.000000
2183.519531 7882.000000
2184.699463 7858.000000
2185.878418 7818.000000
2187.056885 7747.000000
2188.235107 7588.000000
2189.412109 7740.000000
2190.588135 7688.000000
2191.763916 7756.000000
2192.939209 7789.000000
2194.113037 7804.000000
2195.286377 7847.000000
2196.459473 7840.000000
2197.631348 7748.000000
2198.802734 7654.000000
2199.973633 7755.000000
2201.142822 7795.000000
2202.312012 7776.000000
2203.480713 7764.000000
2204.648438 7780.000000
2205.815186 7622.000000
2206.981201 7685.000000
2208.146729 7691.000000
2209.312012 7659.000000
2210.475830 7684.000000
2211.639160 7623.000000
2212.801270 7577.000000
2213.963623 7610.000000
2215.124756 7573.000000
2216.284912 7652.000000
2217.444580 7578.000000
2218.604004 7399.000000
2219.762207 7464.000000
2220.919434 7362.000000
2222.076416 7476.000000
2223.232666 7308.000000
2224.388184 7321.000000
2225.542969 7348.000000
2226.696777 7244.000000
2227.849609 7177.000000
2229.002930 7255.000000
2230.154297 7137.000000
2231.305420 7199.000000
2232.455811 7099.000000
2233.605713 7247.000000
2234.754639 7105.000000
2235.903076 7066.000000
2237.050049 7390.000000
2238.197266 7002.000000
2239.343262 6950.000000
2240.489014 6895.000000
2241.633057 6775.000000
2242.777344 6768.000000
2243.920654 6728.000000
2245.063232 6825.000000
2246.204834 6706.000000
2247.346191 6649.000000
2248.486572 6685.000000
2249.626221 6656.000000
2250.765381 6463.000000
2251.903320 6459.000000
2253.041260 6413.000000
2254.178223 6411.000000
2255.314453 6457.000000
2256.449707 6562.000000
2257.584229 6494.000000
2258.718506 6426.000000
2259.852295 6703.000000
2260.984619 6711.000000
2262.116455 6607.000000
2263.247803 6364.000000
2264.378174 6349.000000
2265.508301 6211.000000
2266.637207 6190.000000
2267.765625 6257.000000
2268.893555 6152.000000
2270.020508 6175.000000
2271.146729 6083.000000
2272.271973 6196.000000
2273.397217 6246.000000
2274.521729 6149.000000
2275.645020 6207.000000
2276.767578 6243.000000
2277.889648 6221.000000
2279.011230 6148.000000
2280.132080 6090.000000
2281.251709 6222.000000
2282.370850 6099.000000
2283.489746 5913.000000
2284.607910 5948.000000
2285.725098 5895.000000
2286.841309 5853.000000
2287.957275 6007.000000
2289.072510 5982.000000
2290.187012 6032.000000
2291.300293 5977.000000
2292.413574 6041.000000
2293.526123 6081.000000
2294.637939 6129.000000
2295.749023 6020.000000
2296.858887 6141.000000
2297.968262 6122.000000
2299.077393 6055.000000
2300.185547 6127.000000
2301.292725 6020.000000
2302.399658 6082.000000
2303.505859 6056.000000
2304.611572 6015.000000
2305.715820 5975.000000
2306.819824 5928.000000
2307.923340 6083.000000
2309.026367 5967.000000
2310.128174 5931.000000
2311.229248 5914.000000
2312.329834 5727.000000
2313.429932 5746.000000
2314.529297 5759.000000
2315.627197 5878.000000
2316.725586 5800.000000
2317.822510 5713.000000
2318.919189 5793.000000
2320.015381 5749.000000
2321.109863 5588.000000
2322.204346 5612.000000
2323.298096 5625.000000
2324.391602 5533.000000
2325.483398 5530.000000
2326.575195 5556.000000
2327.666260 5512.000000
2328.756592 5674.000000
2329.845947 5562.000000
2330.935303 5508.000000
2332.023438 5569.000000
2333.111084 5579.000000
2334.198486 5468.000000
2335.284180 5524.000000
2336.369629 5392.000000
2337.454834 5457.000000
2338.539063 5254.000000
2339.622314 5487.000000
2340.705322 5281.000000
2341.787354 5611.000000
2342.869141 5215.000000
2343.950195 5169.000000
2345.030029 5094.000000
2346.109375 5110.000000
2347.188232 5150.000000
2348.266602 5082.000000
2349.343506 5086.000000
2350.420166 5089.000000
2351.496582 5083.000000
2352.572021 5024.000000
2353.646484 5007.000000
2354.720703 4973.000000
2355.794189 5070.000000
2356.867188 4879.000000
2357.938965 4883.000000
2359.010498 4879.000000
2360.081055 4790.000000
2361.151367 4901.000000
2362.220703 4761.000000
2363.289063 4766.000000
2364.357178 4762.000000
2365.424561 4765.000000
2366.491455 4815.000000
2367.557617 4677.000000
2368.622559 4764.000000
2369.687500 4664.000000
2370.751709 4606.000000
2371.815186 4566.000000
2372.877441 4698.000000
2373.939697 4700.000000
2375.000977 4668.000000
2376.062012 4620.000000
2377.121826 4657.000000
2378.180908 4657.000000
2379.239990 4680.000000
2380.298096 4660.000000
2381.355469 4608.000000
2382.411865 4598.000000
2383.468018 4493.000000
2384.523682 4647.000000
2385.578613 4605.000000
2386.632080 4593.000000
2387.685791 4460.000000
2388.738525 4554.000000
2389.790771 4757.000000
2390.842285 4554.000000
2391.892822 4437.000000
2392.943115 4500.000000
2393.992432 4495.000000
2395.041748 4523.000000
2396.089600 4488.000000
2397.136963 4507.000000
2398.184082 4495.000000
2399.230225 4426.000000
2400.275635 4479.000000
2401.320313 4425.000000
2402.364990 4402.000000
2403.408203 4538.000000
2404.451416 4432.000000
2405.493164 4434.000000
2406.535156 4378.000000
2407.576416 4468.000000
2408.616699 4572.000000
2409.656250 4425.000000
2410.694824 4399.000000
2411.733643 4415.000000
2412.771240 4312.000000
2413.808594 4425.000000
2414.844727 4375.000000
2415.880615 4333.000000
2416.915771 4367.000000
2417.950439 4416.000000
2418.983643 4263.000000
2420.017090 4398.000000
2421.049561 4289.000000
2422.081787 4265.000000
2423.112549 4347.000000
2424.143311 4302.000000
2425.173584 4257.000000
2426.202637 4122.000000
2427.231689 4207.000000
2428.259033 4273.000000
2429.286865 4108.000000
2430.313477 4179.000000
2431.339844 4077.000000
2432.364746 4134.000000
2433.389893 4055.000000
2434.414063 4067.000000
2435.437988 4159.000000
2436.460693 3970.000000
2437.482666 3888.000000
2438.504395 3999.000000
2439.525391 3961.000000
2440.545898 3951.000000
2441.565186 3864.000000
2442.584473 3824.000000
2443.602783 3865.000000
2444.620850 3897.000000
2445.637451 3722.000000
2446.654053 3828.000000
2447.669922 3800.000000
2448.685791 3889.000000
2449.700195 3698.000000
2450.713867 3725.000000
2451.727051 3669.000000
2452.739990 3797.000000
2453.752197 3654.000000
2454.763428 3659.000000
2455.774414 3834.000000
2456.784668 3753.000000
2457.794434 3673.000000
2458.803223 3693.000000
2459.811279 3542.000000
2460.819336 3656.000000
2461.826172 3673.000000
2462.832764 3638.000000
2463.838135 3513.000000
2464.843262 3492.000000
2465.848145 3501.000000
2466.851807 3543.000000
2467.855225 3584.000000
2468.857666 3750.000000
2469.859863 3552.000000
2470.861572 3602.000000
2471.862305 3646.000000
2472.862061 3444.000000
2473.861816 3489.000000
2474.860596 3468.000000
2475.858887 3439.000000
2476.856201 3476.000000
2477.853271 3551.000000
2478.850342 3403.000000
2479.845947 3379.000000
2480.841553 3469.000000
2481.835449 3528.000000
2482.829346 3430.000000
2483.822754 3538.000000
2484.815674 3394.000000
2485.807617 3458.000000
2486.798828 3517.000000
2487.789795 3404.000000
2488.780273 3437.000000
2489.769775 3561.000000
2490.758545 3439.000000
2491.747314 3510.000000
2492.735107 3411.000000
2493.721680 3359.000000
2494.708252 3418.000000
2495.694336 3407.000000
2496.679688 3367.000000
2497.664063 3446.000000
2498.648193 3482.000000
2499.632324 3353.000000
2500.614990 3369.000000
2501.597168 3290.000000
2502.578857 3324.000000
2503.559814 3384.000000
2504.540283 3405.000000
2505.520508 3343.000000
2506.499268 3400.000000
2507.477783 3443.000000
2508.455811 3331.000000
2509.433350 3162.000000
2510.409912 3275.000000
2511.386230 3276.000000
2512.361816 3238.000000
2513.336914 3274.000000
2514.311523 3291.000000
2515.284912 3293.000000
2516.258057 3228.000000
2517.230957 3160.000000
2518.202881 3104.000000
2519.174072 3218.000000
2520.144775 3259.000000
2521.115234 3129.000000
2522.084961 3008.000000
2523.053711 3237.000000
2524.021729 3036.000000
2524.989746 3111.000000
2525.956787 3063.000000
2526.923584 3092.000000
2527.889160 3025.000000
2528.854736 3040.000000
2529.819580 3013.000000
2530.783936 2945.000000
2531.747070 3085.000000
2532.710449 3038.000000
2533.672852 3013.000000
2534.635010 2938.000000
2535.595947 3078.000000
2536.556152 3027.000000
2537.516602 2976.000000
2538.476074 3127.000000
2539.434814 2928.000000
2540.392578 2880.000000
2541.350586 2991.000000
2542.307861 2952.000000
2543.264160 2958.000000
2544.220215 2804.000000
2545.175049 2905.000000
2546.130127 2898.000000
2547.084473 2837.000000
2548.038086 2817.000000
2548.990723 2845.000000
2549.943115 2786.000000
2550.895020 2827.000000
2551.846191 2786.000000
2552.796631 2670.000000
2553.746582 2738.000000
2554.696289 2801.000000
2555.645264 2833.000000
2556.593750 2776.000000
2557.541016 2612.000000
2558.488281 2715.000000
2559.434814 2734.000000
2560.380859 2747.000000
2561.325928 2635.000000
2562.270752 2671.000000
2563.215088 2709.000000
2564.158936 2635.000000
2565.102295 2634.000000
2566.044189 2593.000000
2566.986328 2555.000000
2567.927734 2590.000000
2568.868408 2566.000000
2569.808350 2745.000000
2570.748291 2701.000000
2571.687256 2533.000000
2572.625977 2564.000000
2573.563721 2555.000000
2574.501221 2702.000000
2575.437988 2578.000000
2576.374023 2499.000000
2577.309570 2580.000000
2578.244385 2557.000000
2579.179199 2608.000000
2580.113037 2588.000000
2581.046387 2785.000000
2581.979004 2605.000000
2582.911377 2530.000000
2583.843018 2444.000000
2584.774170 2576.000000
2585.704834 2607.000000
2586.634277 2583.000000
2587.563721 2589.000000
2588.492676 2483.000000
2589.421387 2584.000000
2590.348389 2610.000000
2591.275635 2515.000000
2592.202393 2606.000000
2593.128418 2499.000000
2594.054199 2528.000000
2594.978760 2507.000000
2595.903076 2591.000000
2596.826904 2589.000000
2597.750244 2601.000000
2598.672607 2523.000000
2599.594727 2578.000000
2600.516357 2429.000000
2601.437256 2486.000000
2602.357422 2522.000000
2603.277344 2585.000000
2604.196777 2451.000000
2605.115967 2445.000000
2606.034180 2537.000000
2606.951172 2453.000000
2607.868408 2435.000000
2608.785400 2450.000000
2609.701416 2430.000000
2610.616211 2458.000000
2611.531494 2465.000000
2612.446045 2374.000000
2613.359619 2292.000000
2614.273193 2384.000000
2615.185547 2352.000000
2616.097900 2295.000000
2617.009277 2344.000000
2617.920410 2449.000000
2618.830811 2352.000000
2619.740967 2417.000000
2620.650391 2238.000000
2621.559326 2287.000000
2622.467285 2239.000000
2623.375488 2301.000000
2624.282715 2221.000000
2625.189453 2219.000000
2626.095459 2214.000000
2627.001221 2342.000000
2627.906250 2218.000000
2628.811035 2189.000000
2629.715088 2255.000000
2630.618164 2281.000000
2631.521240 2207.000000
2632.423340 2193.000000
2633.325439 2167.000000
2634.227295 2170.000000
2635.127441 2125.000000
2636.027832 2219.000000
2636.927490 2166.000000
2637.826904 2199.000000
2638.724854 2164.000000
2639.623291 2266.000000
2640.521240 2110.000000
2641.418457 2112.000000
2642.314453 2129.000000
2643.210449 2232.000000
2644.106201 2083.000000
2645.001221 2104.000000
2645.895996 2007.000000
2646.789307 2002.000000
2647.682617 2113.000000
2648.575684 2043.000000
2649.468506 2052.000000
2650.359619 2051.000000
2651.250977 2044.000000
2652.141846 2023.000000
2653.031982 2030.000000
2653.921875 1961.000000
2654.810547 1974.000000
2655.699463 1941.000000
2656.587891 1859.000000
2657.475342 2063.000000
2658.361816 1906.000000
2659.248779 1887.000000
2660.135010 1866.000000
2661.020752 1894.000000
2661.905273 1871.000000
2662.789795 1996.000000
2663.674072 1986.000000
2664.557617 1968.000000
2665.440674 1964.000000
2666.322998 1925.000000
2667.204834 2040.000000
2668.085938 1963.000000
2668.967285 1983.000000
2669.847168 2061.000000
2670.727295 1990.000000
2671.606689 1975.000000
2672.486084 1970.000000
2673.364746 1958.000000
2674.241699 1966.000000
2675.119385 1860.000000
2675.996338 1987.000000
2676.872559 1808.000000
2677.748291 1853.000000
2678.623291 1876.000000
2679.498535 1945.000000
2680.372803 1907.000000
2681.246582 1891.000000
2682.119629 1841.000000
2682.992432 1861.000000
2683.864990 1978.000000
2684.736816 1883.000000
2685.607910 1791.000000
2686.478760 1786.000000
2687.349121 1815.000000
2688.219238 1788.000000
2689.087646 1782.000000
2689.956787 1726.000000
2690.825195 1805.000000
2691.693359 1867.000000
2692.560791 1764.000000
2693.427002 1764.000000
2694.293701 1701.000000
2695.159424 1834.000000
2696.025146 1814.000000
2696.889404 1433.000000
2697.754395 1797.000000
2698.617920 1822.000000
2699.481689 1756.000000
2700.343994 1717.000000
2701.206787 1745.000000
2702.068604 1687.000000
2702.929932 1720.000000
2703.791260 1744.000000
2704.651367 1798.000000
2705.511475 1682.000000
2706.371094 1671.000000
2707.230469 1757.000000
2708.088135 1696.000000
2708.946045 1672.000000
2709.804443 1671.000000
2710.661621 1694.000000
2711.518066 1734.000000
2712.374023 1748.000000
2713.229980 1641.000000
2714.085205 1698.000000
2714.939697 1640.000000
2715.793701 1676.000000
2716.647705 1620.000000
2717.500732 1698.000000
2718.354004 1645.000000
2719.205566 1683.000000
2720.057617 1604.000000
2720.909424 1625.000000
2721.760010 1648.000000
2722.610596 1599.000000
2723.460693 1606.000000
2724.310059 1628.000000
2725.159424 1619.000000
2726.007568 1644.000000
2726.855225 1610.000000
2727.703369 1604.000000
2728.550293 1649.000000
2729.397705 1622.000000
2730.243652 1556.000000
2731.088867 1592.000000
2731.934570 1632.000000
2732.779297 1634.000000
2733.624023 1648.000000
2734.467529 1641.000000
2735.311279 1496.000000
2736.154297 1620.000000
2736.996826 1669.000000
2737.838379 1584.000000
2738.680420 1642.000000
2739.521484 1572.000000
2740.362305 1593.000000
2741.202881 1514.000000
2742.042236 1541.000000
2742.881592 1591.000000
2743.720947 1523.000000
2744.559082 1571.000000
2745.396729 1519.000000
2746.234375 1570.000000
2747.071533 1495.000000
2747.908447 1553.000000
2748.744873 1554.000000
2749.580078 1570.000000
2750.415527 1583.000000
2751.250488 1610.000000
2752.084717 1522.000000
2752.918701 1563.000000
2753.752197 1516.000000
2754.585693 1482.000000
2755.418213 1576.000000
2756.250244 1436.000000
2757.081787 1466.000000
2757.913330 1451.000000
2758.743896 1500.000000
2759.574707 1480.000000
2760.404297 1447.000000
2761.233887 1443.000000
2762.063232 1470.000000
2762.891846 1444.000000
2763.719971 1376.000000
2764.547607 1565.000000
2765.375244 1533.000000
2766.202393 1431.000000
2767.028809 1521.000000
2767.854736 1368.000000
2768.680176 1370.000000
2769.505371 1385.000000
2770.330566 1442.000000
2771.154541 1409.000000
2771.978516 1333.000000
2772.802490 1440.000000
2773.625244 1402.000000
2774.448242 1369.000000
2775.270020 1358.000000
2776.091797 1310.000000
2776.913574 1329.000000
2777.734375 1284.000000
2778.554443 1263.000000
2779.374756 1255.000000
2780.194580 1340.000000
2781.014404 1274.000000
2781.832275 1340.000000
2782.651367 1242.000000
2783.469238 1250.000000
2784.286865 1340.000000
2785.104004 1329.000000
2785.920654 1327.000000
2786.737061 1155.000000
2787.552979 1236.000000
2788.368652 1249.000000
2789.183350 1297.000000
2789.998535 1097.000000
2790.812988 1189.000000
2791.626953 1316.000000
2792.440674 1314.000000
2793.253174 1233.000000
2794.065918 1242.000000
2794.878174 1237.000000
2795.689941 1233.000000
2796.500977 1256.000000
2797.312744 1234.000000
2798.123291 1241.000000
2798.933838 1229.000000
2799.742920 1311.000000
2800.552734 1227.000000
2801.361816 1253.000000
2802.170654 1263.000000
2802.979004 1271.000000
2803.786377 1211.000000
2804.594238 1283.000000
2805.401367 1146.000000
2806.208252 1214.000000
2807.013916 1302.000000
2807.820068 1278.000000
2808.625488 1173.000000
2809.430908 1237.000000
2810.235596 1219.000000
2811.039307 1224.000000
2811.843506 1181.000000
2812.647217 1295.000000
2813.450684 1261.000000
2814.252686 1163.000000
2815.055420 1168.000000
2815.857422 1162.000000
2816.659180 1201.000000
2817.460449 1270.000000
2818.261230 1269.000000
2819.061523 1200.000000
2819.862061 1137.000000
2820.661621 1158.000000
2821.460693 1077.000000
2822.259766 1262.000000
2823.058594 1161.000000
2823.856934 1234.000000
2824.654297 1309.000000
2825.451904 1239.000000
2826.248779 1248.000000
2827.045898 1273.000000
2827.842285 1153.000000
2828.637939 1175.000000
2829.433594 1178.000000
2830.229004 1156.000000
2831.023926 1207.000000
2831.818115 1205.000000
2832.612305 1169.000000
2833.406250 1240.000000
2834.199707 1180.000000
2834.992432 1115.000000
2835.784912 1134.000000
2836.577393 1227.000000
2837.369629 1181.000000
2838.161377 1115.000000
2838.952148 1159.000000
2839.742920 1192.000000
2840.533936 1165.000000
2841.323975 1222.000000
2842.113525 1090.000000
2842.903320 1078.000000
2843.692139 1136.000000
2844.480957 1159.000000
2845.269775 1071.000000
2846.057617 1252.000000
2846.844971 1084.000000
2847.632568 1096.000000
2848.419678 1073.000000
2849.206055 1154.000000
2849.992432 1160.000000
2850.778564 1148.000000
2851.564209 1079.000000
2852.348877 1077.000000
2853.134033 1104.000000
2853.918945 1121.000000
2854.703125 1068.000000
2855.487305 1110.000000
2856.270264 1094.000000
2857.053467 1123.000000
2857.836426 1129.000000
2858.618896 1209.000000
2859.401123 1087.000000
2860.182861 1244.000000
2860.964355 1175.000000
2861.746094 1101.000000
2862.527100 1210.000000
2863.307373 1131.000000
2864.087402 1056.000000
2864.867432 1107.000000
2865.647217 1097.000000
2866.426025 1072.000000
2867.205078 1209.000000
2867.983643 1144.000000
2868.761963 1154.000000
2869.539795 1225.000000
2870.317383 1308.000000
2871.094727 1253.000000
2871.871826 1284.000000
2872.648438 1332.000000
2873.424561 1182.000000
2874.200684 1312.000000
2874.976318 1338.000000
2875.751709 1324.000000
2876.526611 1329.000000
2877.301270 1365.000000
2878.075928 1455.000000
2878.850342 1328.000000
2879.624023 1429.000000
2880.396973 1430.000000
2881.170654 1383.000000
2881.943359 1373.000000
2882.716064 1403.000000
2883.488037 1385.000000
2884.259766 1332.000000
2885.031982 1350.000000
2885.802979 1389.000000
2886.573486 1363.000000
2887.344482 1378.000000
2888.115479 1327.000000
2888.885742 1396.000000
2889.655029 1358.000000
2890.424561 1334.000000
2891.194092 1260.000000
2891.963135 1358.000000
2892.731689 1420.000000
2893.500244 1396.000000
2894.267822 1352.000000
2895.035889 1336.000000
2895.803467 1265.000000
2896.571045 1203.000000
2897.337402 1331.000000
2898.104736 1271.000000
2898.870850 1264.000000
2899.637207 1299.000000
2900.402100 1262.000000
2901.167480 1311.000000
2901.933350 1398.000000
2902.697754 1121.000000
2903.462158 1245.000000
2904.226807 1248.000000
2904.990479 1178.000000
2905.754883 1128.000000
2906.518555 1162.000000
2907.281494 1187.000000
2908.044189 1256.000000
2908.807373 1076.000000
2909.570068 1121.000000
2910.331543 1324.000000
2911.093506 1324.000000
spectrumdark 2048
-97.137260 6251.000000
-94.510391 6251.000000
-91.885399 6045.000000
-89.262299 6458.000000
-86.641068 5854.000000
-84.021736 6236.000000
-81.404266 6099.000000
-78.788673 6439.000000
-76.174957 6225.000000
-73.563118 5877.000000
-70.953140 6085.000000
-68.345047 6050.000000
-65.738800 5978.000000
-63.134434 6026.000000
-60.531925 6127.000000
-57.931271 5591.000000
-55.332478 6185.000000
-52.735542 6916.000000
-50.140461 6476.000000
-47.547234 6579.000000
-44.955856 6295.000000
-42.366325 6714.000000
-39.778637 5920.000000
-37.192799 6081.000000
-34.608803 6446.000000
-32.026642 5683.000000
-29.446329 6325.000000
-26.867844 5800.000000
-24.291201 6150.000000
-21.716383 6252.000000
-19.143406 6527.000000
-16.572248 6454.000000
-14.002926 6824.000000
-11.435428 7801.000000
-8.869748 6320.000000
-6.305894 6526.000000
-3.743854 5972.000000
-1.183638 5845.000000
1.374770 6159.000000
3.931357 6940.000000
6.486139 6645.000000
9.039104 6045.000000
11.590269 6755.000000
14.139621 6514.000000
16.687178 6581.000000
19.232922 6007.000000
21.776873 5743.000000
24.319019 6698.000000
26.859369 6821.000000
29.397934 6878.000000
31.934702 6206.000000
34.469666 5835.000000
37.002853 7249.000000
39.534260 6359.000000
42.063873 7156.000000
44.591690 6525.000000
47.117748 7830.000000
49.642017 5667.000000
52.164516 6263.000000
54.685219 6753.000000
57.204166 6290.000000
59.721340 6424.000000
62.236736 6687.000000
64.750359 5678.000000
67.262222 5679.000000
69.772339 6509.000000
72.280663 6616.000000
74.787231 5975.000000
77.292053 6364.000000
79.795120 6410.000000
82.296410 6295.000000
84.795959 6108.000000
87.293755 6295.000000
89.789818 5737.000000
92.284103 7165.000000
94.776649 5910.000000
97.267479 6889.000000
99.756538 7171.000000
102.243851 6394.000000
104.729439 6266.000000
107.213287 6445.000000
109.695389 5759.000000
112.175766 6534.000000
114.654419 6289.000000
117.131348 6513.000000
119.606522 7219.000000
122.079987 6838.000000
124.551720 5865.000000
127.021744 6686.000000
129.490005 6222.000000
131.956604 6307.000000
134.421448 5709.000000
136.884598 6258.000000
139.346008 7224.000000
141.805725 6880.000000
144.263718 6358.000000
146.720016 5991.000000
149.174606 5864.000000
151.627472 6848.000000
154.078659 6449.000000
156.528152 6537.000000
158.975922 6114.000000
161.421982 6605.000000
163.866364 8748.000000
166.309067 6467.000000
168.750076 6811.000000
171.189377 6236.000000
173.626968 7214.000000
176.062927 6641.000000
178.497147 6914.000000
180.929688 7134.000000
183.360580 6696.000000
185.789749 6812.000000
188.217270 6731.000000
190.643112 6305.000000
193.067276 6736.000000
195.489777 7137.000000
197.910583 7344.000000
200.329727 6527.000000
202.747208 6046.000000
205.162994 7625.000000
207.577133 7099.000000
209.989639 6369.000000
212.400467 6078.000000
214.809616 6293.000000
217.217133 7419.000000
219.622940 6163.000000
222.027161 6531.000000
224.429672 6644.000000
226.830566 6859.000000
229.229813 6495.000000
231.627396 6843.000000
234.023315 7314.000000
236.417618 6593.000000
238.810257 5894.000000
241.201279 6887.000000
243.590637 6630.000000
245.978378 6349.000000
248.364471 7031.000000
250.748932 6112.000000
253.131744 7910.000000
255.512985 6625.000000
257.892517 6687.000000
260.270477 6518.000000
262.646759 7588.000000
265.021484 7553.000000
267.394562 7850.000000
269.765991 6202.000000
272.135773 6392.000000
274.503998 5928.000000
276.870575 6326.000000
279.235565 6552.000000
281.598938 6000.000000
283.960663 6233.000000
286.320801 7116.000000
288.679321 6056.000000
291.036255 6529.000000
293.391571 6393.000000
295.745300 6014.000000
298.097382 5972.000000
300.447906 6361.000000
302.796844 6415.000000
305.144135 6842.000000
307.489899 6473.000000
309.833984 6496.000000
312.176544 7387.000000
314.517487 7591.000000
316.856812 7076.000000
319.194580 6986.000000
321.530792 8064.000000
323.865356 6258.000000
326.198364 6459.000000
328.529816 6017.000000
330.859680 6633.000000
333.187958 6392.000000
335.514618 7292.000000
337.839783 6338.000000
340.163330 6315.000000
342.485321 5922.000000
344.805756 7557.000000
347.124573 7716.000000
349.441833 6044.000000
351.757568 5959.000000
354.071716 6897.000000
356.384277 6347.000000
358.695282 6429.000000
361.004761 7085.000000
363.312714 6414.000000
365.619049 5619.000000
367.923798 6426.000000
370.227081 6462.000000
372.528748 6283.000000
374.828918 6381.000000
377.127533 6271.000000
379.424591 5756.000000
381.720093 6176.000000
384.014069 5827.000000
386.306458 5218.000000
388.597351 5566.000000
390.886719 6236.000000
393.174500 6245.000000
395.460754 6487.000000
397.745514 7016.000000
400.028656 6028.000000
402.310364 6421.000000
404.590546 6171.000000
406.869141 7283.000000
409.146210 6425.000000
411.421753 6745.000000
413.695770 6551.000000
415.968353 6463.000000
418.239319 6511.000000
420.508789 6386.000000
422.776764 7139.000000
425.043182 7274.000000
427.308105 6323.000000
429.571564 6295.000000
431.833435 6504.000000
434.093842 6007.000000
436.352692 6532.000000
438.610077 6207.000000
440.865967 5679.000000
443.120361 5861.000000
445.373230 5458.000000
447.624542 6924.000000
449.874451 6083.000000
452.122772 6274.000000
454.369659 5707.000000
456.615082 6520.000000
458.858948 6504.000000
461.101318 6787.000000
463.342194 5660.000000
465.581665 6750.000000
467.819550 5493.000000
470.056000 5948.000000
472.290924 6118.000000
474.524384 7301.000000
476.756409 6725.000000
478.986908 5746.000000
481.215912 6504.000000
483.443451 6373.000000
485.669495 5938.000000
487.894104 6587.000000
490.117249 5913.000000
492.338928 6417.000000
494.559052 6663.000000
496.777771 5677.000000
498.994995 6327.000000
501.210846 5582.000000
503.425079 6182.000000
505.638000 6475.000000
507.849335 6415.000000
510.059235 6846.000000
512.267700 6464.000000
514.474792 6596.000000
516.680298 6394.000000
518.884399 6639.000000
521.086975 6217.000000
523.288147 6544.000000
525.487976 6696.000000
527.686279 6960.000000
529.883057 5382.000000
532.078491 5882.000000
534.272400 5609.000000
536.464966 7609.000000
538.656006 6716.000000
540.845642 5972.000000
543.033875 6885.000000
545.220581 7150.000000
547.405823 6834.000000
549.589783 6257.000000
551.772156 6456.000000
553.953186 6162.000000
556.132690 6028.000000
558.310913 5873.000000
560.487610 6054.000000
562.662903 6412.000000
564.836792 6432.000000
567.009216 5865.000000
569.180237 6067.000000
571.349792 6333.000000
573.518066 5365.000000
575.684814 6461.000000
577.850098 6326.000000
580.013977 6106.000000
582.176575 5758.000000
584.337646 6055.000000
586.497314 5611.000000
588.655640 5840.000000
590.812439 6221.000000
592.967896 6588.000000
595.121948 5751.000000
597.274658 6147.000000
599.425842 7293.000000
601.575684 6694.000000
603.724182 6697.000000
605.871094 6018.000000
608.016785 6503.000000
610.161072 6514.000000
612.303894 7036.000000
614.445251 6182.000000
616.585388 6489.000000
618.723999 7535.000000
620.861328 5836.000000
622.997192 6605.000000
625.131653 6969.000000
627.264648 7170.000000
629.396484 6659.000000
631.526855 6568.000000
633.655823 6791.000000
635.783325 6542.000000
637.909546 6136.000000
640.034241 7371.000000
642.157715 6405.000000
644.279846 6834.000000
646.400513 6932.000000
648.519836 6561.000000
650.637756 5754.000000
652.754333 5666.000000
654.869507 6480.000000
656.983337 6508.000000
659.095703 5787.000000
661.206848 6124.000000
663.316589 5433.000000
665.424866 6300.000000
667.531982 6317.000000
669.637634 6787.000000
671.741821 5684.000000
673.844788 5746.000000
675.946350 7005.000000
678.046570 5346.000000
680.145386 6747.000000
682.242859 6261.000000
684.339050 7005.000000
686.433777 6223.000000
688.527283 6996.000000
690.619446 6614.000000
692.710083 7911.000000
694.799500 6654.000000
696.887634 6535.000000
698.974304 5996.000000
701.059753 6668.000000
703.143677 5238.000000
705.226379 5877.000000
707.307800 5983.000000
709.387756 7617.000000
711.466492 6229.000000
713.543762 5568.000000
715.619751 6659.000000
717.694458 6138.000000
719.767883 6922.000000
721.839783 6347.000000
723.910522 7369.000000
725.979919 5871.000000
728.047913 6481.000000
730.114563 6312.000000
732.179993 6991.000000
734.244080 5743.000000
736.306824 6170.000000
738.368225 6483.000000
740.428345 6628.000000
742.487061 6071.000000
744.544556 6627.000000
746.600769 6481.000000
748.655579 6731.000000
750.709106 6332.000000
752.761230 7422.000000
754.812134 5762.000000
756.861816 6710.000000
758.910034 6370.000000
760.957031 6168.000000
763.002747 6976.000000
765.047058 5393.000000
767.090088 5772.000000
769.131897 6346.000000
771.172363 6920.000000
773.211426 6380.000000
775.249329 6087.000000
777.285889 5972.000000
779.321228 5350.000000
781.355225 5760.000000
783.387817 6904.000000
785.419250 5574.000000
787.449280 12133.000000
789.478027 6048.000000
791.505615 6317.000000
793.531860 6405.000000
795.556702 5848.000000
797.580444 5619.000000
799.602783 6429.000000
801.623901 5895.000000
803.643677 6638.000000
805.662170 4932.000000
807.679443 6742.000000
809.695313 6803.000000
811.710022 5743.000000
813.723389 6449.000000
815.735535 6281.000000
817.746460 6096.000000
819.756042 6631.000000
821.764404 5310.000000
823.771362 5699.000000
825.777100 6091.000000
827.781616 5789.000000
829.784851 5686.000000
831.786804 6548.000000
833.787476 6106.000000
835.786926 5911.000000
837.785034 6374.000000
839.782043 6977.000000
841.777649 6257.000000
843.772095 6004.000000
845.765198 6210.000000
847.757080 6805.000000
849.747620 5610.000000
851.736877 6830.000000
853.725098 6000.000000
855.711914 5809.000000
857.697510 6415.000000
859.681824 7332.000000
861.665039 6301.000000
863.646851 6365.000000
865.627441 5858.000000
867.606750 7686.000000
869.584900 7161.000000
871.561707 6175.000000
873.537231 5978.000000
875.511719 6133.000000
877.484741 6057.000000
879.456726 5407.000000
881.427368 6410.000000
883.396851 6180.000000
885.364990 5623.000000
887.331970 5211.000000
889.297607 6158.000000
891.262085 5841.000000
893.225342 6004.000000
895.187378 6459.000000
897.148132 5819.000000
899.107666 6385.000000
901.065918 6702.000000
903.023071 6368.000000
904.979065 6039.000000
906.933655 6882.000000
908.887024 6471.000000
910.839233 6433.000000
912.790222 6376.000000
914.739929 7158.000000
916.688477 6328.000000
918.635803 6098.000000
920.581848 6050.000000
922.526611 6097.000000
924.470337 6248.000000
926.412903 6024.000000
928.354187 5525.000000
930.294128 6441.000000
932.232971 5691.000000
934.170532 5485.000000
936.106873 6005.000000
938.042053 5918.000000
939.975952 6123.000000
941.908752 5958.000000
943.840332 6778.000000
945.770752 5223.000000
947.699951 6400.000000
949.627808 7023.000000
951.554626 6672.000000
953.480164 5964.000000
955.404419 5346.000000
957.327576 5976.000000
959.249573 6706.000000
961.170288 7357.000000
963.089844 6561.000000
965.008240 5369.000000
966.925598 6456.000000
968.841492 6404.000000
970.756287 6115.000000
972.669861 6003.000000
974.582275 6419.000000
976.493469 6481.000000
978.403503 5513.000000
980.312256 6215.000000
982.219971 6151.000000
984.126465 6335.000000
986.031738 5722.000000
987.935913 6775.000000
989.838867 6158.000000
991.740601 6791.000000
993.641174 6355.000000
995.540588 6541.000000
997.438782 5287.000000
999.335815 6572.000000
1001.231628 6534.000000
1003.126282 7694.000000
1005.019836 5615.000000
1006.912109 6935.000000
1008.803467 6084.000000
1010.693481 5421.000000
1012.582275 6649.000000
1014.469910 6351.000000
1016.356384 6898.000000
1018.241699 6701.000000
1020.125854 5971.000000
1022.008789 5850.000000
1023.890686 6263.000000
1025.771362 5185.000000
1027.650879 5850.000000
1029.529419 6091.000000
1031.406616 5433.000000
1033.282471 6235.000000
1035.157349 5955.000000
1037.031250 6572.000000
1038.903687 7039.000000
1040.775146 6731.000000
1042.645264 5490.000000
1044.514404 5503.000000
1046.382324 5812.000000
1048.249146 7027.000000
1050.114868 6786.000000
1051.979370 6420.000000
1053.842773 6415.000000
1055.704834 6493.000000
1057.565918 5870.000000
1059.425903 6493.000000
1061.284546 6585.000000
1063.142090 5823.000000
1064.998535 6783.000000
1066.853882 5941.000000
1068.708008 5830.000000
1070.561279 6279.000000
1072.413086 6415.000000
1074.263916 6147.000000
1076.113525 6187.000000
1077.961914 5781.000000
1079.809448 7935.000000
1081.655640 5615.000000
1083.500610 6234.000000
1085.344727 5427.000000
1087.187500 5547.000000
1089.029053 6491.000000
1090.869873 5531.000000
1092.709106 5720.000000
1094.547607 6091.000000
1096.384766 6030.000000
1098.220703 6799.000000
1100.055664 6615.000000
1101.889404 5428.000000
1103.722168 5466.000000
1105.553589 6209.000000
1107.384155 7234.000000
1109.213379 6514.000000
1111.041626 6501.000000
1112.868652 7112.000000
1114.694702 5447.000000
1116.519531 6261.000000
1118.343262 7140.000000
1120.165771 6123.000000
1121.987183 5865.000000
1123.807739 5862.000000
1125.626831 6575.000000
1127.445068 7057.000000
1129.261963 6939.000000
1131.078003 6727.000000
1132.892822 6449.000000
1134.706543 5591.000000
1136.519165 5759.000000
1138.330566 5658.000000
1140.140991 6123.000000
1141.950317 6702.000000
1143.758301 6934.000000
1145.565552 5971.000000
1147.371338 5969.000000
1149.176270 5387.000000
1150.980103 5413.000000
1152.782715 6124.000000
1154.584473 6162.000000
1156.384766 6103.000000
1158.184082 6103.000000
1159.982422 5906.000000
1161.779419 5505.000000
1163.575684 5904.000000
1165.370605 6118.000000
1167.164429 6335.000000
1168.957397 7781.000000
1170.749023 5762.000000
1172.539673 6489.000000
1174.329346 6013.000000
1176.117554 5902.000000
1177.904907 7555.000000
1179.691162 6805.000000
1181.476318 5742.000000
1183.260376 5970.000000
1185.043335 7761.000000
1186.825317 5883.000000
1188.606079 5939.000000
1190.385864 6377.000000
1192.164551 6873.000000
1193.942261 6691.000000
1195.718750 7139.000000
1197.494141 6606.000000
1199.268433 6502.000000
1201.041626 6627.000000
1202.813965 6534.000000
1204.584961 6767.000000
1206.355103 5709.000000
1208.124023 6093.000000
1209.891846 6318.000000
1211.658813 5905.000000
1213.424438 5971.000000
1215.189087 6975.000000
1216.952637 6551.000000
1218.715088 5977.000000
1220.476685 6730.000000
1222.237061 5923.000000
1223.996338 6311.000000
1225.754761 6095.000000
1227.511963 7106.000000
1229.268066 6389.000000
1231.023071 5555.000000
1232.777222 6026.000000
1234.530029 5819.000000
1236.281860 5981.000000
1238.032837 5982.000000
1239.782471 4911.000000
1241.531250 7000.000000
1243.278687 6527.000000
1245.025391 6603.000000
1246.770874 6485.000000
1248.515503 6423.000000
1250.258789 6777.000000
1252.001099 6667.000000
1253.742310 5370.000000
1255.482666 5035.000000
1257.221924 5791.000000
1258.959961 6638.000000
1260.697144 7083.000000
1262.433105 6125.000000
1264.168091 6407.000000
1265.902100 7295.000000
1267.635132 5953.000000
1269.366943 6191.000000
1271.097778 6370.000000
1272.827393 7279.000000
1274.556152 5979.000000
1276.283813 5659.000000
1278.010376 5547.000000
1279.736084 5557.000000
1281.460449 6398.000000
1283.183960 5163.000000
1284.906494 6914.000000
1286.628052 6578.000000
1288.348389 6179.000000
1290.067749 6632.000000
1291.786011 7254.000000
1293.503296 6369.000000
1295.219604 5760.000000
1296.934692 6363.000000
1298.648804 6141.000000
1300.361938 5800.000000
1302.074219 6422.000000
1303.785278 8289.000000
1305.495361 5254.000000
1307.204346 6322.000000
1308.912109 6637.000000
1310.619263 7024.000000
1312.324951 5818.000000
1314.029907 6928.000000
1315.733887 6184.000000
1317.436646 6030.000000
1319.138428 6608.000000
1320.839355 6116.000000
1322.538940 9788.000000
1324.237671 7696.000000
1325.935669 18849.000000
1327.632324 6441.000000
1329.327881 7168.000000
1331.022583 6856.000000
1332.716064 5738.000000
1334.408691 5393.000000
1336.100464 7086.000000
1337.790894 6269.000000
1339.480591 6601.000000
1341.169189 6088.000000
1342.856689 7626.000000
1344.543213 5660.000000
1346.228638 6706.000000
1347.913086 5987.000000
1349.596680 7241.000000
1351.279053 6404.000000
1352.960449 5932.000000
1354.640991 6548.000000
1356.320313 6703.000000
1357.999023 5839.000000
1359.676392 6497.000000
1361.352661 5780.000000
1363.027954 5628.000000
1364.702515 6582.000000
1366.375854 6442.000000
1368.048218 6831.000000
1369.719604 5188.000000
1371.390015 6697.000000
1373.059326 6152.000000
1374.727661 5725.000000
1376.395142 6027.000000
1378.061523 6489.000000
1379.726929 6055.000000
1381.391357 5897.000000
1383.054565 5906.000000
1384.717163 5758.000000
1386.378418 6322.000000
1388.038818 6551.000000
1389.698120 6418.000000
1391.356445 6552.000000
1393.014038 6820.000000
1394.670410 6461.000000
1396.325928 6943.000000
1397.980225 6328.000000
1399.633667 5845.000000
1401.286011 6073.000000
1402.937622 6495.000000
1404.588013 7194.000000
1406.237305 6308.000000
1407.885864 7510.000000
1409.533325 7874.000000
1411.179810 6183.000000
1412.825439 6236.000000
1414.470093 5961.000000
1416.113525 7057.000000
1417.756104 7156.000000
1419.397583 6859.000000
1421.038208 6445.000000
1422.677856 6462.000000
1424.316406 6010.000000
1425.954102 6636.000000
1427.590698 6367.000000
1429.226318 5986.000000
1430.861206 6401.000000
1432.494995 5872.000000
1434.127686 6077.000000
1435.759399 5683.000000
1437.390259 6124.000000
1439.020020 6078.000000
1440.648682 7713.000000
1442.276733 6010.000000
1443.903687 6242.000000
1445.529419 6216.000000
1447.154541 6161.000000
1448.778564 6459.000000
1450.401611 6073.000000
1452.023682 6021.000000
1453.644653 7356.000000
1455.264648 6291.000000
1456.883911 6859.000000
1458.501831 5663.000000
1460.119141 5596.000000
1461.735474 5529.000000
1463.350586 7234.000000
1464.964844 6278.000000
1466.578247 5190.000000
1468.190552 5606.000000
1469.802002 6239.000000
1471.412598 6380.000000
1473.021973 5953.000000
1474.630371 5977.000000
1476.237915 6216.000000
1477.844482 6778.000000
1479.450317 5296.000000
1481.054932 6290.000000
1482.658691 5499.000000
1484.261230 6801.000000
1485.863159 5589.000000
1487.463867 5469.000000
1489.063843 5633.000000
1490.662720 6247.000000
1492.260742 6547.000000
1493.857666 6682.000000
1495.453735 6351.000000
1497.048828 6007.000000
1498.642944 5478.000000
1500.236328 6495.000000
1501.828613 5537.000000
1503.419678 6135.000000
1505.010254 6718.000000
1506.599487 6388.000000
1508.188110 6174.000000
1509.775635 6502.000000
1511.362061 6863.000000
1512.947754 6176.000000
1514.532349 6640.000000
1516.116089 6176.000000
1517.698730 6205.000000
1519.280640 6583.000000
1520.861450 6637.000000
1522.441528 6001.000000
1524.020386 6213.000000
1525.598389 6447.000000
1527.175659 6263.000000
1528.751709 5639.000000
1530.327026 5863.000000
1531.901245 6315.000000
1533.474731 5498.000000
1535.046997 5959.000000
1536.618530 6359.000000
1538.189087 6399.000000
1539.758789 6347.000000
1541.327271 5401.000000
1542.895020 6599.000000
1544.461914 5606.000000
1546.027588 6822.000000
1547.592529 5982.000000
1549.156372 4975.000000
1550.719604 7434.000000
1552.281494 6325.000000
1553.842773 5952.000000
1555.402954 5737.000000
1556.962402 5743.000000
1558.520752 5864.000000
1560.078369 6275.000000
1561.634888 7053.000000
1563.190186 5830.000000
1564.744873 6419.000000
1566.298828 5681.000000
1567.851807 6358.000000
1569.403442 5803.000000
1570.954346 5893.000000
1572.504517 6303.000000
1574.053711 6391.000000
1575.601563 5769.000000
1577.148926 5523.000000
1578.695313 5707.000000
1580.240845 5119.000000
1581.785400 6727.000000
1583.328735 6330.000000
1584.871460 6602.000000
1586.413330 6350.000000
1587.954102 6726.000000
1589.493896 5887.000000
1591.032959 6728.000000
1592.570923 5865.000000
1594.108398 6125.000000
1595.644531 5776.000000
1597.179565 6658.000000
1598.714111 6245.000000
1600.247681 6002.000000
1601.780396 6047.000000
1603.311523 6281.000000
1604.842407 6212.000000
1606.372437 5798.000000
1607.901245 6093.000000
1609.428955 6190.000000
1610.956055 5962.000000
1612.482422 5917.000000
1614.007813 6280.000000
1615.532349 5806.000000
1617.055542 5777.000000
1618.578003 5604.000000
1620.099731 6542.000000
1621.620605 6952.000000
1623.140015 15581.000000
1624.658936 6131.000000
1626.177124 6073.000000
1627.694458 5925.000000
1629.210693 6400.000000
1630.725586 7015.000000
1632.239990 6727.000000
1633.753662 5795.000000
1635.266235 6858.000000
1636.777588 5933.000000
1638.288574 6434.000000
1639.798462 6258.000000
1641.307495 6147.000000
1642.815186 5697.000000
1644.322510 6063.000000
1645.828979 7145.000000
1647.334473 6344.000000
1648.839111 6846.000000
1650.342285 6139.000000
1651.844849 6563.000000
1653.347046 6359.000000
1654.847900 6617.000000
1656.347656 7556.000000
1657.846558 5914.000000
1659.345093 6490.000000
1660.842407 6258.000000
1662.338989 5950.000000
1663.833984 6488.000000
1665.328735 6388.000000
1666.822632 5213.000000
1668.315552 12902.500000
1669.807129 20592.000000
1671.298218 6481.000000
1672.788696 6149.000000
1674.278076 5886.000000
1675.765991 6956.000000
1677.253662 6884.000000
1678.740356 6094.000000
1680.226196 5350.000000
1681.711182 6096.000000
1683.194702 6240.000000
1684.677979 6169.000000
1686.160400 5885.000000
1687.641724 6216.000000
1689.121582 6185.000000
1690.601196 5493.000000
1692.080078 6598.000000
1693.557983 6042.000000
1695.034912 6108.000000
1696.510620 5747.000000
1697.985962 6039.000000
1699.460083 6325.000000
1700.933594 5556.000000
1702.405640 5568.000000
1703.877441 6851.000000
1705.348267 6451.000000
1706.818237 7035.000000
1708.286865 5165.000000
1709.755005 5805.000000
1711.222412 6354.000000
1712.688721 5458.000000
1714.154419 5758.000000
1715.618408 6175.000000
1717.082275 5951.000000
1718.545288 7009.000000
1720.007324 6296.000000
1721.468140 6661.000000
1722.928345 5431.000000
1724.387817 5703.000000
1725.846436 6131.000000
1727.304077 6037.000000
1728.760376 6282.000000
1730.216431 6038.000000
1731.671509 6450.000000
1733.125610 6018.000000
1734.578491 6914.000000
1736.031128 6000.000000
1737.482666 6857.000000
1738.933472 5945.000000
1740.383301 6588.000000
1741.831787 5969.000000
1743.279907 7385.000000
1744.727173 6606.000000
1746.173706 6631.000000
1747.618652 6632.000000
1749.063354 6083.000000
1750.507202 5750.000000
1751.950195 5532.000000
1753.391724 6519.000000
1754.833008 6364.000000
1756.273438 19423.000000
1757.712891 6245.000000
1759.151367 5296.000000
1760.588867 6039.000000
1762.025879 7501.000000
1763.461914 5830.000000
1764.897095 7134.000000
1766.330811 6176.000000
1767.764404 6475.000000
1769.197021 6611.000000
1770.628784 5717.000000
1772.059692 5788.000000
1773.489380 6285.000000
1774.918335 6127.000000
1776.346802 6259.000000
1777.774292 6687.000000
1779.200439 6201.000000
1780.626343 5610.000000
1782.051147 6963.000000
1783.475342 5618.000000
1784.898071 6642.000000
1786.320313 6562.000000
1787.741821 6921.000000
1789.162598 5838.000000
1790.582397 6165.000000
1792.000854 6189.000000
1793.418823 6844.000000
1794.836182 5526.000000
1796.252686 5997.000000
1797.667725 6566.000000
1799.082397 5919.000000
1800.496460 6628.000000
1801.909302 5921.000000
1803.321533 6987.000000
1804.732422 7148.000000
1806.142822 7759.000000
1807.552490 6440.000000
1808.961182 5998.000000
1810.368774 5459.000000
1811.775879 6436.000000
1813.182129 6390.000000
1814.587402 6745.000000
1815.991577 5957.000000
1817.395386 5994.000000
1818.798218 6232.000000
1820.200195 6036.000000
1821.601563 5843.000000
1823.001465 6374.000000
1824.400757 6429.000000
1825.799561 6569.000000
1827.197510 7424.000000
1828.594116 5806.000000
1829.990112 6760.000000
1831.385376 5926.000000
1832.780029 8087.000000
1834.173706 5956.000000
1835.566040 6797.000000
1836.957886 6365.000000
1838.349121 5900.000000
1839.739380 7046.000000
1841.128418 5949.000000
1842.517090 6071.000000
1843.904785 5959.000000
1845.291748 5817.000000
1846.677368 6868.000000
1848.062744 5822.000000
1849.447266 6379.000000
1850.831055 6270.000000
1852.213745 6351.000000
1853.595215 5424.000000
1854.976196 6601.000000
1856.356689 6339.000000
1857.736206 5745.000000
1859.114258 6063.000000
1860.492188 6277.000000
1861.869141 7818.000000
1863.245361 6082.000000
1864.620728 6030.000000
1865.994629 5635.000000
1867.368408 5746.000000
1868.741333 6253.000000
1870.113159 5957.000000
1871.484009 6928.000000
1872.854492 5466.000000
1874.223877 6088.000000
1875.592773 6070.000000
1876.960083 7122.000000
1878.327271 6092.000000
1879.693481 5984.000000
1881.058960 6821.000000
1882.423706 7425.000000
1883.786865 6796.000000
1885.149902 6960.000000
1886.512085 6353.000000
1887.873413 6479.000000
1889.233398 5618.000000
1890.593018 5789.000000
1891.952026 6161.000000
1893.310059 6646.000000
1894.667236 7267.000000
1896.023193 5928.000000
1897.378906 7667.000000
1898.733643 5866.000000
1900.087524 5484.000000
1901.440308 5938.000000
1902.792603 5996.000000
1904.144165 5994.000000
1905.494873 6849.000000
1906.844360 6553.000000
1908.193359 6613.000000
1909.541504 5804.000000
1910.889038 6132.000000
1912.235840 6330.000000
1913.581055 6807.000000
1914.926025 6114.000000
1916.270264 5400.000000
1917.613647 6556.000000
1918.955688 6029.000000
1920.297485 6718.000000
1921.638428 6972.000000
1922.978638 6236.000000
1924.317871 6316.000000
1925.656128 6242.000000
1926.993774 6493.000000
1928.330688 6980.000000
1929.666748 6721.000000
1931.001587 5613.000000
1932.336060 6717.000000
1933.669800 7310.000000
1935.002686 6220.000000
1936.334106 5750.000000
1937.665649 6375.000000
1938.995850 6638.000000
1940.325562 5780.000000
1941.654419 6121.000000
1942.982056 5853.000000
1944.309204 5011.000000
1945.635620 5780.000000
1946.961304 6489.000000
1948.285645 5806.000000
1949.609741 6607.000000
1950.932983 6298.000000
1952.255493 6404.000000
1953.576904 5782.000000
1954.897339 7405.000000
1956.217163 5999.000000
1957.536621 5513.000000
1958.855103 6888.000000
1960.172241 5921.000000
1961.489014 5886.000000
1962.805054 6578.000000
1964.120361 6579.000000
1965.434204 6300.000000
1966.747803 5679.000000
1968.060669 6220.000000
1969.372681 6045.000000
1970.684082 6063.000000
1971.994141 6301.000000
1973.303711 5862.000000
1974.612549 6177.000000
1975.920776 6643.000000
1977.227661 6102.000000
1978.533936 7198.000000
1979.839844 5589.000000
1981.144531 6415.000000
1982.448730 5922.000000
1983.751709 5728.000000
1985.054321 7552.000000
1986.355957 6159.000000
1987.656982 6834.000000
1988.956421 6012.000000
1990.255981 6561.000000
1991.554443 5313.000000
1992.852417 6062.000000
1994.148804 6124.000000
1995.445190 5820.000000
1996.740601 5586.000000
1998.035278 6507.000000
1999.329102 5756.000000
2000.621704 6557.000000
2001.913818 5725.000000
2003.205444 7196.000000
2004.496338 6451.000000
2005.785645 6308.000000
2007.074707 6810.000000
2008.363037 6015.000000
2009.650635 6041.000000
2010.937378 6715.000000
2012.223022 5669.000000
2013.508301 6337.000000
2014.792603 5990.000000
2016.076294 5610.000000
2017.358643 6046.000000
2018.640625 6426.000000
2019.922119 6751.000000
2021.202637 5873.000000
2022.482422 6064.000000
2023.761108 6793.000000
2025.039063 5816.000000
2026.316528 5899.000000
2027.593384 6306.000000
2028.868530 5781.000000
2030.143799 6651.000000
2031.418091 6089.000000
2032.691406 5899.000000
2033.963867 5921.000000
2035.235962 6170.000000
2036.506958 6951.000000
2037.777710 6594.000000
2039.047119 6047.000000
2040.315430 6887.000000
2041.583740 6604.000000
2042.851074 5959.000000
2044.117676 6013.000000
2045.383057 5666.000000
2046.647827 5898.000000
2047.912354 5424.000000
2049.175537 5895.000000
2050.438477 6355.000000
2051.699463 6156.000000
2052.960938 6089.000000
2054.221191 5856.000000
2055.480713 6434.000000
2056.739502 6258.000000
2057.997314 6820.000000
2059.254639 6171.000000
2060.511230 6020.000000
2061.766357 6472.000000
2063.021484 5645.000000
2064.275635 5596.000000
2065.529053 5650.000000
2066.781738 6848.000000
2068.033203 6264.000000
2069.284424 6363.000000
2070.534912 5644.000000
2071.784668 5384.000000
2073.032959 6564.000000
2074.281250 6480.000000
2075.528564 7514.000000
2076.775146 5621.000000
2078.020996 6041.000000
2079.265625 6981.000000
2080.509766 7593.000000
2081.753418 5465.000000
2082.996094 6030.000000
2084.237549 6955.000000
2085.478760 5938.000000
2086.719482 6379.000000
2087.959229 6750.000000
2089.197754 7073.000000
2090.435791 6167.000000
2091.673096 5825.000000
2092.910156 6642.000000
2094.145752 6145.000000
2095.380615 6202.000000
2096.615234 6095.000000
2097.848877 5650.000000
2099.081543 6061.000000
2100.313477 6855.000000
2101.544922 6385.000000
2102.775391 6766.000000
2104.005127 6060.000000
2105.234619 5986.000000
2106.462158 5987.000000
2107.689941 6010.000000
2108.916992 6300.000000
2110.143066 5505.000000
2111.367676 6448.000000
2112.592529 6954.000000
2113.816162 7044.000000
2115.039307 6184.000000
2116.261230 7563.000000
2117.482910 6004.000000
2118.703613 6813.000000
2119.923584 6045.000000
2121.143066 6124.000000
2122.361084 6647.000000
2123.579102 7036.000000
2124.796143 5758.000000
2126.012695 5810.000000
2127.227539 6500.000000
2128.442627 6371.000000
2129.656738 6848.000000
2130.870117 5652.000000
2132.082764 6177.000000
2133.293945 5789.000000
2134.505371 6647.000000
2135.715576 6692.000000
2136.925293 5977.000000
2138.133545 6222.000000
2139.341797 5675.000000
2140.549316 5835.000000
2141.755615 7673.000000
2142.961182 5894.000000
2144.166504 5688.000000
2145.370850 5514.000000
2146.574463 6314.000000
2147.777588 6219.000000
2148.979248 6568.000000
2150.180664 5296.000000
2151.381348 6328.000000
2152.581299 6020.000000
2153.780029 5903.000000
2154.978516 6977.000000
2156.176514 6189.000000
2157.373535 6032.000000
2158.569824 5185.000000
2159.764893 5282.000000
2160.959717 6179.000000
2162.153809 5639.000000
2163.346924 6044.000000
2164.539063 6847.000000
2165.730957 5936.000000
2166.922119 6306.000000
2168.112305 6302.000000
2169.301758 6456.000000
2170.490723 6814.000000
2171.678711 6008.000000
2172.866455 5833.000000
2174.052734 5957.000000
2175.238281 6581.000000
2176.423584 6064.000000
2177.608398 5881.000000
2178.791992 6298.000000
2179.974854 7487.000000
2181.156738 6266.000000
2182.338379 6129.000000
2183.519531 6551.000000
2184.699463 5728.000000
2185.878418 5531.000000
2187.056885 6348.000000
2188.235107 6930.000000
2189.412109 7218.000000
2190.588135 6704.000000
2191.763916 6122.000000
2192.939209 5557.000000
2194.113037 6628.000000
2195.286377 6153.000000
2196.459473 6176.000000
2197.631348 6425.000000
2198.802734 7142.000000
2199.973633 6337.000000
2201.142822 6870.000000
2202.312012 7600.000000
2203.480713 6263.000000
2204.648438 5856.000000
2205.815186 5731.000000
2206.981201 7121.000000
2208.146729 6697.000000
2209.312012 5955.000000
2210.475830 6764.000000
2211.639160 5427.000000
2212.801270 6243.000000
2213.963623 6251.000000
2215.124756 6687.000000
2216.284912 6656.000000
2217.444580 6210.000000
2218.604004 6642.000000
2219.762207 6363.000000
2220.919434 6359.000000
2222.076416 6732.000000
2223.232666 6652.000000
2224.388184 6777.000000
2225.542969 6255.000000
2226.696777 6462.000000
2227.849609 6088.000000
2229.002930 6881.000000
2230.154297 6247.000000
2231.305420 6219.000000
2232.455811 6581.000000
2233.605713 7620.000000
2234.754639 6303.000000
2235.903076 5235.000000
2237.050049 6426.000000
2238.197266 7071.000000
2239.343262 6084.000000
2240.489014 7310.000000
2241.633057 7331.000000
2242.777344 6788.000000
2243.920654 6218.000000
2245.063232 5940.000000
2246.204834 5773.000000
2247.346191 5875.000000
2248.486572 6420.000000
2249.626221 6393.000000
2250.765381 5856.000000
2251.903320 5851.000000
2253.041260 6235.000000
2254.178223 5292.000000
2255.314453 6282.000000
2256.449707 6084.000000
2257.584229 7262.000000
2258.718506 6386.000000
2259.852295 5404.000000
2260.984619 6180.000000
2262.116455 6737.000000
2263.247803 6300.000000
2264.378174 6528.000000
2265.508301 8088.000000
2266.637207 6696.000000
2267.765625 6027.000000
2268.893555 5589.000000
2270.020508 6140.000000
2271.146729 5952.000000
2272.271973 6748.000000
2273.397217 6507.000000
2274.521729 6450.000000
2275.645020 5996.000000
2276.767578 6300.000000
2277.889648 5936.000000
2279.011230 7367.000000
2280.132080 6388.000000
2281.251709 6408.000000
2282.370850 7108.000000
2283.489746 7701.000000
2284.607910 7239.000000
2285.725098 5933.000000
2286.841309 6492.000000
2287.957275 6992.000000
2289.072510 6886.000000
2290.187012 7350.000000
2291.300293 5831.000000
2292.413574 6361.000000
2293.526123 6013.000000
2294.637939 5348.000000
2295.749023 6793.000000
2296.858887 6435.000000
2297.968262 6203.000000
2299.077393 6654.000000
2300.185547 6316.000000
2301.292725 6843.000000
2302.399658 5891.000000
2303.505859 6223.000000
2304.611572 6596.000000
2305.715820 6592.000000
2306.819824 5515.000000
2307.923340 5739.000000
2309.026367 6499.000000
2310.128174 7424.000000
2311.229248 7345.000000
2312.329834 6615.000000
2313.429932 5518.000000
2314.529297 6402.000000
2315.627197 6568.000000
2316.725586 6979.000000
2317.822510 8255.000000
2318.919189 6868.000000
2320.015381 5773.000000
2321.109863 6869.000000
2322.204346 7615.000000
2323.298096 5807.000000
2324.391602 6025.000000
2325.483398 6455.000000
2326.575195 6942.000000
2327.666260 6146.000000
2328.756592 6239.000000
2329.845947 6918.000000
2330.935303 6034.000000
2332.023438 6304.000000
2333.111084 6873.000000
2334.198486 6514.000000
2335.284180 6716.000000
2336.369629 7741.000000
2337.454834 6241.000000
2338.539063 6726.000000
2339.622314 5841.000000
2340.705322 6388.000000
2341.787354 7139.000000
2342.869141 6010.000000
2343.950195 7428.000000
2345.030029 6671.000000
2346.109375 5749.000000
2347.188232 6818.000000
2348.266602 6581.000000
2349.343506 6281.000000
2350.420166 6966.000000
2351.496582 6051.000000
2352.572021 6425.000000
2353.646484 5943.000000
2354.720703 6274.000000
2355.794189 6761.000000
2356.867188 6206.000000
2357.938965 7047.000000
2359.010498 6298.000000
2360.081055 6752.000000
2361.151367 7490.000000
2362.220703 7505.000000
2363.289063 6890.000000
2364.357178 6768.000000
2365.424561 7068.000000
2366.491455 7128.000000
2367.557617 6135.000000
2368.622559 6852.000000
2369.687500 6969.000000
2370.751709 6368.000000
2371.815186 7028.000000
2372.877441 5739.000000
2373.939697 6329.000000
2375.000977 6358.000000
2376.062012 5921.000000
2377.121826 6316.000000
2378.180908 7898.000000
2379.239990 6431.000000
2380.298096 7624.000000
2381.355469 6903.000000
2382.411865 8081.000000
2383.468018 7877.000000
2384.523682 6243.000000
2385.578613 7012.000000
2386.632080 6738.000000
2387.685791 6698.000000
2388.738525 6246.000000
2389.790771 6507.000000
2390.842285 6185.000000
2391.892822 6733.000000
2392.943115 6556.000000
2393.992432 6257.000000
2395.041748 6226.000000
2396.089600 6894.000000
2397.136963 6950.000000
2398.184082 6305.000000
2399.230225 6702.000000
2400.275635 6172.000000
2401.320313 6776.000000
2402.364990 7736.000000
2403.408203 7447.000000
2404.451416 6589.000000
2405.493164 5796.000000
2406.535156 6708.000000
2407.576416 7109.000000
2408.616699 6054.000000
2409.656250 6446.000000
2410.694824 6357.000000
2411.733643 6141.000000
2412.771240 6559.000000
2413.808594 6888.000000
2414.844727 7164.000000
2415.880615 6247.000000
2416.915771 6262.000000
2417.950439 6626.000000
2418.983643 7188.000000
2420.017090 6456.000000
2421.049561 6695.000000
2422.081787 6849.000000
2423.112549 7057.000000
2424.143311 6333.000000
2425.173584 6832.000000
2426.202637 6914.000000
2427.231689 6698.000000
2428.259033 7395.000000
2429.286865 6754.000000
2430.313477 7244.000000
2431.339844 6924.000000
2432.364746 7753.000000
2433.389893 6614.000000
2434.414063 7121.000000
2435.437988 6696.000000
2436.460693 5812.000000
2437.482666 6411.000000
2438.504395 6684.000000
2439.525391 6663.000000
2440.545898 6024.000000
2441.565186 6500.000000
2442.584473 6570.000000
2443.602783 8397.000000
2444.620850 6271.000000
2445.637451 6505.000000
2446.654053 6513.000000
2447.669922 5957.000000
2448.685791 7015.000000
2449.700195 6899.000000
2450.713867 5614.000000
2451.727051 7278.000000
2452.739990 6002.000000
2453.752197 7258.000000
2454.763428 6699.000000
2455.774414 7633.000000
2456.784668 6361.000000
2457.794434 7593.000000
2458.803223 5936.000000
2459.811279 5991.000000
2460.819336 6350.000000
2461.826172 7379.000000
2462.832764 5391.000000
2463.838135 7461.000000
2464.843262 6967.000000
2465.848145 5884.000000
2466.851807 6538.000000
2467.855225 6374.000000
2468.857666 7510.000000
2469.859863 7382.000000
2470.861572 6848.000000
2471.862305 6504.000000
2472.862061 6896.000000
2473.861816 6788.000000
2474.860596 5640.000000
2475.858887 6593.000000
2476.856201 7069.000000
2477.853271 6197.000000
2478.850342 6872.000000
2479.845947 5885.000000
2480.841553 7079.000000
2481.835449 6662.000000
2482.829346 8075.000000
2483.822754 6864.000000
2484.815674 6746.000000
2485.807617 7494.000000
2486.798828 7208.000000
2487.789795 6738.000000
2488.780273 5856.000000
2489.769775 6556.000000
2490.758545 6537.000000
2491.747314 5649.000000
2492.735107 6773.000000
2493.721680 6556.000000
2494.708252 8020.000000
2495.694336 6774.000000
2496.679688 7127.000000
2497.664063 8371.000000
2498.648193 6041.000000
2499.632324 6884.000000
2500.614990 5773.000000
2501.597168 7031.000000
2502.578857 6886.000000
2503.559814 7242.000000
2504.540283 6485.000000
2505.520508 5782.000000
2506.499268 6311.000000
2507.477783 7541.000000
2508.455811 6757.000000
2509.433350 7126.000000
2510.409912 6124.000000
2511.386230 5998.000000
2512.361816 6411.000000
2513.336914 6223.000000
2514.311523 6521.000000
2515.284912 7485.000000
2516.258057 6845.000000
2517.230957 6895.000000
2518.202881 6198.000000
2519.174072 6806.000000
2520.144775 6898.000000
2521.115234 7766.000000
2522.084961 8078.000000
2523.053711 6048.000000
2524.021729 6181.000000
2524.989746 7808.000000
2525.956787 6320.000000
2526.923584 5536.000000
2527.889160 7273.000000
2528.854736 6994.000000
2529.819580 7749.000000
2530.783936 6377.000000
2531.747070 6372.000000
2532.710449 5903.000000
2533.672852 6024.000000
2534.635010 6715.000000
2535.595947 6374.000000
2536.556152 6112.000000
2537.516602 6139.000000
2538.476074 6736.000000
2539.434814 6882.000000
2540.392578 6781.000000
2541.350586 6260.000000
2542.307861 6731.000000
2543.264160 6028.000000
2544.220215 7125.000000
2545.175049 6166.000000
2546.130127 7717.000000
2547.084473 7038.000000
2548.038086 6792.000000
2548.990723 7254.000000
2549.943115 6733.000000
2550.895020 6951.000000
2551.846191 6432.000000
2552.796631 7764.000000
2553.746582 7317.000000
2554.696289 7342.000000
2555.645264 6587.000000
2556.593750 6193.000000
2557.541016 7197.000000
2558.488281 6335.000000
2559.434814 6568.000000
2560.380859 6758.000000
2561.325928 7611.000000
2562.270752 6763.000000
2563.215088 7167.000000
2564.158936 6893.000000
2565.102295 6680.000000
2566.044189 6643.000000
2566.986328 6618.000000
2567.927734 6170.000000
2568.868408 7158.000000
2569.808350 7188.000000
2570.748291 5663.000000
2571.687256 6193.000000
2572.625977 7577.000000
2573.563721 7233.000000
2574.501221 5473.000000
2575.437988 6986.000000
2576.374023 6846.000000
2577.309570 7503.000000
2578.244385 6491.000000
2579.179199 5942.000000
2580.113037 7065.000000
2581.046387 7037.000000
2581.979004 5870.000000
2582.911377 6958.000000
2583.843018 5504.000000
2584.774170 7038.000000
2585.704834 6966.000000
2586.634277 6892.000000
2587.563721 7220.000000
2588.492676 6485.000000
2589.421387 7528.000000
2590.348389 7261.000000
2591.275635 5952.000000
2592.202393 6745.000000
2593.128418 6298.000000
2594.054199 5644.000000
2594.978760 7671.000000
2595.903076 7612.000000
2596.826904 5334.000000
2597.750244 7253.000000
2598.672607 6269.000000
2599.594727 6767.000000
2600.516357 8317.000000
2601.437256 6417.000000
2602.357422 5754.000000
2603.277344 6315.000000
2604.196777 6459.000000
2605.115967 6419.000000
2606.034180 5786.000000
2606.951172 5988.000000
2607.868408 7326.000000
2608.785400 5851.000000
2609.701416 7603.000000
2610.616211 6609.000000
2611.531494 6609.000000
2612.446045 6512.000000
2613.359619 6599.000000
2614.273193 6106.000000
2615.185547 7602.000000
2616.097900 7074.000000
2617.009277 6813.000000
2617.920410 5630.000000
2618.830811 7145.000000
2619.740967 6588.000000
2620.650391 6196.000000
2621.559326 6655.000000
2622.467285 6252.000000
2623.375488 6822.000000
2624.282715 6661.000000
2625.189453 7045.000000
2626.095459 5990.000000
2627.001221 6589.000000
2627.906250 6429.000000
2628.811035 7823.000000
2629.715088 6470.000000
2630.618164 6412.000000
2631.521240 6451.000000
2632.423340 5586.000000
2633.325439 6722.000000
2634.227295 6961.000000
2635.127441 6753.000000
2636.027832 6430.000000
2636.927490 6448.000000
2637.826904 6032.000000
2638.724854 6847.000000
2639.623291 6654.000000
2640.521240 6401.000000
2641.418457 6137.000000
2642.314453 6189.000000
2643.210449 6862.000000
2644.106201 6085.000000
2645.001221 6462.000000
2645.895996 6647.000000
2646.789307 7131.000000
2647.682617 6252.000000
2648.575684 6746.000000
2649.468506 6429.000000
2650.359619 7454.000000
2651.250977 6418.000000
2652.141846 7588.000000
2653.031982 7353.000000
2653.921875 6590.000000
2654.810547 7321.000000
2655.699463 6680.000000
2656.587891 6596.000000
2657.475342 7339.000000
2658.361816 6541.000000
2659.248779 7139.000000
2660.135010 6872.000000
2661.020752 6853.000000
2661.905273 6582.000000
2662.789795 6366.000000
2663.674072 6219.000000
2664.557617 7096.000000
2665.440674 7823.000000
2666.322998 7317.000000
2667.204834 6193.000000
2668.085938 6619.000000
2668.967285 6109.000000
2669.847168 6582.000000
2670.727295 7370.000000
2671.606689 7223.000000
2672.486084 6183.000000
2673.364746 6175.000000
2674.241699 6384.000000
2675.119385 6777.000000
2675.996338 6354.000000
2676.872559 8194.000000
2677.748291 7266.000000
2678.623291 6301.000000
2679.498535 7702.000000
2680.372803 7000.000000
2681.246582 7309.000000
2682.119629 7009.000000
2682.992432 6206.000000
2683.864990 6060.000000
2684.736816 6988.000000
2685.607910 6534.000000
2686.478760 6919.000000
2687.349121 7128.000000
2688.219238 6708.000000
2689.087646 6309.000000
2689.956787 7412.000000
2690.825195 7122.000000
2691.693359 6692.000000
2692.560791 6977.000000
2693.427002 5870.000000
2694.293701 7188.000000
2695.159424 7389.000000
2696.025146 7165.000000
2696.889404 8242.000000
2697.754395 6588.000000
2698.617920 7260.000000
2699.481689 5863.000000
2700.343994 7474.000000
2701.206787 6845.000000
2702.068604 6024.000000
2702.929932 6888.000000
2703.791260 6759.000000
2704.651367 7409.000000
2705.511475 7291.000000
2706.371094 6612.000000
2707.230469 6916.000000
2708.088135 7199.000000
2708.946045 6879.000000
2709.804443 7335.000000
2710.661621 6701.000000
2711.518066 5940.000000
2712.374023 6866.000000
2713.229980 6106.000000
2714.085205 6938.000000
2714.939697 6163.000000
2715.793701 6845.000000
2716.647705 7320.000000
2717.500732 6261.000000
2718.354004 6468.000000
2719.205566 7731.000000
2720.057617 6758.000000
2720.909424 6324.000000
2721.760010 6466.000000
2722.610596 6720.000000
2723.460693 7155.000000
2724.310059 7045.000000
2725.159424 6988.000000
2726.007568 6649.000000
2726.855225 6569.000000
2727.703369 7007.000000
2728.550293 6854.000000
2729.397705 5517.000000
2730.243652 7543.000000
2731.088867 7010.000000
2731.934570 6403.000000
2732.779297 6940.000000
2733.624023 7307.000000
2734.467529 6846.000000
2735.311279 7881.000000
2736.154297 7195.000000
2736.996826 6048.000000
2737.838379 6238.000000
2738.680420 6789.000000
2739.521484 6907.000000
2740.362305 5810.000000
2741.202881 6004.000000
2742.042236 7808.000000
2742.881592 6883.000000
2743.720947 6927.000000
2744.559082 6836.000000
2745.396729 7825.000000
2746.234375 6332.000000
2747.071533 7186.000000
2747.908447 6231.000000
2748.744873 5988.000000
2749.580078 6627.000000
2750.415527 6317.000000
2751.250488 6320.000000
2752.084717 6274.000000
2752.918701 6873.000000
2753.752197 6795.000000
2754.585693 8010.000000
2755.418213 6724.000000
2756.250244 7345.000000
2757.081787 6882.000000
2757.913330 7143.000000
2758.743896 7128.000000
2759.574707 7264.000000
2760.404297 7299.000000
2761.233887 6737.000000
2762.063232 7259.000000
2762.891846 6852.000000
2763.719971 6809.000000
2764.547607 6863.000000
2765.375244 6707.000000
2766.202393 7907.000000
2767.028809 5740.000000
2767.854736 7526.000000
2768.680176 6895.000000
2769.505371 7827.000000
2770.330566 7102.000000
2771.154541 6781.000000
2771.978516 6568.000000
2772.802490 7651.000000
2773.625244 6355.000000
2774.448242 6944.000000
2775.270020 6906.000000
2776.091797 7012.000000
2776.913574 6518.000000
2777.734375 7971.000000
2778.554443 6600.000000
2779.374756 7053.000000
2780.194580 7268.000000
2781.014404 6500.000000
2781.832275 5963.000000
2782.651367 8088.000000
2783.469238 6555.000000
2784.286865 6757.000000
2785.104004 7204.000000
2785.920654 7235.000000
2786.737061 7313.000000
2787.552979 6287.000000
2788.368652 5958.000000
2789.183350 6409.000000
2789.998535 7147.000000
2790.812988 7207.000000
2791.626953 6627.000000
2792.440674 7376.000000
2793.253174 8751.000000
2794.065918 6975.000000
2794.878174 7451.000000
2795.689941 7286.000000
2796.500977 7372.000000
2797.312744 6562.000000
2798.123291 7230.000000
2798.933838 7047.000000
2799.742920 7336.000000
2800.552734 8189.000000
2801.361816 7800.000000
2802.170654 6656.000000
2802.979004 7198.000000
2803.786377 6196.000000
2804.594238 6442.000000
2805.401367 6961.000000
2806.208252 6860.000000
2807.013916 7048.000000
2807.820068 6685.000000
2808.625488 6493.000000
2809.430908 7250.000000
2810.235596 6205.000000
2811.039307 7621.000000
2811.843506 7522.000000
2812.647217 6310.000000
2813.450684 6089.000000
2814.252686 6334.000000
2815.055420 7370.000000
2815.857422 7828.000000
2816.659180 6157.000000
2817.460449 6535.000000
2818.261230 7237.000000
2819.061523 6533.000000
2819.862061 6668.000000
2820.661621 8023.000000
2821.460693 7230.000000
2822.259766 6447.000000
2823.058594 6958.000000
2823.856934 6373.000000
2824.654297 6994.000000
2825.451904 7024.000000
2826.248779 6682.000000
2827.045898 7349.000000
2827.842285 7946.000000
2828.637939 7032.000000
2829.433594 7368.000000
2830.229004 7604.000000
2831.023926 7422.000000
2831.818115 6625.000000
2832.612305 6829.000000
2833.406250 5672.000000
2834.199707 6876.000000
2834.992432 7216.000000
2835.784912 8171.000000
2836.577393 7650.000000
2837.369629 7504.000000
2838.161377 6469.000000
2838.952148 6780.000000
2839.742920 8823.000000
2840.533936 7501.000000
2841.323975 6237.000000
2842.113525 7719.000000
2842.903320 7252.000000
2843.692139 7395.000000
2844.480957 7786.000000
2845.269775 7707.000000
2846.057617 7446.000000
2846.844971 7260.000000
2847.632568 7530.000000
2848.419678 7377.000000
2849.206055 6679.000000
2849.992432 7481.000000
2850.778564 7208.000000
2851.564209 7589.000000
2852.348877 7255.000000
2853.134033 6923.000000
2853.918945 7434.000000
2854.703125 7172.000000
2855.487305 6999.000000
2856.270264 8327.000000
2857.053467 6839.000000
2857.836426 6777.000000
2858.618896 7724.000000
2859.401123 6263.000000
2860.182861 6587.000000
2860.964355 7590.000000
2861.746094 7479.000000
2862.527100 7640.000000
2863.307373 6590.000000
2864.087402 6802.000000
2864.867432 8140.000000
2865.647217 7483.000000
2866.426025 8153.000000
2867.205078 7677.000000
2867.983643 6849.000000
2868.761963 7085.000000
2869.539795 7199.000000
2870.317383 6894.000000
2871.094727 7463.000000
2871.871826 6943.000000
2872.648438 6378.000000
2873.424561 7518.000000
2874.200684 7136.000000
2874.976318 8286.000000
2875.751709 7270.000000
2876.526611 6636.000000
2877.301270 8036.000000
2878.075928 6597.000000
2878.850342 7860.000000
2879.624023 6824.000000
2880.396973 7188.000000
2881.170654 6780.000000
2881.943359 7655.000000
2882.716064 7841.000000
2883.488037 8205.000000
2884.259766 6232.000000
2885.031982 6793.000000
2885.802979 6859.000000
2886.573486 6146.000000
2887.344482 8315.000000
2888.115479 7377.000000
2888.885742 7998.000000
2889.655029 7674.000000
2890.424561 6981.000000
2891.194092 7294.000000
2891.963135 7395.000000
2892.731689 7864.000000
2893.500244 7657.000000
2894.267822 6962.000000
2895.035889 6577.000000
2895.803467 7474.000000
2896.571045 8441.000000
2897.337402 7407.000000
2898.104736 6589.000000
2898.870850 7234.000000
2899.637207 6968.000000
2900.402100 8298.000000
2901.167480 6962.000000
2901.933350 6450.000000
2902.697754 7732.000000
2903.462158 7729.000000
2904.226807 8408.000000
2904.990479 6712.000000
2905.754883 8556.000000
2906.518555 6756.000000
2907.281494 8434.000000
2908.044189 6525.000000
2908.807373 9021.000000
2909.570068 7056.000000
2910.331543 6788.000000
2911.093506 6788.000000
