scanname Analyse095
timestamp 2017-02-10 22:25:28
ccdbias 954.337891
ccdgain 3.473401
sigmaread 8.960639
laserwavenum -0.399378
wavenumcorrection 0.123586
scancount 1
totalexposurems 10000
singleexposurems 10000
measurementstate Unknown
scanmode Manual
snr 308.503693 10.281055 8.786098
replacelist 4
672 52792.000000 31100.000000
754 52376.000000 17030.000000
889 49828.000000 20697.000000
948 47301.000000 19419.000000
peaks 78
278.194611 0.719093 0.000000 1.597664 0.000199
284.580383 0.718569 0.000000 0.881259 0.000065
293.791412 0.720645 0.000000 0.629852 0.000029
302.994781 0.721431 0.000000 0.186115 0.000024
333.948730 0.742654 0.000000 0.880490 0.000146
350.688324 0.745205 0.000000 0.568299 0.000022
360.229980 0.749043 0.000000 0.771329 0.000065
385.876709 0.749151 0.000000 1.439338 0.000308
464.581848 0.766600 0.000000 0.541433 0.000031
487.237671 0.778015 0.000000 0.789151 0.000105
534.770447 0.780764 0.000000 0.687586 0.000152
559.507385 0.820671 0.000000 1.308388 0.000230
573.016052 0.826903 0.000000 0.308514 0.000076
582.102722 0.821094 0.000000 0.592213 0.000100
660.986511 0.854030 0.000000 1.020801 0.000220
672.999207 0.850762 0.000000 1.296961 0.000258
715.660889 0.870785 0.000000 5.669582 0.001187
725.159180 0.852949 0.000000 1.166092 0.000050
742.442932 0.877379 0.000000 1.055144 0.000116
756.992920 0.903274 0.000000 5.992560 0.000687
779.003723 0.905389 0.000000 8.439442 0.001317
832.120850 0.904477 0.000000 0.442700 0.000169
843.476807 0.910692 0.000000 1.094569 0.000054
853.178223 0.935705 0.000000 1.071578 0.000281
868.575256 0.932062 0.000000 0.777696 0.000157
937.249573 1.008462 0.000000 0.985808 0.000470
954.059265 0.986607 0.000000 3.456827 0.001057
1013.480347 1.029802 0.000000 2.128164 0.000806
1026.551636 1.043379 0.000000 0.699436 0.000274
1037.375610 1.029028 0.000000 0.774102 0.000136
1044.056763 1.038677 0.000000 4.089629 0.001343
1104.317505 1.061202 0.000000 2.278263 0.000629
1117.508789 1.101628 0.000000 2.347995 0.000671
1134.390747 1.077826 0.000000 1.991927 0.000877
1150.082275 1.060750 0.000000 2.369267 0.000973
1174.333618 1.093083 0.000000 1.529694 0.000510
1187.347290 1.098438 0.000000 0.839904 0.000070
1211.564941 1.173095 0.000000 0.798667 0.000250
1224.544067 1.179163 0.000000 0.852434 0.000187
1232.011230 1.166820 0.000000 1.158860 0.000322
1259.882568 1.204952 0.000000 3.059692 0.001430
1281.373779 1.149108 0.000000 0.295620 0.000446
1312.420288 1.210032 0.000000 1.785582 0.000697
1330.235352 1.271514 0.000000 3.310461 0.001699
1347.840576 1.278973 0.000000 0.567898 0.000642
1389.285400 1.260402 0.000000 0.823698 0.000314
1415.246338 1.330905 0.000000 1.793429 0.000830
1428.957520 1.359817 0.000000 1.286018 0.000178
1434.015503 1.390884 0.000000 1.567605 0.000797
1446.753052 1.384468 0.000000 1.454794 0.000529
1459.811401 1.381356 0.000000 2.189602 0.001513
1489.751343 1.448871 0.000000 3.968414 0.002477
1516.055664 1.390523 0.000000 0.233509 0.000151
1532.714355 1.471267 0.000000 0.777153 0.000955
1547.653931 1.490760 0.000000 0.460726 0.000312
1558.055298 1.512668 0.000000 1.358062 0.000873
1577.888672 1.506820 0.000000 1.454598 0.001401
1617.060303 1.544082 0.000000 13.103577 0.008418
1635.004272 1.544730 0.000000 5.393223 0.001455
1647.133301 1.535886 0.000000 0.293158 0.000144
1669.314087 1.619549 0.000000 1.687380 0.001808
1688.795898 1.619942 0.000000 0.736201 0.000347
1699.176147 1.632953 0.000000 1.156994 0.001521
1711.708252 1.610422 0.000000 1.072291 0.000938
1750.235596 1.586811 0.000000 0.772978 0.000812
1778.565918 1.592723 0.000000 4.004702 0.003918
1796.756470 1.581147 0.000000 0.738795 0.000582
1809.611206 1.585335 0.000000 1.586348 0.001406
1843.781738 1.538516 0.000000 0.365067 0.000122
1855.695068 1.544673 0.000000 1.396438 0.002065
1870.703857 1.530559 0.000000 0.707074 0.000619
1889.407227 1.524506 0.000000 1.178130 0.001300
1902.643066 1.533706 0.000000 1.871651 0.001807
1913.828369 1.522897 0.000000 0.479303 0.000543
1943.029785 1.491437 0.000000 0.599946 0.000181
1974.777344 1.473737 0.000000 0.707589 0.000508
1995.866211 1.457733 0.000000 0.460587 0.000421
2028.577515 1.441791 0.000000 0.395446 0.000410
finalresult GLS_NoMatch 0
spectrum 2048
-97.202080 44908.000000
-94.575211 44908.000000
-91.950218 45534.000000
-89.327118 45629.000000
-86.705887 46546.000000
-84.086555 46364.000000
-81.469086 46576.000000
-78.853493 46385.000000
-76.239777 46786.000000
-73.627937 47169.000000
-71.017960 46920.000000
-68.409866 47137.000000
-65.803619 47177.000000
-63.199245 47212.000000
-60.596737 47070.000000
-57.996082 47559.000000
-55.397289 46995.000000
-52.800354 46282.000000
-50.205273 46692.000000
-47.612045 46625.000000
-45.020668 46950.000000
-42.431137 46406.000000
-39.843449 47224.000000
-37.257610 47148.000000
-34.673615 46629.000000
-32.091457 47424.000000
-29.511143 46812.000000
-26.932659 47339.000000
-24.356014 46909.000000
-21.781197 46766.000000
-19.208221 46551.000000
-16.637062 46467.000000
-14.067739 46153.000000
-11.500241 45149.000000
-8.934562 46596.000000
-6.370708 46311.000000
-3.808667 46614.000000
-1.248451 46667.000000
1.309957 46179.000000
3.866544 45164.000000
6.421326 44886.000000
8.974291 44888.000000
11.525455 43198.000000
14.074807 42114.000000
16.622364 40397.000000
19.168106 39628.000000
21.712059 38148.000000
24.254204 34625.000000
26.794556 31772.000000
29.333118 29201.000000
31.869888 24721.000000
34.404854 17444.000000
36.938042 10870.000000
39.469448 7540.000000
41.999062 6990.000000
44.526878 7061.000000
47.052937 6315.000000
49.577206 5579.000000
52.099705 4888.000000
54.620407 4529.000000
57.139355 4746.000000
59.656528 5490.000000
62.171925 7106.000000
64.685539 8455.000000
67.197403 7662.000000
69.707520 5816.000000
72.215843 12823.000000
74.722412 27520.000000
77.227234 34666.000000
79.730301 36440.000000
82.231590 39316.000000
84.731140 42094.000000
87.228935 43259.000000
89.724998 44692.000000
92.219284 43993.000000
94.711830 45872.000000
97.202660 45152.000000
99.691719 45223.000000
102.179031 46244.000000
104.664619 46522.000000
107.148468 46516.000000
109.630569 47161.000000
112.110947 46453.000000
114.589600 46824.000000
117.066528 46616.000000
119.541702 45949.000000
122.015167 46378.000000
124.486900 47246.000000
126.956924 46404.000000
129.425201 46996.000000
131.891800 46946.000000
134.356644 47553.000000
136.819794 47028.000000
139.281204 46120.000000
141.740921 46439.000000
144.198914 46908.000000
146.655212 47330.000000
149.109802 47484.000000
151.562668 46448.000000
154.013855 47029.000000
156.463348 46760.000000
158.911118 47228.000000
161.357178 46708.000000
163.801559 44612.000000
166.244263 46994.000000
168.685272 46504.000000
171.124573 47037.000000
173.562164 46099.000000
175.998123 46700.000000
178.432343 46405.000000
180.864883 46148.000000
183.295776 46626.000000
185.724945 46571.000000
188.152466 46620.000000
190.578308 46962.000000
193.002472 46643.000000
195.424973 46141.000000
197.845779 45918.000000
200.264923 46783.000000
202.682404 47304.000000
205.098190 45714.000000
207.512329 46263.000000
209.924835 46916.000000
212.335663 47230.000000
214.744812 47004.000000
217.152328 45908.000000
219.558136 47154.000000
221.962357 46844.000000
224.364868 46660.000000
226.765762 46412.000000
229.165009 46824.000000
231.562592 46469.000000
233.958511 46055.000000
236.352814 46740.000000
238.745453 47464.000000
241.136475 46517.000000
243.525833 46730.000000
245.913574 46883.000000
248.299667 46341.000000
250.684128 47200.000000
253.066940 45474.000000
255.448181 46732.000000
257.827698 46682.000000
260.205658 46943.000000
262.581940 45796.000000
264.956665 45768.000000
267.329742 45460.000000
269.701172 47096.000000
272.070953 46866.000000
274.439178 47432.000000
276.805756 46988.000000
279.170746 46848.000000
281.534119 47276.000000
283.895844 47028.000000
286.255981 46200.000000
288.614502 47260.000000
290.971436 46853.000000
293.326752 46947.000000
295.680481 47344.000000
298.032562 47385.000000
300.383087 47072.000000
302.732025 46926.000000
305.079315 46474.000000
307.425079 46875.000000
309.769165 46798.000000
312.111725 45924.000000
314.452667 45759.000000
316.791992 46192.000000
319.129761 46377.000000
321.465973 45165.000000
323.800537 47072.000000
326.133545 46821.000000
328.464996 47269.000000
330.794861 46690.000000
333.123138 46991.000000
335.449799 46025.000000
337.774963 46890.000000
340.098511 47001.000000
342.420502 47273.000000
344.740936 45754.000000
347.059753 45639.000000
349.377014 47364.000000
351.692749 47471.000000
354.006897 46339.000000
356.319458 46977.000000
358.630463 47029.000000
360.939941 46253.000000
363.247894 46963.000000
365.554230 47638.000000
367.858978 46877.000000
370.162262 46825.000000
372.463928 46993.000000
374.764099 46935.000000
377.062714 46976.000000
379.359772 47594.000000
381.655273 47205.000000
383.949249 47537.000000
386.241638 48141.000000
388.532532 47693.000000
390.821899 47036.000000
393.109680 47046.000000
395.395935 46757.000000
397.680695 46271.000000
399.963837 47281.000000
402.245544 46809.000000
404.525726 47156.000000
406.804321 45981.000000
409.081390 46798.000000
411.356934 46583.000000
413.630951 46766.000000
415.903534 46875.000000
418.174500 46954.000000
420.443970 46927.000000
422.711945 46213.000000
424.978363 46111.000000
427.243286 47026.000000
429.506744 46988.000000
431.768616 46878.000000
434.029022 47330.000000
436.287872 46722.000000
438.545258 47201.000000
440.801147 47579.000000
443.055542 47465.000000
445.308411 47856.000000
447.559723 46321.000000
449.809631 47273.000000
452.057953 46961.000000
454.304840 47658.000000
456.550262 46816.000000
458.794128 46858.000000
461.036499 46482.000000
463.277374 47657.000000
465.516846 46492.000000
467.754730 47849.000000
469.991180 47417.000000
472.226105 47217.000000
474.459564 46063.000000
476.691589 46600.000000
478.922089 47590.000000
481.151093 46770.000000
483.378632 47030.000000
485.604675 47310.000000
487.829285 46780.000000
490.052429 47452.000000
492.274109 46900.000000
494.494232 46645.000000
496.712952 47585.000000
498.930176 46989.000000
501.146027 47737.000000
503.360260 47164.000000
505.573181 46842.000000
507.784515 46814.000000
509.994415 46398.000000
512.202881 46786.000000
514.409973 46708.000000
516.615479 46864.000000
518.819580 46705.000000
521.022156 47060.000000
523.223328 46689.000000
525.423157 46644.000000
527.621460 46251.000000
529.818237 47934.000000
532.013672 47492.000000
534.207581 47751.000000
536.400146 45792.000000
538.591187 46590.000000
540.780823 47239.000000
542.969055 46360.000000
545.155762 46198.000000
547.341003 46443.000000
549.524963 46999.000000
551.707336 46845.000000
553.888367 47128.000000
556.067871 47304.000000
558.246094 47433.000000
560.422791 47270.000000
562.598083 46886.000000
564.771973 46887.000000
566.944397 47396.000000
569.115417 47250.000000
571.284973 47027.000000
573.453247 48007.000000
575.619995 46874.000000
577.785278 47020.000000
579.949158 47139.000000
582.111755 47559.000000
584.272827 47274.000000
586.432495 47633.000000
588.590820 47464.000000
590.747620 47030.000000
592.903076 46691.000000
595.057129 47467.000000
597.209839 47158.000000
599.361023 45943.000000
601.510864 46488.000000
603.659363 46583.000000
605.806274 47206.000000
607.951965 46832.000000
610.096252 46893.000000
612.239075 46223.000000
614.380432 47102.000000
616.520569 46791.000000
618.659180 45644.000000
620.796509 47518.000000
622.932373 46681.000000
625.066833 46371.000000
627.199829 46025.000000
629.331665 46593.000000
631.462036 46701.000000
633.591003 46442.000000
635.718506 46766.000000
637.844727 47165.000000
639.969421 45955.000000
642.092896 46918.000000
644.215027 46479.000000
646.335693 46472.000000
648.455017 46669.000000
650.572937 47555.000000
652.689514 47563.000000
654.804688 46785.000000
656.918518 46760.000000
659.030884 47417.000000
661.142029 47123.000000
663.251770 47869.000000
665.360046 46642.000000
667.467163 46999.000000
669.572815 46398.000000
671.677002 47526.000000
673.779968 47561.000000
675.881531 46315.000000
677.981750 47841.000000
680.080566 46548.000000
682.178040 46900.000000
684.274231 46394.000000
686.368958 47002.000000
688.462463 46234.000000
690.554626 46649.000000
692.645264 45317.000000
694.734680 46584.000000
696.822815 46796.000000
698.909485 47341.000000
700.994934 46587.000000
703.078857 48101.000000
705.161560 47388.000000
707.242981 47216.000000
709.322937 45601.000000
711.401672 46851.000000
713.478943 47681.000000
715.554932 46592.000000
717.629639 47145.000000
719.703064 46362.000000
721.774963 46870.000000
723.845703 45807.000000
725.915100 47447.000000
727.983093 46733.000000
730.049744 46904.000000
732.115173 46139.000000
734.179260 47539.000000
736.242004 47058.000000
738.303406 46705.000000
740.363525 46631.000000
742.422241 47239.000000
744.479736 46626.000000
746.535950 46857.000000
748.590759 46593.000000
750.644287 46849.000000
752.696411 45874.000000
754.747314 47452.000000
756.796997 46635.000000
758.845215 46882.000000
760.892212 47113.000000
762.937927 46292.000000
764.982239 47889.000000
767.025269 47525.000000
769.067078 38321.000000
771.107544 46347.000000
773.146606 46943.000000
775.184509 47166.000000
777.221069 47286.000000
779.256409 47866.000000
781.290405 47550.000000
783.322998 46347.000000
785.354431 47701.000000
787.384460 41208.000000
789.413208 47236.000000
791.440796 46892.000000
793.467041 46869.000000
795.491882 47410.000000
797.515625 47583.000000
799.537964 46928.000000
801.559082 47299.000000
803.578857 46561.000000
805.597351 48328.000000
807.614624 46582.000000
809.630493 46473.000000
811.645203 47509.000000
813.658569 46790.000000
815.670715 46988.000000
817.681641 47128.000000
819.691223 46677.000000
821.699585 47899.000000
823.706543 47535.000000
825.712280 47259.000000
827.716797 47519.000000
829.720032 47569.000000
831.721985 46723.000000
833.722656 47154.000000
835.722107 47274.000000
837.720215 46861.000000
839.717224 46206.000000
841.712830 47078.000000
843.707275 47248.000000
845.700378 47012.000000
847.692261 46469.000000
849.682800 47608.000000
851.672058 46439.000000
853.660278 47248.000000
855.647095 47460.000000
857.632690 46819.000000
859.617004 46021.000000
861.600220 46925.000000
863.582031 46867.000000
865.562622 47357.000000
867.541931 45549.000000
869.520081 46190.000000
871.496887 47158.000000
873.472412 47278.000000
875.446899 47045.000000
877.419922 47249.000000
879.391907 47787.000000
881.362549 46844.000000
883.332031 47125.000000
885.300171 47627.000000
887.267151 47983.000000
889.232788 47187.000000
891.197266 47465.000000
893.160522 47187.000000
895.122559 46743.000000
897.083313 47434.000000
899.042847 46795.000000
901.001099 46474.000000
902.958252 46870.000000
904.914246 47187.000000
906.868835 46323.000000
908.822205 46749.000000
910.774414 46824.000000
912.725403 46848.000000
914.675110 46082.000000
916.623657 46907.000000
918.570984 47106.000000
920.517029 47084.000000
922.461792 47153.000000
924.405518 46911.000000
926.348083 47323.000000
928.289368 47648.000000
930.229309 46685.000000
932.168152 47526.000000
934.105713 47693.000000
936.042053 47234.000000
937.977234 47477.000000
939.911133 47122.000000
941.843933 47249.000000
943.775513 46386.000000
945.705933 47976.000000
947.635132 46762.000000
949.562988 46232.000000
951.489807 46606.000000
953.415344 47205.000000
955.339600 47841.000000
957.262756 47221.000000
959.184753 46511.000000
961.105469 45889.000000
963.025024 46837.000000
964.943420 47862.000000
966.860779 46771.000000
968.776672 46747.000000
970.691467 47041.000000
972.605042 47170.000000
974.517456 46792.000000
976.428650 46771.000000
978.338684 47709.000000
980.247437 46958.000000
982.155151 47096.000000
984.061646 46767.000000
985.966919 47515.000000
987.871094 46394.000000
989.774048 47052.000000
991.675781 46389.000000
993.576355 46622.000000
995.475769 46610.000000
997.373962 47911.000000
999.270996 46652.000000
1001.166809 46713.000000
1003.061462 45484.000000
1004.955017 47547.000000
1006.847290 45922.000000
1008.738647 47059.000000
1010.628662 47750.000000
1012.517456 46536.000000
1014.405090 46790.000000
1016.291565 46245.000000
1018.176880 46375.000000
1020.061035 47212.000000
1021.943970 47317.000000
1023.825867 46956.000000
1025.706543 47985.000000
1027.586060 47275.000000
1029.464600 47060.000000
1031.341797 47718.000000
1033.217651 46996.000000
1035.092529 47254.000000
1036.966431 46522.000000
1038.838867 46073.000000
1040.710327 46420.000000
1042.580444 47604.000000
1044.449585 47568.000000
1046.317505 47312.000000
1048.184326 46045.000000
1050.050049 46428.000000
1051.914551 46651.000000
1053.777954 46583.000000
1055.640015 46727.000000
1057.501099 47193.000000
1059.361084 46661.000000
1061.219727 46511.000000
1063.077271 47286.000000
1064.933716 46442.000000
1066.789063 47235.000000
1068.643188 47297.000000
1070.496460 46886.000000
1072.348267 46752.000000
1074.199097 46900.000000
1076.048706 47022.000000
1077.897095 47446.000000
1079.744629 45208.000000
1081.590820 47440.000000
1083.435791 46828.000000
1085.279907 47663.000000
1087.122681 47568.000000
1088.964233 46504.000000
1090.805054 47625.000000
1092.644287 47336.000000
1094.482788 47021.000000
1096.319946 47081.000000
1098.155884 46309.000000
1099.990845 46470.000000
1101.824585 47676.000000
1103.657349 47442.000000
1105.488770 46987.000000
1107.319336 45857.000000
1109.148560 46568.000000
1110.976807 46649.000000
1112.803833 45984.000000
1114.629883 47705.000000
1116.454712 46827.000000
1118.278442 46024.000000
1120.100952 47007.000000
1121.922363 47207.000000
1123.742920 47170.000000
1125.562012 46533.000000
1127.380249 45983.000000
1129.197144 46270.000000
1131.013184 46390.000000
1132.828003 46597.000000
1134.641724 47462.000000
1136.454346 47307.000000
1138.265747 47347.000000
1140.076172 46869.000000
1141.885498 46378.000000
1143.693481 46136.000000
1145.500732 47107.000000
1147.306519 47150.000000
1149.111450 47634.000000
1150.915283 47644.000000
1152.717896 46929.000000
1154.519653 46938.000000
1156.319946 46973.000000
1158.119263 46963.000000
1159.917603 47131.000000
1161.714600 47586.000000
1163.510864 47223.000000
1165.305786 46922.000000
1167.099609 46689.000000
1168.892578 45295.000000
1170.684204 47325.000000
1172.474854 46582.000000
1174.264526 47015.000000
1176.052734 47127.000000
1177.840088 45615.000000
1179.626343 46159.000000
1181.411499 47236.000000
1183.195557 47066.000000
1184.978516 45302.000000
1186.760498 47150.000000
1188.541260 47182.000000
1190.321045 46721.000000
1192.099731 46104.000000
1193.877441 46360.000000
1195.653931 45825.000000
1197.429321 46419.000000
1199.203613 46434.000000
1200.976807 46340.000000
1202.749146 46432.000000
1204.520142 46297.000000
1206.290283 47246.000000
1208.059204 46819.000000
1209.827026 46589.000000
1211.593994 47283.000000
1213.359619 47070.000000
1215.124268 46092.000000
1216.887817 46405.000000
1218.650269 47031.000000
1220.411865 46195.000000
1222.172241 47036.000000
1223.931519 46616.000000
1225.689941 46943.000000
1227.447144 45914.000000
1229.203247 46518.000000
1230.958252 47461.000000
1232.712402 46956.000000
1234.465210 47063.000000
1236.217041 47007.000000
1237.968018 47028.000000
1239.717651 48030.000000
1241.466431 45972.000000
1243.213867 46418.000000
1244.960571 46394.000000
1246.706055 46480.000000
1248.450684 46559.000000
1250.193970 46160.000000
1251.936279 46351.000000
1253.677490 47576.000000
1255.417847 47883.000000
1257.157104 47095.000000
1258.895142 46392.000000
1260.632324 45858.000000
1262.368286 46892.000000
1264.103271 46489.000000
1265.837280 45690.000000
1267.570313 46968.000000
1269.302124 46700.000000
1271.032959 46492.000000
1272.762573 45626.000000
1274.491333 47087.000000
1276.218994 47276.000000
1277.945557 47361.000000
1279.671265 47388.000000
1281.395630 46508.000000
1283.119141 47767.000000
1284.841675 46040.000000
1286.563232 46306.000000
1288.283569 46701.000000
1290.002930 46204.000000
1291.721191 45619.000000
1293.438477 46457.000000
1295.154785 47127.000000
1296.869873 46501.000000
1298.583984 46696.000000
1300.297119 47046.000000
1302.009399 46403.000000
1303.720459 44562.000000
1305.430542 47586.000000
1307.139526 46620.000000
1308.847290 46176.000000
1310.554443 45798.000000
1312.260132 47080.000000
1313.965088 45944.000000
1315.669067 46640.000000
1317.371826 46827.000000
1319.073608 46244.000000
1320.774536 46875.000000
1322.474121 43263.000000
1324.172852 45248.500000
1325.870850 47234.000000
1327.567505 46327.000000
1329.263062 45522.000000
1330.957764 45969.000000
1332.651245 47015.000000
1334.343872 47337.000000
1336.035645 45610.000000
1337.726074 46408.000000
1339.415771 46190.000000
1341.104370 46638.000000
1342.791870 45178.000000
1344.478394 47119.000000
1346.163818 45896.000000
1347.848267 46816.000000
1349.531860 45501.000000
1351.214233 46436.000000
1352.895630 46866.000000
1354.576172 46285.000000
1356.255493 46064.000000
1357.934204 46938.000000
1359.611572 46268.000000
1361.287842 46952.000000
1362.963135 47249.000000
1364.637695 46181.000000
1366.311035 46296.000000
1367.983398 45929.000000
1369.654785 47600.000000
1371.325195 46034.000000
1372.994507 46562.000000
1374.662842 47121.000000
1376.330322 46669.000000
1377.996704 46292.000000
1379.662109 46477.000000
1381.326538 46805.000000
1382.989746 46718.000000
1384.652344 46901.000000
1386.313599 46316.000000
1387.973999 46106.000000
1389.633301 46233.000000
1391.291626 46123.000000
1392.949219 45778.000000
1394.605591 46113.000000
1396.261108 45552.000000
1397.915405 46278.000000
1399.568848 46711.000000
1401.221191 46468.000000
1402.872803 46054.000000
1404.523193 45340.000000
1406.172485 46337.000000
1407.821045 45014.000000
1409.468506 44643.000000
1411.114990 46279.000000
1412.760620 46244.000000
1414.405273 46443.000000
1416.048706 45464.000000
1417.691284 45345.000000
1419.332764 45611.000000
1420.973389 46007.000000
1422.613037 45970.000000
1424.251587 46433.000000
1425.889282 45814.000000
1427.525879 46074.000000
1429.161499 46445.000000
1430.796387 46043.000000
1432.430176 46585.000000
1434.062866 46327.000000
1435.694580 46692.000000
1437.325439 46291.000000
1438.955200 46353.000000
1440.583862 44685.000000
1442.211914 46451.000000
1443.838867 46183.000000
1445.464600 46259.000000
1447.089722 46226.000000
1448.713745 45891.000000
1450.336792 46418.000000
1451.958862 46409.000000
1453.579834 45115.000000
1455.199829 46087.000000
1456.819092 45467.000000
1458.437012 46688.000000
1460.054321 46777.000000
1461.670654 46866.000000
1463.285767 45106.000000
1464.900024 46141.000000
1466.513428 47096.000000
1468.125732 46720.000000
1469.737183 46064.000000
1471.347778 45981.000000
1472.957153 46349.000000
1474.565552 46363.000000
1476.173096 46123.000000
1477.779663 45640.000000
1479.385498 47018.000000
1480.990112 45914.000000
1482.593872 46673.000000
1484.196411 45385.000000
1485.798340 46565.000000
1487.399048 46583.000000
1488.999023 46464.000000
1490.597900 45821.000000
1492.195923 45610.000000
1493.792847 45501.000000
1495.388916 45814.000000
1496.984009 46121.000000
1498.578125 46627.000000
1500.171509 45548.000000
1501.763794 46645.000000
1503.354858 45993.000000
1504.945435 45431.000000
1506.534668 45607.000000
1508.123291 45897.000000
1509.710815 45407.000000
1511.297241 45182.000000
1512.882935 45846.000000
1514.467529 45430.000000
1516.051270 45809.000000
1517.633911 45730.000000
1519.215820 45300.000000
1520.796631 45159.000000
1522.376709 45767.000000
1523.955566 45627.000000
1525.533569 45452.000000
1527.110840 45520.000000
1528.686890 46069.000000
1530.262207 45835.000000
1531.836426 45342.000000
1533.409912 46288.000000
1534.982178 45777.000000
1536.553711 45283.000000
1538.124268 45211.000000
1539.693970 45371.000000
1541.262451 46264.000000
1542.830200 45062.000000
1544.397095 45946.000000
1545.962769 44801.000000
1547.527710 45591.000000
1549.091553 46607.000000
1550.654785 44155.000000
1552.216675 45335.000000
1553.777954 45615.000000
1555.338135 45810.000000
1556.897583 45757.000000
1558.455933 45505.000000
1560.013550 45345.000000
1561.570068 44554.000000
1563.125366 45652.000000
1564.680054 45251.000000
1566.234009 45978.000000
1567.786987 45255.000000
1569.338623 45852.000000
1570.889526 45772.000000
1572.439697 45407.000000
1573.988892 45245.000000
1575.536743 45855.000000
1577.084106 45972.000000
1578.630493 45840.000000
1580.176025 46489.000000
1581.720581 44898.000000
1583.263916 45238.000000
1584.806641 44996.000000
1586.348511 45105.000000
1587.889282 44849.000000
1589.429077 45751.000000
1590.968140 44896.000000
1592.506104 45556.000000
1594.043579 45297.000000
1595.579712 45567.000000
1597.114746 44819.000000
1598.649292 45184.000000
1600.182861 45473.000000
1601.715576 45361.000000
1603.246704 45183.000000
1604.777588 45199.000000
1606.307617 45628.000000
1607.836426 45247.000000
1609.364136 45251.000000
1610.891235 45373.000000
1612.417603 45534.000000
1613.942993 45136.000000
1615.467529 45525.000000
1616.990723 45582.000000
1618.513184 45737.000000
1620.034912 44755.000000
1621.555786 44296.000000
1623.075195 35753.000000
1624.594116 45100.000000
1626.112305 45091.000000
1627.629639 45106.000000
1629.145874 44636.000000
1630.660767 43961.000000
1632.175171 44247.000000
1633.688843 45203.000000
1635.201416 44084.000000
1636.712769 45023.000000
1638.223755 44418.000000
1639.733643 44523.000000
1641.242676 44598.000000
1642.750366 45061.000000
1644.257690 44585.000000
1645.764160 43499.000000
1647.269653 44310.000000
1648.774292 43736.000000
1650.277466 44377.000000
1651.780029 43822.000000
1653.282227 44021.000000
1654.783081 43713.000000
1656.282837 42751.000000
1657.781738 44238.000000
1659.280273 43671.000000
1660.777588 43846.000000
1662.274170 44106.000000
1663.769165 43586.000000
1665.263916 43580.000000
1666.757813 44650.000000
1668.250732 44169.000000
1669.742310 43772.000000
1671.233398 43375.000000
1672.723877 43427.000000
1674.213257 43376.000000
1675.701172 42357.000000
1677.188843 42422.000000
1678.675537 43174.000000
1680.161377 43818.000000
1681.646362 43117.000000
1683.129883 42951.000000
1684.613159 42824.000000
1686.095581 43213.000000
1687.576904 42792.000000
1689.056763 42806.000000
1690.536377 43534.000000
1692.015259 42371.000000
1693.493164 43019.000000
1694.970093 42800.000000
1696.445801 43244.000000
1697.921143 42949.000000
1699.395264 42654.000000
1700.868774 43542.000000
1702.340820 43433.000000
1703.812622 42156.000000
1705.283447 42577.000000
1706.753418 41904.000000
1708.222046 43833.000000
1709.690186 43082.000000
1711.157593 42616.000000
1712.623901 43466.000000
1714.089600 43208.000000
1715.553589 42810.000000
1717.017456 43000.000000
1718.480469 42003.000000
1719.942505 42529.000000
1721.403320 42188.000000
1722.863525 43320.000000
1724.322998 43163.000000
1725.781616 42650.000000
1727.239258 42722.000000
1728.695557 42468.000000
1730.151611 42565.000000
1731.606689 42170.000000
1733.060791 42616.000000
1734.513672 41720.000000
1735.966309 42564.000000
1737.417847 41510.000000
1738.868652 42373.000000
1740.318481 41644.000000
1741.766968 42273.000000
1743.215088 40687.000000
1744.662354 41457.000000
1746.108887 41207.000000
1747.553833 41061.000000
1748.998535 41545.000000
1750.442383 41705.000000
1751.885376 42007.000000
1753.326904 40929.000000
1754.768188 41010.000000
1756.208618 40866.500000
1757.648071 40723.000000
1759.086548 40842.000000
1760.524048 39909.000000
1761.961060 38433.000000
1763.397095 40028.000000
1764.832275 38549.000000
1766.265991 39376.000000
1767.699585 39074.000000
1769.132202 38653.000000
1770.563965 39328.000000
1771.994873 39218.000000
1773.424561 38505.000000
1774.853516 38405.000000
1776.281982 38114.000000
1777.709473 37580.000000
1779.135620 37944.000000
1780.561523 38641.000000
1781.986328 37387.000000
1783.410522 38655.000000
1784.833252 37564.000000
1786.255493 37608.000000
1787.677002 37222.000000
1789.097778 38117.000000
1790.517578 37770.000000
1791.936035 37696.000000
1793.354004 36904.000000
1794.771362 38296.000000
1796.187866 37715.000000
1797.602905 37315.000000
1799.017578 37940.000000
1800.431641 37204.000000
1801.844482 37835.000000
1803.256714 36814.000000
1804.667603 36723.000000
1806.078003 36051.000000
1807.487671 37264.000000
1808.896362 37654.000000
1810.303955 38232.000000
1811.711060 37278.000000
1813.117310 37338.000000
1814.522583 36928.000000
1815.926758 37681.000000
1817.330566 37677.000000
1818.733398 37355.000000
1820.135376 37593.000000
1821.536743 37675.000000
1822.936646 37155.000000
1824.335938 37154.000000
1825.734741 36975.000000
1827.132690 36037.000000
1828.529297 37630.000000
1829.925293 36511.000000
1831.320557 37404.000000
1832.715210 35117.000000
1834.108887 37201.000000
1835.501221 36196.000000
1836.893066 36542.000000
1838.284302 36969.000000
1839.674561 35707.000000
1841.063599 36697.000000
1842.452271 36437.000000
1843.839966 36477.000000
1845.226929 36547.000000
1846.612549 35449.000000
1847.997925 36243.000000
1849.382446 35671.000000
1850.766235 35570.000000
1852.148926 35374.000000
1853.530396 36146.000000
1854.911377 34917.000000
1856.291870 35109.000000
1857.671387 35519.000000
1859.049438 35313.000000
1860.427368 34956.000000
1861.804321 33238.000000
1863.180542 34647.000000
1864.555908 34357.000000
1865.929810 34550.000000
1867.303589 34420.000000
1868.676514 33860.000000
1870.048340 34030.000000
1871.419189 32946.000000
1872.789673 34281.000000
1874.159058 33687.000000
1875.527954 33581.000000
1876.895264 32640.000000
1878.262451 33600.000000
1879.628662 33466.000000
1880.994141 32793.000000
1882.358887 32153.000000
1883.722046 32573.000000
1885.085083 32217.000000
1886.447266 32663.000000
1887.808594 32329.000000
1889.168579 33050.000000
1890.528198 32934.000000
1891.887207 32682.000000
1893.245239 32173.000000
1894.602417 31554.000000
1895.958374 32740.000000
1897.314087 31052.000000
1898.668823 32721.000000
1900.022705 32978.000000
1901.375488 32684.000000
1902.727783 32813.000000
1904.079346 32932.000000
1905.430054 32110.000000
1906.779541 32368.000000
1908.128540 32251.000000
1909.476685 33001.000000
1910.824219 32676.000000
1912.171021 32517.000000
1913.516235 32119.000000
1914.861206 32809.000000
1916.205444 33514.000000
1917.548828 32540.000000
1918.890869 33058.000000
1920.232666 32383.000000
1921.573608 32027.000000
1922.913818 32744.000000
1924.253052 32565.000000
1925.591309 32605.000000
1926.928955 32409.000000
1928.265869 31761.000000
1929.601929 31953.000000
1930.936768 32791.000000
1932.271240 31602.000000
1933.604980 30977.000000
1934.937866 31711.000000
1936.269287 32005.000000
1937.600830 31357.000000
1938.931030 31047.000000
1940.260742 31721.000000
1941.589600 31358.000000
1942.917236 31590.000000
1944.244385 32329.000000
1945.570801 31627.000000
1946.896484 31001.000000
1948.220825 31652.000000
1949.544922 30823.000000
1950.868164 30935.000000
1952.190674 30770.000000
1953.512085 31282.000000
1954.832520 29684.000000
1956.152344 30798.000000
1957.471802 31049.000000
1958.790283 29769.000000
1960.107422 30517.000000
1961.424194 30436.000000
1962.740234 29652.000000
1964.055542 29682.000000
1965.369385 29758.000000
1966.682983 30293.000000
1967.995850 29625.000000
1969.307861 29833.000000
1970.619263 29652.000000
1971.929321 29304.000000
1973.238892 29606.000000
1974.547729 29186.000000
1975.855957 28790.000000
1977.162842 29269.000000
1978.469116 27977.000000
1979.775024 29569.000000
1981.079712 28641.000000
1982.383911 29072.000000
1983.686890 29114.000000
1984.989502 27217.000000
1986.291138 28426.000000
1987.592163 27526.000000
1988.891602 27941.000000
1990.191162 27227.000000
1991.489624 28415.000000
1992.787598 27524.000000
1994.083984 27427.000000
1995.380371 27715.000000
1996.675781 27834.000000
1997.970459 26891.000000
1999.264282 27680.000000
2000.556885 26871.000000
2001.848999 27714.000000
2003.140625 26264.000000
2004.431519 26881.000000
2005.720825 26992.000000
2007.009888 26430.000000
2008.298218 27005.000000
2009.585815 26903.000000
2010.872559 26265.000000
2012.158203 26968.000000
2013.443481 26316.000000
2014.727783 26711.000000
2016.011475 26874.000000
2017.293823 26583.000000
2018.575806 26313.000000
2019.857300 26040.000000
2021.137817 26674.000000
2022.417603 26504.000000
2023.696289 25827.000000
2024.974243 26598.000000
2026.251709 26617.000000
2027.528564 26464.000000
2028.803711 26980.000000
2030.078979 26386.000000
2031.353271 26908.000000
2032.626587 27035.000000
2033.899048 27072.000000
2035.171143 26972.000000
2036.442139 26284.000000
2037.712891 26444.000000
2038.982300 26918.000000
2040.250610 26227.000000
2041.518921 26221.000000
2042.786255 26409.000000
2044.052856 26287.000000
2045.318237 26559.000000
2046.583008 26534.000000
2047.847534 26693.000000
2049.110840 26346.000000
2050.373779 25975.000000
2051.634766 26101.000000
2052.896240 25960.000000
2054.156494 26077.000000
2055.416016 25652.000000
2056.674805 25878.000000
2057.932617 25226.000000
2059.189941 25656.000000
2060.446533 25662.000000
2061.701660 25192.000000
2062.956787 25748.000000
2064.210938 25759.000000
2065.464355 25772.000000
2066.717041 24948.000000
2067.968506 25217.000000
2069.219727 25036.000000
2070.470215 25534.000000
2071.719971 25732.000000
2072.968262 24905.000000
2074.216553 25033.000000
2075.463867 24109.000000
2076.710449 25100.000000
2077.956299 24995.000000
2079.200928 24410.000000
2080.445068 23710.000000
2081.688721 24690.000000
2082.931396 24561.000000
2084.172852 23830.000000
2085.414063 24381.000000
2086.654785 24143.000000
2087.894531 23948.000000
2089.133057 23665.000000
2090.371094 23833.000000
2091.608398 23874.000000
2092.845459 23535.000000
2094.081055 23797.000000
2095.315918 23651.000000
2096.550537 23641.000000
2097.784180 23877.000000
2099.016846 23502.000000
2100.248779 23161.000000
2101.480225 23337.000000
2102.710693 23026.000000
2103.940430 23282.000000
2105.169922 23064.000000
2106.397461 23105.000000
2107.625244 22674.000000
2108.852295 22447.000000
2110.078369 22617.000000
2111.302979 22612.000000
2112.527832 22295.000000
2113.751465 22268.000000
2114.974609 22654.000000
2116.196533 22046.000000
2117.418213 22683.000000
2118.638916 22386.000000
2119.858887 22711.000000
2121.078369 22904.000000
2122.296387 22880.000000
2123.514404 22486.000000
2124.731445 22887.000000
2125.947998 22947.000000
2127.162842 22701.000000
2128.377930 22736.000000
2129.592041 22473.000000
2130.805420 22426.000000
2132.018066 22103.000000
2133.229248 22573.000000
2134.440674 22628.000000
2135.650879 22123.000000
2136.860596 22540.000000
2138.068848 22490.000000
2139.277100 22706.000000
2140.484619 22445.000000
2141.690918 21622.000000
2142.896484 22115.000000
2144.101807 21993.000000
2145.306152 22188.000000
2146.509766 21981.000000
2147.712891 21940.000000
2148.914551 21974.000000
2150.115967 22154.000000
2151.316650 21956.000000
2152.516602 21986.000000
2153.715332 22068.000000
2154.913818 21887.000000
2156.111816 21869.000000
2157.308838 21527.000000
2158.505127 21409.000000
2159.700195 21332.000000
2160.895020 21007.000000
2162.089111 20794.000000
2163.282227 20777.000000
2164.474365 20471.000000
2165.666260 20681.000000
2166.857422 20613.000000
2168.047607 20401.000000
2169.237061 20297.000000
2170.426025 20046.000000
2171.614014 19991.000000
2172.801758 19742.000000
2173.988037 19553.000000
2175.173584 19609.000000
2176.358887 19515.000000
2177.543701 19475.000000
2178.727295 19491.000000
2179.910156 19313.000000
2181.092041 19451.000000
2182.273682 19477.000000
2183.454834 19451.000000
2184.634766 19482.000000
2185.813721 19362.000000
2186.992188 19054.000000
2188.170410 19077.000000
2189.347412 19214.000000
2190.523438 19119.000000
2191.699219 19175.000000
2192.874512 19345.000000
2194.048340 19090.000000
2195.221680 19204.000000
2196.394775 19082.000000
2197.566650 19329.000000
2198.738037 19403.000000
2199.908936 19208.000000
2201.078125 19292.000000
2202.247314 19237.000000
2203.416016 19265.000000
2204.583740 19363.000000
2205.750488 19336.000000
2206.916504 19104.000000
2208.082031 19174.000000
2209.247314 19299.000000
2210.411133 19077.000000
2211.574463 19349.000000
2212.736572 18972.000000
2213.898926 19113.000000
2215.060059 18997.000000
2216.220215 18926.000000
2217.379883 18830.000000
2218.539307 18709.000000
2219.697510 18579.000000
2220.854736 18607.000000
2222.011719 18668.000000
2223.167969 18435.000000
2224.323486 18581.000000
2225.478271 18430.000000
2226.632080 18382.000000
2227.784912 18248.000000
2228.938232 18014.000000
2230.089600 18290.000000
2231.240723 18195.000000
2232.391113 18061.000000
2233.541016 17847.000000
2234.689941 18129.000000
2235.838379 17935.000000
2236.985352 17895.000000
2238.132568 17590.000000
2239.278564 17478.000000
2240.424316 17534.000000
2241.568359 17274.000000
2242.712646 17183.000000
2243.855957 17027.000000
2244.998535 17120.000000
2246.140137 17047.000000
2247.281494 16952.000000
2248.421875 16917.000000
2249.561523 16654.000000
2250.700684 16572.000000
2251.838623 16754.000000
2252.976563 16425.000000
2254.113525 16574.000000
2255.249756 16508.000000
2256.385010 16463.000000
2257.519531 16320.000000
2258.653809 16394.000000
2259.787598 16776.000000
2260.919922 17027.000000
2262.051758 16515.000000
2263.183105 16233.000000
2264.313477 15908.000000
2265.443604 15752.000000
2266.572510 15739.000000
2267.700928 15650.000000
2268.828857 15566.000000
2269.955811 15617.000000
2271.082031 15621.000000
2272.207275 15625.000000
2273.332520 15731.000000
2274.457031 15636.000000
2275.580322 15719.000000
2276.702881 15714.000000
2277.824951 15658.000000
2278.946533 15589.000000
2280.067383 15556.000000
2281.187012 15675.000000
2282.306152 15495.000000
2283.425049 15240.000000
2284.543213 15146.000000
2285.660400 15337.000000
2286.776611 15074.000000
2287.892578 15166.000000
2289.007813 15320.000000
2290.122314 15507.000000
2291.235596 15637.000000
2292.348877 15468.000000
2293.461426 15439.000000
2294.573242 15512.000000
2295.684326 15514.000000
2296.794189 15485.000000
2297.903564 15515.000000
2299.012695 15689.000000
2300.120850 15668.000000
2301.228027 15596.000000
2302.334961 15563.000000
2303.441162 15515.000000
2304.546875 15558.000000
2305.651123 15433.000000
2306.755127 15512.000000
2307.858643 15458.000000
2308.961670 15186.000000
2310.063477 15145.000000
2311.164551 15142.000000
2312.265137 15036.000000
2313.365234 15100.000000
2314.464600 15048.000000
2315.562500 14898.000000
2316.660889 14868.000000
2317.757813 14881.000000
2318.854492 14887.000000
2319.950684 14880.000000
2321.045166 14668.000000
2322.139648 14457.000000
2323.233398 14590.000000
2324.326904 14439.000000
2325.418701 14392.000000
2326.510498 14461.000000
2327.601563 14623.000000
2328.691895 14384.000000
2329.781250 14510.000000
2330.870605 14440.000000
2331.958740 14450.000000
2333.046387 14399.000000
2334.133789 14348.000000
2335.219482 14420.000000
2336.304932 14069.000000
2337.390137 14099.000000
2338.474365 13926.000000
2339.557617 13847.000000
2340.640625 13871.000000
2341.722656 13734.000000
2342.804443 13633.000000
2343.885498 13593.000000
2344.965332 13487.000000
2346.044678 13642.000000
2347.123535 13433.000000
2348.201904 13393.000000
2349.278809 13323.000000
2350.355469 13321.000000
2351.431885 13212.000000
2352.507324 13249.000000
2353.581787 13306.000000
2354.656006 13157.000000
2355.729492 13055.000000
2356.802490 12772.000000
2357.874268 12937.000000
2358.945801 12827.000000
2360.016357 12801.000000
2361.086670 12859.000000
2362.156006 12609.000000
2363.224365 12626.000000
2364.292480 12622.000000
2365.359863 12529.000000
2366.426758 12539.000000
2367.492920 12511.000000
2368.557861 12183.000000
2369.622803 12244.000000
2370.687012 12302.000000
2371.750488 12230.000000
2372.812744 12394.000000
2373.875000 12279.000000
2374.936279 12161.000000
2375.997314 12207.000000
2377.057129 12160.000000
2378.116211 12143.000000
2379.175293 12146.000000
2380.233398 12186.000000
2381.290771 12290.000000
2382.347168 12153.000000
2383.403320 12150.000000
2384.458984 12147.000000
2385.513916 12112.000000
2386.567383 12017.000000
2387.621094 11878.000000
2388.673828 12019.000000
2389.726074 12117.000000
2390.777588 12176.000000
2391.828125 12158.000000
2392.878418 12244.000000
2393.927734 12011.000000
2394.977051 12133.000000
2396.024902 11908.000000
2397.072266 11957.000000
2398.119385 11957.000000
2399.165527 12010.000000
2400.210938 11846.000000
2401.255615 11864.000000
2402.300293 11855.000000
2403.343506 11734.000000
2404.386719 11747.000000
2405.428467 11913.000000
2406.470459 11852.000000
2407.511719 11881.000000
2408.552002 11904.000000
2409.591553 11982.000000
2410.630127 11946.000000
2411.668945 11752.000000
2412.706543 11807.000000
2413.743896 11928.000000
2414.780029 11741.000000
2415.815918 11744.000000
2416.851074 11648.000000
2417.885742 11695.000000
2418.918945 11760.000000
2419.952393 11681.000000
2420.984863 11584.000000
2422.017090 11564.000000
2423.047852 11450.000000
2424.078613 11491.000000
2425.108887 11490.000000
2426.137939 11388.000000
2427.166992 11299.000000
2428.194336 11239.000000
2429.222168 11174.000000
2430.248779 11140.000000
2431.275146 11160.000000
2432.300049 10934.000000
2433.325195 10965.000000
2434.349365 10956.000000
2435.373291 10956.000000
2436.395996 10743.000000
2437.417969 10868.000000
2438.439697 10917.000000
2439.460693 10713.000000
2440.481201 10713.000000
2441.500488 10559.000000
2442.519775 10443.000000
2443.538086 10394.000000
2444.556152 10395.000000
2445.572754 10282.000000
2446.589355 10410.000000
2447.605225 10335.000000
2448.621094 10268.000000
2449.635498 10263.000000
2450.649170 10287.000000
2451.662354 10200.000000
2452.675293 10206.000000
2453.687500 10148.000000
2454.698730 10110.000000
2455.709717 10174.000000
2456.719971 10104.000000
2457.729736 10028.000000
2458.738525 9885.000000
2459.746582 9972.000000
2460.754639 9832.000000
2461.761475 9832.000000
2462.768066 9756.000000
2463.773438 9561.000000
2464.778564 9503.000000
2465.783447 9465.000000
2466.787109 9656.000000
2467.790527 9588.000000
2468.792969 9667.000000
2469.795166 9825.000000
2470.796875 9786.000000
2471.797607 9587.000000
2472.797363 9736.000000
2473.797119 9490.000000
2474.795898 9574.000000
2475.794189 9497.000000
2476.791504 9494.000000
2477.788574 9548.000000
2478.785645 9509.000000
2479.781250 9476.000000
2480.776855 9410.000000
2481.770752 9407.000000
2482.764648 9332.000000
2483.758057 9401.000000
2484.750977 9347.000000
2485.742920 9456.000000
2486.734131 9367.000000
2487.725098 9423.000000
2488.715576 9329.000000
2489.705078 9426.000000
2490.693848 9432.000000
2491.682617 9483.000000
2492.670410 9502.000000
2493.656982 9349.000000
2494.643555 9344.000000
2495.629639 9388.000000
2496.614990 9322.000000
2497.599365 9272.000000
2498.583496 9286.000000
2499.567627 9388.000000
2500.550293 9329.000000
2501.532471 9232.000000
2502.514160 9204.000000
2503.495117 9172.000000
2504.475586 9312.000000
2505.455811 9178.000000
2506.434570 9235.000000
2507.413086 9116.000000
2508.391113 9111.000000
2509.368652 8936.000000
2510.345215 9148.000000
2511.321533 9050.000000
2512.297119 9219.000000
2513.272217 9033.000000
2514.246826 9048.000000
2515.220215 8933.000000
2516.193359 8972.000000
2517.166260 8950.000000
2518.138184 8966.000000
2519.109375 8724.000000
2520.080078 8690.000000
2521.050537 8640.000000
2522.020264 8644.000000
2522.989014 8708.000000
2523.957031 8548.000000
2524.925049 8513.000000
2525.892090 8600.000000
2526.858887 8488.000000
2527.824463 8469.000000
2528.790039 8536.000000
2529.754883 8470.000000
2530.719238 8332.000000
2531.682373 8232.000000
2532.645752 8375.000000
2533.608154 8408.000000
2534.570313 8260.000000
2535.531250 8279.000000
2536.491455 8541.000000
2537.451904 8355.000000
2538.411377 8427.000000
2539.370117 8460.000000
2540.327881 8365.000000
2541.285889 8263.000000
2542.243164 8010.000000
2543.199463 8133.000000
2544.155518 8045.000000
2545.110352 8042.000000
2546.065430 7877.000000
2547.019775 7929.000000
2547.973389 7838.000000
2548.926025 7834.000000
2549.878418 7855.000000
2550.830322 7766.000000
2551.781494 7845.000000
2552.731934 7881.000000
2553.681885 7760.000000
2554.631592 7855.000000
2555.580566 7811.000000
2556.529053 7783.000000
2557.476318 7677.000000
2558.423584 7605.000000
2559.370117 7470.000000
2560.316162 7694.000000
2561.261230 7530.000000
2562.206055 7535.000000
2563.150391 7494.000000
2564.094238 7499.000000
2565.037598 7504.000000
2565.979492 7516.000000
2566.921631 7382.000000
2567.863037 7449.000000
2568.803711 7286.000000
2569.743652 7367.000000
2570.683594 7524.000000
2571.622559 7372.000000
2572.561279 7351.000000
2573.499023 7291.000000
2574.436523 7350.000000
2575.373291 7392.000000
2576.309326 7432.000000
2577.244873 7466.000000
2578.179688 7509.000000
2579.114502 7465.000000
2580.048340 7467.000000
2580.981689 7296.000000
2581.914307 7292.000000
2582.846680 7315.000000
2583.778320 7210.000000
2584.709473 7154.000000
2585.640137 7224.000000
2586.569580 7248.000000
2587.499023 7193.000000
2588.427979 7236.000000
2589.356689 7192.000000
2590.283691 7219.000000
2591.210938 7081.000000
2592.137695 7118.000000
2593.063721 7212.000000
2593.989502 7157.000000
2594.914063 7042.000000
2595.838379 7095.000000
2596.762207 7104.000000
2597.685547 7128.000000
2598.607910 7249.000000
2599.530029 7108.000000
2600.451660 7042.000000
2601.372559 7024.000000
2602.292725 7093.000000
2603.212646 6949.000000
2604.132080 7008.000000
2605.051270 7013.000000
2605.969482 6920.000000
2606.886475 6958.000000
2607.803711 6959.000000
2608.720703 6816.000000
2609.636719 6726.000000
2610.551514 6832.000000
2611.466797 6852.000000
2612.381348 6810.000000
2613.294922 6857.000000
2614.208496 6735.000000
2615.120850 6560.000000
2616.033203 6869.000000
2616.944580 6672.000000
2617.855713 6694.000000
2618.766113 6490.000000
2619.676270 6640.000000
2620.585693 6550.000000
2621.494629 6527.000000
2622.402588 6564.000000
2623.310791 6588.000000
2624.218018 6523.000000
2625.124756 6469.000000
2626.030762 6545.000000
2626.936523 6431.000000
2627.841553 6252.000000
2628.746338 6387.000000
2629.650391 6347.000000
2630.553467 6283.000000
2631.456543 6269.000000
2632.358643 6307.000000
2633.260742 6153.000000
2634.162598 6255.000000
2635.062744 6235.000000
2635.963135 6246.000000
2636.862793 6286.000000
2637.762207 6193.000000
2638.660156 6221.000000
2639.558594 6110.000000
2640.456543 6061.000000
2641.353760 6023.000000
2642.249756 6030.000000
2643.145752 5847.000000
2644.041504 6000.000000
2644.936523 5870.000000
2645.831299 5971.000000
2646.724609 6015.000000
2647.617920 5743.000000
2648.510986 5832.000000
2649.403809 5864.000000
2650.294922 5951.000000
2651.186279 5897.000000
2652.077148 5711.000000
2652.967285 5772.000000
2653.857178 5688.000000
2654.745850 5854.000000
2655.634766 5765.000000
2656.523193 5827.000000
2657.410645 5743.000000
2658.297119 5709.000000
2659.184082 5619.000000
2660.070313 5574.000000
2660.956055 5634.000000
2661.840576 5689.000000
2662.725098 5675.000000
2663.609375 5623.000000
2664.492920 5523.000000
2665.375977 5536.000000
2666.258301 5543.000000
2667.140137 5681.000000
2668.021240 5683.000000
2668.902588 5726.000000
2669.782471 5700.000000
2670.662598 5701.000000
2671.541992 5646.000000
2672.421387 5585.000000
2673.300049 5684.000000
2674.177002 5711.000000
2675.054688 5637.000000
2675.931641 5520.000000
2676.807861 5503.000000
2677.683594 5496.000000
2678.558594 5599.000000
2679.433838 5466.000000
2680.308105 5509.000000
2681.181885 5466.000000
2682.054932 5440.000000
2682.927734 5377.000000
2683.800293 5373.000000
2684.672119 5353.000000
2685.543213 5376.000000
2686.414063 5380.000000
2687.284424 5301.000000
2688.154541 5293.000000
2689.022949 5359.000000
2689.892090 5256.000000
2690.760498 5289.000000
2691.628662 5297.000000
2692.496094 5131.000000
2693.362305 5233.000000
2694.229004 5208.000000
2695.094727 5199.000000
2695.960449 5206.000000
2696.824707 5089.000000
2697.689697 5175.000000
2698.553223 5053.000000
2699.416992 5037.000000
2700.279297 5104.000000
2701.142090 5069.000000
2702.003906 4974.000000
2702.865234 5130.000000
2703.726563 5111.000000
2704.586670 4909.000000
2705.446777 5025.000000
2706.306396 5012.000000
2707.165771 4899.000000
2708.023438 4867.000000
2708.881348 4863.000000
2709.739746 4746.000000
2710.596924 4832.000000
2711.453369 4877.000000
2712.309326 4715.000000
2713.165283 4801.000000
2714.020508 4776.000000
2714.875000 4784.000000
2715.729004 4757.000000
2716.583008 4637.000000
2717.436035 4766.000000
2718.289307 4540.000000
2719.140869 4700.000000
2719.992920 4645.000000
2720.844727 4597.000000
2721.695313 4604.000000
2722.545898 4604.000000
2723.395996 4569.000000
2724.245361 4546.000000
2725.094727 4543.000000
2725.942871 4460.000000
2726.790527 4523.000000
2727.638672 4545.000000
2728.485596 4507.000000
2729.333008 4538.000000
2730.178955 4572.000000
2731.024170 4509.000000
2731.869873 4454.000000
2732.714600 4475.000000
2733.559326 4500.000000
2734.402832 4441.000000
2735.246582 4569.000000
2736.089600 4668.000000
2736.932129 4370.000000
2737.773682 4356.000000
2738.615723 4566.000000
2739.456787 4462.000000
2740.297607 4536.000000
2741.138184 4393.000000
2741.977539 4329.000000
2742.816895 4428.000000
2743.656250 4333.000000
2744.494385 4416.000000
2745.332031 4386.000000
2746.169678 4530.000000
2747.006836 4404.000000
2747.843750 4341.000000
2748.680176 4351.000000
2749.515381 4315.000000
2750.350830 4245.000000
2751.185791 4405.000000
2752.020020 4306.000000
2752.854004 4337.000000
2753.687500 4490.000000
2754.520996 4266.000000
2755.353516 4382.000000
2756.185547 4207.000000
2757.017090 4254.000000
2757.848633 4368.000000
2758.679199 4339.000000
2759.510010 4208.000000
2760.339600 4262.000000
2761.169189 4261.000000
2761.998535 4193.000000
2762.827148 4129.000000
2763.655273 4045.000000
2764.482910 4304.000000
2765.310547 4013.000000
2766.137695 4135.000000
2766.964111 4126.000000
2767.790039 4105.000000
2768.615479 4008.000000
2769.440674 3997.000000
2770.265869 3938.000000
2771.089844 3955.000000
2771.913818 3966.000000
2772.737793 4048.000000
2773.560547 4138.000000
2774.383545 4032.000000
2775.205322 3878.000000
2776.027100 3912.000000
2776.848877 3869.000000
2777.669678 3888.000000
2778.489746 3956.000000
2779.310059 3772.000000
2780.129883 3904.000000
2780.949707 3750.000000
2781.767578 3859.000000
2782.586670 3857.000000
2783.404541 3743.000000
2784.222168 3936.000000
2785.039307 3905.000000
2785.855957 3758.000000
2786.672363 3737.000000
2787.488281 3727.000000
2788.303955 3663.000000
2789.118652 3639.000000
2789.933838 3644.000000
2790.748291 3637.000000
2791.562256 3638.000000
2792.375977 3646.000000
2793.188477 3669.000000
2794.001221 3592.000000
2794.813477 3546.000000
2795.625244 3685.000000
2796.436279 3684.000000
2797.248047 3589.000000
2798.058594 3613.000000
2798.869141 3476.000000
2799.678223 3471.000000
2800.488037 3705.000000
2801.297119 3598.000000
2802.105957 3466.000000
2802.914307 3696.000000
2803.721680 3559.000000
2804.529541 3678.000000
2805.336670 3601.000000
2806.143555 3561.000000
2806.949219 3387.000000
2807.755371 3550.000000
2808.560791 3456.000000
2809.366211 3442.000000
2810.170898 3338.000000
2810.974609 3487.000000
2811.778809 3500.000000
2812.582520 3400.000000
2813.385986 3364.000000
2814.187988 3620.000000
2814.990723 3426.000000
2815.792725 3379.000000
2816.594482 3472.000000
2817.395752 3503.000000
2818.196533 3468.000000
2818.996826 3380.000000
2819.797363 3370.000000
2820.596924 3363.000000
2821.395996 3462.000000
2822.195068 3308.000000
2822.993896 3267.000000
2823.792236 3323.000000
2824.589600 3390.000000
2825.387207 3064.000000
2826.184082 3424.000000
2826.981201 3261.000000
2827.777588 3506.000000
2828.573242 3140.000000
2829.368896 3173.000000
2830.164307 3328.000000
2830.959229 3127.000000
2831.753418 3305.000000
2832.547607 3288.000000
2833.341553 3193.000000
2834.135010 3195.000000
2834.927734 3182.000000
2835.720215 3234.000000
2836.512695 3125.000000
2837.304932 3087.000000
2838.096680 3138.000000
2838.887451 3165.000000
2839.678223 2975.000000
2840.469238 3171.000000
2841.259277 3069.000000
2842.048828 3079.000000
2842.838623 3098.000000
2843.627441 2970.000000
2844.416260 3137.000000
2845.205078 3082.000000
2845.992920 2994.000000
2846.780273 3096.000000
2847.567871 3052.000000
2848.354980 3134.000000
2849.141357 2965.000000
2849.927734 3048.000000
2850.713867 3135.000000
2851.499512 2968.000000
2852.284180 2968.000000
2853.069336 2934.000000
2853.854248 2879.000000
2854.638428 2978.000000
2855.422607 2980.000000
2856.205566 3004.000000
2856.988770 2975.000000
2857.771729 2890.000000
2858.554199 2871.000000
2859.336426 2920.000000
2860.118164 2799.000000
2860.899658 2842.000000
2861.681396 2951.000000
2862.462402 2863.000000
2863.242676 2916.000000
2864.022705 2854.000000
2864.802734 2905.000000
2865.582520 2870.000000
2866.361328 2898.000000
2867.140381 2919.000000
2867.918945 2944.000000
2868.697266 2983.000000
2869.475098 2889.000000
2870.252686 2835.000000
2871.030029 2959.000000
2871.807129 2949.000000
2872.583740 2941.000000
2873.359863 3038.000000
2874.135986 3017.000000
2874.911621 2905.000000
2875.687012 2902.000000
2876.461914 2898.000000
2877.236572 2889.000000
2878.011230 2941.000000
2878.785645 2918.000000
2879.559326 2912.000000
2880.332275 2879.000000
2881.105957 2893.000000
2881.878662 2865.000000
2882.651367 2887.000000
2883.423340 2695.000000
2884.195068 2726.000000
2884.967285 2703.000000
2885.738281 2805.000000
2886.508789 2747.000000
2887.279785 2739.000000
2888.050781 2636.000000
2888.821045 2710.000000
2889.590332 2738.000000
2890.359863 2677.000000
2891.129395 2563.000000
2891.898438 2869.000000
2892.666992 2761.000000
2893.435547 2632.000000
2894.203125 2786.000000
2894.971191 2799.000000
2895.738770 2658.000000
2896.506348 2565.000000
2897.272705 2592.000000
2898.040039 2632.000000
2898.806152 2707.000000
2899.572510 2477.000000
2900.337402 2379.000000
2901.102783 2544.000000
2901.868652 2420.000000
2902.633057 2482.000000
2903.397461 2518.000000
2904.162109 2481.000000
2904.925781 2541.000000
2905.690186 2385.000000
2906.453857 2508.000000
2907.216797 2455.000000
2907.979492 2475.000000
2908.742676 2322.000000
2909.505371 2422.000000
2910.266846 2384.000000
2911.028809 2384.000000
spectrumdark 2048
-97.202080 6145.000000
-94.575211 6145.000000
-91.950218 6077.000000
-89.327118 6438.000000
-86.705887 5847.000000
-84.086555 6223.000000
-81.469086 6146.000000
-78.853493 6454.000000
-76.239777 6177.000000
-73.627937 5858.000000
-71.017960 6142.000000
-68.409866 6024.000000
-65.803619 5985.000000
-63.199245 5995.000000
-60.596737 6113.000000
-57.996082 5629.000000
-55.397289 6220.000000
-52.800354 6914.000000
-50.205273 6490.000000
-47.612045 6566.000000
-45.020668 6242.000000
-42.431137 6785.000000
-39.843449 5913.000000
-37.257610 6044.000000
-34.673615 6545.000000
-32.091457 5709.000000
-29.511143 6298.000000
-26.932659 5759.000000
-24.356014 6164.000000
-21.781197 6262.000000
-19.208221 6503.000000
-16.637062 6533.000000
-14.067739 6803.000000
-11.500241 7737.000000
-8.934562 6264.000000
-6.370708 6426.000000
-3.808667 6022.000000
-1.248451 5850.000000
1.309957 6190.000000
3.866544 6912.000000
6.421326 6704.000000
8.974291 6009.000000
11.525455 6813.000000
14.074807 6473.000000
16.622364 6588.000000
19.168106 6020.000000
21.712059 5735.000000
24.254204 6678.000000
26.794556 6807.000000
29.333118 6881.000000
31.869888 6208.000000
34.404854 5806.000000
36.938042 7209.000000
39.469448 6331.000000
41.999062 7143.000000
44.526878 6453.000000
47.052937 7905.000000
49.577206 5715.000000
52.099705 6247.000000
54.620407 6770.000000
57.139355 6330.000000
59.656528 6482.000000
62.171925 6647.000000
64.685539 5651.000000
67.197403 5781.000000
69.707520 6548.000000
72.215843 6609.000000
74.722412 5935.000000
77.227234 6394.000000
79.730301 6506.000000
82.231590 6256.000000
84.731140 6146.000000
87.228935 6363.000000
89.724998 5776.000000
92.219284 7200.000000
94.711830 5820.000000
97.202660 6981.000000
99.691719 7174.000000
102.179031 6356.000000
104.664619 6245.000000
107.148468 6372.000000
109.630569 5766.000000
112.110947 6569.000000
114.589600 6288.000000
117.066528 6479.000000
119.541702 7224.000000
122.015167 6773.000000
124.486900 5951.000000
126.956924 6780.000000
129.425201 6295.000000
131.891800 6340.000000
134.356644 5730.000000
136.819794 6211.000000
139.281204 7213.000000
141.740921 6883.000000
144.198914 6384.000000
146.655212 6000.000000
149.109802 5831.000000
151.562668 6887.000000
154.013855 6339.000000
156.463348 6576.000000
158.911118 6085.000000
161.357178 6618.000000
163.801559 8727.000000
166.244263 6347.000000
168.685272 6877.000000
171.124573 6254.000000
173.562164 7245.000000
175.998123 6638.000000
178.432343 6906.000000
180.864883 7194.000000
183.295776 6680.000000
185.724945 6750.000000
188.152466 6697.000000
190.578308 6356.000000
193.002472 6701.000000
195.424973 7160.000000
197.845779 7392.000000
200.264923 6535.000000
202.682404 6052.000000
205.098190 7615.000000
207.512329 7064.000000
209.924835 6384.000000
212.335663 6087.000000
214.744812 6308.000000
217.152328 7403.000000
219.558136 6197.000000
221.962357 6517.000000
224.364868 6675.000000
226.765762 6897.000000
229.165009 6507.000000
231.562592 6910.000000
233.958511 7315.000000
236.352814 6574.000000
238.745453 5887.000000
241.136475 6838.000000
243.525833 6569.000000
245.913574 6422.000000
248.299667 6968.000000
250.684128 6154.000000
253.066940 7836.000000
255.448181 6619.000000
257.827698 6689.000000
260.205658 6460.000000
262.581940 7536.000000
264.956665 7593.000000
267.329742 7887.000000
269.701172 6247.000000
272.070953 6481.000000
274.439178 5916.000000
276.805756 6347.000000
279.170746 6479.000000
281.534119 6046.000000
283.895844 6283.000000
286.255981 7133.000000
288.614502 6070.000000
290.971436 6506.000000
293.326752 6373.000000
295.680481 5951.000000
298.032562 5926.000000
300.383087 6292.000000
302.732025 6401.000000
305.079315 6871.000000
307.425079 6455.000000
309.769165 6524.000000
312.111725 7400.000000
314.452667 7559.000000
316.791992 7142.000000
319.129761 6959.000000
321.465973 8156.000000
323.800537 6276.000000
326.133545 6495.000000
328.464996 6056.000000
330.794861 6630.000000
333.123138 6348.000000
335.449799 7312.000000
337.774963 6426.000000
340.098511 6297.000000
342.420502 6048.000000
344.740936 7580.000000
347.059753 7720.000000
349.377014 5981.000000
351.692749 5866.000000
354.006897 7008.000000
356.319458 6360.000000
358.630463 6337.000000
360.939941 7062.000000
363.247894 6372.000000
365.554230 5689.000000
367.858978 6449.000000
370.162262 6475.000000
372.463928 6293.000000
374.764099 6392.000000
377.062714 6359.000000
379.359772 5726.000000
381.655273 6139.000000
383.949249 5807.000000
386.241638 5181.000000
388.532532 5610.000000
390.821899 6268.000000
393.109680 6254.000000
395.395935 6531.000000
397.680695 7010.000000
399.963837 6001.000000
402.245544 6476.000000
404.525726 6145.000000
406.804321 7303.000000
409.081390 6489.000000
411.356934 6718.000000
413.630951 6512.000000
415.903534 6443.000000
418.174500 6339.000000
420.443970 6419.000000
422.711945 7125.000000
424.978363 7209.000000
427.243286 6275.000000
429.506744 6347.000000
431.768616 6470.000000
434.029022 5983.000000
436.287872 6586.000000
438.545258 6102.000000
440.801147 5687.000000
443.055542 5828.000000
445.308411 5443.000000
447.559723 6992.000000
449.809631 6033.000000
452.057953 6327.000000
454.304840 5653.000000
456.550262 6479.000000
458.794128 6468.000000
461.036499 6859.000000
463.277374 5679.000000
465.516846 6822.000000
467.754730 5466.000000
469.991180 5924.000000
472.226105 6098.000000
474.459564 7262.000000
476.691589 6732.000000
478.922089 5728.000000
481.151093 6556.000000
483.378632 6284.000000
485.604675 6000.000000
487.829285 6557.000000
490.052429 5864.000000
492.274109 6405.000000
494.494232 6700.000000
496.712952 5716.000000
498.930176 6326.000000
501.146027 5580.000000
503.360260 6171.000000
505.573181 6464.000000
507.784515 6488.000000
509.994415 6913.000000
512.202881 6536.000000
514.409973 6607.000000
516.615479 6469.000000
518.819580 6632.000000
521.022156 6250.000000
523.223328 6584.000000
525.423157 6651.000000
527.621460 7051.000000
529.818237 5401.000000
532.013672 5816.000000
534.207581 5528.000000
536.400146 7506.000000
538.591187 6727.000000
540.780823 6051.000000
542.969055 6944.000000
545.155762 7084.000000
547.341003 6865.000000
549.524963 6295.000000
551.707336 6471.000000
553.888367 6220.000000
556.067871 6032.000000
558.246094 5887.000000
560.422791 6079.000000
562.598083 6431.000000
564.771973 6449.000000
566.944397 5940.000000
569.115417 6071.000000
571.284973 6287.000000
573.453247 5303.000000
575.619995 6446.000000
577.785278 6320.000000
579.949158 6155.000000
582.111755 5738.000000
584.272827 6054.000000
586.432495 5636.000000
588.590820 5817.000000
590.747620 6263.000000
592.903076 6584.000000
595.057129 5769.000000
597.209839 6112.000000
599.361023 7327.000000
601.510864 6807.000000
603.659363 6696.000000
605.806274 6059.000000
607.951965 6456.000000
610.096252 6407.000000
612.239075 7059.000000
614.380432 6172.000000
616.520569 6467.000000
618.659180 7625.000000
620.796509 5755.000000
622.932373 6595.000000
625.066833 6893.000000
627.199829 7223.000000
629.331665 6646.000000
631.462036 6546.000000
633.591003 6815.000000
635.718506 6511.000000
637.844727 6107.000000
639.969421 7316.000000
642.092896 6361.000000
644.215027 6799.000000
646.335693 6827.000000
648.455017 6595.000000
650.572937 5728.000000
652.689514 5735.000000
654.804688 6503.000000
656.918518 6523.000000
659.030884 5879.000000
661.142029 6156.000000
663.251770 5419.000000
665.360046 6643.000000
667.467163 6271.000000
669.572815 6871.000000
671.677002 5749.000000
673.779968 5695.000000
675.881531 6983.000000
677.981750 5447.000000
680.080566 6723.000000
682.178040 6314.000000
684.274231 6902.000000
686.368958 6263.000000
688.462463 7034.000000
690.554626 6626.000000
692.645264 7952.000000
694.734680 6640.000000
696.822815 6454.000000
698.909485 5968.000000
700.994934 6692.000000
703.078857 5141.000000
705.161560 5848.000000
707.242981 6028.000000
709.322937 7641.000000
711.401672 6380.000000
713.478943 5567.000000
715.554932 6661.000000
717.629639 6112.000000
719.703064 6863.000000
721.774963 6341.000000
723.845703 7442.000000
725.915100 5855.000000
727.983093 6529.000000
730.049744 6370.000000
732.115173 7103.000000
734.179260 5740.000000
736.242004 6215.000000
738.303406 6579.000000
740.363525 6629.000000
742.422241 6026.000000
744.479736 6660.000000
746.535950 6426.000000
748.590759 6703.000000
750.644287 6399.000000
752.696411 7413.000000
754.747314 5825.000000
756.796997 6640.000000
758.845215 6374.000000
760.892212 6171.000000
762.937927 6963.000000
764.982239 5342.000000
767.025269 5769.000000
769.067078 14988.000000
771.107544 6950.000000
773.146606 6311.000000
775.184509 6113.000000
777.221069 5994.000000
779.256409 5409.000000
781.290405 5764.000000
783.322998 6930.000000
785.354431 5550.000000
787.384460 12088.000000
789.413208 6018.000000
791.440796 6368.000000
793.467041 6405.000000
795.491882 5837.000000
797.515625 5649.000000
799.537964 6333.000000
801.559082 5921.000000
803.578857 6687.000000
805.597351 4887.000000
807.614624 6658.000000
809.630493 6802.000000
811.645203 5751.000000
813.658569 6478.000000
815.670715 6251.000000
817.681641 6085.000000
819.691223 6553.000000
821.699585 5350.000000
823.706543 5725.000000
825.712280 6031.000000
827.716797 5739.000000
829.720032 5683.000000
831.721985 6536.000000
833.722656 6090.000000
835.722107 5922.000000
837.720215 6379.000000
839.717224 7071.000000
841.712830 6197.000000
843.707275 6013.000000
845.700378 6245.000000
847.692261 6827.000000
849.682800 5615.000000
851.672058 6815.000000
853.660278 6011.000000
855.647095 5767.000000
857.632690 6466.000000
859.617004 7234.000000
861.600220 6319.000000
863.582031 6383.000000
865.562622 5882.000000
867.541931 7729.000000
869.520081 7093.000000
871.496887 6099.000000
873.472412 5971.000000
875.446899 6209.000000
877.419922 5999.000000
879.391907 5479.000000
881.362549 6410.000000
883.332031 6098.000000
885.300171 5610.000000
887.267151 5238.000000
889.232788 6070.000000
891.197266 5780.000000
893.160522 6012.000000
895.122559 6496.000000
897.083313 5804.000000
899.042847 6412.000000
901.001099 6748.000000
902.958252 6380.000000
904.914246 6036.000000
906.868835 6901.000000
908.822205 6493.000000
910.774414 6412.000000
912.725403 6361.000000
914.675110 7164.000000
916.623657 6354.000000
918.570984 6163.000000
920.517029 6148.000000
922.461792 6074.000000
924.405518 6333.000000
926.348083 5944.000000
928.289368 5582.000000
930.229309 6520.000000
932.168152 5741.000000
934.105713 5535.000000
936.042053 5977.000000
937.977234 5780.000000
939.911133 6128.000000
941.843933 5950.000000
943.775513 6795.000000
945.705933 5235.000000
947.635132 6457.000000
949.562988 6988.000000
951.489807 6620.000000
953.415344 6010.000000
955.339600 5402.000000
957.262756 5986.000000
959.184753 6693.000000
961.105469 7316.000000
963.025024 6429.000000
964.943420 5360.000000
966.860779 6440.000000
968.776672 6454.000000
970.691467 6137.000000
972.605042 6022.000000
974.517456 6425.000000
976.428650 6432.000000
978.338684 5497.000000
980.247437 6263.000000
982.155151 6132.000000
984.061646 6435.000000
985.966919 5704.000000
987.871094 6779.000000
989.774048 6150.000000
991.675781 6768.000000
993.576355 6563.000000
995.475769 6596.000000
997.373962 5263.000000
999.270996 6520.000000
1001.166809 6493.000000
1003.061462 7706.000000
1004.955017 5593.000000
1006.847290 7215.000000
1008.738647 6101.000000
1010.628662 5407.000000
1012.517456 6628.000000
1014.405090 6374.000000
1016.291565 6918.000000
1018.176880 6782.000000
1020.061035 5939.000000
1021.943970 5860.000000
1023.825867 6205.000000
1025.706543 5197.000000
1027.586060 5892.000000
1029.464600 6118.000000
1031.341797 5457.000000
1033.217651 6179.000000
1035.092529 5906.000000
1036.966431 6644.000000
1038.838867 7084.000000
1040.710327 6706.000000
1042.580444 5539.000000
1044.449585 5548.000000
1046.317505 5785.000000
1048.184326 7073.000000
1050.050049 6741.000000
1051.914551 6511.000000
1053.777954 6505.000000
1055.640015 6459.000000
1057.501099 5947.000000
1059.361084 6486.000000
1061.219727 6602.000000
1063.077271 5842.000000
1064.933716 6707.000000
1066.789063 5870.000000
1068.643188 5817.000000
1070.496460 6261.000000
1072.348267 6372.000000
1074.199097 6226.000000
1076.048706 6116.000000
1077.897095 5690.000000
1079.744629 7910.000000
1081.590820 5661.000000
1083.435791 6273.000000
1085.279907 5445.000000
1087.122681 5548.000000
1088.964233 6577.000000
1090.805054 5494.000000
1092.644287 5750.000000
1094.482788 6087.000000
1096.319946 6020.000000
1098.155884 6798.000000
1099.990845 6633.000000
1101.824585 5428.000000
1103.657349 5690.000000
1105.488770 6148.000000
1107.319336 7269.000000
1109.148560 6531.000000
1110.976807 6476.000000
1112.803833 7120.000000
1114.629883 5413.000000
1116.454712 6306.000000
1118.278442 7131.000000
1120.100952 6120.000000
1121.922363 5869.000000
1123.742920 5934.000000
1125.562012 6573.000000
1127.380249 7111.000000
1129.197144 6824.000000
1131.013184 6683.000000
1132.828003 6516.000000
1134.641724 5626.000000
1136.454346 5770.000000
1138.265747 5709.000000
1140.076172 6222.000000
1141.885498 6725.000000
1143.693481 6972.000000
1145.500732 5956.000000
1147.306519 5950.000000
1149.111450 5441.000000
1150.915283 5419.000000
1152.717896 6136.000000
1154.519653 6105.000000
1156.319946 6072.000000
1158.119263 6119.000000
1159.917603 5955.000000
1161.714600 5473.000000
1163.510864 5883.000000
1165.305786 6104.000000
1167.099609 6331.000000
1168.892578 7742.000000
1170.684204 5730.000000
1172.474854 6451.000000
1174.264526 6033.000000
1176.052734 5930.000000
1177.840088 7432.000000
1179.626343 6904.000000
1181.411499 5819.000000
1183.195557 5950.000000
1184.978516 7689.000000
1186.760498 5837.000000
1188.541260 5845.000000
1190.321045 6318.000000
1192.099731 6932.000000
1193.877441 6667.000000
1195.653931 7190.000000
1197.429321 6623.000000
1199.203613 6585.000000
1200.976807 6641.000000
1202.749146 6575.000000
1204.520142 6709.000000
1206.290283 5739.000000
1208.059204 6163.000000
1209.827026 6410.000000
1211.593994 5723.000000
1213.359619 5922.000000
1215.124268 6871.000000
1216.887817 6575.000000
1218.650269 5948.000000
1220.411865 6790.000000
1222.172241 5936.000000
1223.931519 6359.000000
1225.689941 6070.000000
1227.447144 7077.000000
1229.203247 6437.000000
1230.958252 5532.000000
1232.712402 6027.000000
1234.465210 5856.000000
1236.217041 5995.000000
1237.968018 5939.000000
1239.717651 4929.000000
1241.466431 6999.000000
1243.213867 6545.000000
1244.960571 6567.000000
1246.706055 6491.000000
1248.450684 6419.000000
1250.193970 6787.000000
1251.936279 6639.000000
1253.677490 5378.000000
1255.417847 5075.000000
1257.157104 5862.000000
1258.895142 6598.000000
1260.632324 7075.000000
1262.368286 6061.000000
1264.103271 6443.000000
1265.837280 7248.000000
1267.570313 5957.000000
1269.302124 6250.000000
1271.032959 6450.000000
1272.762573 7299.000000
1274.491333 5873.000000
1276.218994 5706.000000
1277.945557 5608.000000
1279.671265 5541.000000
1281.395630 6454.000000
1283.119141 5190.000000
1284.841675 6901.000000
1286.563232 6628.000000
1288.283569 6202.000000
1290.002930 6681.000000
1291.721191 7284.000000
1293.438477 6438.000000
1295.154785 5773.000000
1296.869873 6373.000000
1298.583984 6158.000000
1300.297119 5808.000000
1302.009399 6444.000000
1303.720459 8318.000000
1305.430542 5270.000000
1307.139526 6236.000000
1308.847290 6677.000000
1310.554443 7024.000000
1312.260132 5801.000000
1313.965088 6924.000000
1315.669067 6160.000000
1317.371826 5987.000000
1319.073608 6577.000000
1320.774536 5923.000000
1322.474121 9553.000000
1324.172852 7557.500000
1325.870850 5562.000000
1327.567505 6467.000000
1329.263062 7219.000000
1330.957764 6799.000000
1332.651245 5717.000000
1334.343872 5404.000000
1336.035645 7170.000000
1337.726074 6355.000000
1339.415771 6534.000000
1341.104370 6119.000000
1342.791870 7648.000000
1344.478394 5681.000000
1346.163818 6834.000000
1347.848267 5937.000000
1349.531860 7258.000000
1351.214233 6400.000000
1352.895630 5942.000000
1354.576172 6508.000000
1356.255493 6711.000000
1357.934204 5865.000000
1359.611572 6512.000000
1361.287842 5841.000000
1362.963135 5537.000000
1364.637695 6606.000000
1366.311035 6478.000000
1367.983398 6816.000000
1369.654785 5182.000000
1371.325195 6730.000000
1372.994507 6204.000000
1374.662842 5660.000000
1376.330322 6049.000000
1377.996704 6445.000000
1379.662109 6232.000000
1381.326538 5884.000000
1382.989746 5957.000000
1384.652344 5783.000000
1386.313599 6342.000000
1387.973999 6552.000000
1389.633301 6433.000000
1391.291626 6519.000000
1392.949219 6803.000000
1394.605591 6492.000000
1396.261108 7080.000000
1397.915405 6307.000000
1399.568848 5850.000000
1401.221191 6071.000000
1402.872803 6509.000000
1404.523193 7176.000000
1406.172485 6202.000000
1407.821045 7512.000000
1409.468506 7867.000000
1411.114990 6203.000000
1412.760620 6229.000000
1414.405273 6040.000000
1416.048706 6996.000000
1417.691284 7111.000000
1419.332764 6838.000000
1420.973389 6463.000000
1422.613037 6500.000000
1424.251587 6052.000000
1425.889282 6619.000000
1427.525879 6349.000000
1429.161499 5999.000000
1430.796387 6377.000000
1432.430176 5849.000000
1434.062866 6111.000000
1435.694580 5714.000000
1437.325439 6170.000000
1438.955200 6079.000000
1440.583862 7783.000000
1442.211914 5986.000000
1443.838867 6249.000000
1445.464600 6176.000000
1447.089722 6195.000000
1448.713745 6542.000000
1450.336792 6012.000000
1451.958862 6019.000000
1453.579834 7320.000000
1455.199829 6327.000000
1456.819092 6964.000000
1458.437012 5724.000000
1460.054321 5626.000000
1461.670654 5528.000000
1463.285767 7259.000000
1464.900024 6225.000000
1466.513428 5244.000000
1468.125732 5633.000000
1469.737183 6269.000000
1471.347778 6362.000000
1472.957153 5979.000000
1474.565552 5985.000000
1476.173096 6171.000000
1477.779663 6670.000000
1479.385498 5249.000000
1480.990112 6323.000000
1482.593872 5531.000000
1484.196411 6819.000000
1485.798340 5604.000000
1487.399048 5571.000000
1488.999023 5674.000000
1490.597900 6303.000000
1492.195923 6527.000000
1493.792847 6653.000000
1495.388916 6351.000000
1496.984009 6040.000000
1498.578125 5542.000000
1500.171509 6614.000000
1501.763794 5499.000000
1503.354858 6126.000000
1504.945435 6684.000000
1506.534668 6476.000000
1508.123291 6112.000000
1509.710815 6602.000000
1511.297241 6817.000000
1512.882935 6164.000000
1514.467529 6560.000000
1516.051270 6173.000000
1517.633911 6185.000000
1519.215820 6610.000000
1520.796631 6729.000000
1522.376709 6101.000000
1523.955566 6226.000000
1525.533569 6394.000000
1527.110840 6285.000000
1528.686890 5727.000000
1530.262207 5930.000000
1531.836426 6405.000000
1533.409912 5457.000000
1534.982178 5966.000000
1536.553711 6426.000000
1538.124268 6480.000000
1539.693970 6299.000000
1541.262451 5434.000000
1542.830200 6617.000000
1544.397095 5640.000000
1545.962769 6797.000000
1547.527710 5998.000000
1549.091553 5053.000000
1550.654785 7439.000000
1552.216675 6245.000000
1553.777954 5954.000000
1555.338135 5765.000000
1556.897583 5839.000000
1558.455933 6079.000000
1560.013550 6263.000000
1561.570068 7029.000000
1563.125366 5946.000000
1564.680054 6338.000000
1566.234009 5599.000000
1567.786987 6306.000000
1569.338623 5727.000000
1570.889526 5837.000000
1572.439697 6196.000000
1573.988892 6374.000000
1575.536743 5728.000000
1577.084106 5575.000000
1578.630493 5702.000000
1580.176025 5081.000000
1581.720581 6681.000000
1583.263916 6361.000000
1584.806641 6587.000000
1586.348511 6472.000000
1587.889282 6707.000000
1589.429077 5787.000000
1590.968140 6674.000000
1592.506104 5926.000000
1594.043579 6141.000000
1595.579712 5894.000000
1597.114746 6650.000000
1598.649292 6261.000000
1600.182861 5956.000000
1601.715576 6059.000000
1603.246704 6244.000000
1604.777588 6244.000000
1606.307617 5790.000000
1607.836426 6140.000000
1609.364136 6138.000000
1610.891235 5977.000000
1612.417603 5849.000000
1613.942993 6241.000000
1615.467529 5821.000000
1616.990723 5776.000000
1618.513184 5595.000000
1620.034912 6591.000000
1621.555786 7002.000000
1623.075195 15555.000000
1624.594116 6104.000000
1626.112305 6066.000000
1627.629639 5979.000000
1629.145874 6421.000000
1630.660767 7027.000000
1632.175171 6753.000000
1633.688843 5752.000000
1635.201416 6818.000000
1636.712769 5867.000000
1638.223755 6447.000000
1639.733643 6286.000000
1641.242676 6220.000000
1642.750366 5684.000000
1644.257690 6087.000000
1645.764160 7151.000000
1647.269653 6305.000000
1648.774292 6845.000000
1650.277466 6157.000000
1651.780029 6663.000000
1653.282227 6367.000000
1654.783081 6622.000000
1656.282837 7539.000000
1657.781738 5991.000000
1659.280273 6471.000000
1660.777588 6267.000000
1662.274170 5968.000000
1663.769165 6430.000000
1665.263916 6363.000000
1666.757813 5290.000000
1668.250732 5722.000000
1669.742310 6079.500000
1671.233398 6437.000000
1672.723877 6079.000000
1674.213257 5989.000000
1675.701172 6949.000000
1677.188843 6858.000000
1678.675537 6070.000000
1680.161377 5358.000000
1681.646362 6022.000000
1683.129883 6154.000000
1684.613159 6228.000000
1686.095581 5848.000000
1687.576904 6272.000000
1689.056763 6252.000000
1690.536377 5476.000000
1692.015259 6637.000000
1693.493164 6012.000000
1694.970093 6216.000000
1696.445801 5741.000000
1697.921143 6036.000000
1699.395264 6355.000000
1700.868774 5468.000000
1702.340820 5556.000000
1703.812622 6870.000000
1705.283447 6437.000000
1706.753418 7090.000000
1708.222046 5148.000000
1709.690186 5861.000000
1711.157593 6380.000000
1712.623901 5502.000000
1714.089600 5752.000000
1715.553589 6177.000000
1717.017456 5955.000000
1718.480469 6949.000000
1719.942505 6396.000000
1721.403320 6672.000000
1722.863525 5494.000000
1724.322998 5647.000000
1725.781616 6095.000000
1727.239258 6033.000000
1728.695557 6245.000000
1730.151611 6092.000000
1731.606689 6462.000000
1733.060791 5963.000000
1734.513672 6827.000000
1735.966309 5922.000000
1737.417847 6884.000000
1738.868652 5964.000000
1740.318481 6599.000000
1741.766968 5898.000000
1743.215088 7337.000000
1744.662354 6528.000000
1746.108887 6620.000000
1747.553833 6702.000000
1748.998535 6097.000000
1750.442383 5871.000000
1751.885376 5476.000000
1753.326904 6485.000000
1754.768188 6389.000000
1756.208618 6361.500000
1757.648071 6334.000000
1759.086548 5296.000000
1760.524048 6127.000000
1761.961060 7542.000000
1763.397095 5818.000000
1764.832275 7153.000000
1766.265991 6277.000000
1767.699585 6431.000000
1769.132202 6705.000000
1770.563965 5797.000000
1771.994873 5734.000000
1773.424561 6286.000000
1774.853516 6194.000000
1776.281982 6298.000000
1777.709473 6723.000000
1779.135620 6304.000000
1780.561523 5585.000000
1781.986328 6872.000000
1783.410522 5633.000000
1784.833252 6639.000000
1786.255493 6552.000000
1787.677002 6894.000000
1789.097778 5909.000000
1790.517578 6130.000000
1791.936035 6206.000000
1793.354004 6892.000000
1794.771362 5485.000000
1796.187866 6062.000000
1797.602905 6521.000000
1799.017578 5852.000000
1800.431641 6580.000000
1801.844482 5987.000000
1803.256714 6980.000000
1804.667603 7086.000000
1806.078003 7717.000000
1807.487671 6465.000000
1808.896362 5955.000000
1810.303955 5412.000000
1811.711060 6408.000000
1813.117310 6399.000000
1814.522583 6759.000000
1815.926758 5978.000000
1817.330566 5956.000000
1818.733398 6257.000000
1820.135376 6014.000000
1821.536743 5867.000000
1822.936646 6380.000000
1824.335938 6388.000000
1825.734741 6542.000000
1827.132690 7449.000000
1828.529297 5743.000000
1829.925293 6804.000000
1831.320557 5880.000000
1832.715210 8125.000000
1834.108887 5987.000000
1835.501221 6811.000000
1836.893066 6441.000000
1838.284302 5892.000000
1839.674561 7094.000000
1841.063599 6035.000000
1842.452271 6118.000000
1843.839966 5974.000000
1845.226929 5832.000000
1846.612549 6873.000000
1847.997925 5954.000000
1849.382446 6396.000000
1850.766235 6328.000000
1852.148926 6377.000000
1853.530396 5410.000000
1854.911377 6565.000000
1856.291870 6329.000000
1857.671387 5741.000000
1859.049438 5958.000000
1860.427368 6280.000000
1861.804321 7919.000000
1863.180542 6114.000000
1864.555908 6099.000000
1865.929810 5644.000000
1867.303589 5696.000000
1868.676514 6199.000000
1870.048340 5916.000000
1871.419189 6922.000000
1872.789673 5436.000000
1874.159058 6053.000000
1875.527954 6098.000000
1876.895264 7161.000000
1878.262451 6032.000000
1879.628662 6045.000000
1880.994141 6827.000000
1882.358887 7457.000000
1883.722046 6794.000000
1885.085083 6936.000000
1886.447266 6307.000000
1887.808594 6519.000000
1889.168579 5666.000000
1890.528198 5805.000000
1891.887207 6173.000000
1893.245239 6703.000000
1894.602417 7302.000000
1895.958374 5981.000000
1897.314087 7650.000000
1898.668823 5894.000000
1900.022705 5538.000000
1901.375488 5937.000000
1902.727783 5958.000000
1904.079346 5973.000000
1905.430054 6912.000000
1906.779541 6589.000000
1908.128540 6651.000000
1909.476685 5801.000000
1910.824219 6087.000000
1912.171021 6332.000000
1913.516235 6855.000000
1914.861206 6131.000000
1916.205444 5418.000000
1917.548828 6534.000000
1918.890869 6000.000000
1920.232666 6726.000000
1921.573608 7034.000000
1922.913818 6181.000000
1924.253052 6280.000000
1925.591309 6256.000000
1926.928955 6461.000000
1928.265869 7025.000000
1929.601929 6686.000000
1930.936768 5588.000000
1932.271240 6712.000000
1933.604980 7275.000000
1934.937866 6278.000000
1936.269287 5777.000000
1937.600830 6361.000000
1938.931030 6665.000000
1940.260742 5847.000000
1941.589600 6101.000000
1942.917236 5819.000000
1944.244385 5011.000000
1945.570801 5834.000000
1946.896484 6527.000000
1948.220825 5783.000000
1949.544922 6539.000000
1950.868164 6378.000000
1952.190674 6428.000000
1953.512085 5798.000000
1954.832520 7379.000000
1956.152344 6034.000000
1957.471802 5549.000000
1958.790283 6820.000000
1960.107422 5904.000000
1961.424194 5847.000000
1962.740234 6645.000000
1964.055542 6615.000000
1965.369385 6332.000000
1966.682983 5661.000000
1967.995850 6258.000000
1969.307861 5970.000000
1970.619263 6035.000000
1971.929321 6248.000000
1973.238892 5866.000000
1974.547729 6205.000000
1975.855957 6584.000000
1977.162842 6086.000000
1978.469116 7296.000000
1979.775024 5572.000000
1981.079712 6414.000000
1982.383911 5928.000000
1983.686890 5721.000000
1984.989502 7609.000000
1986.291138 6193.000000
1987.592163 6777.000000
1988.891602 6108.000000
1990.191162 6643.000000
1991.489624 5230.000000
1992.787598 6107.000000
1994.083984 6167.000000
1995.380371 5764.000000
1996.675781 5587.000000
1997.970459 6576.000000
1999.264282 5702.000000
2000.556885 6550.000000
2001.848999 5685.000000
2003.140625 7190.000000
2004.431519 6473.000000
2005.720825 6308.000000
2007.009888 6828.000000
2008.298218 6034.000000
2009.585815 6041.000000
2010.872559 6643.000000
2012.158203 5697.000000
2013.443481 6428.000000
2014.727783 5960.000000
2016.011475 5583.000000
2017.293823 6062.000000
2018.575806 6490.000000
2019.857300 6813.000000
2021.137817 5921.000000
2022.417603 6090.000000
2023.696289 6812.000000
2024.974243 5841.000000
2026.251709 5918.000000
2027.528564 6271.000000
2028.803711 5849.000000
2030.078979 6605.000000
2031.353271 6038.000000
2032.626587 5884.000000
2033.899048 5943.000000
2035.171143 6171.000000
2036.442139 6938.000000
2037.712891 6648.000000
2038.982300 6016.000000
2040.250610 6755.000000
2041.518921 6614.000000
2042.786255 6004.000000
2044.052856 6005.000000
2045.318237 5665.000000
2046.583008 5655.000000
2047.847534 5417.000000
2049.110840 5904.000000
2050.373779 6434.000000
2051.634766 6171.000000
2052.896240 6122.000000
2054.156494 5887.000000
2055.416016 6456.000000
2056.674805 6228.000000
2057.932617 6930.000000
2059.189941 6168.000000
2060.446533 5978.000000
2061.701660 6524.000000
2062.956787 5617.000000
2064.210938 5597.000000
2065.464355 5628.000000
2066.717041 6805.000000
2067.968506 6292.000000
2069.219727 6319.000000
2070.470215 5594.000000
2071.719971 5416.000000
2072.968262 6526.000000
2074.216553 6473.000000
2075.463867 7458.000000
2076.710449 5624.000000
2077.956299 5985.000000
2079.200928 7008.000000
2080.445068 7615.000000
2081.688721 5524.000000
2082.931396 5976.000000
2084.172852 6974.000000
2085.414063 5964.000000
2086.654785 6371.000000
2087.894531 6785.000000
2089.133057 7037.000000
2090.371094 6200.000000
2091.608398 5756.000000
2092.845459 6634.000000
2094.081055 6066.000000
2095.315918 6218.000000
2096.550537 6085.000000
2097.784180 5596.000000
2099.016846 6121.000000
2100.248779 6861.000000
2101.480225 6417.000000
2102.710693 6750.000000
2103.940430 6000.000000
2105.169922 5991.000000
2106.397461 5955.000000
2107.625244 6019.000000
2108.852295 6273.000000
2110.078369 5532.000000
2111.302979 6419.000000
2112.527832 7010.000000
2113.751465 7059.000000
2114.974609 6234.000000
2116.196533 7593.000000
2117.418213 6019.000000
2118.638916 6812.000000
2119.858887 6043.000000
2121.078369 6164.000000
2122.296387 6607.000000
2123.514404 7062.000000
2124.731445 5765.000000
2125.947998 5722.000000
2127.162842 6568.000000
2128.377930 6290.000000
2129.592041 6828.000000
2130.805420 5690.000000
2132.018066 6092.000000
2133.229248 5805.000000
2134.440674 6473.000000
2135.650879 6836.000000
2136.860596 5921.000000
2138.068848 6265.000000
2139.277100 5602.000000
2140.484619 5870.000000
2141.690918 7665.000000
2142.896484 5927.000000
2144.101807 5714.000000
2145.306152 5544.000000
2146.509766 6321.000000
2147.712891 6226.000000
2148.914551 6543.000000
2150.115967 5325.000000
2151.316650 6361.000000
2152.516602 6095.000000
2153.715332 6048.000000
2154.913818 6979.000000
2156.111816 6194.000000
2157.308838 6023.000000
2158.505127 5174.000000
2159.700195 5249.000000
2160.895020 6094.000000
2162.089111 5617.000000
2163.282227 6051.000000
2164.474365 6880.000000
2165.666260 5970.000000
2166.857422 6317.000000
2168.047607 6282.000000
2169.237061 6451.000000
2170.426025 6744.000000
2171.614014 5976.000000
2172.801758 5755.000000
2173.988037 5989.000000
2175.173584 6519.000000
2176.358887 6037.000000
2177.543701 5872.000000
2178.727295 6367.000000
2179.910156 7543.000000
2181.092041 6318.000000
2182.273682 6059.000000
2183.454834 6572.000000
2184.634766 5730.000000
2185.813721 5606.000000
2186.992188 6332.000000
2188.170410 6943.000000
2189.347412 7180.000000
2190.523438 6697.000000
2191.699219 6129.000000
2192.874512 5604.000000
2194.048340 6666.000000
2195.221680 6192.000000
2196.394775 6162.000000
2197.566650 6359.000000
2198.738037 7048.000000
2199.908936 6289.000000
2201.078125 6892.000000
2202.247314 7544.000000
2203.416016 6283.000000
2204.583740 5896.000000
2205.750488 5666.000000
2206.916504 7080.000000
2208.082031 6692.000000
2209.247314 5962.000000
2210.411133 6721.000000
2211.574463 5432.000000
2212.736572 6177.000000
2213.898926 6200.000000
2215.060059 6733.000000
2216.220215 6686.000000
2217.379883 6308.000000
2218.539307 6610.000000
2219.697510 6380.000000
2220.854736 6294.000000
2222.011719 6733.000000
2223.167969 6577.000000
2224.323486 6757.000000
2225.478271 6236.000000
2226.632080 6389.000000
2227.784912 6106.000000
2228.938232 6954.000000
2230.089600 6202.000000
2231.240723 6181.000000
2232.391113 6510.000000
2233.541016 7633.000000
2234.689941 6268.000000
2235.838379 5165.000000
2236.985352 6814.000000
2238.132568 7089.000000
2239.278564 6091.000000
2240.424316 7221.000000
2241.568359 7311.000000
2242.712646 6740.000000
2243.855957 6223.000000
2244.998535 5998.000000
2246.140137 5683.000000
2247.281494 5838.000000
2248.421875 6409.000000
2249.561523 6426.000000
2250.700684 5864.000000
2251.838623 5795.000000
2252.976563 6152.000000
2254.113525 5319.000000
2255.249756 6309.000000
2256.385010 6125.000000
2257.519531 7226.000000
2258.653809 6412.000000
2259.787598 5515.000000
2260.919922 6103.000000
2262.051758 6850.000000
2263.183105 6264.000000
2264.313477 6457.000000
2265.443604 8091.000000
2266.572510 6698.000000
2267.700928 6129.000000
2268.828857 5557.000000
2269.955811 6134.000000
2271.082031 5950.000000
2272.207275 6765.000000
2273.332520 6471.000000
2274.457031 6462.000000
2275.580322 5968.000000
2276.702881 6357.000000
2277.824951 6003.000000
2278.946533 7367.000000
2280.067383 6425.000000
2281.187012 6460.000000
2282.306152 7107.000000
2283.425049 7715.000000
2284.543213 7230.000000
2285.660400 5854.000000
2286.776611 6480.000000
2287.892578 7010.000000
2289.007813 6854.000000
2290.122314 7393.000000
2291.235596 5805.000000
2292.348877 6360.000000
2293.461426 6073.000000
2294.573242 5432.000000
2295.684326 6770.000000
2296.794189 6439.000000
2297.903564 6225.000000
2299.012695 6707.000000
2300.120850 6313.000000
2301.228027 6769.000000
2302.334961 5878.000000
2303.441162 6278.000000
2304.546875 6663.000000
2305.651123 6566.000000
2306.755127 5418.000000
2307.858643 5729.000000
2308.961670 6585.000000
2310.063477 7386.000000
2311.164551 7361.000000
2312.265137 6580.000000
2313.365234 5563.000000
2314.464600 6398.000000
2315.562500 6593.000000
2316.660889 6966.000000
2317.757813 8172.000000
2318.854492 6947.000000
2319.950684 5785.000000
2321.045166 6914.000000
2322.139648 7524.000000
2323.233398 5880.000000
2324.326904 6042.000000
2325.418701 6466.000000
2326.510498 6952.000000
2327.601563 6080.000000
2328.691895 6328.000000
2329.781250 6837.000000
2330.870605 6109.000000
2331.958740 6340.000000
2333.046387 6812.000000
2334.133789 6500.000000
2335.219482 6674.000000
2336.304932 7766.000000
2337.390137 6285.000000
2338.474365 6752.000000
2339.557617 5925.000000
2340.640625 6445.000000
2341.722656 7109.000000
2342.804443 6055.000000
2343.885498 7436.000000
2344.965332 6678.000000
2346.044678 5639.000000
2347.123535 6754.000000
2348.201904 6567.000000
2349.278809 6324.000000
2350.355469 6981.000000
2351.431885 6030.000000
2352.507324 6465.000000
2353.581787 5930.000000
2354.656006 6269.000000
2355.729492 6758.000000
2356.802490 6272.000000
2357.874268 6999.000000
2358.945801 6281.000000
2360.016357 6659.000000
2361.086670 7452.000000
2362.156006 7584.000000
2363.224365 6806.000000
2364.292480 6750.000000
2365.359863 7079.000000
2366.426758 7132.000000
2367.492920 6076.000000
2368.557861 6885.000000
2369.622803 6992.000000
2370.687012 6363.000000
2371.750488 6960.000000
2372.812744 5740.000000
2373.875000 6334.000000
2374.936279 6348.000000
2375.997314 5927.000000
2377.057129 6292.000000
2378.116211 7857.000000
2379.175293 6517.000000
2380.233398 7581.000000
2381.290771 6895.000000
2382.347168 8016.000000
2383.403320 7746.000000
2384.458984 6263.000000
2385.513916 7010.000000
2386.567383 6778.000000
2387.621094 6556.000000
2388.673828 6309.000000
2389.726074 6763.000000
2390.777588 6145.000000
2391.828125 6645.000000
2392.878418 6500.000000
2393.927734 6210.000000
2394.977051 6207.000000
2396.024902 6935.000000
2397.072266 6950.000000
2398.119385 6372.000000
2399.165527 6636.000000
2400.210938 6199.000000
2401.255615 6755.000000
2402.300293 7696.000000
2403.343506 7484.000000
2404.386719 6561.000000
2405.428467 5754.000000
2406.470459 6662.000000
2407.511719 7149.000000
2408.552002 6141.000000
2409.591553 6459.000000
2410.630127 6341.000000
2411.668945 5956.000000
2412.706543 6566.000000
2413.743896 6854.000000
2414.780029 7214.000000
2415.815918 6178.000000
2416.851074 6336.000000
2417.885742 6680.000000
2418.918945 7201.000000
2419.952393 6433.000000
2420.984863 6700.000000
2422.017090 6801.000000
2423.047852 7140.000000
2424.078613 6407.000000
2425.108887 6850.000000
2426.137939 6860.000000
2427.166992 6695.000000
2428.194336 7377.000000
2429.222168 6763.000000
2430.248779 7293.000000
2431.275146 6968.000000
2432.300049 7794.000000
2433.325195 6587.000000
2434.349365 7122.000000
2435.373291 6730.000000
2436.395996 5845.000000
2437.417969 6349.000000
2438.439697 6631.000000
2439.460693 6684.000000
2440.481201 6056.000000
2441.500488 6546.000000
2442.519775 6579.000000
2443.538086 8511.000000
2444.556152 6308.000000
2445.572754 6521.000000
2446.589355 6544.000000
2447.605225 5998.000000
2448.621094 7062.000000
2449.635498 6844.000000
2450.649170 5583.000000
2451.662354 7281.000000
2452.675293 5984.000000
2453.687500 7209.000000
2454.698730 6689.000000
2455.709717 7710.000000
2456.719971 6406.000000
2457.729736 7604.000000
2458.738525 5930.000000
2459.746582 5955.000000
2460.754639 6301.000000
2461.761475 7356.000000
2462.768066 5457.000000
2463.773438 7413.000000
2464.778564 6959.000000
2465.783447 5938.000000
2466.787109 6524.000000
2467.790527 6427.000000
2468.792969 7622.000000
2469.795166 7355.000000
2470.796875 6885.000000
2471.797607 6601.000000
2472.797363 6870.000000
2473.797119 6768.000000
2474.795898 5654.000000
2475.794189 6610.000000
2476.791504 7078.000000
2477.788574 6165.000000
2478.785645 6988.000000
2479.781250 5836.000000
2480.776855 7184.000000
2481.770752 6717.000000
2482.764648 8087.000000
2483.758057 6893.000000
2484.750977 6761.000000
2485.742920 7453.000000
2486.734131 7250.000000
2487.725098 6751.000000
2488.715576 5867.000000
2489.705078 6574.000000
2490.693848 6542.000000
2491.682617 5680.000000
2492.670410 6778.000000
2493.656982 6531.000000
2494.643555 8056.000000
2495.629639 6796.000000
2496.614990 7097.000000
2497.599365 8497.000000
2498.583496 6059.000000
2499.567627 6832.000000
2500.550293 5788.000000
2501.532471 7034.000000
2502.514160 6890.000000
2503.495117 7239.000000
2504.475586 6561.000000
2505.455811 5745.000000
2506.434570 6357.000000
2507.413086 7677.000000
2508.391113 6755.000000
2509.368652 7123.000000
2510.345215 6091.000000
2511.321533 5982.000000
2512.297119 6403.000000
2513.272217 6231.000000
2514.246826 6475.000000
2515.220215 7522.000000
2516.193359 6752.000000
2517.166260 6834.000000
2518.138184 6122.000000
2519.109375 6879.000000
2520.080078 6949.000000
2521.050537 7812.000000
2522.020264 8065.000000
2522.989014 6085.000000
2523.957031 6179.000000
2524.925049 7818.000000
2525.892090 6304.000000
2526.858887 5558.000000
2527.824463 7298.000000
2528.790039 7022.000000
2529.754883 7740.000000
2530.719238 6364.000000
2531.682373 6428.000000
2532.645752 5916.000000
2533.608154 5996.000000
2534.570313 6740.000000
2535.531250 6449.000000
2536.491455 6060.000000
2537.451904 6140.000000
2538.411377 6833.000000
2539.370117 6789.000000
2540.327881 6663.000000
2541.285889 6216.000000
2542.243164 6804.000000
2543.199463 6091.000000
2544.155518 7090.000000
2545.110352 6215.000000
2546.065430 7773.000000
2547.019775 7016.000000
2547.973389 6907.000000
2548.926025 7228.000000
2549.878418 6763.000000
2550.830322 6946.000000
2551.781494 6433.000000
2552.731934 7626.000000
2553.681885 7281.000000
2554.631592 7342.000000
2555.580566 6629.000000
2556.529053 6230.000000
2557.476318 7049.000000
2558.423584 6350.000000
2559.370117 6616.000000
2560.316162 6694.000000
2561.261230 7417.000000
2562.206055 6746.000000
2563.150391 7156.000000
2564.094238 6753.000000
2565.037598 6629.000000
2565.979492 6595.000000
2566.921631 6593.000000
2567.863037 6228.000000
2568.803711 7227.000000
2569.743652 7299.000000
2570.683594 5699.000000
2571.622559 6199.000000
2572.561279 7500.000000
2573.499023 7227.000000
2574.436523 5510.000000
2575.373291 7030.000000
2576.309326 6818.000000
2577.244873 7512.000000
2578.179688 6403.000000
2579.114502 5928.000000
2580.048340 7029.000000
2580.981689 7069.000000
2581.914307 5889.000000
2582.846680 6946.000000
2583.778320 5512.000000
2584.709473 7055.000000
2585.640137 6987.000000
2586.569580 6927.000000
2587.499023 7193.000000
2588.427979 6513.000000
2589.356689 7539.000000
2590.283691 7355.000000
2591.210938 5922.000000
2592.137695 6895.000000
2593.063721 6275.000000
2593.989502 5602.000000
2594.914063 7667.000000
2595.838379 7588.000000
2596.762207 5354.000000
2597.685547 7254.000000
2598.607910 6205.000000
2599.530029 6907.000000
2600.451660 8317.000000
2601.372559 6429.000000
2602.292725 5804.000000
2603.212646 6407.000000
2604.132080 6435.000000
2605.051270 6418.000000
2605.969482 5886.000000
2606.886475 6008.000000
2607.803711 7278.000000
2608.720703 5882.000000
2609.636719 7616.000000
2610.551514 6664.000000
2611.466797 6632.000000
2612.381348 6568.000000
2613.294922 6548.000000
2614.208496 6125.000000
2615.120850 7676.000000
2616.033203 6980.000000
2616.944580 6788.000000
2617.855713 5684.000000
2618.766113 7179.000000
2619.676270 6653.000000
2620.585693 6185.000000
2621.494629 6665.000000
2622.402588 6269.000000
2623.310791 6819.000000
2624.218018 6635.000000
2625.124756 7094.000000
2626.030762 5971.000000
2626.936523 6639.000000
2627.841553 6683.000000
2628.746338 7822.000000
2629.650391 6464.000000
2630.553467 6422.000000
2631.456543 6447.000000
2632.358643 5595.000000
2633.260742 6825.000000
2634.162598 7040.000000
2635.062744 6752.000000
2635.963135 6450.000000
2636.862793 6358.000000
2637.762207 6019.000000
2638.660156 6877.000000
2639.558594 6717.000000
2640.456543 6364.000000
2641.353760 6129.000000
2642.249756 6231.000000
2643.145752 6966.000000
2644.041504 6095.000000
2644.936523 6565.000000
2645.831299 6622.000000
2646.724609 7055.000000
2647.617920 6412.000000
2648.510986 6790.000000
2649.403809 6479.000000
2650.294922 7428.000000
2651.186279 6471.000000
2652.077148 7612.000000
2652.967285 7329.000000
2653.857178 6595.000000
2654.745850 7260.000000
2655.634766 6583.000000
2656.523193 6544.000000
2657.410645 7307.000000
2658.297119 6466.000000
2659.184082 7121.000000
2660.070313 6867.000000
2660.956055 6864.000000
2661.840576 6523.000000
2662.725098 6420.000000
2663.609375 6286.000000
2664.492920 7207.000000
2665.375977 7793.000000
2666.258301 7326.000000
2667.140137 6197.000000
2668.021240 6580.000000
2668.902588 6094.000000
2669.782471 6574.000000
2670.662598 7341.000000
2671.541992 7190.000000
2672.421387 6185.000000
2673.300049 6109.000000
2674.177002 6397.000000
2675.054688 6771.000000
2675.931641 6437.000000
2676.807861 8162.000000
2677.683594 7251.000000
2678.558594 6290.000000
2679.433838 7826.000000
2680.308105 6970.000000
2681.181885 7372.000000
2682.054932 6998.000000
2682.927734 6225.000000
2683.800293 6164.000000
2684.672119 6985.000000
2685.543213 6580.000000
2686.414063 6864.000000
2687.284424 7191.000000
2688.154541 6701.000000
2689.022949 6306.000000
2689.892090 7400.000000
2690.760498 7080.000000
2691.628662 6751.000000
2692.496094 6954.000000
2693.362305 5849.000000
2694.229004 7161.000000
2695.094727 7436.000000
2695.960449 7171.000000
2696.824707 7901.000000
2697.689697 6586.000000
2698.553223 7278.000000
2699.416992 5905.000000
2700.279297 7419.000000
2701.142090 6815.000000
2702.003906 5924.000000
2702.865234 6856.000000
2703.726563 6658.000000
2704.586670 7478.000000
2705.446777 7267.000000
2706.306396 6580.000000
2707.165771 6853.000000
2708.023438 7224.000000
2708.881348 6888.000000
2709.739746 7363.000000
2710.596924 6797.000000
2711.453369 5983.000000
2712.309326 6948.000000
2713.165283 6129.000000
2714.020508 6974.000000
2714.875000 6154.000000
2715.729004 6867.000000
2716.583008 7309.000000
2717.436035 6290.000000
2718.289307 6489.000000
2719.140869 7716.000000
2719.992920 6811.000000
2720.844727 6311.000000
2721.695313 6520.000000
2722.545898 6427.000000
2723.395996 7196.000000
2724.245361 7087.000000
2725.094727 6966.000000
2725.942871 6721.000000
2726.790527 6583.000000
2727.638672 7005.000000
2728.485596 6915.000000
2729.333008 5588.000000
2730.178955 7466.000000
2731.024170 6975.000000
2731.869873 6470.000000
2732.714600 7038.000000
2733.559326 7368.000000
2734.402832 6928.000000
2735.246582 7763.000000
2736.089600 6925.000000
2736.932129 6104.000000
2737.773682 6301.000000
2738.615723 6740.000000
2739.456787 6890.000000
2740.297607 5762.000000
2741.138184 5948.000000
2741.977539 7814.000000
2742.816895 6797.000000
2743.656250 6940.000000
2744.494385 6789.000000
2745.332031 7777.000000
2746.169678 6369.000000
2747.006836 7095.000000
2747.843750 6209.000000
2748.680176 6019.000000
2749.515381 6655.000000
2750.350830 6362.000000
2751.185791 6374.000000
2752.020020 6283.000000
2752.854004 6927.000000
2753.687500 6763.000000
2754.520996 8028.000000
2755.353516 6740.000000
2756.185547 7315.000000
2757.017090 6786.000000
2757.848633 7107.000000
2758.679199 7117.000000
2759.510010 7229.000000
2760.339600 7314.000000
2761.169189 6672.000000
2761.998535 7290.000000
2762.827148 6891.000000
2763.655273 6798.000000
2764.482910 6837.000000
2765.310547 6741.000000
2766.137695 7956.000000
2766.964111 5871.000000
2767.790039 7477.000000
2768.615479 6862.000000
2769.440674 7847.000000
2770.265869 7157.000000
2771.089844 6799.000000
2771.913818 6574.000000
2772.737793 7613.000000
2773.560547 6367.000000
2774.383545 6982.000000
2775.205322 6946.000000
2776.027100 6988.000000
2776.848877 6502.000000
2777.669678 8023.000000
2778.489746 6552.000000
2779.310059 7056.000000
2780.129883 7253.000000
2780.949707 6473.000000
2781.767578 5963.000000
2782.586670 8016.000000
2783.404541 6577.000000
2784.222168 6754.000000
2785.039307 7142.000000
2785.855957 7319.000000
2786.672363 7197.000000
2787.488281 6294.000000
2788.303955 5997.000000
2789.118652 6436.000000
2789.933838 6986.000000
2790.748291 7199.000000
2791.562256 6608.000000
2792.375977 7423.000000
2793.188477 8749.000000
2794.001221 6996.000000
2794.813477 7434.000000
2795.625244 7268.000000
2796.436279 7339.000000
2797.248047 6567.000000
2798.058594 7232.000000
2798.869141 7100.000000
2799.678223 7468.000000
2800.488037 8142.000000
2801.297119 7818.000000
2802.105957 6668.000000
2802.914307 7133.000000
2803.721680 6228.000000
2804.529541 6465.000000
2805.336670 6896.000000
2806.143555 6788.000000
2806.949219 7223.000000
2807.755371 6637.000000
2808.560791 6546.000000
2809.366211 7340.000000
2810.170898 6256.000000
2810.974609 7650.000000
2811.778809 7483.000000
2812.582520 6444.000000
2813.385986 6180.000000
2814.187988 6436.000000
2814.990723 7349.000000
2815.792725 7867.000000
2816.594482 6132.000000
2817.395752 6517.000000
2818.196533 7228.000000
2818.996826 6559.000000
2819.797363 6714.000000
2820.596924 8021.000000
2821.395996 7098.000000
2822.195068 6509.000000
2822.993896 6983.000000
2823.792236 6397.000000
2824.589600 7051.000000
2825.387207 7280.000000
2826.184082 6650.000000
2826.981201 7423.000000
2827.777588 7934.000000
2828.573242 7035.000000
2829.368896 7488.000000
2830.164307 7561.000000
2830.959229 7506.000000
2831.753418 6656.000000
2832.547607 6810.000000
2833.341553 5633.000000
2834.135010 6839.000000
2834.927734 7204.000000
2835.720215 8129.000000
2836.512695 7676.000000
2837.304932 7550.000000
2838.096680 6434.000000
2838.887451 6812.000000
2839.678223 8999.000000
2840.469238 7428.000000
2841.259277 6289.000000
2842.048828 7665.000000
2842.838623 7188.000000
2843.627441 7371.000000
2844.416260 7769.000000
2845.205078 7739.000000
2845.992920 7562.000000
2846.780273 7189.000000
2847.567871 7498.000000
2848.354980 7294.000000
2849.141357 6678.000000
2849.927734 7364.000000
2850.713867 7131.000000
2851.499512 7525.000000
2852.284180 7229.000000
2853.069336 6929.000000
2853.854248 7557.000000
2854.638428 7146.000000
2855.422607 6971.000000
2856.205566 8190.000000
2856.988770 6811.000000
2857.771729 6794.000000
2858.554199 7737.000000
2859.336426 6267.000000
2860.118164 6705.000000
2860.899658 7643.000000
2861.681396 7457.000000
2862.462402 7650.000000
2863.242676 6551.000000
2864.022705 6775.000000
2864.802734 8134.000000
2865.582520 7470.000000
2866.361328 8109.000000
2867.140381 7687.000000
2867.918945 6835.000000
2868.697266 6840.000000
2869.475098 7244.000000
2870.252686 7035.000000
2871.030029 7458.000000
2871.807129 6954.000000
2872.583740 6497.000000
2873.359863 7476.000000
2874.135986 7183.000000
2874.911621 8285.000000
2875.687012 7273.000000
2876.461914 6691.000000
2877.236572 8032.000000
2878.011230 6715.000000
2878.785645 7823.000000
2879.559326 6766.000000
2880.332275 7163.000000
2881.105957 6769.000000
2881.878662 7619.000000
2882.651367 7875.000000
2883.423340 8269.000000
2884.195068 6294.000000
2884.967285 6738.000000
2885.738281 6923.000000
2886.508789 6190.000000
2887.279785 8314.000000
2888.050781 7464.000000
2888.821045 8029.000000
2889.590332 7626.000000
2890.359863 6957.000000
2891.129395 7332.000000
2891.898438 7316.000000
2892.666992 7858.000000
2893.435547 7696.000000
2894.203125 6978.000000
2894.971191 6632.000000
2895.738770 7496.000000
2896.506348 8425.000000
2897.272705 7428.000000
2898.040039 6540.000000
2898.806152 7172.000000
2899.572510 7020.000000
2900.337402 8374.000000
2901.102783 7040.000000
2901.868652 6516.000000
2902.633057 7712.000000
2903.397461 7725.000000
2904.162109 8489.000000
2904.925781 6628.000000
2905.690186 8552.000000
2906.453857 6744.000000
2907.216797 8435.000000
2907.979492 6542.000000
2908.742676 9041.000000
2909.505371 7001.000000
2910.266846 6849.000000
2911.028809 6849.000000
