scanname Analyse017
timestamp 2017-02-10 20:14:23
ccdbias 904.527832
ccdgain 3.473401
sigmaread 8.960639
laserwavenum -0.647526
wavenumcorrection -0.124562
scancount 1
totalexposurems 10000
singleexposurems 10000
measurementstate Unknown
scanmode Manual
snr 361.421082 9.661091 8.267611
replacelist 4
672 54221.000000 31382.000000
754 54238.000000 17338.000000
889 54270.000000 20965.000000
948 54287.000000 19548.000000
peaks 137
278.459198 0.730596 0.000000 1.483209 0.000190
288.144104 0.730565 0.000000 0.779668 0.000044
303.320099 0.733108 0.000000 0.161993 0.000023
330.167877 0.750597 0.000000 0.844650 0.000143
349.610809 0.757176 0.000000 0.657108 0.000024
360.289429 0.758363 0.000000 0.324643 0.000017
386.032654 0.761209 0.000000 1.263132 0.000288
417.680664 0.741415 0.000000 0.943473 0.000250
465.787994 0.781094 0.000000 0.479729 0.000039
486.905029 0.789150 0.000000 0.429604 0.000053
534.959717 0.793604 0.000000 0.538593 0.000136
559.717163 0.834397 0.000000 1.309242 0.000231
573.498962 0.840589 0.000000 0.244914 0.000071
582.987427 0.835656 0.000000 0.659325 0.000107
660.865906 0.869050 0.000000 1.257463 0.000121
673.056885 0.865682 0.000000 1.129272 0.000238
715.775024 0.887524 0.000000 5.547115 0.001175
724.491028 0.869186 0.000000 1.281748 0.000055
741.325623 0.891814 0.000000 0.202632 0.000126
757.261475 0.919320 0.000000 5.997655 0.000693
779.322815 0.921784 0.000000 8.497167 0.001336
832.458496 0.921794 0.000000 0.422561 0.000168
843.744568 0.928556 0.000000 1.124740 0.000056
853.320007 0.954010 0.000000 1.115055 0.000290
868.820129 0.949574 0.000000 0.774279 0.000159
937.567078 1.027365 0.000000 0.819295 0.000434
954.320068 1.005115 0.000000 3.360726 0.001044
1013.772461 1.052330 0.000000 2.257185 0.000847
1020.669495 1.054320 0.000000 1.009159 0.000156
1027.180176 1.064346 0.000000 0.495525 0.000236
1044.330811 1.062684 0.000000 4.359830 0.001428
1104.471191 1.084437 0.000000 2.336053 0.000648
1117.782227 1.125339 0.000000 2.330923 0.000674
1134.608887 1.102673 0.000000 1.982813 0.000883
1150.455322 1.086895 0.000000 2.457548 0.001008
1175.227051 1.120126 0.000000 1.219118 0.000444
1185.016235 1.125415 0.000000 0.913165 0.000097
1211.872681 1.202452 0.000000 0.803337 0.000254
1224.815552 1.208748 0.000000 0.864912 0.000191
1232.858032 1.196305 0.000000 1.324176 0.000357
1260.150513 1.237399 0.000000 3.257988 0.001518
1281.921875 1.178652 0.000000 0.143147 0.000398
1313.650146 1.246478 0.000000 2.149451 0.001204
1332.170044 1.319106 0.000000 3.765896 0.001344
1347.844360 1.320550 0.000000 0.820232 0.000755
1389.935669 1.302323 0.000000 0.785727 0.000310
1415.686768 1.381588 0.000000 1.829978 0.000855
1434.244263 1.444521 0.000000 1.808619 0.000897
1447.207764 1.437881 0.000000 1.601379 0.000576
1460.220093 1.436066 0.000000 2.213699 0.001550
1489.945557 1.515476 0.000000 4.288301 0.002685
1518.452759 1.459070 0.000000 0.175775 0.000142
1533.947388 1.549543 0.000000 0.984200 0.000692
1548.148804 1.575414 0.000000 0.453211 0.000317
1558.272339 1.601932 0.000000 1.534939 0.000971
1563.811646 1.594745 0.000000 0.841521 0.000172
1578.290771 1.595321 0.000000 1.756822 0.001612
1617.341187 1.639411 0.000000 12.841629 0.008483
1635.507568 1.658023 0.000000 5.466562 0.001516
1671.482666 1.785408 0.000000 1.527469 0.001168
1686.767944 1.809567 0.000000 0.600654 0.000705
1699.311279 1.830620 0.000000 1.151783 0.001591
1711.808350 1.806349 0.000000 0.969909 0.000927
1761.242310 1.874008 0.000000 0.853097 0.000932
1778.956909 2.013493 0.000000 5.590156 0.005643
1796.528564 2.020088 0.000000 0.787360 0.000661
1809.862183 2.032125 0.000000 1.768747 0.001677
1856.655396 2.103681 0.000000 1.327919 0.002267
1872.886230 2.182834 0.000000 1.328139 0.001053
1890.287476 2.252540 0.000000 1.718367 0.002924
1902.211670 2.258787 0.000000 1.645709 0.001922
1913.134766 2.236544 0.000000 0.560801 0.000680
1943.785400 2.291513 0.000000 0.959444 0.000674
1979.407593 2.426022 0.000000 0.570512 0.000394
1992.713989 2.535700 0.000000 1.244015 0.002945
2014.374878 2.616738 0.000000 1.153031 0.001318
2025.153564 2.627570 0.000000 1.649586 0.002490
2047.072388 2.624760 0.000000 1.025986 0.002907
2057.067871 2.630060 0.000000 0.313378 0.000253
2066.027344 2.685038 0.000000 0.256470 0.000681
2095.557129 2.821539 0.000000 0.507214 0.001473
2109.352295 2.927001 0.000000 1.236610 0.003833
2132.342285 2.932735 0.000000 2.459999 0.006079
2143.840576 2.942292 0.000000 0.486016 0.001031
2161.341064 3.080218 0.000000 1.915680 0.005441
2175.841797 3.256562 0.000000 2.396638 0.004686
2185.507568 3.262827 0.000000 1.339270 0.004856
2193.839600 3.260733 0.000000 0.960643 0.004106
2247.052979 3.566464 0.000000 1.590297 0.006207
2253.501465 3.646871 0.000000 1.322684 0.005738
2270.610107 3.783225 0.000000 3.094071 0.007412
2286.732178 3.815792 0.000000 3.481630 0.012186
2294.098145 3.755466 0.000000 1.313485 0.004077
2307.257324 3.749421 0.000000 0.814382 0.003095
2314.290283 3.767148 0.000000 0.624856 0.000525
2326.037842 3.917263 0.000000 0.757305 0.005121
2340.682861 4.039330 0.000000 0.775825 0.005453
2357.517822 4.251656 0.000000 0.542705 0.001392
2373.916260 4.463798 0.000000 1.605181 0.006065
2388.549316 4.486740 0.000000 1.308541 0.005413
2436.644043 4.902142 0.000000 0.592735 0.001320
2450.732910 5.065861 0.000000 1.709725 0.003894
2466.532471 5.295949 0.000000 3.603827 0.021453
2476.102539 5.351814 0.000000 1.441287 0.007613
2489.502930 5.321478 0.000000 0.831039 0.003737
2505.074463 5.403811 0.000000 1.032586 0.010206
2526.563232 5.731638 0.000000 2.061879 0.011302
2533.667969 5.861799 0.000000 1.421619 0.008884
2544.337158 6.067704 0.000000 1.239167 0.013140
2560.967773 6.308984 0.000000 0.521002 0.003760
2570.892334 6.468799 0.000000 0.717770 0.002337
2583.136963 6.520607 0.000000 0.803377 0.005035
2592.455322 6.600801 0.000000 1.183177 0.009681
2606.905029 6.805465 0.000000 1.438029 0.007833
2622.138916 7.080239 0.000000 1.014345 0.006597
2633.486572 7.356854 0.000000 1.657856 0.014135
2648.737793 7.686913 0.000000 1.028520 0.017583
2660.973145 7.930335 0.000000 0.919251 0.010983
2668.467285 7.915833 0.000000 2.409125 0.031106
2677.098145 7.931910 0.000000 0.254209 0.002861
2683.493408 8.147342 0.000000 1.536062 0.024345
2693.369873 8.401073 0.000000 1.822025 0.028436
2702.245605 8.648389 0.000000 0.827436 0.011939
2717.684082 9.249881 0.000000 0.281432 0.001444
2730.750977 9.385887 0.000000 0.734307 0.004294
2739.051514 9.620702 0.000000 0.776733 0.021630
2750.648193 9.666232 0.000000 0.966643 0.015505
2780.703125 10.550255 0.000000 2.797137 0.054407
2788.598877 10.817402 0.000000 2.288381 0.048494
2804.212646 11.087458 0.000000 1.884410 0.045188
2816.436523 11.214241 0.000000 0.559118 0.005046
2824.189941 11.348530 0.000000 1.537516 0.028047
2833.374268 11.542857 0.000000 2.507142 0.060807
2859.390869 11.665914 0.000000 0.596354 0.012146
2868.273438 11.548885 0.000000 0.599795 0.018757
2890.148682 11.602057 0.000000 0.689265 0.035407
2900.559082 11.700675 0.000000 1.109185 0.029513
finalresult GLS_NoMatch 0
spectrum 2048
-96.953926 47826.000000
-94.327057 47826.000000
-91.702065 47995.000000
-89.078964 47641.000000
-86.457733 48201.000000
-83.838402 47798.000000
-81.220932 47992.000000
-78.605339 47639.000000
-75.991623 47886.000000
-73.379784 48034.000000
-70.769806 47928.000000
-68.161713 48085.000000
-65.555466 48058.000000
-62.951099 47991.000000
-60.348591 47912.000000
-57.747936 48360.000000
-55.149143 47765.000000
-52.552208 47144.000000
-49.957127 47598.000000
-47.363899 47511.000000
-44.772522 47792.000000
-42.182991 47333.000000
-39.595303 48132.000000
-37.009464 47935.000000
-34.425468 47609.000000
-31.843309 48337.000000
-29.262997 47713.000000
-26.684511 48340.000000
-24.107868 47894.000000
-21.533051 47722.000000
-18.960073 47566.000000
-16.388916 47478.000000
-13.819592 47231.000000
-11.252093 46248.000000
-8.686414 47696.000000
-6.122560 47589.000000
-3.560520 47993.000000
-1.000304 48298.000000
1.558104 47748.000000
4.114691 47171.000000
6.669474 47466.000000
9.222439 48031.000000
11.773603 47287.000000
14.322955 47544.000000
16.870510 47402.000000
19.416254 48011.000000
21.960205 48281.000000
24.502352 47398.000000
27.042702 47240.000000
29.581266 47228.000000
32.118034 47925.000000
34.653000 48285.000000
37.186188 46800.000000
39.717594 47765.000000
42.247208 46965.000000
44.775024 47550.000000
47.301083 46341.000000
49.825352 48352.000000
52.347851 47878.000000
54.868553 47357.000000
57.387501 47787.000000
59.904675 47631.000000
62.420071 47429.000000
64.933693 48489.000000
67.445557 48358.000000
69.955673 47635.000000
72.463997 47446.000000
74.970566 48175.000000
77.475388 47735.000000
79.978455 47680.000000
82.479744 47702.000000
84.979294 47920.000000
87.477089 47754.000000
89.973152 48302.000000
92.467438 46884.000000
94.959984 48259.000000
97.450813 47169.000000
99.939873 46848.000000
102.427185 47708.000000
104.912773 47888.000000
107.396622 47666.000000
109.878723 48283.000000
112.359100 47320.000000
114.837753 47868.000000
117.314682 47544.000000
119.789856 46873.000000
122.263321 47255.000000
124.735054 48223.000000
127.205078 47332.000000
129.673340 47903.000000
132.139938 47686.000000
134.604782 48342.000000
137.067932 47854.000000
139.529343 46795.000000
141.989059 47238.000000
144.447052 47800.000000
146.903351 48153.000000
149.357941 48280.000000
151.810806 47306.000000
154.261993 47755.000000
156.711487 47409.000000
159.159256 47977.000000
161.605316 47459.000000
164.049698 45375.000000
166.492401 47669.000000
168.933411 47289.000000
171.372711 47882.000000
173.810303 46755.000000
176.246262 47433.000000
178.680481 47178.000000
181.113022 46942.000000
183.543915 47372.000000
185.973083 46901.000000
188.400604 47314.000000
190.826447 47725.000000
193.250610 47365.000000
195.673111 46896.000000
198.093918 46705.000000
200.513062 47652.000000
202.930542 48066.000000
205.346329 46385.000000
207.760468 47003.000000
210.172974 47742.000000
212.583801 48001.000000
214.992950 47740.000000
217.400467 46703.000000
219.806274 47958.000000
222.210495 47579.000000
224.613007 47334.000000
227.013901 47161.000000
229.413147 47538.000000
231.810730 47204.000000
234.206650 46810.000000
236.600952 47539.000000
238.993591 47862.000000
241.384613 47372.000000
243.773972 47525.000000
246.161713 47659.000000
248.547806 47030.000000
250.932266 47908.000000
253.315079 46224.000000
255.696320 47450.000000
258.075867 47421.000000
260.453827 47604.000000
262.830109 46520.000000
265.204834 46472.000000
267.577911 46239.000000
269.949341 47966.000000
272.319122 47645.000000
274.687347 48203.000000
277.053925 47655.000000
279.418915 47613.000000
281.782288 48052.000000
284.144012 47879.000000
286.504150 46946.000000
288.862671 48022.000000
291.219604 47543.000000
293.574921 47692.000000
295.928650 48141.000000
298.280731 48125.000000
300.631256 47796.000000
302.980194 47766.000000
305.327484 47280.000000
307.673248 47642.000000
310.017334 47530.000000
312.359894 46672.000000
314.700836 46536.000000
317.040161 46921.000000
319.377930 47164.000000
321.714142 45920.000000
324.048706 47837.000000
326.381714 47607.000000
328.713165 48086.000000
331.043030 47456.000000
333.371307 47648.000000
335.697968 46823.000000
338.023132 47649.000000
340.346680 47824.000000
342.668671 48168.000000
344.989105 46509.000000
347.307922 46354.000000
349.625183 48079.000000
351.940918 48259.000000
354.255066 47095.000000
356.567627 47750.000000
358.878632 47617.000000
361.188110 46983.000000
363.496063 47686.000000
365.802399 48393.000000
368.107147 47599.000000
370.410431 47598.000000
372.712097 47811.000000
375.012268 47744.000000
377.310883 47798.000000
379.607941 48383.000000
381.903442 48063.000000
384.197418 48235.000000
386.489807 48887.000000
388.780701 48475.000000
391.070068 47899.000000
393.357849 47830.000000
395.644104 47610.000000
397.928864 47143.000000
400.212006 48070.000000
402.493713 47775.000000
404.773895 47977.000000
407.052490 46891.000000
409.329559 47790.000000
411.605103 47480.000000
413.879120 47741.000000
416.151703 47845.000000
418.422668 47877.000000
420.692139 47693.000000
422.960114 46932.000000
425.226532 46874.000000
427.491455 47837.000000
429.754913 47819.000000
432.016785 47682.000000
434.277191 48073.000000
436.536041 47432.000000
438.793427 47979.000000
441.049316 48502.000000
443.303711 48311.000000
445.556580 48582.000000
447.807892 47153.000000
450.057800 47927.000000
452.306122 47808.000000
454.553009 48450.000000
456.798431 47635.000000
459.042297 47653.000000
461.284668 47563.000000
463.525543 48436.000000
465.765015 47385.000000
468.002899 48621.000000
470.239349 48137.000000
472.474274 48050.000000
474.707733 46948.000000
476.939758 47410.000000
479.170258 48446.000000
481.399261 47586.000000
483.626801 47729.000000
485.852844 48163.000000
488.077454 47532.000000
490.300598 48256.000000
492.522278 47707.000000
494.742401 47357.000000
496.961121 48474.000000
499.178345 47904.000000
501.394196 48597.000000
503.608429 47967.000000
505.821350 47707.000000
508.032684 47575.000000
510.242584 47245.000000
512.451050 47598.000000
514.658142 47566.000000
516.863647 47674.000000
519.067749 47542.000000
521.270325 47851.000000
523.471497 47591.000000
525.671326 47425.000000
527.869629 47203.000000
530.066406 48787.000000
532.261841 48217.000000
534.455750 48543.000000
536.648315 46533.000000
538.839355 47366.000000
541.028992 48026.000000
543.217224 47215.000000
545.403931 46958.000000
547.589172 47283.000000
549.773132 47856.000000
551.955505 47684.000000
554.136536 47871.000000
556.316040 48099.000000
558.494263 48177.000000
560.670959 48072.000000
562.846252 47692.000000
565.020142 47686.000000
567.192566 48178.000000
569.363586 47990.000000
571.533142 47768.000000
573.701416 48816.000000
575.868164 47701.000000
578.033447 47797.000000
580.197327 48013.000000
582.359924 48344.000000
584.520996 48120.000000
586.680664 48522.000000
588.838989 48305.000000
590.995789 47975.000000
593.151245 47564.000000
595.305298 48361.000000
597.458008 47996.000000
599.609192 46838.000000
601.759033 47310.000000
603.907532 47448.000000
606.054443 48118.000000
608.200134 47645.000000
610.344421 47649.000000
612.487244 47091.000000
614.628601 48037.000000
616.768738 47657.000000
618.907349 46423.000000
621.044678 48429.000000
623.180542 47543.000000
625.315002 47249.000000
627.447998 46953.000000
629.579834 47466.000000
631.710205 47534.000000
633.839172 47318.000000
635.966675 47650.000000
638.092896 47930.000000
640.217590 46828.000000
642.341064 47805.000000
644.463196 47277.000000
646.583862 47316.000000
648.703186 47524.000000
650.821106 48525.000000
652.937683 48430.000000
655.052856 47714.000000
657.166687 47623.000000
659.279053 48284.000000
661.390198 48003.000000
663.499939 48776.000000
665.608215 48085.000000
667.715332 47914.000000
669.820984 47331.000000
671.925171 48206.000000
674.028137 48387.000000
676.129700 47090.000000
678.229919 48783.000000
680.328735 47362.000000
682.426208 47928.000000
684.522400 47219.000000
686.617126 47812.000000
688.710632 47154.000000
690.802795 47577.000000
692.893433 46284.000000
694.982849 47531.000000
697.070984 47652.000000
699.157654 48092.000000
701.243103 47447.000000
703.327026 48997.000000
705.409729 48214.000000
707.491150 48281.000000
709.571106 46640.000000
711.649841 47914.000000
713.727112 48586.000000
715.803101 47524.000000
717.877808 48081.000000
719.951233 47092.000000
722.023132 47791.000000
724.093872 46751.000000
726.163269 48359.000000
728.231262 47667.000000
730.297913 47684.000000
732.363342 47033.000000
734.427429 48385.000000
736.490173 47983.000000
738.551575 47667.000000
740.611694 47543.000000
742.670410 48126.000000
744.727905 47457.000000
746.784119 47498.000000
748.838928 47426.000000
750.892456 47743.000000
752.944580 46591.000000
754.995483 48347.000000
757.045166 47417.000000
759.093384 47736.000000
761.140381 47989.000000
763.186096 47125.000000
765.230408 48774.000000
767.273438 48417.000000
769.315247 39056.000000
771.355713 46938.000000
773.394775 47746.000000
775.432678 48043.000000
777.469238 48103.000000
779.504578 48749.000000
781.538574 48447.000000
783.571167 47288.000000
785.602600 48586.000000
787.632629 42594.000000
789.661377 48117.000000
791.688965 47771.000000
793.715210 47732.000000
795.740051 48332.000000
797.763794 48639.000000
799.786133 47838.000000
801.807251 48259.000000
803.827026 47484.000000
805.845520 49219.000000
807.862793 47402.000000
809.878662 47340.000000
811.893372 48474.000000
813.906738 47675.000000
815.918884 47894.000000
817.929810 48087.000000
819.939392 47563.000000
821.947754 48840.000000
823.954712 48461.000000
825.960449 48080.000000
827.964966 48405.000000
829.968201 48586.000000
831.970154 47647.000000
833.970825 48003.000000
835.970276 48192.000000
837.968384 47811.000000
839.965393 47152.000000
841.960999 47927.000000
843.955444 48217.000000
845.948547 47936.000000
847.940430 47286.000000
849.930969 48613.000000
851.920227 47369.000000
853.908447 48186.000000
855.895264 48368.000000
857.880859 47707.000000
859.865173 46894.000000
861.848389 47834.000000
863.830200 47684.000000
865.810791 48304.000000
867.790100 46455.000000
869.768250 47135.000000
871.745056 47928.000000
873.720581 48124.000000
875.695068 47935.000000
877.668091 48167.000000
879.640076 48690.000000
881.610718 47792.000000
883.580200 47996.000000
885.548340 48498.000000
887.515320 48939.000000
889.480957 48032.000000
891.445435 48325.000000
893.408691 48116.000000
895.370728 47652.000000
897.331482 48309.000000
899.291016 47719.000000
901.249268 47433.000000
903.206421 47745.000000
905.162415 48125.000000
907.117004 47186.000000
909.070374 47603.000000
911.022583 47657.000000
912.973572 47786.000000
914.923279 47039.000000
916.871826 47880.000000
918.819153 48009.000000
920.765198 48033.000000
922.709961 48076.000000
924.653687 47906.000000
926.596252 48152.000000
928.537537 48530.000000
930.477478 47650.000000
932.416321 48408.000000
934.353882 48640.000000
936.290222 48197.000000
938.225403 48280.000000
940.159302 48013.000000
942.092102 48219.000000
944.023682 47360.000000
945.954102 48930.000000
947.883301 47720.000000
949.811157 47105.000000
951.737976 47485.000000
953.663513 48153.000000
955.587769 48739.000000
957.510925 48096.000000
959.432922 47390.000000
961.353638 46877.000000
963.273193 47689.000000
965.191589 48806.000000
967.108948 47688.000000
969.024841 47756.000000
970.939636 48002.000000
972.853210 48262.000000
974.765625 47752.000000
976.676819 47680.000000
978.586853 48672.000000
980.495605 47948.000000
982.403320 48048.000000
984.309814 47801.000000
986.215088 48476.000000
988.119263 47341.000000
990.022217 47992.000000
991.923950 47424.000000
993.824524 47825.000000
995.723938 47528.000000
997.622131 48861.000000
999.519165 47568.000000
1001.414978 47599.000000
1003.309631 46518.000000
1005.203186 48520.000000
1007.095459 46835.000000
1008.986816 48079.000000
1010.876831 48787.000000
1012.765625 47521.000000
1014.653259 47819.000000
1016.539734 47255.000000
1018.425049 47387.000000
1020.309204 48245.000000
1022.192139 48289.000000
1024.073975 47899.000000
1025.954590 48889.000000
1027.834106 48213.000000
1029.712646 48027.000000
1031.589844 48798.000000
1033.465698 47977.000000
1035.340576 48194.000000
1037.214478 47490.000000
1039.086914 47077.000000
1040.958374 47443.000000
1042.828491 48646.000000
1044.697632 48676.000000
1046.565552 48411.000000
1048.432373 47139.000000
1050.298096 47390.000000
1052.162598 47685.000000
1054.026001 47736.000000
1055.888062 47633.000000
1057.749146 48186.000000
1059.609131 47657.000000
1061.467773 47562.000000
1063.325317 48353.000000
1065.181763 47406.000000
1067.037109 48239.000000
1068.891235 48290.000000
1070.744507 47853.000000
1072.596313 47834.000000
1074.447144 47977.000000
1076.296753 48038.000000
1078.145142 48388.000000
1079.992676 46218.000000
1081.838867 48524.000000
1083.683838 47994.000000
1085.527954 48789.000000
1087.370728 48643.000000
1089.212280 47680.000000
1091.053101 48701.000000
1092.892334 48352.000000
1094.730835 48095.000000
1096.567993 48087.000000
1098.403931 47385.000000
1100.238892 47535.000000
1102.072632 48728.000000
1103.905396 48507.000000
1105.736816 47934.000000
1107.567383 46862.000000
1109.396606 47570.000000
1111.224854 47704.000000
1113.051880 47027.000000
1114.877930 48736.000000
1116.702759 47809.000000
1118.526489 46925.000000
1120.348999 48071.000000
1122.170410 48255.000000
1123.990967 48343.000000
1125.810059 47563.000000
1127.628296 47067.000000
1129.445190 47179.000000
1131.261230 47486.000000
1133.076050 47686.000000
1134.889771 48531.000000
1136.702393 48319.000000
1138.513794 48534.000000
1140.324219 47972.000000
1142.133545 47432.000000
1143.941528 47177.000000
1145.748779 48227.000000
1147.554565 48236.000000
1149.359497 48804.000000
1151.163330 48821.000000
1152.965942 48146.000000
1154.767700 48114.000000
1156.567993 48113.000000
1158.367310 48069.000000
1160.165649 48126.000000
1161.962646 48720.000000
1163.758911 48216.000000
1165.553833 48101.000000
1167.347656 47859.000000
1169.140625 46423.000000
1170.932251 48412.000000
1172.722900 47632.000000
1174.512573 48190.000000
1176.300781 48438.000000
1178.088135 46738.000000
1179.874390 47563.000000
1181.659546 48375.000000
1183.443604 48216.000000
1185.226563 46507.000000
1187.008545 48359.000000
1188.789307 48265.000000
1190.569092 47766.000000
1192.347778 47193.000000
1194.125488 47523.000000
1195.901978 46981.000000
1197.677368 47615.000000
1199.451660 47655.000000
1201.224854 47450.000000
1202.997192 47546.000000
1204.768188 47405.000000
1206.538330 48434.000000
1208.307251 48098.000000
1210.075073 47840.000000
1211.842041 48327.000000
1213.607666 48277.000000
1215.372314 47204.000000
1217.135864 47611.000000
1218.898315 48225.000000
1220.659912 47326.000000
1222.420288 48291.000000
1224.179565 47796.000000
1225.937988 48137.000000
1227.695190 46847.000000
1229.451294 47721.000000
1231.206299 48742.000000
1232.960449 48136.000000
1234.713257 48341.000000
1236.465088 48119.000000
1238.216064 48317.000000
1239.965698 49232.000000
1241.714478 47200.000000
1243.461914 47646.000000
1245.208618 47642.000000
1246.954102 47726.000000
1248.698730 47763.000000
1250.442017 47452.000000
1252.184326 47496.000000
1253.925537 48831.000000
1255.665894 49103.000000
1257.405151 48397.000000
1259.143188 47597.000000
1260.880371 47100.000000
1262.616333 48102.000000
1264.351318 47791.000000
1266.085327 46835.000000
1267.818359 48154.000000
1269.550171 47988.000000
1271.281006 47732.000000
1273.010620 46939.000000
1274.739380 48306.000000
1276.467041 48424.000000
1278.193604 48616.000000
1279.919312 48655.000000
1281.643677 47695.000000
1283.367188 48996.000000
1285.089722 47275.000000
1286.811279 47517.000000
1288.531616 47854.000000
1290.250977 47453.000000
1291.969238 46900.000000
1293.686523 47726.000000
1295.402832 48373.000000
1297.117920 47797.000000
1298.832031 48025.000000
1300.545166 48496.000000
1302.257446 47716.000000
1303.968506 45821.000000
1305.678589 48986.000000
1307.387573 47843.000000
1309.095337 47532.000000
1310.802490 47192.000000
1312.508179 48429.000000
1314.213135 47344.000000
1315.917114 48065.000000
1317.619873 48245.000000
1319.321655 47660.000000
1321.022583 48127.000000
1322.722168 44220.000000
1324.420898 46396.500000
1326.118896 48573.000000
1327.815552 47753.000000
1329.511108 47054.000000
1331.205811 47335.000000
1332.899292 48470.000000
1334.591919 48818.000000
1336.283691 46893.000000
1337.974121 47893.000000
1339.663818 47629.000000
1341.352417 48092.000000
1343.039917 46633.000000
1344.726440 48593.000000
1346.411865 47521.000000
1348.096313 48281.000000
1349.779907 46932.000000
1351.462280 47851.000000
1353.143677 48247.000000
1354.824219 47547.000000
1356.503540 47453.000000
1358.182251 48320.000000
1359.859619 47722.000000
1361.535889 48393.000000
1363.211182 48641.000000
1364.885742 47662.000000
1366.559082 47692.000000
1368.231445 47464.000000
1369.902832 49037.000000
1371.573242 47346.000000
1373.242554 48023.000000
1374.910889 48513.000000
1376.578369 48248.000000
1378.244751 47694.000000
1379.910156 48000.000000
1381.574585 48277.000000
1383.237793 48214.000000
1384.900391 48465.000000
1386.561646 47876.000000
1388.222046 47603.000000
1389.881348 47790.000000
1391.539673 47656.000000
1393.197266 47302.000000
1394.853638 47711.000000
1396.509155 47177.000000
1398.163452 47865.000000
1399.816895 48329.000000
1401.469238 48031.000000
1403.120850 47698.000000
1404.771240 47018.000000
1406.420532 47903.000000
1408.069092 46738.000000
1409.716553 46222.000000
1411.363037 47980.000000
1413.008667 47988.000000
1414.653320 48255.000000
1416.296753 47211.000000
1417.939331 47068.000000
1419.580811 47321.000000
1421.221436 47667.000000
1422.861084 47731.000000
1424.499634 48175.000000
1426.137329 47696.000000
1427.773926 47779.000000
1429.409546 48174.000000
1431.044434 47826.000000
1432.678223 48337.000000
1434.310913 48044.000000
1435.942627 48529.000000
1437.573486 48068.000000
1439.203247 48157.000000
1440.831909 46234.000000
1442.459961 48175.000000
1444.086914 48061.000000
1445.712646 48052.000000
1447.337769 48062.000000
1448.961792 47731.000000
1450.584839 48138.000000
1452.206909 48134.000000
1453.827881 46793.000000
1455.447876 47851.000000
1457.067139 47309.000000
1458.685059 48507.000000
1460.302368 48596.500000
1461.918701 48686.000000
1463.533813 47014.000000
1465.148071 47757.000000
1466.761475 48954.000000
1468.373779 48543.000000
1469.985229 47881.000000
1471.595825 47860.000000
1473.205200 48190.000000
1474.813599 48193.000000
1476.421143 47999.000000
1478.027710 47350.000000
1479.633545 48900.000000
1481.238159 47935.000000
1482.841919 48713.000000
1484.444458 47457.000000
1486.046387 48643.000000
1487.647095 48761.000000
1489.247070 48554.000000
1490.845947 47951.000000
1492.443970 47703.000000
1494.040894 47475.000000
1495.636963 47850.000000
1497.232056 48208.000000
1498.826172 48698.000000
1500.419556 47650.000000
1502.011841 48730.000000
1503.602905 48024.000000
1505.193481 47395.000000
1506.782715 47788.000000
1508.371338 48043.000000
1509.958862 47688.000000
1511.545288 47332.000000
1513.130981 47997.000000
1514.715576 47571.000000
1516.299316 47789.000000
1517.881958 48019.000000
1519.463867 47647.000000
1521.044678 47530.000000
1522.624756 48150.000000
1524.203613 47934.000000
1525.781616 47769.000000
1527.358887 47931.000000
1528.934937 48568.000000
1530.510254 48164.000000
1532.084473 47812.000000
1533.657959 48747.000000
1535.230225 48294.000000
1536.801758 47856.000000
1538.372314 47823.000000
1539.942017 47872.000000
1541.510498 48790.000000
1543.078247 47623.000000
1544.645142 48599.000000
1546.210815 47418.000000
1547.775757 48184.000000
1549.339600 49125.000000
1550.902832 46746.000000
1552.464722 47933.000000
1554.026001 48236.000000
1555.586182 48497.000000
1557.145630 48462.000000
1558.703979 48341.000000
1560.261597 47891.000000
1561.818115 47184.000000
1563.373413 48295.000000
1564.928101 47888.000000
1566.482056 48655.000000
1568.035034 47919.000000
1569.586670 48516.000000
1571.137573 48339.000000
1572.687744 47956.000000
1574.236938 47806.000000
1575.784790 48405.000000
1577.332153 48739.000000
1578.878540 48574.000000
1580.424072 49123.000000
1581.968628 47600.000000
1583.511963 47849.000000
1585.054688 47657.000000
1586.596558 47772.000000
1588.137329 47514.000000
1589.677124 48381.000000
1591.216187 47501.000000
1592.754150 48342.000000
1594.291626 48048.000000
1595.827759 48243.000000
1597.362793 47527.000000
1598.897339 47991.000000
1600.430908 48203.000000
1601.963623 48024.000000
1603.494751 47917.000000
1605.025635 47974.000000
1606.555664 48487.000000
1608.084473 48049.000000
1609.612183 47951.000000
1611.139282 48243.000000
1612.665649 48239.000000
1614.191040 47962.000000
1615.715576 48382.000000
1617.238770 48441.000000
1618.761230 48601.000000
1620.282959 47690.000000
1621.803833 47296.000000
1623.323242 38616.000000
1624.842163 47950.000000
1626.360352 48170.000000
1627.877686 48425.000000
1629.393921 47757.000000
1630.908813 47184.000000
1632.423218 47393.000000
1633.936890 48448.000000
1635.449463 47565.000000
1636.960815 48294.000000
1638.471802 47757.000000
1639.981689 47901.000000
1641.490723 48027.000000
1642.998413 48637.000000
1644.505737 48096.000000
1646.012207 47138.000000
1647.517700 47962.000000
1649.022339 47397.000000
1650.525513 48077.000000
1652.028076 47664.000000
1653.530273 47945.000000
1655.031128 47668.000000
1656.530884 46721.000000
1658.029785 48089.000000
1659.528320 47704.000000
1661.025635 48013.000000
1662.522217 48241.000000
1664.017212 47778.000000
1665.511963 47922.000000
1667.005859 49048.000000
1668.498779 48598.000000
1669.990356 48197.000000
1671.481445 47796.000000
1672.971924 48095.000000
1674.461304 48279.000000
1675.949219 47227.000000
1677.436890 47386.000000
1678.923584 48096.000000
1680.409424 48754.000000
1681.894409 48102.000000
1683.377930 48034.000000
1684.861206 47868.000000
1686.343628 48385.000000
1687.824951 48007.000000
1689.304810 48032.000000
1690.784424 48684.000000
1692.263306 47647.000000
1693.741211 48141.000000
1695.218140 48097.000000
1696.693848 48451.000000
1698.169189 48184.000000
1699.643311 47934.000000
1701.116821 48735.000000
1702.588867 48630.000000
1704.060669 47322.000000
1705.531494 47793.000000
1707.001465 47165.000000
1708.470093 49150.000000
1709.938232 48336.000000
1711.405640 47888.000000
1712.871948 48725.000000
1714.337646 48462.000000
1715.801636 48036.000000
1717.265503 48287.000000
1718.728516 47216.000000
1720.190552 47810.000000
1721.651367 47603.000000
1723.111572 48741.000000
1724.571045 47851.000000
1726.029663 48135.000000
1727.487305 48217.000000
1728.943604 47922.000000
1730.399658 48178.000000
1731.854736 47838.000000
1733.308838 48207.000000
1734.761719 47238.000000
1736.214355 48192.000000
1737.665894 47464.000000
1739.116699 48292.000000
1740.566528 47658.000000
1742.015015 48237.000000
1743.463135 46587.000000
1744.910400 47600.000000
1746.356934 47551.000000
1747.801880 47529.000000
1749.246582 48083.000000
1750.690430 48343.000000
1752.133423 48775.000000
1753.574951 47678.000000
1755.016235 47835.000000
1756.456665 47941.000000
1757.896118 48047.000000
1759.334595 48922.000000
1760.772095 48168.000000
1762.209106 46774.000000
1763.645142 48383.000000
1765.080322 47090.000000
1766.514038 47996.000000
1767.947632 47743.000000
1769.380249 47523.000000
1770.812012 48462.000000
1772.242920 48375.000000
1773.672607 47927.000000
1775.101563 48222.000000
1776.530029 48055.000000
1777.957520 47472.000000
1779.383667 47997.000000
1780.809570 48661.000000
1782.234375 47317.000000
1783.658569 48630.000000
1785.081299 47640.000000
1786.503540 47726.000000
1787.925049 47379.000000
1789.345825 48274.000000
1790.765625 48181.000000
1792.184082 48100.000000
1793.602051 47413.000000
1795.019409 48799.000000
1796.435913 48200.000000
1797.850952 47665.000000
1799.265625 48380.000000
1800.679688 47714.000000
1802.092529 48267.000000
1803.504761 47255.000000
1804.915649 47059.000000
1806.326050 46507.000000
1807.735718 47724.000000
1809.144409 48330.000000
1810.552002 48849.000000
1811.959106 47791.000000
1813.365356 47862.000000
1814.770630 47480.000000
1816.174805 48324.000000
1817.578613 48295.000000
1818.981445 48022.000000
1820.383423 48240.000000
1821.784790 48381.000000
1823.184692 47975.000000
1824.583984 47762.000000
1825.982788 47652.000000
1827.380737 46775.000000
1828.777344 48551.000000
1830.173340 47431.000000
1831.568604 48319.000000
1832.963257 46164.000000
1834.356934 48239.000000
1835.749268 47351.000000
1837.141113 47833.000000
1838.532349 48362.000000
1839.922607 47172.000000
1841.311646 48222.000000
1842.700317 48158.000000
1844.088013 48258.000000
1845.474976 48423.000000
1846.860596 47335.000000
1848.245972 48440.000000
1849.630493 47823.000000
1851.014282 47917.000000
1852.396973 47877.000000
1853.778442 48867.000000
1855.159424 47761.000000
1856.539917 47954.000000
1857.919434 48562.000000
1859.297485 48279.000000
1860.675415 47990.000000
1862.052368 46367.000000
1863.428589 48180.000000
1864.803955 48175.000000
1866.177856 48662.000000
1867.551636 48592.000000
1868.924561 48018.000000
1870.296387 48343.000000
1871.667236 47295.000000
1873.037720 48836.000000
1874.407104 48151.000000
1875.776001 48157.000000
1877.143311 47082.000000
1878.510498 48163.000000
1879.876709 48308.000000
1881.242188 47439.000000
1882.606934 46717.000000
1883.970093 47465.000000
1885.333130 47342.000000
1886.695313 47952.000000
1888.056641 47778.000000
1889.416626 48655.000000
1890.776245 48446.000000
1892.135254 48096.000000
1893.493286 47520.000000
1894.850464 46956.000000
1896.206421 48293.000000
1897.562134 46580.000000
1898.916870 48475.000000
1900.270752 48725.000000
1901.623535 48340.000000
1902.975830 48347.000000
1904.327393 48340.000000
1905.678101 47285.000000
1907.027588 47747.000000
1908.376587 47597.000000
1909.724731 48454.000000
1911.072266 48051.000000
1912.419067 47970.000000
1913.764282 47446.000000
1915.109253 48178.000000
1916.453491 48787.000000
1917.796875 47795.000000
1919.138916 48240.000000
1920.480713 47611.000000
1921.821655 47285.000000
1923.161865 48137.000000
1924.501099 47963.000000
1925.839355 48083.000000
1927.177002 47725.000000
1928.513916 47251.000000
1929.849976 47470.000000
1931.184814 48665.000000
1932.519287 47598.000000
1933.853027 46971.000000
1935.185913 48063.000000
1936.517334 48515.000000
1937.848877 47877.000000
1939.179077 47608.000000
1940.508789 48494.000000
1941.837646 48138.000000
1943.165283 48462.000000
1944.492432 49271.000000
1945.818848 48448.000000
1947.144531 47748.000000
1948.468872 48511.000000
1949.792969 47609.000000
1951.116211 47927.000000
1952.438721 47837.000000
1953.760132 48464.000000
1955.080566 46810.000000
1956.400391 48270.000000
1957.719849 48737.000000
1959.038330 47385.000000
1960.355469 48345.000000
1961.672241 48432.000000
1962.988281 47715.000000
1964.303589 47694.000000
1965.617432 47934.000000
1966.931030 48670.000000
1968.243896 48087.000000
1969.555908 48337.000000
1970.867310 48217.000000
1972.177368 47933.000000
1973.486938 48341.000000
1974.795776 48041.000000
1976.104004 47715.000000
1977.410889 48182.000000
1978.717163 47023.000000
1980.023071 48743.000000
1981.327759 47865.000000
1982.631958 48358.000000
1983.934937 48572.000000
1985.237549 46730.000000
1986.539185 48214.000000
1987.840210 47450.000000
1989.139648 48244.000000
1990.439209 47741.000000
1991.737671 48867.000000
1993.035645 48197.000000
1994.332031 48107.000000
1995.628418 48492.000000
1996.923828 48669.000000
1998.218506 47813.000000
1999.512329 48550.000000
2000.804932 47702.000000
2002.097046 48536.000000
2003.388672 47109.000000
2004.679565 47811.000000
2005.968872 48033.000000
2007.257935 47464.000000
2008.546265 48392.000000
2009.833862 48271.000000
2011.120605 47683.000000
2012.406250 48599.000000
2013.691528 47980.000000
2014.975830 48333.000000
2016.259521 48743.000000
2017.541870 48250.000000
2018.823853 47809.000000
2020.105347 47401.000000
2021.385864 48382.000000
2022.665649 48166.000000
2023.944336 47548.000000
2025.222290 48423.000000
2026.499756 48375.000000
2027.776611 47972.000000
2029.051758 48424.000000
2030.327026 47676.000000
2031.601318 48210.000000
2032.874634 48318.000000
2034.147095 48304.000000
2035.419189 48143.000000
2036.690186 47315.000000
2037.960938 47735.000000
2039.230347 48283.000000
2040.498657 47391.000000
2041.766968 47718.000000
2043.034302 48370.000000
2044.300903 48242.000000
2045.566284 48746.000000
2046.831055 48757.000000
2048.095703 48955.000000
2049.358887 48404.000000
2050.621826 47848.000000
2051.882813 48092.000000
2053.144287 48214.000000
2054.404541 48438.000000
2055.664063 47676.000000
2056.922852 48101.000000
2058.180664 47411.000000
2059.437988 48424.000000
2060.694580 48299.000000
2061.949707 47789.000000
2063.204834 48658.000000
2064.458984 48743.000000
2065.712402 48643.000000
2066.965088 47475.000000
2068.216553 48098.000000
2069.467773 47944.000000
2070.718262 48734.000000
2071.968018 48863.000000
2073.216309 47750.000000
2074.464600 47764.000000
2075.711914 46847.000000
2076.958496 48636.000000
2078.204346 48297.000000
2079.448975 47256.000000
2080.693115 46604.000000
2081.936768 48785.000000
2083.179443 48304.000000
2084.420898 47362.000000
2085.662109 48353.000000
2086.902832 47924.000000
2088.142578 47489.000000
2089.381104 47216.000000
2090.619141 48128.000000
2091.856445 48546.000000
2093.093506 47699.000000
2094.329102 48250.000000
2095.563965 48093.000000
2096.798584 48236.000000
2098.032227 48735.000000
2099.264893 48193.000000
2100.496826 47224.000000
2101.728271 47895.000000
2102.958740 47576.000000
2104.188477 48250.000000
2105.417969 48387.000000
2106.645508 48385.000000
2107.873291 48342.000000
2109.100342 47896.000000
2110.326416 48757.000000
2111.551025 47918.000000
2112.775879 47395.000000
2113.999512 47239.000000
2115.222656 48052.000000
2116.444580 46806.000000
2117.666260 48333.000000
2118.886963 47497.000000
2120.106934 48278.000000
2121.326416 48133.000000
2122.544434 47651.000000
2123.762451 47283.000000
2124.979492 48593.000000
2126.196045 48552.000000
2127.410889 47751.000000
2128.625977 47922.000000
2129.840088 47351.000000
2131.053467 48667.000000
2132.266113 48209.000000
2133.477295 48517.000000
2134.688721 47751.000000
2135.898926 47550.000000
2137.108643 48362.000000
2138.316895 48049.000000
2139.525146 48718.000000
2140.732666 48453.000000
2141.938965 46653.000000
2143.144531 48407.000000
2144.349854 48706.000000
2145.554199 48841.000000
2146.757813 48041.000000
2147.960938 48079.000000
2149.162598 47922.000000
2150.364014 48933.000000
2151.564697 48074.000000
2152.764648 48203.000000
2153.963379 48366.000000
2155.161865 47351.000000
2156.359863 48185.000000
2157.556885 48325.000000
2158.753174 49245.000000
2159.948242 49076.000000
2161.143066 48278.000000
2162.337158 48726.000000
2163.530273 48295.000000
2164.722412 47357.000000
2165.914307 48512.000000
2167.105469 48035.000000
2168.295654 47972.000000
2169.485107 47870.000000
2170.674072 47590.000000
2171.862061 48341.000000
2173.049805 48585.000000
2174.236084 48444.000000
2175.421631 47760.000000
2176.606934 48300.000000
2177.791748 48535.000000
2178.975342 48026.000000
2180.158203 46825.000000
2181.340088 48001.000000
2182.521729 48371.000000
2183.702881 47719.000000
2184.882813 48696.000000
2186.061768 48786.000000
2187.240234 48010.000000
2188.418457 47423.000000
2189.595459 47118.000000
2190.771484 47596.000000
2191.947266 48343.000000
2193.122559 48723.000000
2194.296387 47697.000000
2195.469727 48225.000000
2196.642822 48244.000000
2197.814697 47877.000000
2198.986084 47219.000000
2200.156982 48066.000000
2201.326172 47426.000000
2202.495361 46804.000000
2203.664063 47974.000000
2204.831787 48386.000000
2205.998535 48660.000000
2207.164551 47149.000000
2208.330078 47648.000000
2209.495361 48335.000000
2210.659180 47636.000000
2211.822510 48819.000000
2212.984619 48142.000000
2214.146973 48132.000000
2215.308105 47597.000000
2216.468262 47720.000000
2217.627930 47985.000000
2218.787354 47793.000000
2219.945557 47964.000000
2221.102783 47978.000000
2222.259766 47544.000000
2223.416016 47691.000000
2224.571533 47591.000000
2225.726318 48060.000000
2226.880127 47920.000000
2228.032959 48308.000000
2229.186279 47458.000000
2230.337646 48158.000000
2231.488770 48148.000000
2232.639160 47728.000000
2233.789063 46656.000000
2234.937988 48032.000000
2236.086426 49007.000000
2237.233398 47520.000000
2238.380615 47419.000000
2239.526611 48299.000000
2240.672363 47117.000000
2241.816406 47083.000000
2242.960693 47649.000000
2244.104004 48110.000000
2245.246582 48453.000000
2246.388184 48598.000000
2247.529541 48445.000000
2248.669922 47855.000000
2249.809570 47932.000000
2250.948730 48499.000000
2252.086670 48464.000000
2253.224609 48185.000000
2254.361572 49029.000000
2255.497803 48000.000000
2256.633057 48257.000000
2257.767578 47109.000000
2258.901855 47942.000000
2260.035645 48967.000000
2261.167969 48255.000000
2262.299805 47566.000000
2263.431152 48127.000000
2264.561523 47820.000000
2265.691650 46238.000000
2266.820557 47662.000000
2267.948975 48259.000000
2269.076904 48833.000000
2270.203857 48267.000000
2271.330078 48420.000000
2272.455322 47577.000000
2273.580566 47850.000000
2274.705078 47942.000000
2275.828369 48422.000000
2276.950928 48077.000000
2278.072998 48194.000000
2279.194580 47087.000000
2280.315430 47961.000000
2281.435059 47901.000000
2282.554199 47182.000000
2283.673096 46719.000000
2284.791260 47110.000000
2285.908447 48495.000000
2287.024658 47959.000000
2288.140625 47371.000000
2289.255859 47458.000000
2290.370361 46873.000000
2291.483643 48546.000000
2292.596924 47998.000000
2293.709473 48309.000000
2294.821289 48944.000000
2295.932373 47567.000000
2297.042236 47944.000000
2298.151611 48167.000000
2299.260742 47725.000000
2300.368896 48117.000000
2301.476074 47545.000000
2302.583008 48555.000000
2303.689209 48105.000000
2304.794922 47730.000000
2305.899170 47739.000000
2307.003174 48930.000000
2308.106689 48625.000000
2309.209717 47886.000000
2310.311523 46980.000000
2311.412598 46986.000000
2312.513184 47784.000000
2313.613281 48871.000000
2314.712646 48037.000000
2315.810547 47777.000000
2316.908936 47403.000000
2318.005859 46100.000000
2319.102539 47453.000000
2320.198730 48575.000000
2321.293213 47473.000000
2322.387695 46825.000000
2323.481445 48508.000000
2324.574951 48281.000000
2325.666748 47914.000000
2326.758545 47221.000000
2327.849609 48338.000000
2328.939941 48151.000000
2330.029297 47442.000000
2331.118652 48381.000000
2332.206787 48007.000000
2333.294434 47545.000000
2334.381836 47931.000000
2335.467529 47680.000000
2336.552979 46567.000000
2337.638184 48091.000000
2338.722412 47658.000000
2339.805664 48457.000000
2340.888672 47892.000000
2341.970703 47281.000000
2343.052490 48366.000000
2344.133545 46995.000000
2345.213379 47781.000000
2346.292725 48717.000000
2347.371582 47698.000000
2348.449951 47896.000000
2349.526855 48094.000000
2350.603516 47474.000000
2351.679932 48393.000000
2352.755371 47956.000000
2353.829834 48473.000000
2354.904053 48069.000000
2355.977539 47617.000000
2357.050537 48127.000000
2358.122314 47364.000000
2359.193848 48086.000000
2360.264404 47754.000000
2361.334717 46883.000000
2362.404053 46842.000000
2363.472412 47649.000000
2364.540527 47556.000000
2365.607910 47316.000000
2366.674805 47270.000000
2367.740967 48316.000000
2368.805908 47517.000000
2369.870850 47356.000000
2370.935059 47983.000000
2371.998535 47436.000000
2373.060791 48621.000000
2374.123047 48039.000000
2375.184326 48036.000000
2376.245361 48437.000000
2377.305176 48123.000000
2378.364258 46549.000000
2379.423340 47891.000000
2380.481445 46872.000000
2381.538818 47446.000000
2382.595215 46386.000000
2383.651367 46549.000000
2384.707031 48250.000000
2385.761963 47360.000000
2386.815430 47627.000000
2387.869141 47843.000000
2388.921875 48054.000000
2389.974121 47664.000000
2391.025635 48315.000000
2392.076172 47786.000000
2393.126465 47870.000000
2394.175781 48119.000000
2395.225098 48133.000000
2396.272949 47470.000000
2397.320313 47384.000000
2398.367432 48089.000000
2399.413574 47687.000000
2400.458984 48295.000000
2401.503662 47681.000000
2402.548340 46640.000000
2403.591553 46882.000000
2404.634766 47842.000000
2405.676514 48529.000000
2406.718506 47734.000000
2407.759766 47284.000000
2408.800049 48283.000000
2409.839600 47999.000000
2410.878174 48110.000000
2411.916992 48299.000000
2412.954590 47852.000000
2413.991943 47555.000000
2415.028076 47047.000000
2416.063965 48176.000000
2417.099121 48082.000000
2418.133789 47823.000000
2419.166992 47186.000000
2420.200439 47947.000000
2421.232910 47636.000000
2422.265137 47592.000000
2423.295898 47363.000000
2424.326660 48011.000000
2425.356934 47569.000000
2426.385986 47540.000000
2427.415039 47784.000000
2428.442383 47055.000000
2429.470215 47726.000000
2430.496826 47174.000000
2431.523193 47500.000000
2432.548096 46744.000000
2433.573242 47918.000000
2434.597412 47333.000000
2435.621338 47721.000000
2436.644043 48556.000000
2437.666016 48152.000000
2438.687744 47845.000000
2439.708740 47749.000000
2440.729248 48433.000000
2441.748535 47923.000000
2442.767822 47937.000000
2443.786133 46050.000000
2444.804199 48167.000000
2445.820801 47974.000000
2446.837402 47902.000000
2447.853271 48385.000000
2448.869141 47401.000000
2449.883545 47655.000000
2450.897217 48796.000000
2451.910400 47125.000000
2452.923340 48473.000000
2453.935547 47243.000000
2454.946777 47753.000000
2455.957764 46795.000000
2456.968018 48077.000000
2457.977783 46875.000000
2458.986572 48509.000000
2459.994629 48434.000000
2461.002686 48062.000000
2462.009521 47063.000000
2463.016113 49018.000000
2464.021484 47051.000000
2465.026611 47524.000000
2466.031494 48623.000000
2467.035156 48030.000000
2468.038574 48131.000000
2469.041016 46881.000000
2470.043213 47079.000000
2471.044922 47553.000000
2472.045654 47805.000000
2473.045410 47502.000000
2474.045166 47706.000000
2475.043945 48758.000000
2476.042236 47886.000000
2477.039551 47397.000000
2478.036621 48339.000000
2479.033691 47401.000000
2480.029297 48596.000000
2481.024902 47260.000000
2482.018799 47734.000000
2483.012695 46431.000000
2484.006104 47617.000000
2484.999023 47740.000000
2485.990967 46921.000000
2486.982178 47212.000000
2487.973145 47686.000000
2488.963623 48610.000000
2489.953125 47792.000000
2490.941895 48053.000000
2491.930664 48796.000000
2492.918457 47643.000000
2493.905029 47848.000000
2494.891602 46349.000000
2495.877686 47638.000000
2496.863037 47337.000000
2497.847412 46207.000000
2498.831543 48480.000000
2499.815674 47587.000000
2500.798340 48693.000000
2501.780518 47523.000000
2502.762207 47634.000000
2503.743164 47220.000000
2504.723633 47935.000000
2505.703857 48702.000000
2506.682617 48090.000000
2507.661133 46900.000000
2508.639160 47725.000000
2509.616699 47394.000000
2510.593262 48469.000000
2511.569580 48591.000000
2512.545166 48032.000000
2513.520264 48235.000000
2514.494873 48039.000000
2515.468262 46915.000000
2516.441406 47645.000000
2517.414307 47468.000000
2518.386230 48287.000000
2519.357422 47706.000000
2520.328125 47570.000000
2521.298584 46590.000000
2522.268311 46391.000000
2523.237061 48374.000000
2524.205078 48265.000000
2525.173096 46688.000000
2526.140137 48219.000000
2527.106934 48933.000000
2528.072510 47160.000000
2529.038086 47462.000000
2530.002930 46745.000000
2530.967285 48086.000000
2531.930420 48110.000000
2532.893799 48652.000000
2533.856201 48516.000000
2534.818359 47789.000000
2535.779297 48051.000000
2536.739502 48416.000000
2537.699951 48308.000000
2538.659424 47704.000000
2539.618164 47611.000000
2540.575928 47755.000000
2541.533936 48208.000000
2542.491211 47704.000000
2543.447510 48331.000000
2544.403564 47290.000000
2545.358398 48250.000000
2546.313477 46736.000000
2547.267822 47420.000000
2548.221436 47723.000000
2549.174072 47188.000000
2550.126465 47793.000000
2551.078369 47600.000000
2552.029541 48092.000000
2552.979980 46797.000000
2553.929932 47343.000000
2554.879639 47102.000000
2555.828613 47917.000000
2556.777100 48255.000000
2557.724365 47342.000000
2558.671631 48258.000000
2559.618164 47960.000000
2560.564209 47690.000000
2561.509277 47042.000000
2562.454102 47848.000000
2563.398438 47307.000000
2564.342285 47617.000000
2565.285645 47836.000000
2566.227539 47911.000000
2567.169678 47932.000000
2568.111084 48294.000000
2569.051758 47317.000000
2569.991699 47236.000000
2570.931641 48842.000000
2571.870605 48312.000000
2572.809326 47036.000000
2573.747070 47281.000000
2574.684570 49012.000000
2575.621338 47556.000000
2576.557373 47668.000000
2577.492920 46963.000000
2578.427734 48058.000000
2579.362549 48549.000000
2580.296387 47348.000000
2581.229736 47356.000000
2582.162354 48581.000000
2583.094727 47508.000000
2584.026367 48986.000000
2584.957520 47427.000000
2585.888184 47472.000000
2586.817627 47677.000000
2587.747070 47200.000000
2588.676025 48028.000000
2589.604736 47030.000000
2590.531738 47152.000000
2591.458984 48602.000000
2592.385742 47659.000000
2593.311768 48232.000000
2594.237549 48856.000000
2595.162109 46849.000000
2596.086426 46896.000000
2597.010254 49127.000000
2597.933594 47149.000000
2598.855957 48156.000000
2599.778076 47611.000000
2600.699707 46140.000000
2601.620605 48062.000000
2602.540771 48674.000000
2603.460693 48084.000000
2604.380127 48122.000000
2605.299316 48015.000000
2606.217529 48668.000000
2607.134521 48496.000000
2608.051758 47132.000000
2608.968750 48580.000000
2609.884766 46977.000000
2610.799561 47816.000000
2611.714844 47764.000000
2612.629395 47883.000000
2613.542969 47872.000000
2614.456543 48286.000000
2615.368896 46820.000000
2616.281250 47408.000000
2617.192627 47702.000000
2618.103760 48729.000000
2619.014160 46992.000000
2619.924316 47749.000000
2620.833740 48348.000000
2621.742676 47732.000000
2622.650635 48142.000000
2623.558838 47484.000000
2624.466064 47826.000000
2625.372803 47396.000000
2626.278809 48432.000000
2627.184570 48004.000000
2628.089600 48015.000000
2628.994385 46552.000000
2629.898438 47932.000000
2630.801514 48015.000000
2631.704590 48044.000000
2632.606689 48831.000000
2633.508789 47681.000000
2634.410645 47476.000000
2635.310791 47602.000000
2636.211182 48007.000000
2637.110840 48046.000000
2638.010254 48358.000000
2638.908203 47563.000000
2639.806641 47660.000000
2640.704590 48005.000000
2641.601807 48341.000000
2642.497803 48265.000000
2643.393799 47469.000000
2644.289551 48313.000000
2645.184570 47955.000000
2646.079346 47763.000000
2646.972656 47141.000000
2647.865967 48083.000000
2648.759033 47603.000000
2649.651855 47879.000000
2650.542969 46850.000000
2651.434326 47989.000000
2652.325195 46801.000000
2653.215332 47095.000000
2654.105225 47793.000000
2654.993896 47024.000000
2655.882813 47698.000000
2656.771240 47739.000000
2657.658691 47090.000000
2658.545166 47877.000000
2659.432129 47217.000000
2660.318359 47520.000000
2661.204102 47482.000000
2662.088623 47805.000000
2662.973145 47951.000000
2663.857422 48103.000000
2664.740967 47196.000000
2665.624023 46536.000000
2666.506348 46902.000000
2667.388184 48115.000000
2668.269287 47701.000000
2669.150635 48231.000000
2670.030518 47760.000000
2670.910645 46888.000000
2671.790039 47110.000000
2672.669434 48026.000000
2673.548096 48155.000000
2674.425049 47849.000000
2675.302734 47551.000000
2676.179688 47948.000000
2677.055908 46187.000000
2677.931641 47065.000000
2678.806641 48045.000000
2679.681885 46549.000000
2680.556152 47252.000000
2681.429932 46874.000000
2682.302979 47203.000000
2683.175781 47974.000000
2684.048340 48177.000000
2684.920166 47208.000000
2685.791260 47625.000000
2686.662109 47317.000000
2687.532471 47068.000000
2688.402588 47595.000000
2689.270996 47884.000000
2690.140137 46831.000000
2691.008545 47038.000000
2691.876709 47464.000000
2692.744141 47265.000000
2693.610352 48312.000000
2694.477051 46994.000000
2695.342773 46780.000000
2696.208496 46957.000000
2697.072754 46169.000000
2697.937744 47624.000000
2698.801270 46828.000000
2699.665039 48244.000000
2700.527344 46685.000000
2701.390137 47235.000000
2702.251953 48104.000000
2703.113281 47233.000000
2703.974609 47360.000000
2704.834717 46654.000000
2705.694824 46678.000000
2706.554443 47468.000000
2707.413818 47175.000000
2708.271484 46945.000000
2709.129395 47132.000000
2709.987793 46640.000000
2710.844971 47259.000000
2711.701416 48025.000000
2712.557373 47098.000000
2713.413330 47949.000000
2714.268555 47092.000000
2715.123047 47826.000000
2715.977051 47091.000000
2716.831055 46616.000000
2717.684082 47649.000000
2718.537354 47356.000000
2719.388916 46244.000000
2720.240967 47167.000000
2721.092773 47700.000000
2721.943359 47451.000000
2722.793945 47384.000000
2723.644043 46764.000000
2724.493408 46870.000000
2725.342773 46904.000000
2726.190918 47266.000000
2727.038574 47252.000000
2727.886719 46812.000000
2728.733643 47039.000000
2729.581055 48291.000000
2730.427002 46348.000000
2731.272217 46835.000000
2732.117920 47448.000000
2732.962646 46635.000000
2733.807373 46515.000000
2734.650879 46949.000000
2735.494629 45955.000000
2736.337646 46651.000000
2737.180176 47734.000000
2738.021729 47525.000000
2738.863770 46994.000000
2739.704834 46846.000000
2740.545654 47903.000000
2741.386230 47853.000000
2742.225586 46026.000000
2743.064941 46888.000000
2743.904297 46861.000000
2744.742432 46898.000000
2745.580078 45726.000000
2746.417725 47341.000000
2747.254883 46532.000000
2748.091797 47426.000000
2748.928223 47653.000000
2749.763428 46923.000000
2750.598877 47379.000000
2751.433838 47263.000000
2752.268066 47316.000000
2753.102051 46679.000000
2753.935547 46722.000000
2754.769043 45491.000000
2755.601563 46742.000000
2756.433594 46175.000000
2757.265137 46682.000000
2758.096680 46352.000000
2758.927246 46198.000000
2759.758057 46216.000000
2760.587646 46186.000000
2761.417236 46593.000000
2762.246582 46007.000000
2763.075195 46448.000000
2763.903320 46545.000000
2764.730957 46368.000000
2765.558594 46722.000000
2766.385742 45391.000000
2767.212158 47399.000000
2768.038086 45762.000000
2768.863525 46343.000000
2769.688721 45448.000000
2770.513916 46097.000000
2771.337891 46458.000000
2772.161865 46701.000000
2772.985840 45453.000000
2773.808594 46427.000000
2774.631592 46069.000000
2775.453369 46112.000000
2776.275146 46013.000000
2777.096924 46506.000000
2777.917725 45006.000000
2778.737793 46501.000000
2779.558105 45948.000000
2780.377930 45718.000000
2781.197754 46401.000000
2782.015625 46893.000000
2782.834717 44775.000000
2783.652588 46439.000000
2784.470215 46116.000000
2785.287354 45789.000000
2786.104004 45577.000000
2786.920410 45479.000000
2787.736328 46406.000000
2788.552002 46683.000000
2789.366699 46210.000000
2790.181885 45622.000000
2790.996338 45450.000000
2791.810303 45952.000000
2792.624023 45157.000000
2793.436523 43811.000000
2794.249268 45623.000000
2795.061523 45136.000000
2795.873291 45269.000000
2796.684326 45174.000000
2797.496094 45926.000000
2798.306641 45211.000000
2799.117188 45323.000000
2799.926270 45026.000000
2800.736084 44199.000000
2801.545166 44520.000000
2802.354004 45651.000000
2803.162354 45070.000000
2803.969727 46061.000000
2804.777588 45815.000000
2805.584717 45209.000000
2806.391602 45174.000000
2807.197266 45020.000000
2808.003418 45451.000000
2808.808838 45595.000000
2809.614258 44662.000000
2810.418945 45787.000000
2811.222656 44341.000000
2812.026855 44518.000000
2812.830566 45642.000000
2813.634033 45800.000000
2814.436035 45251.000000
2815.238770 44538.000000
2816.040771 43975.000000
2816.842529 45493.000000
2817.643799 45152.000000
2818.444580 44414.000000
2819.244873 45092.000000
2820.045410 44866.000000
2820.844971 43427.000000
2821.644043 44292.000000
2822.443115 44913.000000
2823.241943 44419.000000
2824.040283 44901.000000
2824.837646 44154.000000
2825.635254 44132.000000
2826.432129 44373.000000
2827.229248 43638.000000
2828.025635 42993.000000
2828.821289 43824.000000
2829.616943 43392.000000
2830.412354 43166.000000
2831.207275 43187.000000
2832.001465 43918.000000
2832.795654 43620.000000
2833.589600 44741.000000
2834.383057 43529.000000
2835.175781 43154.000000
2835.968262 42184.000000
2836.760742 42564.000000
2837.552979 42610.000000
2838.344727 43598.000000
2839.135498 43224.000000
2839.926270 41040.000000
2840.717285 42373.000000
2841.507324 43472.000000
2842.296875 41953.000000
2843.086670 42400.000000
2843.875488 41987.000000
2844.664307 41495.000000
2845.453125 41556.000000
2846.240967 41614.000000
2847.028320 41761.000000
2847.815918 41349.000000
2848.603027 41562.000000
2849.389404 42019.000000
2850.175781 41123.000000
2850.961914 41295.000000
2851.747559 40889.000000
2852.532227 41179.000000
2853.317383 41286.000000
2854.102295 40606.000000
2854.886475 40957.000000
2855.670654 41058.000000
2856.453613 39594.000000
2857.236816 41023.000000
2858.019775 40908.000000
2858.802246 39882.000000
2859.584473 41415.000000
2860.366211 40815.000000
2861.147705 39858.000000
2861.929443 39992.000000
2862.710449 39853.000000
2863.490723 40787.000000
2864.270752 40597.000000
2865.050781 39093.000000
2865.830566 39793.000000
2866.609375 39118.000000
2867.388428 39358.000000
2868.166992 40117.000000
2868.945313 39871.000000
2869.723145 39663.000000
2870.500732 39960.000000
2871.278076 39224.000000
2872.055176 39594.000000
2872.831787 40102.000000
2873.607910 39030.000000
2874.384033 39229.000000
2875.159668 38044.000000
2875.935059 38944.000000
2876.709961 39296.000000
2877.484619 37720.000000
2878.259277 39030.000000
2879.033691 37589.000000
2879.807373 38509.000000
2880.580322 37932.000000
2881.354004 38243.000000
2882.126709 37264.000000
2882.899414 36919.000000
2883.671387 36426.000000
2884.443115 38229.000000
2885.215332 37538.000000
2885.986328 37340.000000
2886.756836 38109.000000
2887.527832 35919.000000
2888.298828 36797.000000
2889.069092 36132.000000
2889.838379 36353.000000
2890.607910 36943.000000
2891.377441 36530.000000
2892.146484 36409.000000
2892.915039 35749.000000
2893.683594 35939.000000
2894.451172 36313.000000
2895.219238 36587.000000
2895.986816 35549.000000
2896.754395 34523.000000
2897.520752 35207.000000
2898.288086 35798.000000
2899.054199 34986.000000
2899.820557 35219.000000
2900.585449 33875.000000
2901.350830 35130.000000
2902.116699 35568.000000
2902.881104 34321.000000
2903.645508 34191.000000
2904.410156 33470.000000
2905.173828 34951.000000
2905.938232 33036.000000
2906.701904 34429.000000
2907.464844 32574.000000
2908.227539 34180.000000
2908.990723 31502.000000
2909.753418 33325.000000
2910.514893 33246.000000
2911.276855 33246.000000
spectrumdark 2048
-96.953926 6215.000000
-94.327057 6215.000000
-91.702065 6062.000000
-89.078964 6407.000000
-86.457733 5818.000000
-83.838402 6229.000000
-81.220932 6067.000000
-78.605339 6404.000000
-75.991623 6162.000000
-73.379784 6008.000000
-70.769806 6114.000000
-68.161713 5946.000000
-65.555466 5972.000000
-62.951099 6021.000000
-60.348591 6112.000000
-57.747936 5676.000000
-55.149143 6285.000000
-52.552208 6889.000000
-49.957127 6463.000000
-47.363899 6537.000000
-44.772522 6253.000000
-42.182991 6715.000000
-39.595303 5935.000000
-37.009464 6143.000000
-34.425468 6427.000000
-31.843309 5694.000000
-29.262997 6343.000000
-26.684511 5710.000000
-24.107868 6134.000000
-21.533051 6306.000000
-18.960073 6440.000000
-16.388916 6546.000000
-13.819592 6801.000000
-11.252093 7781.000000
-8.686414 6341.000000
-6.122560 6432.000000
-3.560520 6056.000000
-1.000304 5786.000000
1.558104 6294.000000
4.114691 6903.000000
6.669474 6633.000000
9.222439 6008.000000
11.773603 6777.000000
14.322955 6501.000000
16.870510 6714.000000
19.416254 6027.000000
21.960205 5789.000000
24.502352 6662.000000
27.042702 6807.000000
29.581266 6853.000000
32.118034 6143.000000
34.653000 5807.000000
37.186188 7272.000000
39.717594 6346.000000
42.247208 7110.000000
44.775024 6503.000000
47.301083 7751.000000
49.825352 5732.000000
52.347851 6193.000000
54.868553 6697.000000
57.387501 6291.000000
59.904675 6430.000000
62.420071 6648.000000
64.933693 5626.000000
67.445557 5674.000000
69.955673 6462.000000
72.463997 6605.000000
74.970566 5900.000000
77.475388 6324.000000
79.978455 6396.000000
82.479744 6344.000000
84.979294 6150.000000
87.477089 6325.000000
89.973152 5776.000000
92.467438 7216.000000
94.959984 5801.000000
97.450813 6900.000000
99.939873 7219.000000
102.427185 6376.000000
104.912773 6177.000000
107.396622 6415.000000
109.878723 5812.000000
112.359100 6750.000000
114.837753 6249.000000
117.314682 6538.000000
119.789856 7190.000000
122.263321 6840.000000
124.735054 5881.000000
127.205078 6715.000000
129.673340 6221.000000
132.139938 6392.000000
134.604782 5777.000000
137.067932 6226.000000
139.529343 7263.000000
141.989059 6866.000000
144.447052 6317.000000
146.903351 5958.000000
149.357941 5820.000000
151.810806 6798.000000
154.261993 6357.000000
156.711487 6674.000000
159.159256 6113.000000
161.605316 6633.000000
164.049698 8725.000000
166.492401 6419.000000
168.933411 6777.000000
171.372711 6214.000000
173.810303 7334.000000
176.246262 6683.000000
178.680481 6915.000000
181.113022 7159.000000
183.543915 6716.000000
185.973083 7161.000000
188.400604 6767.000000
190.826447 6358.000000
193.250610 6770.000000
195.673111 7193.000000
198.093918 7383.000000
200.513062 6466.000000
202.930542 6020.000000
205.346329 7705.000000
207.760468 7111.000000
210.172974 6363.000000
212.583801 6100.000000
214.992950 6325.000000
217.400467 7386.000000
219.806274 6114.000000
222.210495 6511.000000
224.613007 6760.000000
227.013901 6938.000000
229.413147 6541.000000
231.810730 6845.000000
234.206650 7287.000000
236.600952 6569.000000
238.993591 6193.000000
241.384613 6739.000000
243.773972 6574.000000
246.161713 6423.000000
248.547806 7031.000000
250.932266 6179.000000
253.315079 7890.000000
255.696320 6665.000000
258.075867 6655.000000
260.453827 6495.000000
262.830109 7602.000000
265.204834 7637.000000
267.577911 7911.000000
269.949341 6146.000000
272.319122 6454.000000
274.687347 5897.000000
277.053925 6403.000000
279.418915 6487.000000
281.782288 6073.000000
284.144012 6272.000000
286.504150 7158.000000
288.862671 6063.000000
291.219604 6538.000000
293.574921 6382.000000
295.928650 5957.000000
298.280731 6004.000000
300.631256 6318.000000
302.980194 6308.000000
305.327484 6816.000000
307.673248 6426.000000
310.017334 6552.000000
312.359894 7409.000000
314.700836 7560.000000
317.040161 7228.000000
319.377930 6937.000000
321.714142 8189.000000
324.048706 6258.000000
326.381714 6489.000000
328.713165 5996.000000
331.043030 6655.000000
333.371307 6435.000000
335.697968 7236.000000
338.023132 6435.000000
340.346680 6241.000000
342.668671 5951.000000
344.989105 7542.000000
347.307922 7737.000000
349.625183 6034.000000
351.940918 5819.000000
354.255066 6991.000000
356.567627 6333.000000
358.878632 6458.000000
361.188110 7080.000000
363.496063 6414.000000
365.802399 5727.000000
368.107147 6495.000000
370.410431 6524.000000
372.712097 6288.000000
375.012268 6368.000000
377.310883 6294.000000
379.607941 5758.000000
381.903442 6077.000000
384.197418 5896.000000
386.489807 5241.000000
388.780701 5673.000000
391.070068 6236.000000
393.357849 6282.000000
395.644104 6497.000000
397.928864 7002.000000
400.212006 6054.000000
402.493713 6372.000000
404.773895 6148.000000
407.052490 7235.000000
409.329559 6356.000000
411.605103 6636.000000
413.879120 6373.000000
416.151703 6293.000000
418.422668 6223.000000
420.692139 6396.000000
422.960114 7161.000000
425.226532 7259.000000
427.491455 6323.000000
429.754913 6346.000000
432.016785 6440.000000
434.277191 6042.000000
436.536041 6675.000000
438.793427 6126.000000
441.049316 5633.000000
443.303711 5809.000000
445.556580 5508.000000
447.807892 6938.000000
450.057800 6192.000000
452.306122 6322.000000
454.553009 5691.000000
456.798431 6489.000000
459.042297 6473.000000
461.284668 6520.000000
463.525543 5697.000000
465.765015 6734.000000
468.002899 5519.000000
470.239349 5943.000000
472.474274 6092.000000
474.707733 7195.000000
476.939758 6700.000000
479.170258 5678.000000
481.399261 6495.000000
483.626801 6360.000000
485.852844 5963.000000
488.077454 6616.000000
490.300598 5877.000000
492.522278 6419.000000
494.742401 6765.000000
496.961121 5667.000000
499.178345 6233.000000
501.394196 5506.000000
503.608429 6182.000000
505.821350 6450.000000
508.032684 6531.000000
510.242584 6910.000000
512.451050 6508.000000
514.658142 6561.000000
516.863647 6477.000000
519.067749 6590.000000
521.270325 6276.000000
523.471497 6545.000000
525.671326 6722.000000
527.869629 6907.000000
530.066406 5313.000000
532.261841 5853.000000
534.455750 5530.000000
536.648315 7557.000000
538.839355 6726.000000
541.028992 6082.000000
543.217224 6906.000000
545.403931 7156.000000
547.589172 6814.000000
549.773132 6240.000000
551.955505 6420.000000
554.136536 6204.000000
556.316040 6017.000000
558.494263 5929.000000
560.670959 6013.000000
562.846252 6429.000000
565.020142 6440.000000
567.192566 5934.000000
569.363586 6095.000000
571.533142 6358.000000
573.701416 5299.000000
575.868164 6428.000000
578.033447 6332.000000
580.197327 6114.000000
582.359924 5788.000000
584.520996 5994.000000
586.680664 5592.000000
588.838989 5861.000000
590.995789 6136.000000
593.151245 6625.000000
595.305298 5800.000000
597.458008 6121.000000
599.609192 7266.000000
601.759033 6825.000000
603.907532 6686.000000
606.054443 6029.000000
608.200134 6538.000000
610.344421 6500.000000
612.487244 7035.000000
614.628601 6112.000000
616.768738 6486.000000
618.907349 7740.000000
621.044678 5717.000000
623.180542 6614.000000
625.315002 6869.000000
627.447998 7185.000000
629.579834 6669.000000
631.710205 6630.000000
633.839172 6832.000000
635.966675 6506.000000
638.092896 6223.000000
640.217590 7339.000000
642.341064 6364.000000
644.463196 6836.000000
646.583862 6829.000000
648.703186 6595.000000
650.821106 5646.000000
652.937683 5740.000000
655.052856 6449.000000
657.166687 6539.000000
659.279053 5850.000000
661.390198 6136.000000
663.499939 5400.000000
665.608215 6054.000000
667.715332 6259.000000
669.820984 6809.000000
671.925171 5917.000000
674.028137 5725.000000
676.129700 7036.000000
678.229919 5327.000000
680.328735 6799.000000
682.426208 6246.000000
684.522400 6958.000000
686.617126 6336.000000
688.710632 7015.000000
690.802795 6610.000000
692.893433 7912.000000
694.982849 6604.000000
697.070984 6501.000000
699.157654 6070.000000
701.243103 6704.000000
703.327026 5164.000000
705.409729 5949.000000
707.491150 5886.000000
709.571106 7540.000000
711.649841 6240.000000
713.727112 5565.000000
715.803101 6627.000000
717.877808 6069.000000
719.951233 7041.000000
722.023132 6361.000000
724.093872 7427.000000
726.163269 5795.000000
728.231262 6490.000000
730.297913 6439.000000
732.363342 7115.000000
734.427429 5775.000000
736.490173 6170.000000
738.551575 6456.000000
740.611694 6599.000000
742.670410 6031.000000
744.727905 6715.000000
746.784119 6660.000000
748.838928 6701.000000
750.892456 6354.000000
752.944580 7563.000000
754.995483 5798.000000
757.045166 6748.000000
759.093384 6398.000000
761.140381 6141.000000
763.186096 7023.000000
765.230408 5400.000000
767.273438 5725.000000
769.315247 15101.000000
771.355713 7202.000000
773.394775 6387.000000
775.432678 6109.000000
777.469238 6042.000000
779.504578 5402.000000
781.538574 5733.000000
783.571167 6890.000000
785.602600 5586.000000
787.632629 11568.000000
789.661377 6061.000000
791.688965 6382.000000
793.715210 6416.000000
795.740051 5849.000000
797.763794 5509.000000
799.786133 6362.000000
801.807251 5916.000000
803.827026 6665.000000
805.845520 4939.000000
807.862793 6751.000000
809.878662 6840.000000
811.893372 5725.000000
813.906738 6467.000000
815.918884 6299.000000
817.929810 6051.000000
819.939392 6625.000000
821.947754 5302.000000
823.954712 5719.000000
825.960449 6091.000000
827.964966 5779.000000
829.968201 5610.000000
831.970154 6513.000000
833.970825 6166.000000
835.970276 5979.000000
837.968384 6366.000000
839.965393 7016.000000
841.960999 6242.000000
843.955444 5969.000000
845.948547 6210.000000
847.940430 6892.000000
849.930969 5592.000000
851.920227 6809.000000
853.908447 6002.000000
855.895264 5776.000000
857.880859 6457.000000
859.865173 7257.000000
861.848389 6354.000000
863.830200 6469.000000
865.810791 5881.000000
867.790100 7714.000000
869.768250 7107.000000
871.745056 6260.000000
873.720581 6030.000000
875.695068 6211.000000
877.668091 6020.000000
879.640076 5459.000000
881.610718 6381.000000
883.580200 6121.000000
885.548340 5619.000000
887.515320 5228.000000
889.480957 6126.000000
891.445435 5870.000000
893.408691 6054.000000
895.370728 6523.000000
897.331482 5873.000000
899.291016 6465.000000
901.249268 6745.000000
903.206421 6444.000000
905.162415 6050.000000
907.117004 6979.000000
909.070374 6534.000000
911.022583 6515.000000
912.973572 6397.000000
914.923279 7152.000000
916.871826 6318.000000
918.819153 6169.000000
920.765198 6119.000000
922.709961 6087.000000
924.653687 6281.000000
926.596252 5972.000000
928.537537 5599.000000
930.477478 6515.000000
932.416321 5742.000000
934.353882 5551.000000
936.290222 5952.000000
938.225403 5863.000000
940.159302 6170.000000
942.092102 5925.000000
944.023682 6815.000000
945.954102 5248.000000
947.883301 6487.000000
949.811157 7077.000000
951.737976 6663.000000
953.663513 5990.000000
955.587769 5425.000000
957.510925 6066.000000
959.432922 6758.000000
961.353638 7287.000000
963.273193 6481.000000
965.191589 5339.000000
967.108948 6481.000000
969.024841 6417.000000
970.939636 6171.000000
972.853210 5919.000000
974.765625 6422.000000
976.676819 6483.000000
978.586853 5503.000000
980.495605 6243.000000
982.403320 6103.000000
984.309814 6352.000000
986.215088 5703.000000
988.119263 6826.000000
990.022217 6186.000000
991.923950 6767.000000
993.824524 6337.000000
995.723938 6678.000000
997.622131 5313.000000
999.519165 6557.000000
1001.414978 6555.000000
1003.309631 7647.000000
1005.203186 5624.000000
1007.095459 7314.000000
1008.986816 6123.000000
1010.876831 5362.000000
1012.765625 6670.000000
1014.653259 6357.000000
1016.539734 6924.000000
1018.425049 6798.000000
1020.309204 5909.000000
1022.192139 5881.000000
1024.073975 6266.000000
1025.954590 5273.000000
1027.834106 5941.000000
1029.712646 6158.000000
1031.589844 5398.000000
1033.465698 6197.000000
1035.340576 5979.000000
1037.214478 6655.000000
1039.086914 7081.000000
1040.958374 6741.000000
1042.828491 5514.000000
1044.697632 5487.000000
1046.565552 5807.000000
1048.432373 7066.000000
1050.298096 6795.000000
1052.162598 6468.000000
1054.026001 6435.000000
1055.888062 6535.000000
1057.749146 5957.000000
1059.609131 6502.000000
1061.467773 6609.000000
1063.325317 5786.000000
1065.181763 6731.000000
1067.037109 5927.000000
1068.891235 5864.000000
1070.744507 6314.000000
1072.596313 6377.000000
1074.447144 6210.000000
1076.296753 6143.000000
1078.145142 5800.000000
1079.992676 7984.000000
1081.838867 5647.000000
1083.683838 6232.000000
1085.527954 5438.000000
1087.370728 5549.000000
1089.212280 6533.000000
1091.053101 5498.000000
1092.892334 5797.000000
1094.730835 6100.000000
1096.567993 6102.000000
1098.403931 6814.000000
1100.238892 6644.000000
1102.072632 5458.000000
1103.905396 5676.000000
1105.736816 6245.000000
1107.567383 7304.000000
1109.396606 6581.000000
1111.224854 6509.000000
1113.051880 7160.000000
1114.877930 5458.000000
1116.702759 6372.000000
1118.526489 7230.000000
1120.348999 6115.000000
1122.170410 5920.000000
1123.990967 5853.000000
1125.810059 6644.000000
1127.628296 7112.000000
1129.445190 7030.000000
1131.261230 6705.000000
1133.076050 6522.000000
1134.889771 5640.000000
1136.702393 5848.000000
1138.513794 5636.000000
1140.324219 6215.000000
1142.133545 6733.000000
1143.941528 6989.000000
1145.748779 5984.000000
1147.554565 5916.000000
1149.359497 5402.000000
1151.163330 5386.000000
1152.965942 6075.000000
1154.767700 6096.000000
1156.567993 6080.000000
1158.367310 6120.000000
1160.165649 6073.000000
1161.962646 5467.000000
1163.758911 5957.000000
1165.553833 6097.000000
1167.347656 6336.000000
1169.140625 7763.000000
1170.932251 5810.000000
1172.722900 6587.000000
1174.512573 6034.000000
1176.300781 5780.000000
1178.088135 7474.000000
1179.874390 6681.000000
1181.659546 5823.000000
1183.443604 5993.000000
1185.226563 7677.000000
1187.008545 5821.000000
1188.789307 5935.000000
1190.569092 6430.000000
1192.347778 7014.000000
1194.125488 6654.000000
1195.901978 7227.000000
1197.677368 6566.000000
1199.451660 6537.000000
1201.224854 6724.000000
1202.997192 6641.000000
1204.768188 6819.000000
1206.538330 5760.000000
1208.307251 6115.000000
1210.075073 6389.000000
1211.842041 5883.000000
1213.607666 5947.000000
1215.372314 7016.000000
1217.135864 6595.000000
1218.898315 5986.000000
1220.659912 6863.000000
1222.420288 5938.000000
1224.179565 6416.000000
1225.937988 6099.000000
1227.695190 7328.000000
1229.451294 6454.000000
1231.206299 5485.000000
1232.960449 6060.000000
1234.713257 5851.000000
1236.465088 6092.000000
1238.216064 5945.000000
1239.965698 4995.000000
1241.714478 7021.000000
1243.461914 6567.000000
1245.208618 6580.000000
1246.954102 6511.000000
1248.698730 6443.000000
1250.442017 6799.000000
1252.184326 6727.000000
1253.925537 5385.000000
1255.665894 5139.000000
1257.405151 5843.000000
1259.143188 6602.000000
1260.880371 7127.000000
1262.616333 6122.000000
1264.351318 6418.000000
1266.085327 7402.000000
1267.818359 6021.000000
1269.550171 6254.000000
1271.281006 6481.000000
1273.010620 7284.000000
1274.739380 5912.000000
1276.467041 5746.000000
1278.193604 5552.000000
1279.919312 5587.000000
1281.643677 6504.000000
1283.367188 5184.000000
1285.089722 6933.000000
1286.811279 6688.000000
1288.531616 6359.000000
1290.250977 6733.000000
1291.969238 7280.000000
1293.686523 6483.000000
1295.402832 5833.000000
1297.117920 6402.000000
1298.832031 6199.000000
1300.545166 5745.000000
1302.257446 6487.000000
1303.968506 8391.000000
1305.678589 5268.000000
1307.387573 6378.000000
1309.095337 6690.000000
1310.802490 7058.000000
1312.508179 5807.000000
1314.213135 6896.000000
1315.917114 6165.000000
1317.619873 5996.000000
1319.321655 6569.000000
1321.022583 6074.000000
1322.722168 10008.000000
1324.420898 7820.500000
1326.118896 5633.000000
1327.815552 6470.000000
1329.511108 7165.000000
1331.205811 6865.000000
1332.899292 5768.000000
1334.591919 5446.000000
1336.283691 7357.000000
1337.974121 6362.000000
1339.663818 6587.000000
1341.352417 6109.000000
1343.039917 7596.000000
1344.726440 5599.000000
1346.411865 6677.000000
1348.096313 5959.000000
1349.779907 7282.000000
1351.462280 6364.000000
1353.143677 5974.000000
1354.824219 6654.000000
1356.503540 6759.000000
1358.182251 5920.000000
1359.859619 6517.000000
1361.535889 5837.000000
1363.211182 5589.000000
1364.885742 6566.000000
1366.559082 6532.000000
1368.231445 6763.000000
1369.902832 5163.000000
1371.573242 6878.000000
1373.242554 6173.000000
1374.910889 5704.000000
1376.578369 5947.000000
1378.244751 6499.000000
1379.910156 6237.000000
1381.574585 5919.000000
1383.237793 5965.000000
1384.900391 5790.000000
1386.561646 6343.000000
1388.222046 6623.000000
1389.881348 6434.000000
1391.539673 6554.000000
1393.197266 6912.000000
1394.853638 6519.000000
1396.509155 7063.000000
1398.163452 6356.000000
1399.816895 5936.000000
1401.469238 6225.000000
1403.120850 6530.000000
1404.771240 7174.000000
1406.420532 6336.000000
1408.069092 7477.000000
1409.716553 8010.000000
1411.363037 6256.000000
1413.008667 6280.000000
1414.653320 5964.000000
1416.296753 6999.000000
1417.939331 7164.000000
1419.580811 6904.000000
1421.221436 6593.000000
1422.861084 6512.000000
1424.499634 6070.000000
1426.137329 6552.000000
1427.773926 6424.000000
1429.409546 6050.000000
1431.044434 6429.000000
1432.678223 5881.000000
1434.310913 6197.000000
1435.942627 5721.000000
1437.573486 6145.000000
1439.203247 6090.000000
1440.831909 7986.000000
1442.459961 6031.000000
1444.086914 6191.000000
1445.712646 6187.000000
1447.337769 6188.000000
1448.961792 6525.000000
1450.584839 6082.000000
1452.206909 6071.000000
1453.827881 7442.000000
1455.447876 6373.000000
1457.067139 6943.000000
1458.685059 5693.000000
1460.302368 5613.000000
1461.918701 5533.000000
1463.533813 7258.000000
1465.148071 6451.000000
1466.761475 5234.000000
1468.373779 5661.000000
1469.985229 6346.000000
1471.595825 6360.000000
1473.205200 6031.000000
1474.813599 6028.000000
1476.421143 6222.000000
1478.027710 6881.000000
1479.633545 5337.000000
1481.238159 6303.000000
1482.841919 5525.000000
1484.444458 6773.000000
1486.046387 5607.000000
1487.647095 5482.000000
1489.247070 5639.000000
1490.845947 6274.000000
1492.443970 6538.000000
1494.040894 6738.000000
1495.636963 6392.000000
1497.232056 6030.000000
1498.826172 5500.000000
1500.419556 6577.000000
1502.011841 5536.000000
1503.602905 6205.000000
1505.193481 6825.000000
1506.782715 6441.000000
1508.371338 6207.000000
1509.958862 6556.000000
1511.545288 6894.000000
1513.130981 6243.000000
1514.715576 6663.000000
1516.299316 6427.000000
1517.881958 6241.000000
1519.463867 6621.000000
1521.044678 6719.000000
1522.624756 6091.000000
1524.203613 6279.000000
1525.781616 6463.000000
1527.358887 6298.000000
1528.934937 5687.000000
1530.510254 6078.000000
1532.084473 6399.000000
1533.657959 5478.000000
1535.230225 5977.000000
1536.801758 6362.000000
1538.372314 6417.000000
1539.942017 6367.000000
1541.510498 5461.000000
1543.078247 6631.000000
1544.645142 5637.000000
1546.210815 6831.000000
1547.775757 6043.000000
1549.339600 5110.000000
1550.902832 7506.000000
1552.464722 6331.000000
1554.026001 5986.000000
1555.586182 5722.000000
1557.145630 5761.000000
1558.703979 5904.000000
1560.261597 6342.000000
1561.818115 7045.000000
1563.373413 5912.000000
1564.928101 6394.000000
1566.482056 5608.000000
1568.035034 6372.000000
1569.586670 5727.000000
1571.137573 5932.000000
1572.687744 6285.000000
1574.236938 6433.000000
1575.784790 5829.000000
1577.332153 5523.000000
1578.878540 5693.000000
1580.424072 5143.000000
1581.968628 6643.000000
1583.511963 6435.000000
1585.054688 6587.000000
1586.596558 6491.000000
1588.137329 6738.000000
1589.677124 5854.000000
1591.216187 6727.000000
1592.754150 5903.000000
1594.291626 6219.000000
1595.827759 6005.000000
1597.362793 6716.000000
1598.897339 6246.000000
1600.430908 6027.000000
1601.963623 6207.000000
1603.494751 6355.000000
1605.025635 6312.000000
1606.555664 5784.000000
1608.084473 6171.000000
1609.612183 6263.000000
1611.139282 6010.000000
1612.665649 5993.000000
1614.191040 6257.000000
1615.715576 5858.000000
1617.238770 5827.000000
1618.761230 5693.000000
1620.282959 6594.000000
1621.803833 6991.000000
1623.323242 15629.000000
1624.842163 6294.000000
1626.360352 6082.000000
1627.877686 5844.000000
1629.393921 6494.000000
1630.908813 7050.000000
1632.423218 6856.000000
1633.936890 5828.000000
1635.449463 6685.000000
1636.960815 5977.000000
1638.471802 6504.000000
1639.981689 6317.000000
1641.490723 6241.000000
1642.998413 5635.000000
1644.505737 6166.000000
1646.012207 7149.000000
1647.517700 6283.000000
1649.022339 6879.000000
1650.525513 6171.000000
1652.028076 6617.000000
1653.530273 6326.000000
1655.031128 6651.000000
1656.530884 7575.000000
1658.029785 6195.000000
1659.528320 6531.000000
1661.025635 6269.000000
1662.522217 5998.000000
1664.017212 6518.000000
1665.511963 6362.000000
1667.005859 5267.000000
1668.498779 5679.000000
1669.990356 6071.500000
1671.481445 6464.000000
1672.971924 6157.000000
1674.461304 5979.000000
1675.949219 7035.000000
1677.436890 6871.000000
1678.923584 6133.000000
1680.409424 5483.000000
1681.894409 6154.000000
1683.377930 6207.000000
1684.861206 6387.000000
1686.343628 5886.000000
1687.824951 6271.000000
1689.304810 6221.000000
1690.784424 5543.000000
1692.263306 6603.000000
1693.741211 6037.000000
1695.218140 6127.000000
1696.693848 5799.000000
1698.169189 6071.000000
1699.643311 6330.000000
1701.116821 5510.000000
1702.588867 5618.000000
1704.060669 6950.000000
1705.531494 6426.000000
1707.001465 7116.000000
1708.470093 5129.000000
1709.938232 5872.000000
1711.405640 6400.000000
1712.871948 5553.000000
1714.337646 5804.000000
1715.801636 6246.000000
1717.265503 6001.000000
1718.728516 7049.000000
1720.190552 6442.000000
1721.651367 6653.000000
1723.111572 5524.000000
1724.571045 6402.000000
1726.029663 6163.000000
1727.487305 6016.000000
1728.943604 6322.000000
1730.399658 6081.000000
1731.854736 6444.000000
1733.308838 6050.000000
1734.761719 6985.000000
1736.214355 6045.000000
1737.665894 6767.000000
1739.116699 5976.000000
1740.566528 6596.000000
1742.015015 6022.000000
1743.463135 7631.000000
1744.910400 6634.000000
1746.356934 6697.000000
1747.801880 6708.000000
1749.246582 6184.000000
1750.690430 5914.000000
1752.133423 5521.000000
1753.574951 6602.000000
1755.016235 6432.000000
1756.456665 6338.000000
1757.896118 6244.000000
1759.334595 5383.000000
1760.772095 6117.000000
1762.209106 7508.000000
1763.645142 5908.000000
1765.080322 7208.000000
1766.514038 6258.000000
1767.947632 6519.000000
1769.380249 6725.000000
1770.812012 5780.000000
1772.242920 5901.000000
1773.672607 6389.000000
1775.101563 6099.000000
1776.530029 6270.000000
1777.957520 6808.000000
1779.383667 6299.000000
1780.809570 5631.000000
1782.234375 6994.000000
1783.658569 5656.000000
1785.081299 6632.000000
1786.503540 6539.000000
1787.925049 6878.000000
1789.345825 5985.000000
1790.765625 6060.000000
1792.184082 6161.000000
1793.602051 6842.000000
1795.019409 5516.000000
1796.435913 6099.000000
1797.850952 6617.000000
1799.265625 5895.000000
1800.679688 6596.000000
1802.092529 6036.000000
1803.504761 6999.000000
1804.915649 7182.000000
1806.326050 7767.000000
1807.735718 6553.000000
1809.144409 5940.000000
1810.552002 5455.000000
1811.959106 6512.000000
1813.365356 6399.000000
1814.770630 6779.000000
1816.174805 5976.000000
1817.578613 5986.000000
1818.981445 6272.000000
1820.383423 6075.000000
1821.784790 5894.000000
1823.184692 6369.000000
1824.583984 6557.000000
1825.982788 6665.000000
1827.380737 7495.000000
1828.777344 5780.000000
1830.173340 6878.000000
1831.568604 5947.000000
1832.963257 8146.000000
1834.356934 6054.000000
1835.749268 6928.000000
1837.141113 6449.000000
1838.532349 5938.000000
1839.922607 7125.000000
1841.311646 6069.000000
1842.700317 6132.000000
1844.088013 6010.000000
1845.474976 5853.000000
1846.860596 6951.000000
1848.245972 5858.000000
1849.630493 6453.000000
1851.014282 6364.000000
1852.396973 6371.000000
1853.778442 5430.000000
1855.159424 6536.000000
1856.539917 6350.000000
1857.919434 5736.000000
1859.297485 6014.000000
1860.675415 6308.000000
1862.052368 7908.000000
1863.428589 6129.000000
1864.803955 6117.000000
1866.177856 5616.000000
1867.551636 5724.000000
1868.924561 6264.000000
1870.296387 5963.000000
1871.667236 6962.000000
1873.037720 5449.000000
1874.407104 6125.000000
1875.776001 6132.000000
1877.143311 7218.000000
1878.510498 6124.000000
1879.876709 5986.000000
1881.242188 6842.000000
1882.606934 7581.000000
1883.970093 6748.000000
1885.333130 6929.000000
1886.695313 6369.000000
1888.056641 6521.000000
1889.416626 5646.000000
1890.776245 5892.000000
1892.135254 6246.000000
1893.493286 6771.000000
1894.850464 7331.000000
1896.206421 6005.000000
1897.562134 7709.000000
1898.916870 5837.000000
1900.270752 5566.000000
1901.623535 5934.000000
1902.975830 5958.000000
1904.327393 5978.000000
1905.678101 6987.000000
1907.027588 6584.000000
1908.376587 6680.000000
1909.724731 5836.000000
1911.072266 6229.000000
1912.419067 6359.000000
1913.764282 6869.000000
1915.109253 6128.000000
1916.453491 5501.000000
1917.796875 6498.000000
1919.138916 6058.000000
1920.480713 6659.000000
1921.821655 6984.000000
1923.161865 6175.000000
1924.501099 6336.000000
1925.839355 6181.000000
1927.177002 6555.000000
1928.513916 7044.000000
1929.849976 6819.000000
1931.184814 5617.000000
1932.519287 6682.000000
1933.853027 7302.000000
1935.185913 6256.000000
1936.517334 5783.000000
1937.848877 6403.000000
1939.179077 6668.000000
1940.508789 5816.000000
1941.837646 6148.000000
1943.165283 5855.000000
1944.492432 5046.000000
1945.818848 5876.000000
1947.144531 6585.000000
1948.468872 5773.000000
1949.792969 6698.000000
1951.116211 6388.000000
1952.438721 6452.000000
1953.760132 5858.000000
1955.080566 7479.000000
1956.400391 6020.000000
1957.719849 5557.000000
1959.038330 6921.000000
1960.355469 5956.000000
1961.672241 5870.000000
1962.988281 6585.000000
1964.303589 6606.000000
1965.617432 6359.000000
1966.931030 5664.000000
1968.243896 6261.000000
1969.555908 6019.000000
1970.867310 6088.000000
1972.177368 6338.000000
1973.486938 5916.000000
1974.795776 6259.000000
1976.104004 6618.000000
1977.410889 6185.000000
1978.717163 7316.000000
1980.023071 5572.000000
1981.327759 6459.000000
1982.631958 5961.000000
1983.934937 5711.000000
1985.237549 7600.000000
1986.539185 6124.000000
1987.840210 6863.000000
1989.139648 6083.000000
1990.439209 6570.000000
1991.737671 5397.000000
1993.035645 6088.000000
1994.332031 6151.000000
1995.628418 5819.000000
1996.923828 5633.000000
1998.218506 6499.000000
1999.512329 5796.000000
2000.804932 6635.000000
2002.097046 5787.000000
2003.388672 7227.000000
2004.679565 6498.000000
2005.968872 6288.000000
2007.257935 6867.000000
2008.546265 5943.000000
2009.833862 6026.000000
2011.120605 6632.000000
2012.406250 5752.000000
2013.691528 6378.000000
2014.975830 6022.000000
2016.259521 5596.000000
2017.541870 6065.000000
2018.823853 6529.000000
2020.105347 6868.000000
2021.385864 5929.000000
2022.665649 6160.000000
2023.944336 6766.000000
2025.222290 5854.000000
2026.499756 5940.000000
2027.776611 6314.000000
2029.051758 5888.000000
2030.327026 6668.000000
2031.601318 6101.000000
2032.874634 6004.000000
2034.147095 6012.000000
2035.419189 6161.000000
2036.690186 7013.000000
2037.960938 6599.000000
2039.230347 6049.000000
2040.498657 6965.000000
2041.766968 6618.000000
2043.034302 5962.000000
2044.300903 6070.000000
2045.566284 5595.000000
2046.831055 5567.000000
2048.095703 5401.000000
2049.358887 5909.000000
2050.621826 6457.000000
2051.882813 6222.000000
2053.144287 6111.000000
2054.404541 5934.000000
2055.664063 6651.000000
2056.922852 6254.000000
2058.180664 6869.000000
2059.437988 5898.000000
2060.694580 6021.000000
2061.949707 6586.000000
2063.204834 5676.000000
2064.458984 5622.000000
2065.712402 5689.000000
2066.965088 6854.000000
2068.216553 6220.000000
2069.467773 6401.000000
2070.718262 5624.000000
2071.968018 5418.000000
2073.216309 6560.000000
2074.464600 6505.000000
2075.711914 7479.000000
2076.958496 5652.000000
2078.204346 6061.000000
2079.448975 7081.000000
2080.693115 7718.000000
2081.936768 5563.000000
2083.179443 6044.000000
2084.420898 6990.000000
2085.662109 6002.000000
2086.902832 6400.000000
2088.142578 6847.000000
2089.381104 7136.000000
2090.619141 6229.000000
2091.856445 5797.000000
2093.093506 6625.000000
2094.329102 6110.000000
2095.563965 6260.000000
2096.798584 6115.000000
2098.032227 5639.000000
2099.264893 6119.000000
2100.496826 7069.000000
2101.728271 6472.000000
2102.958740 6758.000000
2104.188477 6094.000000
2105.417969 6010.000000
2106.645508 6002.000000
2107.873291 6001.000000
2109.100342 6428.000000
2110.326416 5568.000000
2111.551025 6408.000000
2112.775879 6956.000000
2113.999512 7095.000000
2115.222656 6301.000000
2116.444580 7553.000000
2117.666260 6016.000000
2118.886963 6865.000000
2120.106934 6074.000000
2121.326416 6186.000000
2122.544434 6663.000000
2123.762451 7060.000000
2124.979492 5747.000000
2126.196045 5800.000000
2127.410889 6592.000000
2128.625977 6455.000000
2129.840088 7044.000000
2131.053467 5714.000000
2132.266113 6144.000000
2133.477295 5845.000000
2134.688721 6627.000000
2135.898926 6801.000000
2137.108643 5992.000000
2138.316895 6345.000000
2139.525146 5678.000000
2140.732666 5915.000000
2141.938965 7766.000000
2143.144531 5957.000000
2144.349854 5663.000000
2145.554199 5548.000000
2146.757813 6335.000000
2147.960938 6244.000000
2149.162598 6486.000000
2150.364014 5418.000000
2151.564697 6301.000000
2152.764648 6146.000000
2153.963379 6021.000000
2155.161865 7017.000000
2156.359863 6193.000000
2157.556885 6038.000000
2158.753174 5165.000000
2159.948242 5298.000000
2161.143066 6123.000000
2162.337158 5650.000000
2163.530273 6060.000000
2164.722412 7007.000000
2165.914307 5916.000000
2167.105469 6323.000000
2168.295654 6381.000000
2169.485107 6517.000000
2170.674072 6779.000000
2171.862061 5992.000000
2173.049805 5783.000000
2174.236084 5943.000000
2175.421631 6631.000000
2176.606934 6063.000000
2177.791748 5840.000000
2178.975342 6358.000000
2180.158203 7522.000000
2181.340088 6370.000000
2182.521729 6007.000000
2183.702881 6632.000000
2184.882813 5716.000000
2186.061768 5589.000000
2187.240234 6377.000000
2188.418457 6974.000000
2189.595459 7252.000000
2190.771484 6797.000000
2191.947266 6063.000000
2193.122559 5659.000000
2194.296387 6649.000000
2195.469727 6196.000000
2196.642822 6127.000000
2197.814697 6519.000000
2198.986084 7186.000000
2200.156982 6327.000000
2201.326172 6912.000000
2202.495361 7562.000000
2203.664063 6343.000000
2204.831787 5980.000000
2205.998535 5742.000000
2207.164551 7236.000000
2208.330078 6749.000000
2209.495361 6023.000000
2210.659180 6737.000000
2211.822510 5525.000000
2212.984619 6200.000000
2214.146973 6230.000000
2215.308105 6751.000000
2216.468262 6654.000000
2217.627930 6371.000000
2218.787354 6604.000000
2219.945557 6420.000000
2221.102783 6359.000000
2222.259766 6784.000000
2223.416016 6674.000000
2224.571533 6728.000000
2225.726318 6300.000000
2226.880127 6462.000000
2228.032959 6053.000000
2229.186279 6948.000000
2230.337646 6217.000000
2231.488770 6224.000000
2232.639160 6632.000000
2233.789063 7706.000000
2234.937988 6357.000000
2236.086426 5363.000000
2237.233398 6816.000000
2238.380615 6985.000000
2239.526611 6081.000000
2240.672363 7250.000000
2241.816406 7290.000000
2242.960693 6748.000000
2244.104004 6230.000000
2245.246582 5931.000000
2246.388184 5768.000000
2247.529541 5901.000000
2248.669922 6492.000000
2249.809570 6448.000000
2250.948730 5842.000000
2252.086670 5857.000000
2253.224609 6199.000000
2254.361572 5337.000000
2255.497803 6372.000000
2256.633057 6149.000000
2257.767578 7270.000000
2258.901855 6442.000000
2260.035645 5410.000000
2261.167969 6153.000000
2262.299805 6835.000000
2263.431152 6256.000000
2264.561523 6557.000000
2265.691650 8120.000000
2266.820557 6678.000000
2267.948975 6087.000000
2269.076904 5569.000000
2270.203857 6135.000000
2271.330078 5936.000000
2272.455322 6816.000000
2273.580566 6539.000000
2274.705078 6443.000000
2275.828369 5966.000000
2276.950928 6320.000000
2278.072998 6196.000000
2279.194580 7299.000000
2280.315430 6402.000000
2281.435059 6480.000000
2282.554199 7177.000000
2283.673096 7649.000000
2284.791260 7266.000000
2285.908447 5896.000000
2287.024658 6444.000000
2288.140625 7031.000000
2289.255859 6910.000000
2290.370361 7460.000000
2291.483643 5864.000000
2292.596924 6384.000000
2293.709473 6067.000000
2294.821289 5437.000000
2295.932373 6816.000000
2297.042236 6445.000000
2298.151611 6245.000000
2299.260742 6699.000000
2300.368896 6278.000000
2301.476074 6829.000000
2302.583008 5863.000000
2303.689209 6287.000000
2304.794922 6646.000000
2305.899170 6648.000000
2307.003174 5459.000000
2308.106689 5771.000000
2309.209717 6499.000000
2310.311523 7417.000000
2311.412598 7425.000000
2312.513184 6638.000000
2313.613281 5530.000000
2314.712646 6362.000000
2315.810547 6642.000000
2316.908936 7003.000000
2318.005859 8305.000000
2319.102539 6945.000000
2320.198730 5840.000000
2321.293213 6917.000000
2322.387695 7583.000000
2323.481445 5887.000000
2324.574951 6091.000000
2325.666748 6497.000000
2326.758545 7159.000000
2327.849609 6054.000000
2328.939941 6267.000000
2330.029297 6983.000000
2331.118652 6030.000000
2332.206787 6366.000000
2333.294434 6852.000000
2334.381836 6482.000000
2335.467529 6722.000000
2336.552979 7808.000000
2337.638184 6320.000000
2338.722412 6740.000000
2339.805664 5925.000000
2340.888672 6493.000000
2341.970703 7117.000000
2343.052490 6036.000000
2344.133545 7441.000000
2345.213379 6659.000000
2346.292725 5718.000000
2347.371582 6742.000000
2348.449951 6569.000000
2349.526855 6342.000000
2350.603516 6986.000000
2351.679932 6033.000000
2352.755371 6484.000000
2353.829834 5958.000000
2354.904053 6320.000000
2355.977539 6824.000000
2357.050537 6298.000000
2358.122314 7057.000000
2359.193848 6337.000000
2360.264404 6653.000000
2361.334717 7524.000000
2362.404053 7584.000000
2363.472412 6790.000000
2364.540527 6843.000000
2365.607910 7079.000000
2366.674805 7144.000000
2367.740967 6101.000000
2368.805908 6889.000000
2369.870850 7067.000000
2370.935059 6435.000000
2371.998535 6957.000000
2373.060791 5778.000000
2374.123047 6370.000000
2375.184326 6387.000000
2376.245361 5979.000000
2377.305176 6315.000000
2378.364258 7901.000000
2379.423340 6528.000000
2380.481445 7570.000000
2381.538818 6986.000000
2382.595215 8023.000000
2383.651367 7871.000000
2384.707031 6168.000000
2385.761963 7081.000000
2386.815430 6793.000000
2387.869141 6587.000000
2388.921875 6346.000000
2389.974121 6792.000000
2391.025635 6123.000000
2392.076172 6670.000000
2393.126465 6547.000000
2394.175781 6309.000000
2395.225098 6276.000000
2396.272949 6931.000000
2397.320313 7033.000000
2398.367432 6330.000000
2399.413574 6742.000000
2400.458984 6128.000000
2401.503662 6742.000000
2402.548340 7798.000000
2403.591553 7536.000000
2404.634766 6576.000000
2405.676514 5889.000000
2406.718506 6713.000000
2407.759766 7121.000000
2408.800049 6157.000000
2409.839600 6445.000000
2410.878174 6322.000000
2411.916992 6111.000000
2412.954590 6555.000000
2413.991943 6874.000000
2415.028076 7370.000000
2416.063965 6224.000000
2417.099121 6330.000000
2418.133789 6623.000000
2419.166992 7240.000000
2420.200439 6532.000000
2421.232910 6768.000000
2422.265137 6816.000000
2423.295898 7094.000000
2424.326660 6453.000000
2425.356934 6885.000000
2426.385986 6861.000000
2427.415039 6672.000000
2428.442383 7400.000000
2429.470215 6718.000000
2430.496826 7319.000000
2431.523193 6938.000000
2432.548096 7708.000000
2433.573242 6561.000000
2434.597412 7160.000000
2435.621338 6746.000000
2436.644043 5864.000000
2437.666016 6304.000000
2438.687744 6634.000000
2439.708740 6689.000000
2440.729248 6057.000000
2441.748535 6541.000000
2442.767822 6532.000000
2443.786133 8437.000000
2444.804199 6290.000000
2445.820801 6503.000000
2446.837402 6562.000000
2447.853271 6081.000000
2448.869141 7058.000000
2449.883545 6804.000000
2450.897217 5623.000000
2451.910400 7324.000000
2452.923340 5955.000000
2453.935547 7180.000000
2454.946777 6685.000000
2455.957764 7679.000000
2456.968018 6389.000000
2457.977783 7590.000000
2458.986572 5937.000000
2459.994629 6018.000000
2461.002686 6331.000000
2462.009521 7390.000000
2463.016113 5441.000000
2464.021484 7410.000000
2465.026611 6924.000000
2466.031494 5855.000000
2467.035156 6460.000000
2468.038574 6335.000000
2469.041016 7609.000000
2470.043213 7401.000000
2471.044922 6907.000000
2472.045654 6644.000000
2473.045410 7007.000000
2474.045166 6754.000000
2475.043945 5699.000000
2476.042236 6595.000000
2477.039551 7061.000000
2478.036621 6139.000000
2479.033691 7052.000000
2480.029297 5883.000000
2481.024902 7215.000000
2482.018799 6746.000000
2483.012695 8070.000000
2484.006104 6857.000000
2484.999023 6747.000000
2485.990967 7562.000000
2486.982178 7236.000000
2487.973145 6781.000000
2488.963623 5879.000000
2489.953125 6675.000000
2490.941895 6461.000000
2491.930664 5660.000000
2492.918457 6815.000000
2493.905029 6611.000000
2494.891602 8126.000000
2495.877686 6795.000000
2496.863037 7144.000000
2497.847412 8254.000000
2498.831543 5994.000000
2499.815674 6860.000000
2500.798340 5814.000000
2501.780518 6956.000000
2502.762207 6808.000000
2503.743164 7265.000000
2504.723633 6544.000000
2505.703857 5800.000000
2506.682617 6392.000000
2507.661133 7565.000000
2508.639160 6734.000000
2509.616699 7096.000000
2510.593262 6044.000000
2511.569580 5929.000000
2512.545166 6398.000000
2513.520264 6284.000000
2514.494873 6477.000000
2515.468262 7580.000000
2516.441406 6855.000000
2517.414307 7029.000000
2518.386230 6196.000000
2519.357422 6782.000000
2520.328125 6965.000000
2521.298584 7871.000000
2522.268311 8091.000000
2523.237061 6092.000000
2524.205078 6180.000000
2525.173096 7782.000000
2526.140137 6291.000000
2527.106934 5543.000000
2528.072510 7308.000000
2529.038086 7036.000000
2530.002930 7772.000000
2530.967285 6379.000000
2531.930420 6406.000000
2532.893799 5845.000000
2533.856201 5968.000000
2534.818359 6693.000000
2535.779297 6423.000000
2536.739502 6093.000000
2537.699951 6186.000000
2538.659424 6777.000000
2539.618164 6850.000000
2540.575928 6710.000000
2541.533936 6267.000000
2542.491211 6777.000000
2543.447510 6143.000000
2544.403564 7157.000000
2545.358398 6253.000000
2546.313477 7771.000000
2547.267822 7062.000000
2548.221436 6774.000000
2549.174072 7302.000000
2550.126465 6730.000000
2551.078369 6918.000000
2552.029541 6393.000000
2552.979980 7693.000000
2553.929932 7153.000000
2554.879639 7401.000000
2555.828613 6608.000000
2556.777100 6255.000000
2557.724365 7142.000000
2558.671631 6254.000000
2559.618164 6551.000000
2560.564209 6756.000000
2561.509277 7411.000000
2562.454102 6665.000000
2563.398438 7185.000000
2564.342285 6874.000000
2565.285645 6637.000000
2566.227539 6583.000000
2567.169678 6586.000000
2568.111084 6223.000000
2569.051758 7185.000000
2569.991699 7290.000000
2570.931641 5654.000000
2571.870605 6168.000000
2572.809326 7451.000000
2573.747070 7199.000000
2574.684570 5461.000000
2575.621338 6977.000000
2576.557373 6821.000000
2577.492920 7495.000000
2578.427734 6451.000000
2579.362549 5966.000000
2580.296387 7095.000000
2581.229736 7110.000000
2582.162354 5871.000000
2583.094727 6923.000000
2584.026367 5501.000000
2584.957520 7071.000000
2585.888184 6993.000000
2586.817627 6823.000000
2587.747070 7270.000000
2588.676025 6487.000000
2589.604736 7499.000000
2590.531738 7327.000000
2591.458984 5899.000000
2592.385742 6825.000000
2593.311768 6290.000000
2594.237549 5626.000000
2595.162109 7614.000000
2596.086426 7562.000000
2597.010254 5358.000000
2597.933594 7348.000000
2598.855957 6336.000000
2599.778076 6864.000000
2600.699707 8340.000000
2601.620605 6404.000000
2602.540771 5789.000000
2603.460693 6396.000000
2604.380127 6369.000000
2605.299316 6457.000000
2606.217529 5836.000000
2607.134521 5975.000000
2608.051758 7341.000000
2608.968750 5910.000000
2609.884766 7507.000000
2610.799561 6676.000000
2611.714844 6686.000000
2612.629395 6599.000000
2613.542969 6580.000000
2614.456543 6166.000000
2615.368896 7641.000000
2616.281250 7073.000000
2617.192627 6779.000000
2618.103760 5716.000000
2619.014160 7468.000000
2619.924316 6678.000000
2620.833740 6111.000000
2621.742676 6683.000000
2622.650635 6285.000000
2623.558838 6984.000000
2624.466064 6648.000000
2625.372803 7055.000000
2626.278809 6015.000000
2627.184570 6494.000000
2628.089600 6445.000000
2628.994385 7864.000000
2629.898438 6502.000000
2630.801514 6403.000000
2631.704590 6421.000000
2632.606689 5626.000000
2633.508789 6796.000000
2634.410645 6984.000000
2635.310791 6810.000000
2636.211182 6435.000000
2637.110840 6381.000000
2638.010254 6068.000000
2638.908203 6885.000000
2639.806641 6769.000000
2640.704590 6407.000000
2641.601807 6066.000000
2642.497803 6156.000000
2643.393799 6915.000000
2644.289551 6098.000000
2645.184570 6486.000000
2646.079346 6628.000000
2646.972656 7237.000000
2647.865967 6290.000000
2648.759033 6768.000000
2649.651855 6484.000000
2650.542969 7540.000000
2651.434326 6423.000000
2652.325195 7613.000000
2653.215332 7296.000000
2654.105225 6541.000000
2654.993896 7332.000000
2655.882813 6643.000000
2656.771240 6590.000000
2657.658691 7281.000000
2658.545166 6467.000000
2659.432129 7136.000000
2660.318359 6838.000000
2661.204102 6841.000000
2662.088623 6538.000000
2662.973145 6386.000000
2663.857422 6204.000000
2664.740967 7121.000000
2665.624023 7798.000000
2666.506348 7425.000000
2667.388184 6224.000000
2668.269287 6637.000000
2669.150635 6099.000000
2670.030518 6537.000000
2670.910645 7466.000000
2671.790039 7208.000000
2672.669434 6298.000000
2673.548096 6146.000000
2674.425049 6458.000000
2675.302734 6753.000000
2676.179688 6364.000000
2677.055908 8105.000000
2677.931641 7241.000000
2678.806641 6269.000000
2679.681885 7743.000000
2680.556152 7061.000000
2681.429932 7382.000000
2682.302979 7046.000000
2683.175781 6251.000000
2684.048340 6119.000000
2684.920166 7031.000000
2685.791260 6564.000000
2686.662109 6905.000000
2687.532471 7142.000000
2688.402588 6614.000000
2689.270996 6354.000000
2690.140137 7388.000000
2691.008545 7142.000000
2691.876709 6712.000000
2692.744141 6909.000000
2693.610352 5877.000000
2694.477051 7189.000000
2695.342773 7404.000000
2696.208496 7232.000000
2697.072754 8019.000000
2697.937744 6551.000000
2698.801270 7290.000000
2699.665039 5877.000000
2700.527344 7437.000000
2701.390137 6858.000000
2702.251953 6007.000000
2703.113281 6876.000000
2703.974609 6703.000000
2704.834717 7447.000000
2705.694824 7376.000000
2706.554443 6587.000000
2707.413818 6876.000000
2708.271484 7122.000000
2709.129395 6918.000000
2709.987793 7333.000000
2710.844971 6791.000000
2711.701416 5989.000000
2712.557373 6908.000000
2713.413330 6064.000000
2714.268555 6891.000000
2715.123047 6142.000000
2715.977051 6902.000000
2716.831055 7348.000000
2717.684082 6329.000000
2718.537354 6598.000000
2719.388916 7756.000000
2720.240967 6796.000000
2721.092773 6316.000000
2721.943359 6490.000000
2722.793945 6553.000000
2723.644043 7156.000000
2724.493408 7033.000000
2725.342773 7041.000000
2726.190918 6600.000000
2727.038574 6618.000000
2727.886719 7053.000000
2728.733643 6847.000000
2729.581055 5543.000000
2730.427002 7508.000000
2731.272217 6993.000000
2732.117920 6403.000000
2732.962646 7190.000000
2733.807373 7350.000000
2734.650879 6908.000000
2735.494629 7858.000000
2736.337646 7163.000000
2737.180176 6057.000000
2738.021729 6269.000000
2738.863770 6765.000000
2739.704834 6928.000000
2740.545654 5854.000000
2741.386230 5898.000000
2742.225586 7719.000000
2743.064941 6831.000000
2743.904297 6884.000000
2744.742432 6836.000000
2745.580078 7965.000000
2746.417725 6338.000000
2747.254883 7167.000000
2748.091797 6212.000000
2748.928223 6000.000000
2749.763428 6691.000000
2750.598877 6260.000000
2751.433838 6359.000000
2752.268066 6277.000000
2753.102051 6880.000000
2753.935547 6842.000000
2754.769043 8048.000000
2755.601563 6803.000000
2756.433594 7343.000000
2757.265137 6812.000000
2758.096680 7153.000000
2758.927246 7265.000000
2759.758057 7250.000000
2760.587646 7294.000000
2761.417236 6812.000000
2762.246582 7359.000000
2763.075195 6930.000000
2763.903320 6756.000000
2764.730957 6940.000000
2765.558594 6629.000000
2766.385742 7898.000000
2767.212158 5861.000000
2768.038086 7549.000000
2768.863525 6933.000000
2769.688721 7786.000000
2770.513916 7121.000000
2771.337891 6750.000000
2772.161865 6462.000000
2772.985840 7719.000000
2773.808594 6685.000000
2774.631592 7019.000000
2775.453369 6924.000000
2776.275146 7037.000000
2777.096924 6527.000000
2777.917725 7999.000000
2778.737793 6547.000000
2779.558105 7053.000000
2780.377930 7222.000000
2781.197754 6526.000000
2782.015625 5994.000000
2782.834717 8122.000000
2783.652588 6495.000000
2784.470215 6781.000000
2785.287354 7085.000000
2786.104004 7249.000000
2786.920410 7252.000000
2787.736328 6287.000000
2788.552002 6019.000000
2789.366699 6434.000000
2790.181885 7054.000000
2790.996338 7217.000000
2791.810303 6683.000000
2792.624023 7467.000000
2793.436523 8793.000000
2794.249268 7005.000000
2795.061523 7419.000000
2795.873291 7286.000000
2796.684326 7371.000000
2797.496094 6559.000000
2798.306641 7254.000000
2799.117188 7091.000000
2799.926270 7369.000000
2800.736084 8187.000000
2801.545166 7866.000000
2802.354004 6652.000000
2803.162354 7246.000000
2803.969727 6198.000000
2804.777588 6422.000000
2805.584717 6992.000000
2806.391602 7020.000000
2807.197266 7133.000000
2808.003418 6660.000000
2808.808838 6516.000000
2809.614258 7420.000000
2810.418945 6253.000000
2811.222656 7670.000000
2812.026855 7492.000000
2812.830566 6325.000000
2813.634033 6100.000000
2814.436035 6598.000000
2815.238770 7313.000000
2816.040771 7869.000000
2816.842529 6270.000000
2817.643799 6569.000000
2818.444580 7244.000000
2819.244873 6542.000000
2820.045410 6715.000000
2820.844971 8088.000000
2821.644043 7175.000000
2822.443115 6476.000000
2823.241943 6897.000000
2824.040283 6382.000000
2824.837646 7077.000000
2825.635254 7026.000000
2826.432129 6693.000000
2827.229248 7355.000000
2828.025635 7965.000000
2828.821289 7042.000000
2829.616943 7400.000000
2830.412354 7523.000000
2831.207275 7435.000000
2832.001465 6635.000000
2832.795654 6885.000000
2833.589600 5696.000000
2834.383057 6870.000000
2835.175781 7183.000000
2835.968262 8134.000000
2836.760742 7667.000000
2837.552979 7537.000000
2838.344727 6473.000000
2839.135498 6762.000000
2839.926270 8897.000000
2840.717285 7502.000000
2841.507324 6270.000000
2842.296875 7658.000000
2843.086670 7148.000000
2843.875488 7415.000000
2844.664307 7844.000000
2845.453125 7725.000000
2846.240967 7497.000000
2847.028320 7228.000000
2847.815918 7547.000000
2848.603027 7260.000000
2849.389404 6679.000000
2850.175781 7491.000000
2850.961914 7264.000000
2851.747559 7587.000000
2852.532227 7157.000000
2853.317383 6931.000000
2854.102295 7498.000000
2854.886475 7113.000000
2855.670654 6926.000000
2856.453613 8334.000000
2857.236816 6779.000000
2858.019775 6756.000000
2858.802246 7715.000000
2859.584473 6197.000000
2860.366211 6685.000000
2861.147705 7650.000000
2861.929443 7508.000000
2862.710449 7586.000000
2863.490723 6578.000000
2864.270752 6727.000000
2865.050781 8196.000000
2865.830566 7512.000000
2866.609375 8092.000000
2867.388428 7752.000000
2868.166992 6883.000000
2868.945313 7080.000000
2869.723145 7236.000000
2870.500732 6864.000000
2871.278076 7504.000000
2872.055176 7042.000000
2872.831787 6416.000000
2873.607910 7425.000000
2874.384033 7156.000000
2875.159668 8173.000000
2875.935059 7128.000000
2876.709961 6608.000000
2877.484619 8014.000000
2878.259277 6572.000000
2879.033691 7810.000000
2879.807373 6800.000000
2880.580322 7189.000000
2881.354004 6745.000000
2882.126709 7629.000000
2882.899414 7900.000000
2883.671387 8181.000000
2884.443115 6226.000000
2885.215332 6767.000000
2885.986328 6926.000000
2886.756836 6133.000000
2887.527832 8315.000000
2888.298828 7421.000000
2889.069092 8018.000000
2889.838379 7684.000000
2890.607910 6994.000000
2891.377441 7271.000000
2892.146484 7383.000000
2892.915039 7940.000000
2893.683594 7612.000000
2894.451172 7041.000000
2895.219238 6595.000000
2895.986816 7491.000000
2896.754395 8400.000000
2897.520752 7440.000000
2898.288086 6522.000000
2899.054199 7239.000000
2899.820557 6986.000000
2900.585449 8332.000000
2901.350830 7009.000000
2902.116699 6509.000000
2902.881104 7814.000000
2903.645508 7972.000000
2904.410156 8517.000000
2905.173828 6667.000000
2905.938232 8422.000000
2906.701904 6745.000000
2907.464844 8397.000000
2908.227539 6527.000000
2908.990723 9106.000000
2909.753418 6992.000000
2910.514893 6727.000000
2911.276855 6727.000000
