scanname Analyse012
timestamp 2017-02-10 20:05:15
ccdbias 905.833008
ccdgain 3.473401
sigmaread 8.960639
laserwavenum -0.591660
wavenumcorrection -0.068696
scancount 1
totalexposurems 10000
singleexposurems 10000
measurementstate Unknown
scanmode Manual
snr 188.787766 4.037166 3.613705
replacelist 4
374 35380.000000 15147.000000
383 35010.000000 11603.000000
671 32270.000000 9502.000000
672 35671.000000 31067.000000
peaks 26
277.731476 0.532591 0.000000 1.380696 0.000160
300.992279 0.534815 0.000000 0.727954 0.000052
334.095276 0.537680 0.000000 0.555115 0.000103
343.765900 0.535943 0.000000 0.391148 0.000016
388.667023 0.548084 0.000000 1.185048 0.000244
460.065125 0.536328 0.000000 0.185093 0.000024
497.087830 0.540252 0.000000 0.571077 0.000022
533.608154 0.541579 0.000000 0.950799 0.000157
570.258240 0.543671 0.000000 0.498199 0.000029
582.513306 0.545644 0.000000 0.331729 0.000032
670.515015 0.536356 0.000000 0.747905 0.000053
676.575439 0.535765 0.000000 0.709331 0.000101
716.026245 0.534460 0.000000 4.097107 0.000756
738.560608 0.523580 0.000000 0.958988 0.000066
766.990051 0.545006 0.000000 3.472106 0.000706
785.954590 0.532222 0.000000 1.867001 0.000447
831.370483 0.511942 0.000000 0.367360 0.000057
876.040405 0.519894 0.000000 1.018832 0.000345
937.340271 0.494100 0.000000 0.206012 0.000052
1154.098999 0.461026 0.000000 0.073096 0.000076
1322.674561 0.458281 0.000000 1.495748 0.000464
1448.869995 0.435337 0.000000 2.912754 0.000445
1476.644775 0.423334 0.000000 2.078540 0.000145
1652.303101 0.384496 0.000000 0.417498 0.000064
1756.236328 0.390281 0.000000 4.146286 0.002546
2328.458008 0.222971 0.000000 0.077114 0.000243
finalresult GLS_NotPositive 5
A2455	Ammonium tetrafluoroborate	1.229553e-004
A12813	Niobium(V) fluoride	1.091481e-004
A5126	2,3,4-Trifluorobenzoic acid	1.061941e-004
A13187	Lithium iodate	1.041050e-004
A8324	1,3-Dimethyl-2-imidazolidinone	1.025463e-004
spectrum 2048
-97.009796 45627.000000
-94.382927 45627.000000
-91.757935 46233.000000
-89.134834 46250.000000
-86.513603 47030.000000
-83.894272 46748.000000
-81.276802 47106.000000
-78.661209 46773.000000
-76.047493 47076.000000
-73.435654 47359.000000
-70.825676 47364.000000
-68.217583 47423.000000
-65.611336 47517.000000
-63.006966 47480.000000
-60.404457 47426.000000
-57.803802 47855.000000
-55.205009 47262.000000
-52.608074 46582.000000
-50.012993 46993.000000
-47.419765 46988.000000
-44.828388 47250.000000
-42.238857 46700.000000
-39.651169 47587.000000
-37.065331 47399.000000
-34.481335 46941.000000
-31.899176 47701.000000
-29.318863 47104.000000
-26.740377 47714.000000
-24.163734 47311.000000
-21.588917 47134.000000
-19.015940 46834.000000
-16.444782 46785.000000
-13.875458 46429.000000
-11.307960 45442.000000
-8.742280 46856.000000
-6.178427 46709.000000
-3.616386 47015.000000
-1.056170 47151.000000
1.502238 46509.000000
4.058825 45777.000000
6.613607 45790.000000
9.166573 46167.000000
11.717737 44859.000000
14.267089 44665.000000
16.814644 43729.000000
19.360388 43879.000000
21.904339 43121.000000
24.446486 40646.000000
26.986835 38550.000000
29.525400 36118.000000
32.062168 32463.000000
34.597134 21798.000000
37.130322 12836.000000
39.661728 8940.000000
42.191341 8144.000000
44.719158 7878.000000
47.245216 7141.000000
49.769485 6225.000000
52.291985 5544.000000
54.812687 4987.000000
57.331635 4964.000000
59.848808 5761.000000
62.364204 7294.000000
64.877823 7829.000000
67.389687 7834.000000
69.899803 6316.000000
72.408127 4098.000000
74.914696 3291.000000
77.419518 2773.000000
79.922585 2319.000000
82.423874 2192.000000
84.923424 2280.000000
87.421219 2089.000000
89.917282 2250.000000
92.411568 2782.000000
94.904114 2960.000000
97.394943 2696.000000
99.884003 2366.000000
102.371315 1856.000000
104.856903 1724.000000
107.340752 1540.000000
109.822853 1639.000000
112.303230 1445.000000
114.781883 1292.000000
117.258812 1228.000000
119.733986 1233.000000
122.207451 1149.000000
124.679184 1306.000000
127.149208 1356.000000
129.617477 1357.000000
132.084076 1614.000000
134.548920 1718.000000
137.012070 1808.000000
139.473480 2285.000000
141.933197 2521.000000
144.391190 3180.000000
146.847488 3813.000000
149.302078 4672.000000
151.754944 5606.000000
154.206131 6941.000000
156.655624 8164.000000
159.103394 9774.000000
161.549454 11413.000000
163.993835 12996.000000
166.436539 14670.000000
168.877548 15675.000000
171.316849 16723.000000
173.754440 17291.000000
176.190399 17831.000000
178.624619 18231.000000
181.057159 18262.000000
183.488052 18446.000000
185.917221 18579.000000
188.344742 18682.000000
190.770584 18943.000000
193.194748 18907.000000
195.617249 19108.000000
198.038055 19221.000000
200.457199 19728.000000
202.874680 20941.000000
205.290466 22039.000000
207.704605 24163.000000
210.117111 26285.000000
212.527939 27901.000000
214.937088 29102.000000
217.344604 29319.000000
219.750412 31571.000000
222.154633 32379.000000
224.557144 33171.000000
226.958038 33561.000000
229.357285 34442.000000
231.754868 34334.000000
234.150787 34058.000000
236.545090 35007.000000
238.937729 35367.000000
241.328751 34740.000000
243.718109 35149.000000
246.105850 35380.000000
248.491943 34758.000000
250.876404 35738.000000
253.259216 33859.000000
255.640457 35214.000000
258.019989 34995.000000
260.397949 35205.000000
262.774231 34155.000000
265.148956 34130.000000
267.522034 33660.000000
269.893463 35086.000000
272.263245 34681.000000
274.631470 35134.000000
276.998047 34761.000000
279.363037 34644.000000
281.726410 35039.000000
284.088135 34814.000000
286.448273 33959.000000
288.806793 35023.000000
291.163727 34476.000000
293.519043 34641.000000
295.872772 35084.000000
298.224854 35077.000000
300.575378 34781.000000
302.924316 34733.000000
305.271606 34377.000000
307.617371 34659.000000
309.961456 34631.000000
312.304016 33722.000000
314.644958 33569.000000
316.984283 33798.000000
319.322052 33895.000000
321.658264 32678.000000
323.992828 34164.000000
326.325836 33889.000000
328.657288 34348.000000
330.987152 33753.000000
333.315430 34045.000000
335.642090 33229.000000
337.967255 33919.000000
340.290802 34096.000000
342.612793 34267.000000
344.933228 32818.000000
347.252045 32601.000000
349.569305 33961.000000
351.885040 34077.000000
354.199188 33149.000000
356.511749 33748.000000
358.822754 33630.000000
361.132233 33122.000000
363.440186 33717.000000
365.746521 34235.000000
368.051270 33563.000000
370.354553 33703.000000
372.656219 33808.000000
374.956390 33647.000000
377.255005 33778.000000
379.552063 34114.000000
381.847565 34103.000000
384.141541 34453.000000
386.433929 35134.000000
388.724823 35032.000000
391.014191 34716.000000
393.301971 34789.000000
395.588226 34785.000000
397.872986 34228.000000
400.156128 35164.000000
402.437836 34745.000000
404.718018 34995.000000
406.996613 33963.000000
409.273682 34708.000000
411.549225 34176.000000
413.823242 34247.000000
416.095825 34146.000000
418.366791 34362.000000
420.636261 34388.000000
422.904236 33711.000000
425.170654 33381.000000
427.435577 34113.000000
429.699036 33897.000000
431.960907 33676.000000
434.221313 34041.000000
436.480164 33297.000000
438.737549 33549.000000
440.993439 33818.000000
443.247833 33637.000000
445.500702 33971.000000
447.752014 32542.000000
450.001923 33194.000000
452.250244 32964.000000
454.497131 33462.000000
456.742554 32670.000000
458.986420 32671.000000
461.228790 32653.000000
463.469666 33385.000000
465.709137 32363.000000
467.947021 33607.000000
470.183472 33046.000000
472.418396 33003.000000
474.651855 31873.000000
476.883881 32242.000000
479.114380 33078.000000
481.343384 32376.000000
483.570923 32577.000000
485.796967 32861.000000
488.021576 32340.000000
490.244720 33020.000000
492.466400 32536.000000
494.686523 32291.000000
496.905243 33310.000000
499.122467 32745.000000
501.338318 33564.000000
503.552551 33076.000000
505.765472 32989.000000
507.976807 33036.000000
510.186707 32618.000000
512.395203 32971.000000
514.602295 32793.000000
516.807800 32811.000000
519.011902 32708.000000
521.214478 33020.000000
523.415649 32634.000000
525.615479 32346.000000
527.813782 31989.000000
530.010559 33385.000000
532.205994 32876.000000
534.399902 33285.000000
536.592468 31453.000000
538.783508 32233.000000
540.973145 32626.000000
543.161377 31631.000000
545.348083 31217.000000
547.533325 31218.000000
549.717285 31490.000000
551.899658 31037.000000
554.080688 31177.000000
556.260193 31210.000000
558.438416 31337.000000
560.615112 31136.000000
562.790405 30850.000000
564.964294 30723.000000
567.136719 31199.000000
569.307739 31015.000000
571.477295 30780.000000
573.645569 31801.000000
575.812317 30853.000000
577.977600 31014.000000
580.141479 31113.000000
582.304077 31512.000000
584.465149 31353.000000
586.624817 31785.000000
588.783142 31765.000000
590.939941 31594.000000
593.095398 31220.000000
595.249451 32109.000000
597.402161 31871.000000
599.553345 30901.000000
601.703186 31281.000000
603.851685 31263.000000
605.998596 31838.000000
608.144287 31466.000000
610.288574 31591.000000
612.431396 31097.000000
614.572754 31850.000000
616.712891 31497.000000
618.851501 30272.000000
620.988831 32027.000000
623.124695 31046.000000
625.259155 30640.000000
627.392151 30338.000000
629.523987 30555.000000
631.654358 30558.000000
633.783325 30247.000000
635.910828 30387.000000
638.037048 30431.000000
640.161743 29206.000000
642.285217 30076.000000
644.407349 29459.000000
646.528015 29266.000000
648.647339 29307.000000
650.765259 30064.000000
652.881836 29923.000000
654.997009 29210.000000
657.110840 29071.000000
659.223206 29659.000000
661.334351 29364.000000
663.444092 30066.000000
665.552368 29560.000000
667.659485 29474.000000
669.765137 28889.000000
671.869324 29820.000000
673.972290 30137.000000
676.073853 29019.000000
678.174072 30800.000000
680.272888 29463.000000
682.370361 30172.000000
684.466553 29506.000000
686.561279 30082.000000
688.654785 29423.000000
690.746948 29803.000000
692.837585 28540.000000
694.927002 29733.000000
697.015137 29684.000000
699.101807 30014.000000
701.187256 29170.000000
703.271179 30536.000000
705.353882 29495.000000
707.435303 29480.000000
709.515259 27707.000000
711.593994 28800.000000
713.671265 29344.000000
715.747253 28487.000000
717.821960 29056.000000
719.895386 28198.000000
721.967285 28972.000000
724.038025 27840.000000
726.107422 29121.000000
728.175415 28257.000000
730.242065 28304.000000
732.307495 27524.000000
734.371582 28701.000000
736.434326 28278.000000
738.495728 27854.000000
740.555847 27656.000000
742.614563 28263.000000
744.672058 27618.000000
746.728271 27747.000000
748.783081 27495.000000
750.836609 27792.000000
752.888733 26709.000000
754.939636 28231.000000
756.989319 27331.000000
759.037537 27761.000000
761.084534 27904.000000
763.130249 27219.000000
765.174561 29087.000000
767.217590 29051.000000
769.259399 28491.000000
771.299866 27931.000000
773.338928 27449.000000
775.376831 27715.000000
777.413391 27850.000000
779.448730 28606.000000
781.482727 28479.000000
783.515320 27674.000000
785.546753 29209.000000
787.576782 28956.500000
789.605530 28704.000000
791.633118 27835.000000
793.659363 27832.000000
795.684204 28306.000000
797.707947 28690.000000
799.730286 27935.000000
801.751404 28502.000000
803.771179 27701.000000
805.789673 29352.000000
807.806946 27721.000000
809.822815 27514.000000
811.837524 28252.000000
813.850891 27414.000000
815.863037 27495.000000
817.873962 27303.000000
819.883545 26615.000000
821.891907 27540.000000
823.898865 27080.000000
825.904602 26750.000000
827.909119 26990.000000
829.912354 27030.000000
831.914307 26243.000000
833.914978 26612.000000
835.914429 26855.000000
837.912537 26516.000000
839.909546 25768.000000
841.905151 26262.000000
843.899597 26276.000000
845.892700 25994.000000
847.884583 25328.000000
849.875122 26195.000000
851.864380 25092.000000
853.852600 25629.000000
855.839417 25999.000000
857.825012 25525.000000
859.809326 24877.000000
861.792542 25611.000000
863.774353 25623.000000
865.754944 26202.000000
867.734253 24678.000000
869.712402 25190.000000
871.689209 25982.000000
873.664734 26078.000000
875.639221 26312.000000
877.612244 26608.000000
879.584229 27184.000000
881.554871 26351.000000
883.524353 26532.000000
885.492493 26747.000000
887.459473 27003.000000
889.425110 26196.000000
891.389587 26459.000000
893.352844 26263.000000
895.314880 25602.000000
897.275635 26127.000000
899.235168 25740.000000
901.193420 25418.000000
903.150574 25754.000000
905.106567 25999.000000
907.061157 25269.000000
909.014526 25535.000000
910.966736 25476.000000
912.917725 25412.000000
914.867432 24649.000000
916.815979 24910.000000
918.763306 24974.000000
920.709351 24579.000000
922.654114 24336.000000
924.597839 23910.000000
926.540405 23859.000000
928.481689 23764.000000
930.421631 23241.000000
932.360474 23265.000000
934.298035 23369.000000
936.234375 23226.000000
938.169556 23327.000000
940.103455 23198.000000
942.036255 23353.000000
943.967834 22995.000000
945.898254 23665.000000
947.827454 23289.000000
949.755310 23011.000000
951.682129 23131.000000
953.607666 23362.000000
955.531921 23742.000000
957.455078 23670.000000
959.377075 23750.000000
961.297791 23486.000000
963.217346 23677.000000
965.135742 24392.000000
967.053101 23992.000000
968.968994 23952.000000
970.883789 23984.000000
972.797363 24194.000000
974.709778 24041.000000
976.620972 23904.000000
978.531006 24413.000000
980.439758 24012.000000
982.347473 24035.000000
984.253967 23771.000000
986.159241 24243.000000
988.063416 23713.000000
989.966370 23936.000000
991.868103 23566.000000
993.768677 23666.000000
995.668091 23415.000000
997.566284 23895.000000
999.463318 23359.000000
1001.359131 23041.000000
1003.253784 22221.000000
1005.147339 22795.000000
1007.039612 21999.000000
1008.930969 22185.000000
1010.820984 22282.000000
1012.709778 21937.000000
1014.597412 21971.000000
1016.483887 21562.000000
1018.369202 21589.000000
1020.253357 21803.000000
1022.136292 21737.000000
1024.018188 21603.000000
1025.898804 21888.000000
1027.778320 21813.000000
1029.656860 21790.000000
1031.534058 22009.000000
1033.409912 21730.000000
1035.284790 22025.000000
1037.158691 21883.000000
1039.031128 21780.000000
1040.902588 21689.000000
1042.772705 21952.000000
1044.641846 21885.000000
1046.509766 22006.000000
1048.376587 21789.000000
1050.242310 22098.000000
1052.106812 22161.000000
1053.970215 22230.000000
1055.832275 22253.000000
1057.693359 22347.000000
1059.553345 22167.000000
1061.411987 22070.000000
1063.269531 22315.000000
1065.125977 22222.000000
1066.981323 22409.000000
1068.835449 22342.000000
1070.688721 22317.000000
1072.540527 22215.000000
1074.391357 22171.000000
1076.240967 22233.000000
1078.089355 22468.000000
1079.936890 21553.000000
1081.783081 22162.000000
1083.628052 22057.000000
1085.472168 22135.000000
1087.314941 22037.000000
1089.156494 21829.000000
1090.997314 21812.000000
1092.836548 21519.000000
1094.675049 21738.000000
1096.512207 21522.000000
1098.348145 21350.000000
1100.183105 20824.000000
1102.016846 20595.000000
1103.849609 20601.000000
1105.681030 20597.000000
1107.511597 20793.000000
1109.340820 20536.000000
1111.169067 19843.000000
1112.996094 19626.000000
1114.822144 19758.000000
1116.646973 19790.000000
1118.470703 19667.000000
1120.293213 19827.000000
1122.114624 19715.000000
1123.935181 19877.000000
1125.754272 19736.000000
1127.572510 19683.000000
1129.389404 20050.000000
1131.205444 20061.000000
1133.020264 20082.000000
1134.833984 20121.000000
1136.646606 20223.000000
1138.458008 20361.000000
1140.268433 20473.000000
1142.077759 20409.000000
1143.885742 20407.000000
1145.692993 20599.000000
1147.498779 20674.000000
1149.303711 20550.000000
1151.107544 20754.000000
1152.910156 20595.000000
1154.711914 20750.000000
1156.512207 20545.000000
1158.311523 20647.000000
1160.109863 20428.000000
1161.906860 20463.000000
1163.703125 20144.000000
1165.498047 20119.000000
1167.291870 19802.000000
1169.084839 19505.000000
1170.876465 19825.000000
1172.667114 19415.000000
1174.456787 19353.000000
1176.244995 19480.000000
1178.032349 19373.000000
1179.818604 19230.000000
1181.603760 19271.000000
1183.387817 19066.000000
1185.170776 18977.000000
1186.952759 19066.000000
1188.733521 19071.000000
1190.513306 19158.000000
1192.291992 18884.000000
1194.069702 18957.000000
1195.846191 18796.000000
1197.621582 18535.000000
1199.395874 18437.000000
1201.169067 18161.000000
1202.941406 18014.000000
1204.712402 18021.000000
1206.482544 18178.000000
1208.251465 18058.000000
1210.019287 17990.000000
1211.786255 18104.000000
1213.551880 17857.000000
1215.316528 18027.000000
1217.080078 17865.000000
1218.842529 18048.000000
1220.604126 17679.000000
1222.364502 17862.000000
1224.123779 17586.000000
1225.882202 17662.000000
1227.639404 17708.000000
1229.395508 17953.000000
1231.150513 17876.000000
1232.904663 17999.000000
1234.657471 18119.000000
1236.409302 18120.000000
1238.160278 18198.000000
1239.909912 18219.000000
1241.658691 18285.000000
1243.406128 18311.000000
1245.152832 18240.000000
1246.898315 18297.000000
1248.642944 18302.000000
1250.386230 18258.000000
1252.128540 18373.000000
1253.869751 18224.000000
1255.610107 18062.000000
1257.349365 17688.000000
1259.087402 17079.000000
1260.824585 16919.000000
1262.560547 17124.000000
1264.295532 17340.000000
1266.029541 17639.000000
1267.762573 17850.000000
1269.494385 17918.000000
1271.225220 17979.000000
1272.954834 18193.000000
1274.683594 18238.000000
1276.411255 18256.000000
1278.137817 18108.000000
1279.863525 18230.000000
1281.587891 18026.000000
1283.311401 17909.000000
1285.033936 17909.000000
1286.755493 17941.000000
1288.475830 17807.000000
1290.195190 17892.000000
1291.913452 17567.000000
1293.630737 17731.000000
1295.347046 17861.000000
1297.062134 17711.000000
1298.776245 17865.000000
1300.489380 17861.000000
1302.201660 17334.000000
1303.912720 17134.000000
1305.622803 17121.000000
1307.331787 16934.000000
1309.039551 16953.000000
1310.746704 16801.000000
1312.452393 16856.000000
1314.157349 16830.000000
1315.861328 16972.000000
1317.564087 17118.000000
1319.265869 17398.000000
1320.966797 21044.000000
1322.666382 12824.000000
1324.365112 19533.500000
1326.063110 16299.000000
1327.759766 16267.000000
1329.455322 16149.000000
1331.150024 16188.000000
1332.843506 16171.000000
1334.536133 16102.000000
1336.227905 16103.000000
1337.918335 16030.000000
1339.608032 15769.000000
1341.296631 15798.000000
1342.984131 15735.000000
1344.670654 15785.000000
1346.356079 15728.000000
1348.040527 15602.000000
1349.724121 15661.000000
1351.406494 15793.000000
1353.087891 16047.000000
1354.768433 16245.000000
1356.447754 16307.000000
1358.126465 16343.000000
1359.803833 16483.000000
1361.480103 16493.000000
1363.155396 16565.000000
1364.829956 16429.000000
1366.503296 16645.000000
1368.175659 16410.000000
1369.847046 16470.000000
1371.517456 16522.000000
1373.186768 16470.000000
1374.855103 16289.000000
1376.522583 16336.000000
1378.188965 16301.000000
1379.854370 16251.000000
1381.518799 16363.000000
1383.182007 16099.000000
1384.844604 16072.000000
1386.505859 15898.000000
1388.166260 15751.000000
1389.825562 15726.000000
1391.483887 15727.000000
1393.141479 15572.000000
1394.797852 15565.000000
1396.453369 15622.000000
1398.107666 15597.000000
1399.761108 15666.000000
1401.413452 15761.000000
1403.065063 15778.000000
1404.715454 15587.000000
1406.364746 15242.000000
1408.013306 14897.000000
1409.660767 14721.000000
1411.307251 14720.000000
1412.952881 14553.000000
1414.597534 14559.000000
1416.240967 14579.000000
1417.883545 14523.000000
1419.525024 14468.000000
1421.165649 14482.000000
1422.805298 14462.000000
1424.443848 14261.000000
1426.081543 14062.000000
1427.718140 14220.000000
1429.353760 14224.000000
1430.988647 14048.000000
1432.622437 14097.000000
1434.255127 14068.000000
1435.886841 13999.000000
1437.517700 14163.000000
1439.147461 14137.000000
1440.776123 13905.000000
1442.404175 13988.000000
1444.031128 14125.000000
1445.656860 14090.000000
1447.281982 14170.000000
1448.906006 14182.000000
1450.529053 14355.000000
1452.151123 14262.000000
1453.772095 14389.000000
1455.392090 14536.000000
1457.011353 14483.000000
1458.629272 15494.000000
1460.246582 10452.000000
1461.862915 14399.000000
1463.478027 14236.000000
1465.092285 14191.000000
1466.705688 14431.000000
1468.317993 14544.000000
1469.929443 14521.000000
1471.540039 14325.000000
1473.149414 14277.000000
1474.757813 14401.000000
1476.365356 14432.000000
1477.971924 14518.000000
1479.577759 14314.000000
1481.182373 14279.000000
1482.786133 14046.000000
1484.388672 13693.000000
1485.990601 13433.000000
1487.591309 13436.000000
1489.191284 13221.000000
1490.790161 13040.000000
1492.388184 13166.000000
1493.985107 13086.000000
1495.581177 13640.000000
1497.176270 14045.000000
1498.770386 13884.000000
1500.363770 13776.000000
1501.956055 13896.000000
1503.547119 13880.000000
1505.137695 13619.000000
1506.726929 13445.000000
1508.315552 13384.000000
1509.903076 13376.000000
1511.489502 13224.000000
1513.075195 13249.000000
1514.659790 13187.000000
1516.243530 13296.000000
1517.826172 13147.000000
1519.408081 13083.000000
1520.988892 13297.000000
1522.568970 13131.000000
1524.147827 12948.000000
1525.725830 12862.000000
1527.303101 12749.000000
1528.879150 12747.000000
1530.454468 12634.000000
1532.028687 12391.000000
1533.602173 12631.000000
1535.174438 12542.000000
1536.745972 12470.000000
1538.316528 12501.000000
1539.886230 12398.000000
1541.454712 12462.000000
1543.022461 12425.000000
1544.589355 12295.000000
1546.155029 12221.000000
1547.719971 12073.000000
1549.283813 12109.000000
1550.847046 12105.000000
1552.408936 12070.000000
1553.970215 12210.000000
1555.530396 12095.000000
1557.089844 12079.000000
1558.648193 12065.000000
1560.205811 12020.000000
1561.762329 11992.000000
1563.317627 12091.000000
1564.872314 11882.000000
1566.426270 12085.000000
1567.979248 11924.000000
1569.530884 12012.000000
1571.081787 12054.000000
1572.631958 12059.000000
1574.181152 11938.000000
1575.729004 12148.000000
1577.276367 11912.000000
1578.822754 12200.000000
1580.368286 12118.000000
1581.912842 11999.000000
1583.456177 11983.000000
1584.998901 12077.000000
1586.540771 11944.000000
1588.081543 11904.000000
1589.621338 12122.000000
1591.160400 11842.000000
1592.698364 11774.000000
1594.235840 11759.000000
1595.771973 11905.000000
1597.307007 11765.000000
1598.841553 11693.000000
1600.375122 11589.000000
1601.907837 11738.000000
1603.438965 11739.000000
1604.969849 11830.000000
1606.499878 11814.000000
1608.028687 11575.000000
1609.556396 11636.000000
1611.083496 11805.000000
1612.609863 11919.000000
1614.135254 11788.000000
1615.659790 11767.000000
1617.182983 11603.000000
1618.705444 11602.000000
1620.227173 11666.000000
1621.748047 11900.000000
1623.267456 10995.000000
1624.786377 11446.000000
1626.304565 11472.000000
1627.821899 11499.000000
1629.338135 11512.000000
1630.853027 11334.000000
1632.367432 11296.000000
1633.881104 11261.000000
1635.393677 11271.000000
1636.905029 11321.000000
1638.416016 11240.000000
1639.925903 11169.000000
1641.434937 11234.000000
1642.942627 11186.000000
1644.449951 11055.000000
1645.956421 10973.000000
1647.461914 10990.000000
1648.966553 11012.000000
1650.469727 10880.000000
1651.972290 10926.000000
1653.474487 10885.000000
1654.975342 10781.000000
1656.475098 10716.000000
1657.973999 10569.000000
1659.472534 10649.000000
1660.969849 10761.000000
1662.466431 10695.000000
1663.961426 10567.000000
1665.456177 10506.000000
1666.950073 10303.000000
1668.442993 11257.000000
1669.934570 8550.000000
1671.425659 10114.000000
1672.916138 10292.000000
1674.405518 10127.000000
1675.893433 10074.000000
1677.381104 10091.000000
1678.867798 10241.000000
1680.353638 10292.000000
1681.838623 9990.000000
1683.322144 9904.000000
1684.805420 9698.000000
1686.287842 9770.000000
1687.769165 9912.000000
1689.249023 9804.000000
1690.728638 9895.000000
1692.207520 9895.000000
1693.685425 9512.000000
1695.162354 9780.000000
1696.638062 9868.000000
1698.113403 9839.000000
1699.587524 9725.000000
1701.061035 9841.000000
1702.533081 9785.000000
1704.004883 9672.000000
1705.475708 9634.000000
1706.945679 9735.000000
1708.414307 9722.000000
1709.882446 9758.000000
1711.349854 9776.000000
1712.816162 9680.000000
1714.281860 9653.000000
1715.745850 9817.000000
1717.209717 9868.000000
1718.672729 9697.000000
1720.134766 9653.000000
1721.595581 9622.000000
1723.055786 9639.000000
1724.515259 9771.000000
1725.973877 9794.000000
1727.431519 9666.000000
1728.887817 9712.000000
1730.343872 9706.000000
1731.798950 9642.000000
1733.253052 9696.000000
1734.705933 9641.000000
1736.158569 9671.000000
1737.610107 9775.000000
1739.060913 9572.000000
1740.510742 9569.000000
1741.959229 9635.000000
1743.407349 9455.000000
1744.854614 9289.000000
1746.301147 9229.000000
1747.746094 9367.000000
1749.190796 9375.000000
1750.634644 9410.000000
1752.077637 9338.000000
1753.519165 9219.000000
1754.960449 9609.000000
1756.400879 11831.000000
1757.840332 9107.000000
1759.278809 8968.000000
1760.716309 9066.000000
1762.153320 8851.000000
1763.589355 8914.000000
1765.024536 8810.000000
1766.458252 8849.000000
1767.891846 9052.000000
1769.324463 9042.000000
1770.756226 9052.000000
1772.187134 9063.000000
1773.616821 8813.000000
1775.045776 8736.000000
1776.474243 8528.000000
1777.901733 8312.000000
1779.327881 7987.000000
1780.753784 8451.000000
1782.178589 8475.000000
1783.602783 8460.000000
1785.025513 8448.000000
1786.447754 8359.000000
1787.869263 8406.000000
1789.290039 8343.000000
1790.709839 8196.000000
1792.128296 8145.000000
1793.546265 8130.000000
1794.963623 8248.000000
1796.380127 8257.000000
1797.795166 8159.000000
1799.209839 8114.000000
1800.623901 8069.000000
1802.036743 8116.000000
1803.448975 8174.000000
1804.859863 8027.000000
1806.270264 7964.000000
1807.679932 8041.000000
1809.088623 8056.000000
1810.496216 8044.000000
1811.903320 7935.000000
1813.309570 8112.000000
1814.714844 8073.000000
1816.119019 8128.000000
1817.522827 8175.000000
1818.925659 8177.000000
1820.327637 8112.000000
1821.729004 7866.000000
1823.128906 8023.000000
1824.528198 8067.000000
1825.927002 7926.000000
1827.324951 8076.000000
1828.721558 7943.000000
1830.117554 8006.000000
1831.512817 8039.000000
1832.907471 7868.000000
1834.301147 7932.000000
1835.693481 7970.000000
1837.085327 7936.000000
1838.476563 7866.000000
1839.866821 7901.000000
1841.255859 7828.000000
1842.644531 7703.000000
1844.032227 7919.000000
1845.419189 7732.000000
1846.804810 7894.000000
1848.190186 7855.000000
1849.574707 7771.000000
1850.958496 7790.000000
1852.341187 7708.000000
1853.722656 7684.000000
1855.103638 7534.000000
1856.484131 7550.000000
1857.863647 7497.000000
1859.241699 7579.000000
1860.619629 7528.000000
1861.996582 7431.000000
1863.372803 7396.000000
1864.748169 7326.000000
1866.122070 7342.000000
1867.495850 7424.000000
1868.868774 7230.000000
1870.240601 7248.000000
1871.611450 7264.000000
1872.981934 7312.000000
1874.351318 7087.000000
1875.720215 7156.000000
1877.087524 7061.000000
1878.454712 7084.000000
1879.820923 7104.000000
1881.186401 6981.000000
1882.551147 6839.000000
1883.914307 6927.000000
1885.277344 6877.000000
1886.639526 6955.000000
1888.000854 6997.000000
1889.360840 6909.000000
1890.720459 6887.000000
1892.079468 6778.000000
1893.437500 6866.000000
1894.794678 6753.000000
1896.150635 6647.000000
1897.506348 6802.000000
1898.861084 6849.000000
1900.214966 6751.000000
1901.567749 6790.000000
1902.920044 6793.000000
1904.271606 6749.000000
1905.622314 6858.000000
1906.971802 6895.000000
1908.320801 6824.000000
1909.668945 6766.000000
1911.016479 6790.000000
1912.363281 6692.000000
1913.708496 6706.000000
1915.053467 6811.000000
1916.397705 6701.000000
1917.741089 6885.000000
1919.083130 6864.000000
1920.424927 6848.000000
1921.765869 6842.000000
1923.106079 6715.000000
1924.445313 6781.000000
1925.783569 6756.000000
1927.121216 6857.000000
1928.458130 6616.000000
1929.794189 6731.000000
1931.129028 6651.000000
1932.463501 6673.000000
1933.797241 6538.000000
1935.130127 6645.000000
1936.461548 6614.000000
1937.793091 6561.000000
1939.123291 6409.000000
1940.453003 6531.000000
1941.781860 6507.000000
1943.109497 6491.000000
1944.436646 6561.000000
1945.763062 6329.000000
1947.088745 6565.000000
1948.413086 6438.000000
1949.737183 6498.000000
1951.060425 6458.000000
1952.382935 6398.000000
1953.704346 6330.000000
1955.024780 6384.000000
1956.344604 6439.000000
1957.664063 6331.000000
1958.982544 6264.000000
1960.299683 6236.000000
1961.616455 6175.000000
1962.932495 6175.000000
1964.247803 6177.000000
1965.561646 6164.000000
1966.875244 6179.000000
1968.188110 6218.000000
1969.500122 6158.000000
1970.811523 6226.000000
1972.121582 6129.000000
1973.431152 6021.000000
1974.739990 5921.000000
1976.048218 5880.000000
1977.355103 5924.000000
1978.661377 5874.000000
1979.967285 5859.000000
1981.271973 6014.000000
1982.576172 5960.000000
1983.879150 5967.000000
1985.181763 5768.000000
1986.483398 5898.000000
1987.784424 5819.000000
1989.083862 5765.000000
1990.383423 5637.000000
1991.681885 5627.000000
1992.979858 5587.000000
1994.276245 5618.000000
1995.572632 5634.000000
1996.868042 5654.000000
1998.162720 5506.000000
1999.456543 5559.000000
2000.749146 5536.000000
2002.041260 5524.000000
2003.332886 5329.000000
2004.623779 5491.000000
2005.913086 5443.000000
2007.202148 5328.000000
2008.490479 5405.000000
2009.778076 5459.000000
2011.064819 5370.000000
2012.350464 5370.000000
2013.635742 5297.000000
2014.920044 5366.000000
2016.203735 5409.000000
2017.486084 5275.000000
2018.768066 5248.000000
2020.049561 5322.000000
2021.330078 5304.000000
2022.609863 5271.000000
2023.888550 5297.000000
2025.166504 5281.000000
2026.443970 5293.000000
2027.720825 5341.000000
2028.995972 5271.000000
2030.271240 5317.000000
2031.545532 5410.000000
2032.818848 5345.000000
2034.091309 5291.000000
2035.363403 5319.000000
2036.634399 5378.000000
2037.905151 5380.000000
2039.174561 5259.000000
2040.442871 5347.000000
2041.711182 5427.000000
2042.978516 5367.000000
2044.245117 5205.000000
2045.510498 5294.000000
2046.775269 5299.000000
2048.039795 5234.000000
2049.302979 5397.000000
2050.565918 5185.000000
2051.826904 5188.000000
2053.088379 5155.000000
2054.348633 5152.000000
2055.608154 5059.000000
2056.866943 5166.000000
2058.124756 5011.000000
2059.382080 5110.000000
2060.638672 5169.000000
2061.893799 5054.000000
2063.148926 5044.000000
2064.403076 5098.000000
2065.656494 5033.000000
2066.909180 5047.000000
2068.160645 5020.000000
2069.411865 4961.000000
2070.662354 5028.000000
2071.912109 5005.000000
2073.160400 4610.000000
2074.408691 4887.000000
2075.656006 4954.000000
2076.902588 4804.000000
2078.148438 4886.000000
2079.393066 4844.000000
2080.637207 4929.000000
2081.880859 4729.000000
2083.123535 4868.000000
2084.364990 4672.000000
2085.606201 4723.000000
2086.846924 4669.000000
2088.086670 4774.000000
2089.325195 4744.000000
2090.563232 4691.000000
2091.800537 4705.000000
2093.037598 4678.000000
2094.273193 4663.000000
2095.508057 4645.000000
2096.742676 4691.000000
2097.976318 4662.000000
2099.208984 4735.000000
2100.440918 4510.000000
2101.672363 4522.000000
2102.902832 4638.000000
2104.132568 4560.000000
2105.362061 4563.000000
2106.589600 4472.000000
2107.817383 4404.000000
2109.044434 4455.000000
2110.270508 4368.000000
2111.495117 4501.000000
2112.719971 4200.000000
2113.943604 4292.000000
2115.166748 4363.000000
2116.388672 4309.000000
2117.610352 4321.000000
2118.831055 4319.000000
2120.051025 4349.000000
2121.270508 4518.000000
2122.488525 4454.000000
2123.706543 4215.000000
2124.923584 4377.000000
2126.140137 4367.000000
2127.354980 4448.000000
2128.570068 4397.000000
2129.784180 4278.000000
2130.997559 4418.000000
2132.210205 4225.000000
2133.421387 4248.000000
2134.632813 4382.000000
2135.843018 4120.000000
2137.052734 4224.000000
2138.260986 4334.000000
2139.469238 4381.000000
2140.676758 4204.000000
2141.883057 4163.000000
2143.088623 4219.000000
2144.293945 4244.000000
2145.498291 4138.000000
2146.701904 4216.000000
2147.905029 4251.000000
2149.106689 4219.000000
2150.308105 4263.000000
2151.508789 4161.000000
2152.708740 4305.000000
2153.907471 4302.000000
2155.105957 4162.000000
2156.303955 4146.000000
2157.500977 4118.000000
2158.697266 4069.000000
2159.892334 4100.000000
2161.087158 3984.000000
2162.281250 3980.000000
2163.474365 4028.000000
2164.666504 4046.000000
2165.858398 3968.000000
2167.049561 3940.000000
2168.239746 3896.000000
2169.429199 3895.000000
2170.618164 3880.000000
2171.806152 3825.000000
2172.993896 3788.000000
2174.180176 3788.000000
2175.365723 3701.000000
2176.551025 3736.000000
2177.735840 3675.000000
2178.919434 3720.000000
2180.102295 3717.000000
2181.284180 3738.000000
2182.465820 3731.000000
2183.646973 3621.000000
2184.826904 3604.000000
2186.005859 3685.000000
2187.184326 3569.000000
2188.362549 3679.000000
2189.539551 3671.000000
2190.715576 3603.000000
2191.891357 3579.000000
2193.066650 3671.000000
2194.240479 3623.000000
2195.413818 3625.000000
2196.586914 3711.000000
2197.758789 3633.000000
2198.930176 3718.000000
2200.101074 3673.000000
2201.270264 3658.000000
2202.439453 3778.000000
2203.608154 3501.000000
2204.775879 3569.000000
2205.942627 3742.000000
2207.108643 3700.000000
2208.274170 3623.000000
2209.439453 3585.000000
2210.603271 3602.000000
2211.766602 3732.000000
2212.928711 3512.000000
2214.091064 3658.000000
2215.252197 3485.000000
2216.412354 3401.000000
2217.572021 3569.000000
2218.731445 3464.000000
2219.889648 3548.000000
2221.046875 3410.000000
2222.203857 3477.000000
2223.360107 3521.000000
2224.515625 3503.000000
2225.670410 3520.000000
2226.824219 3380.000000
2227.977051 3385.000000
2229.130371 3415.000000
2230.281738 3362.000000
2231.432861 3419.000000
2232.583252 3416.000000
2233.733154 3393.000000
2234.882080 3287.000000
2236.030518 3416.000000
2237.177490 3378.000000
2238.324707 3236.000000
2239.470703 3210.000000
2240.616455 3206.000000
2241.760498 3228.000000
2242.904785 3216.000000
2244.048096 3259.000000
2245.190674 3151.000000
2246.332275 3215.000000
2247.473633 3181.000000
2248.614014 3105.000000
2249.753662 3105.000000
2250.892822 3042.000000
2252.030762 3034.000000
2253.168701 3058.000000
2254.305664 3142.000000
2255.441895 3102.000000
2256.577148 3043.000000
2257.711670 3053.000000
2258.845947 3080.000000
2259.979736 3148.000000
2261.112061 3119.000000
2262.243896 3085.000000
2263.375244 3047.000000
2264.505615 2919.000000
2265.635742 2867.000000
2266.764648 2897.000000
2267.893066 2859.000000
2269.020996 2941.000000
2270.147949 2911.000000
2271.274170 2921.000000
2272.399414 2862.000000
2273.524658 2930.000000
2274.649170 2886.000000
2275.772461 2927.000000
2276.895020 2901.000000
2278.017090 2895.000000
2279.138672 2879.000000
2280.259521 2841.000000
2281.379150 2737.000000
2282.498291 2837.000000
2283.617188 2741.000000
2284.735352 2874.000000
2285.852539 2854.000000
2286.968750 2829.000000
2288.084717 2770.000000
2289.199951 2759.000000
2290.314453 2760.000000
2291.427734 2841.000000
2292.541016 2662.000000
2293.653564 2759.000000
2294.765381 2822.000000
2295.876465 2875.000000
2296.986328 2790.000000
2298.095703 2811.000000
2299.204834 2802.000000
2300.312988 2812.000000
2301.420166 2783.000000
2302.527100 2792.000000
2303.633301 2879.000000
2304.739014 2808.000000
2305.843262 2759.000000
2306.947266 2738.000000
2308.050781 2867.000000
2309.153809 2730.000000
2310.255615 2697.000000
2311.356689 2750.000000
2312.457275 2812.000000
2313.557373 2725.000000
2314.656738 2747.000000
2315.754639 2718.000000
2316.853027 2600.000000
2317.949951 2555.000000
2319.046631 2699.000000
2320.142822 2762.000000
2321.237305 2620.000000
2322.331787 2703.000000
2323.425537 2637.000000
2324.519043 2714.000000
2325.610840 2592.000000
2326.702637 2783.000000
2327.793701 2654.000000
2328.884033 2707.000000
2329.973389 2795.000000
2331.062744 2765.000000
2332.150879 2713.000000
2333.238525 2584.000000
2334.325928 2613.000000
2335.411621 2570.000000
2336.497070 2474.000000
2337.582275 2470.000000
2338.666504 2448.000000
2339.749756 2466.000000
2340.832764 2501.000000
2341.914795 2447.000000
2342.996582 2444.000000
2344.077637 2363.000000
2345.157471 2364.000000
2346.236816 2515.000000
2347.315674 2421.000000
2348.394043 2444.000000
2349.470947 2490.000000
2350.547607 2288.000000
2351.624023 2370.000000
2352.699463 2274.000000
2353.773926 2347.000000
2354.848145 2368.000000
2355.921631 2287.000000
2356.994629 2272.000000
2358.066406 2281.000000
2359.137939 2294.000000
2360.208496 2284.000000
2361.278809 2310.000000
2362.348145 2336.000000
2363.416504 2382.000000
2364.484619 2228.000000
2365.552002 2156.000000
2366.618896 2280.000000
2367.685059 2281.000000
2368.750000 2139.000000
2369.814941 2188.000000
2370.879150 2028.000000
2371.942627 2147.000000
2373.004883 2087.000000
2374.067139 2119.000000
2375.128418 2195.000000
2376.189453 2167.000000
2377.249268 2235.000000
2378.308350 2273.000000
2379.367432 2227.000000
2380.425537 2154.000000
2381.482910 2241.000000
2382.539307 2186.000000
2383.595459 2046.000000
2384.651123 2074.000000
2385.706055 2152.000000
2386.759521 2182.000000
2387.813232 2176.000000
2388.865967 2096.000000
2389.918213 2056.000000
2390.969727 2100.000000
2392.020264 2096.000000
2393.070557 2148.000000
2394.119873 2117.000000
2395.169189 2109.000000
2396.217041 2152.000000
2397.264404 2015.000000
2398.311523 2112.000000
2399.357666 2217.000000
2400.403076 2002.000000
2401.447754 2069.000000
2402.492432 2094.000000
2403.535645 2059.000000
2404.578857 1994.000000
2405.620605 2065.000000
2406.662598 2059.000000
2407.703857 2145.000000
2408.744141 2041.000000
2409.783691 1975.000000
2410.822266 2045.000000
2411.861084 2015.000000
2412.898682 2115.000000
2413.936035 2057.000000
2414.972168 1965.000000
2416.008057 2013.000000
2417.043213 1989.000000
2418.077881 2039.000000
2419.111084 2059.000000
2420.144531 2018.000000
2421.177002 2018.000000
2422.209229 1997.000000
2423.239990 1955.000000
2424.270752 2038.000000
2425.301025 2024.000000
2426.330078 1979.000000
2427.359131 1985.000000
2428.386475 1930.000000
2429.414307 1932.000000
2430.440918 1877.000000
2431.467285 1975.000000
2432.492188 1931.000000
2433.517334 1884.000000
2434.541504 1996.000000
2435.565430 1910.000000
2436.588135 1901.000000
2437.610107 2005.000000
2438.631836 1947.000000
2439.652832 1880.000000
2440.673340 1840.000000
2441.692627 1774.000000
2442.711914 1917.000000
2443.730225 1787.000000
2444.748291 1809.000000
2445.764893 1841.000000
2446.781494 1805.000000
2447.797363 1806.000000
2448.813232 1870.000000
2449.827637 1685.000000
2450.841309 1814.000000
2451.854492 1789.000000
2452.867432 1756.000000
2453.879639 1764.000000
2454.890869 1825.000000
2455.901855 1709.000000
2456.912109 1821.000000
2457.921875 1776.000000
2458.930664 1729.000000
2459.938721 1783.000000
2460.946777 1746.000000
2461.953613 1670.000000
2462.960205 1752.000000
2463.965576 1581.000000
2464.970703 1786.000000
2465.975586 1700.000000
2466.979248 1687.000000
2467.982666 1681.000000
2468.985107 1689.000000
2469.987305 1620.000000
2470.989014 1640.000000
2471.989746 1710.000000
2472.989502 1626.000000
2473.989258 1670.000000
2474.988037 1617.000000
2475.986328 1636.000000
2476.983643 1631.000000
2477.980713 1569.000000
2478.977783 1580.000000
2479.973389 1610.000000
2480.968994 1560.000000
2481.962891 1661.000000
2482.956787 1646.000000
2483.950195 1557.000000
2484.943115 1612.000000
2485.935059 1632.000000
2486.926270 1653.000000
2487.917236 1704.000000
2488.907715 1571.000000
2489.897217 1581.000000
2490.885986 1632.000000
2491.874756 1602.000000
2492.862549 1672.000000
2493.849121 1571.000000
2494.835693 1518.000000
2495.821777 1564.000000
2496.807129 1595.000000
2497.791504 1588.000000
2498.775635 1554.000000
2499.759766 1588.000000
2500.742432 1604.000000
2501.724609 1637.000000
2502.706299 1579.000000
2503.687256 1628.000000
2504.667725 1567.000000
2505.647949 1635.000000
2506.626709 1635.000000
2507.605225 1587.000000
2508.583252 1576.000000
2509.560791 1553.000000
2510.537354 1553.000000
2511.513672 1647.000000
2512.489258 1593.000000
2513.464355 1564.000000
2514.438965 1474.000000
2515.412354 1511.000000
2516.385498 1522.000000
2517.358398 1606.000000
2518.330322 1524.000000
2519.301514 1444.000000
2520.272217 1390.000000
2521.242676 1431.000000
2522.212402 1492.000000
2523.181152 1412.000000
2524.149170 1469.000000
2525.117188 1472.000000
2526.084229 1461.000000
2527.051025 1400.000000
2528.016602 1404.000000
2528.982178 1494.000000
2529.947021 1429.000000
2530.911377 1403.000000
2531.874512 1413.000000
2532.837891 1387.000000
2533.800293 1468.000000
2534.762451 1386.000000
2535.723389 1342.000000
2536.683594 1343.000000
2537.644043 1434.000000
2538.603516 1376.000000
2539.562256 1472.000000
2540.520020 1464.000000
2541.478027 1450.000000
2542.435303 1400.000000
2543.391602 1376.000000
2544.347656 1336.000000
2545.302490 1263.000000
2546.257568 1240.000000
2547.211914 1304.000000
2548.165527 748.000000
2549.118164 1252.000000
2550.070557 1347.000000
2551.022461 1416.000000
2551.973633 1240.000000
2552.924072 1297.000000
2553.874023 1317.000000
2554.823730 1261.000000
2555.772705 1216.000000
2556.721191 1360.000000
2557.668457 1343.000000
2558.615723 1278.000000
2559.562256 1290.000000
2560.508301 1308.000000
2561.453369 1216.000000
2562.398193 1290.000000
2563.342529 1228.000000
2564.286377 1224.000000
2565.229736 1200.000000
2566.171631 1180.000000
2567.113770 1344.000000
2568.055176 1256.000000
2568.995850 1327.000000
2569.935791 1340.000000
2570.875732 1204.000000
2571.814697 1197.000000
2572.753418 1176.000000
2573.691162 1287.000000
2574.628662 1353.000000
2575.565430 1232.000000
2576.501465 1194.000000
2577.437012 1192.000000
2578.371826 1235.000000
2579.306641 1170.000000
2580.240479 1204.000000
2581.173828 1496.000000
2582.106445 1156.000000
2583.038818 1034.000000
2583.970459 1256.000000
2584.901611 1172.000000
2585.832275 1188.000000
2586.761719 1232.000000
2587.691162 1180.000000
2588.620117 1228.000000
2589.548828 1176.000000
2590.475830 1220.000000
2591.403076 1220.000000
2592.329834 1155.000000
2593.255859 1168.000000
2594.181641 1164.000000
2595.106201 1176.000000
2596.030518 1080.000000
2596.954346 1225.000000
2597.877686 1283.000000
2598.800049 1272.000000
2599.722168 1043.000000
2600.643799 1207.000000
2601.564697 1211.000000
2602.484863 1153.000000
2603.404785 1085.000000
2604.324219 1103.000000
2605.243408 1075.000000
2606.161621 1161.000000
2607.078613 1075.000000
2607.995850 1211.000000
2608.912842 1125.000000
2609.828857 1167.000000
2610.743652 1141.000000
2611.658936 1237.000000
2612.573486 1139.000000
2613.487061 1133.000000
2614.400635 1155.000000
2615.312988 1154.000000
2616.225342 1143.000000
2617.136719 1089.000000
2618.047852 1086.000000
2618.958252 1085.000000
2619.868408 1152.000000
2620.777832 1121.000000
2621.686768 1029.000000
2622.594727 1071.000000
2623.502930 1150.000000
2624.410156 1080.000000
2625.316895 1134.000000
2626.222900 1131.000000
2627.128662 1021.000000
2628.033691 1021.000000
2628.938477 1096.000000
2629.842529 1176.000000
2630.745605 1062.000000
2631.648682 1071.000000
2632.550781 1081.000000
2633.452881 1031.000000
2634.354736 1024.000000
2635.254883 1012.000000
2636.155273 1118.000000
2637.054932 1097.000000
2637.954346 978.000000
2638.852295 1001.000000
2639.750732 960.000000
2640.648682 1044.000000
2641.545898 978.000000
2642.441895 948.000000
2643.337891 965.000000
2644.233643 997.000000
2645.128662 1035.000000
2646.023438 1007.000000
2646.916748 919.000000
2647.810059 813.000000
2648.703125 994.000000
2649.595947 1034.000000
2650.487061 1010.000000
2651.378418 878.000000
2652.269287 918.000000
2653.159424 940.000000
2654.049316 901.000000
2654.937988 929.000000
2655.826904 981.000000
2656.715332 983.000000
2657.602783 855.000000
2658.489258 879.000000
2659.376221 966.000000
2660.262451 897.000000
2661.148193 894.000000
2662.032715 994.000000
2662.917236 905.000000
2663.801514 868.000000
2664.685059 986.000000
2665.568115 876.000000
2666.450439 939.000000
2667.332275 953.000000
2668.213379 835.000000
2669.094727 964.000000
2669.974609 984.000000
2670.854736 971.000000
2671.734131 974.000000
2672.613525 958.000000
2673.492188 977.000000
2674.369141 904.000000
2675.246826 874.000000
2676.123779 828.000000
2677.000000 859.000000
2677.875732 919.000000
2678.750732 943.000000
2679.625977 912.000000
2680.500244 924.000000
2681.374023 941.000000
2682.247070 869.000000
2683.119873 798.000000
2683.992432 903.000000
2684.864258 920.000000
2685.735352 786.000000
2686.606201 929.000000
2687.476563 956.000000
2688.346680 859.000000
2689.215088 788.000000
2690.084229 827.000000
2690.952637 835.000000
2691.820801 868.000000
2692.688232 874.000000
2693.554443 933.000000
2694.421143 910.000000
2695.286865 861.000000
2696.152588 755.000000
2697.016846 860.000000
2697.881836 769.000000
2698.745361 804.000000
2699.609131 873.000000
2700.471436 838.000000
2701.334229 904.000000
2702.196045 741.000000
2703.057373 787.000000
2703.918701 773.000000
2704.778809 819.000000
2705.638916 744.000000
2706.498535 925.000000
2707.357910 751.000000
2708.215576 789.000000
2709.073486 725.000000
2709.931885 712.000000
2710.789063 705.000000
2711.645508 754.000000
2712.501465 827.000000
2713.357422 765.000000
2714.212646 892.000000
2715.067139 758.000000
2715.921143 837.000000
2716.775146 743.000000
2717.628174 745.000000
2718.481445 779.000000
2719.333008 740.000000
2720.185059 701.000000
2721.036865 726.000000
2721.887451 702.000000
2722.738037 849.000000
2723.588135 623.000000
2724.437500 763.000000
2725.286865 772.000000
2726.135010 704.000000
2726.982666 735.000000
2727.830811 749.000000
2728.677734 703.000000
2729.525146 780.000000
2730.371094 800.000000
2731.216309 703.000000
2732.062012 719.000000
2732.906738 694.000000
2733.751465 740.000000
2734.594971 632.000000
2735.438721 718.000000
2736.281738 610.000000
2737.124268 751.000000
2737.965820 699.000000
2738.807861 827.000000
2739.648926 772.000000
2740.489746 753.000000
2741.330322 686.000000
2742.169678 786.000000
2743.009033 757.000000
2743.848389 727.000000
2744.686523 705.000000
2745.524170 748.000000
2746.361816 719.000000
2747.198975 741.000000
2748.035889 661.000000
2748.872314 698.000000
2749.707520 696.000000
2750.542969 699.000000
2751.377930 622.000000
2752.212158 705.000000
2753.046143 752.000000
2753.879639 620.000000
2754.713135 713.000000
2755.545654 776.000000
2756.377686 782.000000
2757.209229 699.000000
2758.040771 625.000000
2758.871338 791.000000
2759.702148 616.000000
2760.531738 681.000000
2761.361328 598.000000
2762.190674 654.000000
2763.019287 647.000000
2763.847412 655.000000
2764.675049 661.000000
2765.502686 620.000000
2766.329834 653.000000
2767.156250 646.000000
2767.982178 647.000000
2768.807617 618.000000
2769.632813 632.000000
2770.458008 721.000000
2771.281982 631.000000
2772.105957 586.000000
2772.929932 624.000000
2773.752686 579.000000
2774.575684 478.000000
2775.397461 713.000000
2776.219238 617.000000
2777.041016 640.000000
2777.861816 734.000000
2778.681885 572.000000
2779.502197 673.000000
2780.322021 570.000000
2781.141846 601.000000
2781.959717 607.000000
2782.778809 600.000000
2783.596680 594.000000
2784.414307 544.000000
2785.231445 593.000000
2786.048096 510.000000
2786.864502 725.000000
2787.680420 583.000000
2788.496094 571.000000
2789.310791 653.000000
2790.125977 651.000000
2790.940430 546.000000
2791.754395 634.000000
2792.568115 633.000000
2793.380615 590.000000
2794.193359 549.000000
2795.005615 607.000000
2795.817383 499.000000
2796.628418 494.000000
2797.440186 597.000000
2798.250732 577.000000
2799.061279 566.000000
2799.870361 562.000000
2800.680176 571.000000
2801.489258 573.000000
2802.298096 455.000000
2803.106445 567.000000
2803.913818 535.000000
2804.721680 571.000000
2805.528809 606.000000
2806.335693 579.000000
2807.141357 398.000000
2807.947510 549.000000
2808.752930 594.000000
2809.558350 615.000000
2810.363037 642.000000
2811.166748 536.000000
2811.970947 473.000000
2812.774658 511.000000
2813.578125 674.000000
2814.380127 568.000000
2815.182861 520.000000
2815.984863 451.000000
2816.786621 510.000000
2817.587891 525.000000
2818.388672 552.000000
2819.188965 600.000000
2819.989502 421.000000
2820.789063 425.000000
2821.588135 417.000000
2822.387207 528.000000
2823.186035 580.000000
2823.984375 530.000000
2824.781738 573.000000
2825.579346 458.000000
2826.376221 505.000000
2827.173340 491.000000
2827.969727 505.000000
2828.765381 565.000000
2829.561035 508.000000
2830.356445 383.000000
2831.151367 535.000000
2831.945557 537.000000
2832.739746 494.000000
2833.533691 491.000000
2834.327148 473.000000
2835.119873 518.000000
2835.912354 746.000000
2836.704834 533.000000
2837.497070 501.000000
2838.288818 522.000000
2839.079590 549.000000
2839.870361 492.000000
2840.661377 495.000000
2841.451416 414.000000
2842.240967 564.000000
2843.030762 473.000000
2843.819580 544.000000
2844.608398 511.000000
2845.397217 485.000000
2846.185059 567.000000
2846.972412 518.000000
2847.760010 488.000000
2848.547119 554.000000
2849.333496 570.000000
2850.119873 471.000000
2850.906006 545.000000
2851.691650 405.000000
2852.476318 455.000000
2853.261475 552.000000
2854.046387 578.000000
2854.830566 511.000000
2855.614746 534.000000
2856.397705 557.000000
2857.180908 524.000000
2857.963867 556.000000
2858.746338 422.000000
2859.528564 476.000000
2860.310303 523.000000
2861.091797 456.000000
2861.873535 396.000000
2862.654541 500.000000
2863.434814 400.000000
2864.214844 503.000000
2864.994873 443.000000
2865.774658 497.000000
2866.553467 431.000000
2867.332520 403.000000
2868.111084 527.000000
2868.889404 551.000000
2869.667236 414.000000
2870.444824 506.000000
2871.222168 530.000000
2871.999268 547.000000
2872.775879 546.000000
2873.552002 612.000000
2874.328125 528.000000
2875.103760 548.000000
2875.879150 491.000000
2876.654053 584.000000
2877.428711 528.000000
2878.203369 515.000000
2878.977783 492.000000
2879.751465 553.000000
2880.524414 443.000000
2881.298096 468.000000
2882.070801 567.000000
2882.843506 601.000000
2883.615479 619.000000
2884.387207 518.000000
2885.159424 492.000000
2885.930420 582.000000
2886.700928 503.000000
2887.471924 515.000000
2888.242920 571.000000
2889.013184 511.000000
2889.782471 417.000000
2890.552002 585.000000
2891.321533 514.000000
2892.090576 497.000000
2892.859131 471.000000
2893.627686 534.000000
2894.395264 467.000000
2895.163330 584.000000
2895.930908 622.000000
2896.698486 577.000000
2897.464844 483.000000
2898.232178 486.000000
2898.998291 480.000000
2899.764648 484.000000
2900.529541 526.000000
2901.294922 495.000000
2902.060791 469.000000
2902.825195 437.000000
2903.589600 471.000000
2904.354248 481.000000
2905.117920 405.000000
2905.882324 498.000000
2906.645996 490.000000
2907.408936 498.000000
2908.171631 383.000000
2908.934814 575.000000
2909.697510 483.000000
2910.458984 395.000000
2911.220947 395.000000
spectrumdark 2048
-97.009796 6232.000000
-94.382927 6232.000000
-91.757935 6093.000000
-89.134834 6383.000000
-86.513603 5816.000000
-83.894272 6280.000000
-81.276802 6053.000000
-78.661209 6455.000000
-76.047493 6222.000000
-73.435654 6005.000000
-70.825676 6089.000000
-68.217583 5991.000000
-65.611336 5975.000000
-63.006966 6029.000000
-60.404457 6051.000000
-57.803802 5671.000000
-55.205009 6267.000000
-52.608074 6919.000000
-50.012993 6510.000000
-47.419765 6514.000000
-44.828388 6230.000000
-42.238857 6767.000000
-39.651169 5915.000000
-37.065331 6040.000000
-34.481335 6500.000000
-31.899176 5740.000000
-29.318863 6335.000000
-26.740377 5742.000000
-24.163734 6072.000000
-21.588917 6204.000000
-19.015940 6505.000000
-16.444782 6514.000000
-13.875458 6848.000000
-11.307960 7800.000000
-8.742280 6344.000000
-6.178427 6446.000000
-3.616386 6028.000000
-1.056170 5812.000000
1.502238 6308.000000
4.058825 6952.000000
6.613607 6724.000000
9.166573 6004.000000
11.717737 6804.000000
14.267089 6433.000000
16.814644 6761.000000
19.360388 6021.000000
21.904339 5753.000000
24.446486 6657.000000
26.986835 6794.000000
29.525400 6866.000000
32.062168 6210.000000
34.597134 5822.000000
37.130322 7299.000000
39.661728 6317.000000
42.191341 7109.000000
44.719158 6449.000000
47.245216 7876.000000
49.769485 5686.000000
52.291985 6250.000000
54.812687 6739.000000
57.331635 6307.000000
59.848808 6409.000000
62.364204 6624.000000
64.877823 5628.000000
67.389687 5750.000000
69.899803 6551.000000
72.408127 6603.000000
74.914696 5925.000000
77.419518 6365.000000
79.922585 6473.000000
82.423874 6259.000000
84.923424 6087.000000
87.421219 6347.000000
89.917282 5810.000000
92.411568 7282.000000
94.904114 5798.000000
97.394943 6931.000000
99.884003 7206.000000
102.371315 6404.000000
104.856903 6197.000000
107.340752 6396.000000
109.822853 5783.000000
112.303230 6724.000000
114.781883 6257.000000
117.258812 6559.000000
119.733986 7200.000000
122.207451 6895.000000
124.679184 5860.000000
127.149208 6719.000000
129.617477 6326.000000
132.084076 6280.000000
134.548920 5703.000000
137.012070 6272.000000
139.473480 7278.000000
141.933197 6973.000000
144.391190 6356.000000
146.847488 6022.000000
149.302078 5797.000000
151.754944 6873.000000
154.206131 6355.000000
156.655624 6636.000000
159.103394 6105.000000
161.549454 6706.000000
163.993835 8747.000000
166.436539 6411.000000
168.877548 6741.000000
171.316849 6223.000000
173.754440 7300.000000
176.190399 6587.000000
178.624619 6907.000000
181.057159 7147.000000
183.488052 6703.000000
185.917221 7132.000000
188.344742 6707.000000
190.770584 6322.000000
193.194748 6783.000000
195.617249 7203.000000
198.038055 7401.000000
200.457199 6502.000000
202.874680 6041.000000
205.290466 7570.000000
207.704605 7107.000000
210.117111 6391.000000
212.527939 6084.000000
214.937088 6275.000000
217.344604 7428.000000
219.750412 6222.000000
222.154633 6574.000000
224.557144 6728.000000
226.958038 6966.000000
229.357285 6512.000000
231.754868 6836.000000
234.150787 7325.000000
236.545090 6464.000000
238.937729 6108.000000
241.328751 6865.000000
243.718109 6564.000000
246.105850 6379.000000
248.491943 7009.000000
250.876404 6097.000000
253.259216 7927.000000
255.640457 6605.000000
258.019989 6711.000000
260.397949 6546.000000
262.774231 7603.000000
265.148956 7566.000000
267.522034 7834.000000
269.893463 6203.000000
272.263245 6461.000000
274.631470 5974.000000
276.998047 6368.000000
279.363037 6520.000000
281.726410 6063.000000
284.088135 6295.000000
286.448273 7137.000000
288.806793 6024.000000
291.163727 6572.000000
293.519043 6423.000000
295.872772 5959.000000
298.224854 5991.000000
300.575378 6349.000000
302.924316 6424.000000
305.271606 6839.000000
307.617371 6507.000000
309.961456 6518.000000
312.304016 7455.000000
314.644958 7561.000000
316.984283 7210.000000
319.322052 6962.000000
321.658264 8097.000000
323.992828 6331.000000
326.325836 6499.000000
328.657288 6029.000000
330.987152 6677.000000
333.315430 6414.000000
335.642090 7282.000000
337.967255 6430.000000
340.290802 6238.000000
342.612793 6050.000000
344.933228 7564.000000
347.252045 7721.000000
349.569305 6021.000000
351.885040 5884.000000
354.199188 6985.000000
356.511749 6361.000000
358.822754 6478.000000
361.132233 7018.000000
363.440186 6357.000000
365.746521 5750.000000
368.051270 6575.000000
370.354553 6457.000000
372.656219 6308.000000
374.956390 6422.000000
377.255005 6312.000000
379.552063 6006.000000
381.847565 6118.000000
384.141541 5860.000000
386.433929 5272.000000
388.724823 5612.000000
391.014191 6261.000000
393.301971 6345.000000
395.588226 6481.000000
397.872986 7068.000000
400.156128 6072.000000
402.437836 6494.000000
404.718018 6242.000000
406.996613 7290.000000
409.273682 6473.000000
411.549225 6920.000000
413.823242 6768.000000
416.095825 6744.000000
418.366791 6513.000000
420.636261 6478.000000
422.904236 7113.000000
425.170654 7277.000000
427.435577 6272.000000
429.699036 6362.000000
431.960907 6508.000000
434.221313 5999.000000
436.480164 6631.000000
438.737549 6189.000000
440.993439 5712.000000
443.247833 5840.000000
445.500702 5498.000000
447.752014 6962.000000
450.001923 6162.000000
452.250244 6292.000000
454.497131 5737.000000
456.742554 6545.000000
458.986420 6545.000000
461.228790 6496.000000
463.469666 5676.000000
465.709137 6723.000000
467.947021 5455.000000
470.183472 5991.000000
472.418396 6064.000000
474.651855 7277.000000
476.883881 6758.000000
479.114380 5698.000000
481.343384 6435.000000
483.570923 6241.000000
485.796967 5939.000000
488.021576 6540.000000
490.244720 5861.000000
492.466400 6435.000000
494.686523 6734.000000
496.905243 5690.000000
499.122467 6344.000000
501.338318 5563.000000
503.552551 6191.000000
505.765472 6477.000000
507.976807 6492.000000
510.186707 6941.000000
512.395203 6527.000000
514.602295 6590.000000
516.807800 6506.000000
519.011902 6572.000000
521.214478 6166.000000
523.415649 6550.000000
525.615479 6776.000000
527.813782 6957.000000
530.010559 5400.000000
532.205994 5893.000000
534.399902 5592.000000
536.592468 7592.000000
538.783508 6643.000000
540.973145 6024.000000
543.161377 6983.000000
545.348083 7193.000000
547.533325 6884.000000
549.717285 6258.000000
551.899658 6520.000000
554.080688 6271.000000
556.260193 6054.000000
558.438416 5868.000000
560.615112 6073.000000
562.790405 6349.000000
564.964294 6462.000000
567.136719 5877.000000
569.307739 6104.000000
571.477295 6387.000000
573.645569 5354.000000
575.812317 6433.000000
577.977600 6302.000000
580.141479 6181.000000
582.304077 5755.000000
584.465149 6005.000000
586.624817 5667.000000
588.783142 5780.000000
590.939941 6126.000000
593.095398 6615.000000
595.249451 5775.000000
597.402161 6134.000000
599.553345 7273.000000
601.703186 6836.000000
603.851685 6735.000000
605.998596 6070.000000
608.144287 6548.000000
610.288574 6458.000000
612.431396 7001.000000
614.572754 6170.000000
616.712891 6500.000000
618.851501 7716.000000
620.988831 5716.000000
623.124695 6635.000000
625.259155 6972.000000
627.392151 7129.000000
629.523987 6741.000000
631.654358 6573.000000
633.783325 6831.000000
635.910828 6509.000000
638.037048 6283.000000
640.161743 7435.000000
642.285217 6402.000000
644.407349 6834.000000
646.528015 6839.000000
648.647339 6562.000000
650.765259 5663.000000
652.881836 5681.000000
654.997009 6449.000000
657.110840 6499.000000
659.223206 5856.000000
661.334351 6122.000000
663.444092 5502.000000
665.552368 6102.000000
667.659485 6299.000000
669.765137 6885.000000
671.869324 5929.000000
673.972290 5720.000000
676.073853 7025.000000
678.174072 5322.000000
680.272888 6838.000000
682.370361 6271.000000
684.466553 7008.000000
686.561279 6394.000000
688.654785 7073.000000
690.746948 6728.000000
692.837585 8030.000000
694.927002 6696.000000
697.015137 6513.000000
699.101807 6018.000000
701.187256 6677.000000
703.271179 5133.000000
705.353882 5992.000000
707.435303 5975.000000
709.515259 7609.000000
711.593994 6251.000000
713.671265 5554.000000
715.747253 6576.000000
717.821960 6122.000000
719.895386 7026.000000
721.967285 6370.000000
724.038025 7392.000000
726.107422 5825.000000
728.175415 6492.000000
730.242065 6405.000000
732.307495 7112.000000
734.371582 5804.000000
736.434326 6122.000000
738.495728 6573.000000
740.555847 6706.000000
742.614563 6041.000000
744.672058 6684.000000
746.728271 6533.000000
748.783081 6703.000000
750.836609 6365.000000
752.888733 7479.000000
754.939636 5833.000000
756.989319 6710.000000
759.037537 6375.000000
761.084534 6267.000000
763.130249 7066.000000
765.174561 5342.000000
767.217590 5768.000000
769.259399 6383.500000
771.299866 6999.000000
773.338928 6405.000000
775.376831 6092.000000
777.413391 6013.000000
779.448730 5402.000000
781.482727 5782.000000
783.515320 6934.000000
785.546753 5549.000000
787.576782 5810.500000
789.605530 6072.000000
791.633118 6340.000000
793.659363 6389.000000
795.684204 5883.000000
797.707947 5570.000000
799.730286 6421.000000
801.751404 5877.000000
803.771179 6682.000000
805.789673 4951.000000
807.806946 6652.000000
809.822815 6878.000000
811.837524 5779.000000
813.850891 6469.000000
815.863037 6239.000000
817.873962 6120.000000
819.883545 6589.000000
821.891907 5327.000000
823.898865 5730.000000
825.904602 6094.000000
827.909119 5753.000000
829.912354 5663.000000
831.914307 6491.000000
833.914978 6128.000000
835.914429 5901.000000
837.912537 6315.000000
839.909546 7071.000000
841.905151 6290.000000
843.899597 6041.000000
845.892700 6251.000000
847.884583 6851.000000
849.875122 5619.000000
851.864380 6841.000000
853.852600 6026.000000
855.839417 5687.000000
857.825012 6446.000000
859.809326 7259.000000
861.792542 6395.000000
863.774353 6432.000000
865.754944 5903.000000
867.734253 7768.000000
869.712402 7142.000000
871.689209 6203.000000
873.664734 6269.000000
875.639221 6195.000000
877.612244 6041.000000
879.584229 5461.000000
881.554871 6407.000000
883.524353 6090.000000
885.492493 5583.000000
887.459473 5155.000000
889.425110 6154.000000
891.389587 5874.000000
893.352844 6005.000000
895.314880 6578.000000
897.275635 5898.000000
899.235168 6425.000000
901.193420 6808.000000
903.150574 6299.000000
905.106567 6049.000000
907.061157 6933.000000
909.014526 6551.000000
910.966736 6481.000000
912.917725 6426.000000
914.867432 7123.000000
916.815979 6382.000000
918.763306 6191.000000
920.709351 6159.000000
922.654114 6124.000000
924.597839 6351.000000
926.540405 6013.000000
928.481689 5702.000000
930.421631 6467.000000
932.360474 5760.000000
934.298035 5538.000000
936.234375 5991.000000
938.169556 5893.000000
940.103455 6115.000000
942.036255 5877.000000
943.967834 6832.000000
945.898254 5218.000000
947.827454 6419.000000
949.755310 7051.000000
951.682129 6666.000000
953.607666 6001.000000
955.531921 5405.000000
957.455078 6078.000000
959.377075 6723.000000
961.297791 7212.000000
963.217346 6498.000000
965.135742 5334.000000
967.053101 6440.000000
968.968994 6434.000000
970.883789 6213.000000
972.797363 6052.000000
974.709778 6420.000000
976.620972 6496.000000
978.531006 5424.000000
980.439758 6227.000000
982.347473 6137.000000
984.253967 6412.000000
986.159241 5717.000000
988.063416 6841.000000
989.966370 6222.000000
991.868103 6894.000000
993.768677 6596.000000
995.668091 6590.000000
997.566284 5198.000000
999.463318 6649.000000
1001.359131 6568.000000
1003.253784 7680.000000
1005.147339 5648.000000
1007.039612 7232.000000
1008.930969 6115.000000
1010.820984 5373.000000
1012.709778 6625.000000
1014.597412 6300.000000
1016.483887 6996.000000
1018.369202 6803.000000
1020.253357 6019.000000
1022.136292 5867.000000
1024.018188 6260.000000
1025.898804 5216.000000
1027.778320 5899.000000
1029.656860 6090.000000
1031.534058 5479.000000
1033.409912 6209.000000
1035.284790 5908.000000
1037.158691 6570.000000
1039.031128 7036.000000
1040.902588 6755.000000
1042.772705 5507.000000
1044.641846 5549.000000
1046.509766 5849.000000
1048.376587 7120.000000
1050.242310 6778.000000
1052.106812 6482.000000
1053.970215 6503.000000
1055.832275 6478.000000
1057.693359 5964.000000
1059.553345 6525.000000
1061.411987 6593.000000
1063.269531 5827.000000
1065.125977 6693.000000
1066.981323 5925.000000
1068.835449 5923.000000
1070.688721 6238.000000
1072.540527 6366.000000
1074.391357 6171.000000
1076.240967 6171.000000
1078.089355 5746.000000
1079.936890 8021.000000
1081.783081 5612.000000
1083.628052 6243.000000
1085.472168 5418.000000
1087.314941 5576.000000
1089.156494 6579.000000
1090.997314 5540.000000
1092.836548 5766.000000
1094.675049 6040.000000
1096.512207 6053.000000
1098.348145 6847.000000
1100.183105 6636.000000
1102.016846 5444.000000
1103.849609 5700.000000
1105.681030 6182.000000
1107.511597 7178.000000
1109.340820 6548.000000
1111.169067 6456.000000
1112.996094 7112.000000
1114.822144 5480.000000
1116.646973 6365.000000
1118.470703 7157.000000
1120.293213 6136.000000
1122.114624 5849.000000
1123.935181 5868.000000
1125.754272 6618.000000
1127.572510 7082.000000
1129.389404 6852.000000
1131.205444 6691.000000
1133.020264 6513.000000
1134.833984 5700.000000
1136.646606 5836.000000
1138.458008 5720.000000
1140.268433 6159.000000
1142.077759 6798.000000
1143.885742 6996.000000
1145.692993 5984.000000
1147.498779 5897.000000
1149.303711 5463.000000
1151.107544 5417.000000
1152.910156 6180.000000
1154.711914 6108.000000
1156.512207 6122.000000
1158.311523 6151.000000
1160.109863 5863.000000
1161.906860 5500.000000
1163.703125 6009.000000
1165.498047 6128.000000
1167.291870 6394.000000
1169.084839 7762.000000
1170.876465 5669.000000
1172.667114 6559.000000
1174.456787 6021.000000
1176.244995 5845.000000
1178.032349 7505.000000
1179.818604 6902.000000
1181.603760 5802.000000
1183.387817 5978.000000
1185.170776 7686.000000
1186.952759 5939.000000
1188.733521 5965.000000
1190.513306 6333.000000
1192.291992 7017.000000
1194.069702 6701.000000
1195.846191 7203.000000
1197.621582 6618.000000
1199.395874 6478.000000
1201.169067 6686.000000
1202.941406 6586.000000
1204.712402 6726.000000
1206.482544 5709.000000
1208.251465 6148.000000
1210.019287 6349.000000
1211.786255 5860.000000
1213.551880 6001.000000
1215.316528 6907.000000
1217.080078 6528.000000
1218.842529 5991.000000
1220.604126 6749.000000
1222.364502 5894.000000
1224.123779 6398.000000
1225.882202 6048.000000
1227.639404 7215.000000
1229.395508 6459.000000
1231.150513 5580.000000
1232.904663 6053.000000
1234.657471 5825.000000
1236.409302 6038.000000
1238.160278 5911.000000
1239.909912 4977.000000
1241.658691 7031.000000
1243.406128 6534.000000
1245.152832 6636.000000
1246.898315 6526.000000
1248.642944 6439.000000
1250.386230 6754.000000
1252.128540 6705.000000
1253.869751 5365.000000
1255.610107 5145.000000
1257.349365 5811.000000
1259.087402 6633.000000
1260.824585 7094.000000
1262.560547 6131.000000
1264.295532 6447.000000
1266.029541 7283.000000
1267.762573 6034.000000
1269.494385 6228.000000
1271.225220 6487.000000
1272.954834 7222.000000
1274.683594 5947.000000
1276.411255 5685.000000
1278.137817 5608.000000
1279.863525 5562.000000
1281.587891 6465.000000
1283.311401 5278.000000
1285.033936 6958.000000
1286.755493 6672.000000
1288.475830 6365.000000
1290.195190 6715.000000
1291.913452 7256.000000
1293.630737 6436.000000
1295.347046 5757.000000
1297.062134 6386.000000
1298.776245 6102.000000
1300.489380 5729.000000
1302.201660 6496.000000
1303.912720 8315.000000
1305.622803 5265.000000
1307.331787 6584.000000
1309.039551 6631.000000
1310.746704 7008.000000
1312.452393 5847.000000
1314.157349 6895.000000
1315.861328 6197.000000
1317.564087 6039.000000
1319.265869 6661.000000
1320.966797 6118.000000
1322.666382 18592.500000
1324.365112 7548.500000
1326.063110 5595.000000
1327.759766 6519.000000
1329.455322 7204.000000
1331.150024 6845.000000
1332.843506 5735.000000
1334.536133 5415.000000
1336.227905 7326.000000
1337.918335 6213.000000
1339.608032 6646.000000
1341.296631 6135.000000
1342.984131 7647.000000
1344.670654 5689.000000
1346.356079 6767.000000
1348.040527 6009.000000
1349.724121 7290.000000
1351.406494 6375.000000
1353.087891 5938.000000
1354.768433 6546.000000
1356.447754 6787.000000
1358.126465 5916.000000
1359.803833 6646.000000
1361.480103 5841.000000
1363.155396 5645.000000
1364.829956 6587.000000
1366.503296 6449.000000
1368.175659 6817.000000
1369.847046 5183.000000
1371.517456 6826.000000
1373.186768 6163.000000
1374.855103 5743.000000
1376.522583 6022.000000
1378.188965 6506.000000
1379.854370 6185.000000
1381.518799 5859.000000
1383.182007 6006.000000
1384.844604 5721.000000
1386.505859 6397.000000
1388.166260 6606.000000
1389.825562 6439.000000
1391.483887 6480.000000
1393.141479 6894.000000
1394.797852 6522.000000
1396.453369 7017.000000
1398.107666 6394.000000
1399.761108 5885.000000
1401.413452 6128.000000
1403.065063 6468.000000
1404.715454 7207.000000
1406.364746 6244.000000
1408.013306 7602.000000
1409.660767 7949.000000
1411.307251 6228.000000
1412.952881 6303.000000
1414.597534 6029.000000
1416.240967 7072.000000
1417.883545 7142.000000
1419.525024 6888.000000
1421.165649 6490.000000
1422.805298 6526.000000
1424.443848 6085.000000
1426.081543 6692.000000
1427.718140 6284.000000
1429.353760 6044.000000
1430.988647 6416.000000
1432.622437 5975.000000
1434.255127 6157.000000
1435.886841 5693.000000
1437.517700 6085.000000
1439.147461 6076.000000
1440.776123 7883.000000
1442.404175 6050.000000
1444.031128 6559.000000
1445.656860 6247.000000
1447.281982 6189.000000
1448.906006 6522.000000
1450.529053 6029.000000
1452.151123 6046.000000
1453.772095 7386.000000
1455.392090 6307.000000
1457.011353 6921.000000
1458.629272 5695.000000
1460.246582 19152.000000
1461.862915 5580.000000
1463.478027 7286.000000
1465.092285 6410.000000
1466.705688 5231.000000
1468.317993 5597.000000
1469.929443 6249.000000
1471.540039 6372.000000
1473.149414 6037.000000
1474.757813 5987.000000
1476.365356 6202.000000
1477.971924 6751.000000
1479.577759 5328.000000
1481.182373 6294.000000
1482.786133 5506.000000
1484.388672 6800.000000
1485.990601 5526.000000
1487.591309 5532.000000
1489.191284 5665.000000
1490.790161 6340.000000
1492.388184 6609.000000
1493.985107 6696.000000
1495.581177 6320.000000
1497.176270 6043.000000
1498.770386 5496.000000
1500.363770 6551.000000
1501.956055 5568.000000
1503.547119 6177.000000
1505.137695 6830.000000
1506.726929 6528.000000
1508.315552 6179.000000
1509.903076 6644.000000
1511.489502 6959.000000
1513.075195 6249.000000
1514.659790 6668.000000
1516.243530 6442.000000
1517.826172 6229.000000
1519.408081 6623.000000
1520.988892 6615.000000
1522.568970 6044.000000
1524.147827 6236.000000
1525.725830 6386.000000
1527.303101 6299.000000
1528.879150 5690.000000
1530.454468 5933.000000
1532.028687 6317.000000
1533.602173 5469.000000
1535.174438 6018.000000
1536.745972 6417.000000
1538.316528 6498.000000
1539.886230 6398.000000
1541.454712 5518.000000
1543.022461 6612.000000
1544.589355 5691.000000
1546.155029 6873.000000
1547.719971 6012.000000
1549.283813 5072.000000
1550.847046 7501.000000
1552.408936 6330.000000
1553.970215 5975.000000
1555.530396 5764.000000
1557.089844 5764.000000
1558.648193 5835.000000
1560.205811 6268.000000
1561.762329 6987.000000
1563.317627 5832.000000
1564.872314 6413.000000
1566.426270 5639.000000
1567.979248 6349.000000
1569.530884 5691.000000
1571.081787 5929.000000
1572.631958 6183.000000
1574.181152 6394.000000
1575.729004 5807.000000
1577.276367 5566.000000
1578.822754 5615.000000
1580.368286 5118.000000
1581.912842 6625.000000
1583.456177 6407.000000
1584.998901 6596.000000
1586.540771 6458.000000
1588.081543 6760.000000
1589.621338 5794.000000
1591.160400 6767.000000
1592.698364 5960.000000
1594.235840 6125.000000
1595.771973 5936.000000
1597.307007 6684.000000
1598.841553 6210.000000
1600.375122 6136.000000
1601.907837 6179.000000
1603.438965 6360.000000
1604.969849 6316.000000
1606.499878 5793.000000
1608.028687 6244.000000
1609.556396 6186.000000
1611.083496 6001.000000
1612.609863 5861.000000
1614.135254 6258.000000
1615.659790 5828.000000
1617.182983 5829.000000
1618.705444 5703.000000
1620.227173 6590.000000
1621.748047 6989.000000
1623.267456 15620.000000
1624.786377 6295.000000
1626.304565 6134.000000
1627.821899 5841.000000
1629.338135 6399.000000
1630.853027 7101.000000
1632.367432 6803.000000
1633.881104 5808.000000
1635.393677 6918.000000
1636.905029 5982.000000
1638.416016 6515.000000
1639.925903 6314.000000
1641.434937 6261.000000
1642.942627 5592.000000
1644.449951 6108.000000
1645.956421 7062.000000
1647.461914 6297.000000
1648.966553 6818.000000
1650.469727 6192.000000
1651.972290 6624.000000
1653.474487 6345.000000
1654.975342 6702.000000
1656.475098 7556.000000
1657.973999 6196.000000
1659.472534 6560.000000
1660.969849 6267.000000
1662.466431 5904.000000
1663.961426 6489.000000
1665.456177 6357.000000
1666.950073 5216.000000
1668.442993 5783.000000
1669.934570 20797.000000
1671.425659 6547.000000
1672.916138 6090.000000
1674.405518 5984.000000
1675.893433 7015.000000
1677.381104 6859.000000
1678.867798 6066.000000
1680.353638 5420.000000
1681.838623 6076.000000
1683.322144 6231.000000
1684.805420 6238.000000
1686.287842 5933.000000
1687.769165 6276.000000
1689.249023 6229.000000
1690.728638 5427.000000
1692.207520 6513.000000
1693.685425 5754.000000
1695.162354 6164.000000
1696.638062 5798.000000
1698.113403 6026.000000
1699.587524 6279.000000
1701.061035 5496.000000
1702.533081 5616.000000
1704.004883 6900.000000
1705.475708 6440.000000
1706.945679 7134.000000
1708.414307 5184.000000
1709.882446 5789.000000
1711.349854 6401.000000
1712.816162 5524.000000
1714.281860 5805.000000
1715.745850 6208.000000
1717.209717 5991.000000
1718.672729 7038.000000
1720.134766 6396.000000
1721.595581 6706.000000
1723.055786 5496.000000
1724.515259 6383.000000
1725.973877 6296.000000
1727.431519 6084.000000
1728.887817 6261.000000
1730.343872 6061.000000
1731.798950 6479.000000
1733.253052 6000.000000
1734.705933 6944.000000
1736.158569 5987.000000
1737.610107 6683.000000
1739.060913 6011.000000
1740.510742 6560.000000
1741.959229 5872.000000
1743.407349 7582.000000
1744.854614 6623.000000
1746.301147 6678.000000
1747.746094 6744.000000
1749.190796 6188.000000
1750.634644 5824.000000
1752.077637 5495.000000
1753.519165 6540.000000
1754.960449 6377.000000
1756.400879 16036.000000
1757.840332 6273.000000
1759.278809 5226.000000
1760.716309 6084.000000
1762.153320 7634.000000
1763.589355 5869.000000
1765.024536 7234.000000
1766.458252 6208.000000
1767.891846 6473.000000
1769.324463 6673.000000
1770.756226 5791.000000
1772.187134 5929.000000
1773.616821 6401.000000
1775.045776 6207.000000
1776.474243 6314.000000
1777.901733 6758.000000
1779.327881 6266.000000
1780.753784 5646.000000
1782.178589 6919.000000
1783.602783 5577.000000
1785.025513 6641.000000
1786.447754 6584.000000
1787.869263 6901.000000
1789.290039 5922.000000
1790.709839 6198.000000
1792.128296 6234.000000
1793.546265 6900.000000
1794.963623 5583.000000
1796.380127 6065.000000
1797.795166 6589.000000
1799.209839 5849.000000
1800.623901 6620.000000
1802.036743 5990.000000
1803.448975 6975.000000
1804.859863 7178.000000
1806.270264 7850.000000
1807.679932 6505.000000
1809.088623 5968.000000
1810.496216 5422.000000
1811.903320 6444.000000
1813.309570 6377.000000
1814.714844 6723.000000
1816.119019 6021.000000
1817.522827 6005.000000
1818.925659 6209.000000
1820.327637 6015.000000
1821.729004 5918.000000
1823.128906 6431.000000
1824.528198 6526.000000
1825.927002 6615.000000
1827.324951 7418.000000
1828.721558 5857.000000
1830.117554 6735.000000
1831.512817 5968.000000
1832.907471 8187.000000
1834.301147 6057.000000
1835.693481 6871.000000
1837.085327 6462.000000
1838.476563 5913.000000
1839.866821 7106.000000
1841.255859 6059.000000
1842.644531 6139.000000
1844.032227 5949.000000
1845.419189 5850.000000
1846.804810 6916.000000
1848.190186 5887.000000
1849.574707 6410.000000
1850.958496 6354.000000
1852.341187 6349.000000
1853.722656 5380.000000
1855.103638 6630.000000
1856.484131 6376.000000
1857.863647 5772.000000
1859.241699 5999.000000
1860.619629 6300.000000
1861.996582 7905.000000
1863.372803 6089.000000
1864.748169 6156.000000
1866.122070 5630.000000
1867.495850 5697.000000
1868.868774 6230.000000
1870.240601 5970.000000
1871.611450 6924.000000
1872.981934 5444.000000
1874.351318 6091.000000
1875.720215 6128.000000
1877.087524 7224.000000
1878.454712 6065.000000
1879.820923 6001.000000
1881.186401 6787.000000
1882.551147 7613.000000
1883.914307 6792.000000
1885.277344 7010.000000
1886.639526 6351.000000
1888.000854 6479.000000
1889.360840 5679.000000
1890.720459 5820.000000
1892.079468 6172.000000
1893.437500 6707.000000
1894.794678 7315.000000
1896.150635 6062.000000
1897.506348 7669.000000
1898.861084 5880.000000
1900.214966 5595.000000
1901.567749 5955.000000
1902.920044 6013.000000
1904.271606 5970.000000
1905.622314 6948.000000
1906.971802 6546.000000
1908.320801 6618.000000
1909.668945 5907.000000
1911.016479 6201.000000
1912.363281 6364.000000
1913.708496 6869.000000
1915.053467 6149.000000
1916.397705 5562.000000
1917.741089 6562.000000
1919.083130 5976.000000
1920.424927 6738.000000
1921.765869 6978.000000
1923.106079 6272.000000
1924.445313 6437.000000
1925.783569 6357.000000
1927.121216 6504.000000
1928.458130 7109.000000
1929.794189 6784.000000
1931.129028 5638.000000
1932.463501 6762.000000
1933.797241 7332.000000
1935.130127 6238.000000
1936.461548 5736.000000
1937.793091 6365.000000
1939.123291 6721.000000
1940.453003 5749.000000
1941.781860 6104.000000
1943.109497 5857.000000
1944.436646 5023.000000
1945.763062 5927.000000
1947.088745 6567.000000
1948.413086 5769.000000
1949.737183 6694.000000
1951.060425 6410.000000
1952.382935 6422.000000
1953.704346 5839.000000
1955.024780 7455.000000
1956.344604 6041.000000
1957.664063 5649.000000
1958.982544 6869.000000
1960.299683 5926.000000
1961.616455 5895.000000
1962.932495 6582.000000
1964.247803 6623.000000
1965.561646 6294.000000
1966.875244 5709.000000
1968.188110 6214.000000
1969.500122 6045.000000
1970.811523 6063.000000
1972.121582 6324.000000
1973.431152 5923.000000
1974.739990 6208.000000
1976.048218 6666.000000
1977.355103 6099.000000
1978.661377 7328.000000
1979.967285 5606.000000
1981.271973 6489.000000
1982.576172 5921.000000
1983.879150 5739.000000
1985.181763 7632.000000
1986.483398 6129.000000
1987.784424 6819.000000
1989.083862 6066.000000
1990.383423 6663.000000
1991.681885 5365.000000
1992.979858 6139.000000
1994.276245 6179.000000
1995.572632 5836.000000
1996.868042 5599.000000
1998.162720 6570.000000
1999.456543 5710.000000
2000.749146 6570.000000
2002.041260 5736.000000
2003.332886 7286.000000
2004.623779 6505.000000
2005.913086 6300.000000
2007.202148 6913.000000
2008.490479 5968.000000
2009.778076 6060.000000
2011.064819 6646.000000
2012.350464 5685.000000
2013.635742 6390.000000
2014.920044 6108.000000
2016.203735 5645.000000
2017.486084 6093.000000
2018.768066 6538.000000
2020.049561 6825.000000
2021.330078 6004.000000
2022.609863 6146.000000
2023.888550 6807.000000
2025.166504 5892.000000
2026.443970 5934.000000
2027.720825 6368.000000
2028.995972 5852.000000
2030.271240 6647.000000
2031.545532 6261.000000
2032.818848 6009.000000
2034.091309 5984.000000
2035.363403 6168.000000
2036.634399 6963.000000
2037.905151 6647.000000
2039.174561 6106.000000
2040.442871 6792.000000
2041.711182 6608.000000
2042.978516 5987.000000
2044.245117 6030.000000
2045.510498 5661.000000
2046.775269 5744.000000
2048.039795 5448.000000
2049.302979 5831.000000
2050.565918 6485.000000
2051.826904 6170.000000
2053.088379 6156.000000
2054.348633 5916.000000
2055.608154 6722.000000
2056.866943 6259.000000
2058.124756 6949.000000
2059.382080 5885.000000
2060.638672 5976.000000
2061.893799 6561.000000
2063.148926 5651.000000
2064.403076 5614.000000
2065.656494 5674.000000
2066.909180 6868.000000
2068.160645 6258.000000
2069.411865 6450.000000
2070.662354 5601.000000
2071.912109 5457.000000
2073.160400 6489.000000
2074.408691 6529.000000
2075.656006 7428.000000
2076.902588 5671.000000
2078.148438 6038.000000
2079.393066 7039.000000
2080.637207 7635.000000
2081.880859 5524.000000
2083.123535 6018.000000
2084.364990 6964.000000
2085.606201 5999.000000
2086.846924 6371.000000
2088.086670 6776.000000
2089.325195 7097.000000
2090.563232 6213.000000
2091.800537 5811.000000
2093.037598 6663.000000
2094.273193 6121.000000
2095.508057 6254.000000
2096.742676 6094.000000
2097.976318 5618.000000
2099.208984 6091.000000
2100.440918 7011.000000
2101.672363 6432.000000
2102.902832 6793.000000
2104.132568 6001.000000
2105.362061 6010.000000
2106.589600 6038.000000
2107.817383 6065.000000
2109.044434 6427.000000
2110.270508 5546.000000
2111.495117 6405.000000
2112.719971 6960.000000
2113.943604 7171.000000
2115.166748 6246.000000
2116.388672 7592.000000
2117.610352 6015.000000
2118.831055 6849.000000
2120.051025 6086.000000
2121.270508 6101.000000
2122.488525 6625.000000
2123.706543 7134.000000
2124.923584 5747.000000
2126.140137 5820.000000
2127.354980 6567.000000
2128.570068 6406.000000
2129.784180 7028.000000
2130.997559 5703.000000
2132.210205 6105.000000
2133.421387 5882.000000
2134.632813 6525.000000
2135.843018 6792.000000
2137.052734 6007.000000
2138.260986 6359.000000
2139.469238 5604.000000
2140.676758 5938.000000
2141.883057 7505.000000
2143.088623 5931.000000
2144.293945 5694.000000
2145.498291 5616.000000
2146.701904 6344.000000
2147.905029 6294.000000
2149.106689 6474.000000
2150.308105 5309.000000
2151.508789 6308.000000
2152.708740 6088.000000
2153.907471 5924.000000
2155.105957 6952.000000
2156.303955 6259.000000
2157.500977 6000.000000
2158.697266 5177.000000
2159.892334 5292.000000
2161.087158 6188.000000
2162.281250 5599.000000
2163.474365 6085.000000
2164.666504 6970.000000
2165.858398 5908.000000
2167.049561 6369.000000
2168.239746 6278.000000
2169.429199 6511.000000
2170.618164 6780.000000
2171.806152 6048.000000
2172.993896 5751.000000
2174.180176 5957.000000
2175.365723 6591.000000
2176.551025 6012.000000
2177.735840 5840.000000
2178.919434 6382.000000
2180.102295 7526.000000
2181.284180 6339.000000
2182.465820 5993.000000
2183.646973 6637.000000
2184.826904 5740.000000
2186.005859 5537.000000
2187.184326 6366.000000
2188.362549 6886.000000
2189.539551 7202.000000
2190.715576 6785.000000
2191.891357 6150.000000
2193.066650 5556.000000
2194.240479 6664.000000
2195.413818 6177.000000
2196.586914 6098.000000
2197.758789 6525.000000
2198.930176 7053.000000
2200.101074 6393.000000
2201.270264 6914.000000
2202.439453 7517.000000
2203.608154 6351.000000
2204.775879 5998.000000
2205.942627 5646.000000
2207.108643 7108.000000
2208.274170 6683.000000
2209.439453 5987.000000
2210.603271 6788.000000
2211.766602 5437.000000
2212.928711 6281.000000
2214.091064 6139.000000
2215.252197 6719.000000
2216.412354 6752.000000
2217.572021 6294.000000
2218.731445 6602.000000
2219.889648 6338.000000
2221.046875 6359.000000
2222.203857 6785.000000
2223.360107 6553.000000
2224.515625 6785.000000
2225.670410 6240.000000
2226.824219 6491.000000
2227.977051 6087.000000
2229.130371 6890.000000
2230.281738 6258.000000
2231.432861 6217.000000
2232.583252 6526.000000
2233.733154 7671.000000
2234.882080 6344.000000
2236.030518 5241.000000
2237.177490 6759.000000
2238.324707 7092.000000
2239.470703 6086.000000
2240.616455 7333.000000
2241.760498 7378.000000
2242.904785 6746.000000
2244.048096 6213.000000
2245.190674 5997.000000
2246.332275 5779.000000
2247.473633 5844.000000
2248.614014 6432.000000
2249.753662 6427.000000
2250.892822 5838.000000
2252.030762 5866.000000
2253.168701 6245.000000
2254.305664 5301.000000
2255.441895 6330.000000
2256.577148 6141.000000
2257.711670 7324.000000
2258.845947 6407.000000
2259.979736 5439.000000
2261.112061 6153.000000
2262.243896 6815.000000
2263.375244 6264.000000
2264.505615 6503.000000
2265.635742 8147.000000
2266.764648 6715.000000
2267.893066 6086.000000
2269.020996 5545.000000
2270.147949 6178.000000
2271.274170 5971.000000
2272.399414 6739.000000
2273.524658 6524.000000
2274.649170 6435.000000
2275.772461 5884.000000
2276.895020 6287.000000
2278.017090 6179.000000
2279.138672 7361.000000
2280.259521 6402.000000
2281.379150 6489.000000
2282.498291 7103.000000
2283.617188 7707.000000
2284.735352 7187.000000
2285.852539 5880.000000
2286.968750 6439.000000
2288.084717 7043.000000
2289.199951 6942.000000
2290.314453 7439.000000
2291.427734 5836.000000
2292.541016 6394.000000
2293.653564 6051.000000
2294.765381 5388.000000
2295.876465 6739.000000
2296.986328 6433.000000
2298.095703 6181.000000
2299.204834 6687.000000
2300.312988 6393.000000
2301.420166 6818.000000
2302.527100 5887.000000
2303.633301 6362.000000
2304.739014 6602.000000
2305.843262 6623.000000
2306.947266 5480.000000
2308.050781 5759.000000
2309.153809 6545.000000
2310.255615 7508.000000
2311.356689 7391.000000
2312.457275 6581.000000
2313.557373 5543.000000
2314.656738 6395.000000
2315.754639 6553.000000
2316.853027 7086.000000
2317.949951 8283.000000
2319.046631 6910.000000
2320.142822 5779.000000
2321.237305 6879.000000
2322.331787 7613.000000
2323.425537 5855.000000
2324.519043 6033.000000
2325.610840 6495.000000
2326.702637 6975.000000
2327.793701 6115.000000
2328.884033 6282.000000
2329.973389 6943.000000
2331.062744 6046.000000
2332.150879 6339.000000
2333.238525 7015.000000
2334.325928 6557.000000
2335.411621 6747.000000
2336.497070 7825.000000
2337.582275 6342.000000
2338.666504 6779.000000
2339.749756 5931.000000
2340.832764 6418.000000
2341.914795 7159.000000
2342.996582 6013.000000
2344.077637 7471.000000
2345.157471 6711.000000
2346.236816 5636.000000
2347.315674 6859.000000
2348.394043 6535.000000
2349.470947 6254.000000
2350.547607 7051.000000
2351.624023 6049.000000
2352.699463 6538.000000
2353.773926 5995.000000
2354.848145 6309.000000
2355.921631 6795.000000
2356.994629 6267.000000
2358.066406 7064.000000
2359.137939 6291.000000
2360.208496 6791.000000
2361.278809 7466.000000
2362.348145 7483.000000
2363.416504 6809.000000
2364.484619 6759.000000
2365.552002 7135.000000
2366.618896 7105.000000
2367.685059 6030.000000
2368.750000 6971.000000
2369.814941 7023.000000
2370.879150 6422.000000
2371.942627 6943.000000
2373.004883 5864.000000
2374.067139 6382.000000
2375.128418 6343.000000
2376.189453 5985.000000
2377.249268 6262.000000
2378.308350 7877.000000
2379.367432 6484.000000
2380.425537 7654.000000
2381.482910 6819.000000
2382.539307 8104.000000
2383.595459 7866.000000
2384.651123 6268.000000
2385.706055 7088.000000
2386.759521 6746.000000
2387.813232 6633.000000
2388.865967 6360.000000
2389.918213 6792.000000
2390.969727 6161.000000
2392.020264 6612.000000
2393.070557 6518.000000
2394.119873 6328.000000
2395.169189 6232.000000
2396.217041 6902.000000
2397.264404 7025.000000
2398.311523 6352.000000
2399.357666 6601.000000
2400.403076 6200.000000
2401.447754 6788.000000
2402.492432 7771.000000
2403.535645 7493.000000
2404.578857 6666.000000
2405.620605 5916.000000
2406.662598 6732.000000
2407.703857 7142.000000
2408.744141 6099.000000
2409.783691 6465.000000
2410.822266 6349.000000
2411.861084 6020.000000
2412.898682 6532.000000
2413.936035 6891.000000
2414.972168 7423.000000
2416.008057 6283.000000
2417.043213 6313.000000
2418.077881 6684.000000
2419.111084 7234.000000
2420.144531 6506.000000
2421.177002 6735.000000
2422.209229 6863.000000
2423.239990 7084.000000
2424.270752 6360.000000
2425.301025 6877.000000
2426.330078 6863.000000
2427.359131 6683.000000
2428.386475 7409.000000
2429.414307 6741.000000
2430.440918 7322.000000
2431.467285 6938.000000
2432.492188 7754.000000
2433.517334 6559.000000
2434.541504 7062.000000
2435.565430 6716.000000
2436.588135 5865.000000
2437.610107 6361.000000
2438.631836 6627.000000
2439.652832 6721.000000
2440.673340 6033.000000
2441.692627 6655.000000
2442.711914 6535.000000
2443.730225 8502.000000
2444.748291 6286.000000
2445.764893 6458.000000
2446.781494 6566.000000
2447.797363 5998.000000
2448.813232 7005.000000
2449.827637 6909.000000
2450.841309 5568.000000
2451.854492 7257.000000
2452.867432 5981.000000
2453.879639 7182.000000
2454.890869 6651.000000
2455.901855 7720.000000
2456.912109 6383.000000
2457.921875 7602.000000
2458.930664 5924.000000
2459.938721 5946.000000
2460.946777 6309.000000
2461.953613 7350.000000
2462.960205 5480.000000
2463.965576 7413.000000
2464.970703 6916.000000
2465.975586 5866.000000
2466.979248 6497.000000
2467.982666 6392.000000
2468.985107 7607.000000
2469.987305 7352.000000
2470.989014 6873.000000
2471.989746 6566.000000
2472.989502 7065.000000
2473.989258 6763.000000
2474.988037 5724.000000
2475.986328 6578.000000
2476.983643 7041.000000
2477.980713 6174.000000
2478.977783 7015.000000
2479.973389 5797.000000
2480.968994 7213.000000
2481.962891 6675.000000
2482.956787 8120.000000
2483.950195 6922.000000
2484.943115 6710.000000
2485.935059 7510.000000
2486.926270 7219.000000
2487.917236 6773.000000
2488.907715 5852.000000
2489.897217 6612.000000
2490.885986 6512.000000
2491.874756 5714.000000
2492.862549 6779.000000
2493.849121 6540.000000
2494.835693 8049.000000
2495.821777 6773.000000
2496.807129 7117.000000
2497.791504 8311.000000
2498.775635 6057.000000
2499.759766 6930.000000
2500.742432 5758.000000
2501.724609 7015.000000
2502.706299 6863.000000
2503.687256 7226.000000
2504.667725 6537.000000
2505.647949 5717.000000
2506.626709 6318.000000
2507.605225 7610.000000
2508.583252 6768.000000
2509.560791 7047.000000
2510.537354 6115.000000
2511.513672 5920.000000
2512.489258 6385.000000
2513.464355 6256.000000
2514.438965 6527.000000
2515.412354 7622.000000
2516.385498 6821.000000
2517.358398 6891.000000
2518.330322 6173.000000
2519.301514 6839.000000
2520.272217 7001.000000
2521.242676 7871.000000
2522.212402 8043.000000
2523.181152 6147.000000
2524.149170 6202.000000
2525.117188 7710.000000
2526.084229 6287.000000
2527.051025 5590.000000
2528.016602 7279.000000
2528.982178 6993.000000
2529.947021 7744.000000
2530.911377 6366.000000
2531.874512 6452.000000
2532.837891 5963.000000
2533.800293 5962.000000
2534.762451 6708.000000
2535.723389 6432.000000
2536.683594 6168.000000
2537.644043 6151.000000
2538.603516 6768.000000
2539.562256 6801.000000
2540.520020 6645.000000
2541.478027 6236.000000
2542.435303 6703.000000
2543.391602 6117.000000
2544.347656 7114.000000
2545.302490 6239.000000
2546.257568 7721.000000
2547.211914 7046.000000
2548.165527 6962.000000
2549.118164 7292.000000
2550.070557 6722.000000
2551.022461 6927.000000
2551.973633 6476.000000
2552.924072 7720.000000
2553.874023 7076.000000
2554.823730 7469.000000
2555.772705 6659.000000
2556.721191 6236.000000
2557.668457 7092.000000
2558.615723 6332.000000
2559.562256 6579.000000
2560.508301 6807.000000
2561.453369 7440.000000
2562.398193 6740.000000
2563.342529 7189.000000
2564.286377 6850.000000
2565.229736 6695.000000
2566.171631 6665.000000
2567.113770 6544.000000
2568.055176 6202.000000
2568.995850 7177.000000
2569.935791 7270.000000
2570.875732 5691.000000
2571.814697 6204.000000
2572.753418 7561.000000
2573.691162 7182.000000
2574.628662 5472.000000
2575.565430 6978.000000
2576.501465 6841.000000
2577.437012 7587.000000
2578.371826 6292.000000
2579.306641 6005.000000
2580.240479 7096.000000
2581.173828 7123.000000
2582.106445 5910.000000
2583.038818 6964.000000
2583.970459 5439.000000
2584.901611 7073.000000
2585.832275 6987.000000
2586.761719 6885.000000
2587.691162 7256.000000
2588.620117 6479.000000
2589.548828 7639.000000
2590.475830 7311.000000
2591.403076 5934.000000
2592.329834 6805.000000
2593.255859 6298.000000
2594.181641 5622.000000
2595.106201 7602.000000
2596.030518 7664.000000
2596.954346 5363.000000
2597.877686 7305.000000
2598.800049 6261.000000
2599.722168 6945.000000
2600.643799 8333.000000
2601.564697 6394.000000
2602.484863 5959.000000
2603.404785 6386.000000
2604.324219 6406.000000
2605.243408 6470.000000
2606.161621 5833.000000
2607.078613 6006.000000
2607.995850 7224.000000
2608.912842 5905.000000
2609.828857 7492.000000
2610.743652 6611.000000
2611.658936 6601.000000
2612.573486 6532.000000
2613.487061 6603.000000
2614.400635 6388.000000
2615.312988 7602.000000
2616.225342 7022.000000
2617.136719 6889.000000
2618.047852 5731.000000
2618.958252 7289.000000
2619.868408 6605.000000
2620.777832 6161.000000
2621.686768 6779.000000
2622.594727 6271.000000
2623.502930 6879.000000
2624.410156 6610.000000
2625.316895 7007.000000
2626.222900 5990.000000
2627.128662 6651.000000
2628.033691 6498.000000
2628.938477 7788.000000
2629.842529 6446.000000
2630.745605 6413.000000
2631.648682 6446.000000
2632.550781 5621.000000
2633.452881 6773.000000
2634.354736 7052.000000
2635.254883 6778.000000
2636.155273 6389.000000
2637.054932 6427.000000
2637.954346 6047.000000
2638.852295 6904.000000
2639.750732 6857.000000
2640.648682 6363.000000
2641.545898 6110.000000
2642.441895 6175.000000
2643.337891 6837.000000
2644.233643 6106.000000
2645.128662 6479.000000
2646.023438 6701.000000
2646.916748 7287.000000
2647.810059 6403.000000
2648.703125 6792.000000
2649.595947 6455.000000
2650.487061 7418.000000
2651.378418 6479.000000
2652.269287 7702.000000
2653.159424 7272.000000
2654.049316 6594.000000
2654.937988 7332.000000
2655.826904 6654.000000
2656.715332 6577.000000
2657.602783 7381.000000
2658.489258 6572.000000
2659.376221 7093.000000
2660.262451 6837.000000
2661.148193 6863.000000
2662.032715 6519.000000
2662.917236 6421.000000
2663.801514 6206.000000
2664.685059 7135.000000
2665.568115 7831.000000
2666.450439 7331.000000
2667.332275 6167.000000
2668.213379 6673.000000
2669.094727 6039.000000
2669.974609 6547.000000
2670.854736 7394.000000
2671.734131 7179.000000
2672.613525 6338.000000
2673.492188 6126.000000
2674.369141 6450.000000
2675.246826 6777.000000
2676.123779 6395.000000
2677.000000 8085.000000
2677.875732 7212.000000
2678.750732 6237.000000
2679.625977 7751.000000
2680.500244 6931.000000
2681.374023 7319.000000
2682.247070 7033.000000
2683.119873 6263.000000
2683.992432 6083.000000
2684.864258 6975.000000
2685.735352 6562.000000
2686.606201 6907.000000
2687.476563 7059.000000
2688.346680 6746.000000
2689.215088 6351.000000
2690.084229 7397.000000
2690.952637 7138.000000
2691.820801 6691.000000
2692.688232 6944.000000
2693.554443 5810.000000
2694.421143 7158.000000
2695.286865 7473.000000
2696.152588 7247.000000
2697.016846 7908.000000
2697.881836 6657.000000
2698.745361 7253.000000
2699.609131 5839.000000
2700.471436 7471.000000
2701.334229 6777.000000
2702.196045 6071.000000
2703.057373 6955.000000
2703.918701 6771.000000
2704.778809 7459.000000
2705.638916 7387.000000
2706.498535 6535.000000
2707.357910 6914.000000
2708.215576 7211.000000
2709.073486 6915.000000
2709.931885 7403.000000
2710.789063 6787.000000
2711.645508 6029.000000
2712.501465 6790.000000
2713.357422 6135.000000
2714.212646 6894.000000
2715.067139 6147.000000
2715.921143 6794.000000
2716.775146 7320.000000
2717.628174 6319.000000
2718.481445 6609.000000
2719.333008 7758.000000
2720.185059 6817.000000
2721.036865 6357.000000
2721.887451 6534.000000
2722.738037 6647.000000
2723.588135 7169.000000
2724.437500 7010.000000
2725.286865 6975.000000
2726.135010 6717.000000
2726.982666 6562.000000
2727.830811 7011.000000
2728.677734 6892.000000
2729.525146 5570.000000
2730.371094 7463.000000
2731.216309 7024.000000
2732.062012 6446.000000
2732.906738 7157.000000
2733.751465 7329.000000
2734.594971 6970.000000
2735.438721 7800.000000
2736.281738 7185.000000
2737.124268 6047.000000
2737.965820 6259.000000
2738.807861 6737.000000
2739.648926 6889.000000
2740.489746 5806.000000
2741.330322 5907.000000
2742.169678 7691.000000
2743.009033 6871.000000
2743.848389 6931.000000
2744.686523 6805.000000
2745.524170 7826.000000
2746.361816 6355.000000
2747.198975 7115.000000
2748.035889 6259.000000
2748.872314 6023.000000
2749.707520 6660.000000
2750.542969 6282.000000
2751.377930 6391.000000
2752.212158 6255.000000
2753.046143 6899.000000
2753.879639 6881.000000
2754.713135 8009.000000
2755.545654 6758.000000
2756.377686 7246.000000
2757.209229 6771.000000
2758.040771 7174.000000
2758.871338 7182.000000
2759.702148 7337.000000
2760.531738 7300.000000
2761.361328 6843.000000
2762.190674 7301.000000
2763.019287 6928.000000
2763.847412 6803.000000
2764.675049 6993.000000
2765.502686 6678.000000
2766.329834 8034.000000
2767.156250 5801.000000
2767.982178 7522.000000
2768.807617 6894.000000
2769.632813 7861.000000
2770.458008 7101.000000
2771.281982 6815.000000
2772.105957 6561.000000
2772.929932 7677.000000
2773.752686 6651.000000
2774.575684 6943.000000
2775.397461 6887.000000
2776.219238 7010.000000
2777.041016 6530.000000
2777.861816 7943.000000
2778.681885 6627.000000
2779.502197 7007.000000
2780.322021 7297.000000
2781.141846 6468.000000
2781.959717 5991.000000
2782.778809 8047.000000
2783.596680 6527.000000
2784.414307 6751.000000
2785.231445 7153.000000
2786.048096 7318.000000
2786.864502 7214.000000
2787.680420 6319.000000
2788.496094 5971.000000
2789.310791 6359.000000
2790.125977 6965.000000
2790.940430 7217.000000
2791.754395 6567.000000
2792.568115 7435.000000
2793.380615 8803.000000
2794.193359 6995.000000
2795.005615 7459.000000
2795.817383 7263.000000
2796.628418 7378.000000
2797.440186 6586.000000
2798.250732 7203.000000
2799.061279 7058.000000
2799.870361 7366.000000
2800.680176 8157.000000
2801.489258 7841.000000
2802.298096 6710.000000
2803.106445 7173.000000
2803.913818 6197.000000
2804.721680 6502.000000
2805.528809 6735.000000
2806.335693 7008.000000
2807.141357 7207.000000
2807.947510 6639.000000
2808.752930 6452.000000
2809.558350 7275.000000
2810.363037 6153.000000
2811.166748 7670.000000
2811.970947 7523.000000
2812.774658 6401.000000
2813.578125 6094.000000
2814.380127 6627.000000
2815.182861 7325.000000
2815.984863 7850.000000
2816.786621 6138.000000
2817.587891 6576.000000
2818.388672 7302.000000
2819.188965 6511.000000
2819.989502 6741.000000
2820.789063 8260.000000
2821.588135 7221.000000
2822.387207 6652.000000
2823.186035 6862.000000
2823.984375 6395.000000
2824.781738 7033.000000
2825.579346 7466.000000
2826.376221 6692.000000
2827.173340 7433.000000
2827.969727 8166.000000
2828.765381 7003.000000
2829.561035 7405.000000
2830.356445 7716.000000
2831.151367 7426.000000
2831.945557 6689.000000
2832.739746 6862.000000
2833.533691 5651.000000
2834.327148 6873.000000
2835.119873 7152.000000
2835.912354 8090.000000
2836.704834 7664.000000
2837.497070 7487.000000
2838.288818 6459.000000
2839.079590 6804.000000
2839.870361 8861.000000
2840.661377 7536.000000
2841.451416 6322.000000
2842.240967 7658.000000
2843.030762 7225.000000
2843.819580 7342.000000
2844.608398 7816.000000
2845.397217 7712.000000
2846.185059 7533.000000
2846.972412 7206.000000
2847.760010 7513.000000
2848.547119 7341.000000
2849.333496 6652.000000
2850.119873 7454.000000
2850.906006 7236.000000
2851.691650 7602.000000
2852.476318 7179.000000
2853.261475 6844.000000
2854.046387 7448.000000
2854.830566 7120.000000
2855.614746 6917.000000
2856.397705 8267.000000
2857.180908 6848.000000
2857.963867 6789.000000
2858.746338 7808.000000
2859.528564 6258.000000
2860.310303 6702.000000
2861.091797 7581.000000
2861.873535 7483.000000
2862.654541 7652.000000
2863.434814 6644.000000
2864.214844 6720.000000
2864.994873 8255.000000
2865.774658 7474.000000
2866.553467 8189.000000
2867.332520 7729.000000
2868.111084 6804.000000
2868.889404 7014.000000
2869.667236 7304.000000
2870.444824 7027.000000
2871.222168 7539.000000
2871.999268 7008.000000
2872.775879 6452.000000
2873.552002 7456.000000
2874.328125 7207.000000
2875.103760 8394.000000
2875.879150 7340.000000
2876.654053 6688.000000
2877.428711 8164.000000
2878.203369 6747.000000
2878.977783 7989.000000
2879.751465 6893.000000
2880.524414 7269.000000
2881.298096 6865.000000
2882.070801 7702.000000
2882.843506 7894.000000
2883.615479 8254.000000
2884.387207 6254.000000
2885.159424 6815.000000
2885.930420 6908.000000
2886.700928 6204.000000
2887.471924 8388.000000
2888.242920 7397.000000
2889.013184 8015.000000
2889.782471 7700.000000
2890.552002 6973.000000
2891.321533 7288.000000
2892.090576 7351.000000
2892.859131 7930.000000
2893.627686 7664.000000
2894.395264 7002.000000
2895.163330 6529.000000
2895.930908 7371.000000
2896.698486 8353.000000
2897.464844 7453.000000
2898.232178 6533.000000
2898.998291 7263.000000
2899.764648 7051.000000
2900.529541 8319.000000
2901.294922 6978.000000
2902.060791 6482.000000
2902.825195 7810.000000
2903.589600 7971.000000
2904.354248 8470.000000
2905.117920 6701.000000
2905.882324 8460.000000
2906.645996 6697.000000
2907.408936 8383.000000
2908.171631 6576.000000
2908.934814 9078.000000
2909.697510 6981.000000
2910.458984 6859.000000
2911.220947 6859.000000
