scanname Analyse104
timestamp 2017-02-10 22:45:14
ccdbias 953.643066
ccdgain 3.473401
sigmaread 8.960639
laserwavenum -0.345743
wavenumcorrection 0.177221
scancount 1
totalexposurems 10000
singleexposurems 10000
measurementstate Unknown
scanmode Manual
snr 48.143902 1.605532 1.511019
replacelist 1
948 20857.000000 13248.000000
peaks 6
394.058838 0.117386 0.000000 0.042563 0.000008
810.431702 0.106722 0.000000 0.149416 0.000040
840.360962 0.104120 0.000000 0.136597 0.000011
1154.500244 0.089118 0.000000 0.159708 0.000040
1314.847290 0.089179 0.000000 1.461851 0.000235
1457.502441 0.082799 0.000000 0.173077 0.000034
finalresult GLS_Multiple 88
A11883	Polypropylene (Isotactic)	4.417685e-001
A13500	Poly(propylene-co-ethylene)	4.396017e-001
A0115	Polypropylene	4.358765e-001
A1531	Ethyl formate	3.662068e-001
A9321	Methyl 2-hydroxyisobutyrate	3.591310e-001
A3573	Ammonium tartrate dibasic	3.534915e-001
A0400	Potassium permanganate	3.527371e-001
A3653	(R)-(+)-3-Methylcyclopentanone	3.516136e-001
A1270	Methyl DL-lactate	3.490201e-001
A2703	Acetaldehyde dimethyl acetal	3.485423e-001
A6290	Bis(2,2,2-trifluoroethyl) phosphite	3.477713e-001
A12733	Tri-tert-butyl borate	3.472092e-001
A2313	Barium peroxide	3.470018e-001
A6700	4'-Methoxypropiophenone	3.468918e-001
A10301	2-Methoxytetrahydropyran	3.467821e-001
A14007	1,2-Dichlorotetramethyldisilane	3.466724e-001
A5377	4-Methyl-2-nitroanisole	3.461360e-001
A11482	Methyl 5-methoxysalicylate	3.457949e-001
A13820	(-)-Methyl L-lactate	3.452352e-001
A10674	Dibutyl succinate	3.447610e-001
A8580	Sodium permanganate solution	3.440087e-001
A0098	Roundup (weed and grass killer)	3.439605e-001
A9546	4-Methoxy-alpha-methylbenzyl alcohol	3.438267e-001
A1676	Trifluoroacetic acid	3.432819e-001
A5382	3-Methoxypropionic acid	3.429430e-001
A2721	Formaldehyde diethyl acetal	3.428944e-001
A12448	Tribromofluoromethane	3.426040e-001
A0369	2,4,6-Tribromophenol	3.425316e-001
A3222	Potassium nitrite	3.421934e-001
A1697	Ethyl vinyl ether	3.421208e-001
A2098	Diethylene glycol dibutyl ether	3.419520e-001
A2210	Calcium peroxide hydrate	3.416499e-001
A1754	N,N-Dimethylhydrazine	3.416499e-001
A7885	beta-Carotene	3.416381e-001
A6278	6-Methylnicotinamide	3.414332e-001
A7225	Dibutyl adipate	3.409750e-001
A5310	4-Methyl-3-nitroanisole	3.403010e-001
A1547	Isovaleric acid	3.402888e-001
A2225	Diethylene glycol butyl ether	3.396758e-001
A4881	2-(2-Chloroethoxy)tetrahydro-2H-pyran	3.396518e-001
A8610	5-Methyl-2-pyrrolidinone	3.389201e-001
A3868	N-formylmorpholine	3.389078e-001
A9092	p-Tolyl ether	3.385245e-001
A12725	Cerium(III) fluoride	3.384646e-001
A0365	Tris(2-butoxyethyl) phosphate	3.383448e-001
A1224	Poly(ethylene glycol) butyl ether	3.381291e-001
A3625	1-Dimethylamino-2-propanol	3.378896e-001
A0524	Propionic acid	3.377705e-001
A0587	Triethylene glycol monobutyl ether	3.377463e-001
A10529	1-Formylpiperazine	3.377343e-001
A8360	5-Chloro-2-nitroaniline	3.376386e-001
A3938	Lead(II) acetylacetonate	3.375909e-001
A11872	Poly(methyl methacrylate)	3.373757e-001
A1519	Butyl vinyl ether	3.364327e-001
A11366	4-Isopropylanisole	3.363013e-001
A2017	Isopropylamine	3.360871e-001
A0793	Tris(2-methoxyethoxy)(vinyl)silane	3.354915e-001
A16018	L (lewisite blister agent, lot D)	3.351467e-001
A3132	4-Methyl-3-nitrobenzoic acid	3.349565e-001
A3285	4,N,N-Trimethylaniline	3.340186e-001
A0518	Propylene glycol	3.338766e-001
A11885	Poly(methyl methacrylate-co-butyl methacrylate)	3.338526e-001
A2727	Acrolein diethyl acetal	3.332721e-001
A14069	(R)-(-)-1,2-Propanediol	3.328104e-001
A4269	2,4-Dibromoanisole	3.327751e-001
A9593	(R)-(-)-2-Amino-1-propanol	3.327516e-001
A3574	Sodium hexanitrocobaltate(III)	3.324681e-001
A3419	Lewisite (blister agent)	3.324090e-001
A9484	S-(+)-2-Amino-1-propanol	3.322552e-001
A0027	2-Propanol	3.320076e-001
A13320	Titanium tetrachloride	3.320076e-001
A8654	3-Chloro-6-methoxypyridazine	3.318064e-001
A0673	Hexachlorocyclopentadiene	3.316059e-001
A3184	Selenourea	3.315353e-001
A5525	2-Methylene-1,3-propanediol	3.312405e-001
A0761	N,N,N',N'-Tetrakis(2-Hydroxypropyl)ethylenediamine	3.312171e-001
A6214	1,2-Dibromotetrachloroethane	3.311348e-001
A0419	Sodium chlorite	3.310168e-001
A16025	HL (distilled mustard / lewisite mixture)	3.305577e-001
A14340	Titanium(IV) fluoride	3.304873e-001
A8178	N,N'-Diisopropylethylenediamine	3.304873e-001
A3227	Selenium oxychloride	3.300757e-001
A0544	1,4-Dioxane	3.296527e-001
A13507	Poly(methyl methacrylate-co-ethyl acrylate)	3.294062e-001
A10581	Piperidine	3.279070e-001
A7633	2-Nitro-p-cymene	3.276265e-001
A4543	1,4-Butanediol divinyl ether	3.267394e-001
A10296	Tri(ethylene glycol) divinyl ether	3.267274e-001
spectrum 2048
-97.255714 44626.000000
-94.628845 44626.000000
-92.003853 45336.000000
-89.380753 45555.000000
-86.759521 46426.000000
-84.140190 46206.000000
-81.522720 46625.000000
-78.907127 46339.000000
-76.293411 46689.000000
-73.681572 47116.000000
-71.071594 46909.000000
-68.463501 47117.000000
-65.857254 47189.000000
-63.252880 47182.000000
-60.650372 47085.000000
-58.049717 47571.000000
-55.450924 46917.000000
-52.853989 46321.000000
-50.258907 46721.000000
-47.665680 46727.000000
-45.074303 46887.000000
-42.484772 46406.000000
-39.897083 47285.000000
-37.311245 47105.000000
-34.727249 46647.000000
-32.145092 47406.000000
-29.564779 46777.000000
-26.986294 47411.000000
-24.409651 46873.000000
-21.834833 46761.000000
-19.261856 46503.000000
-16.690699 46438.000000
-14.121375 46106.000000
-11.553877 45166.000000
-8.988197 46498.000000
-6.424344 46207.000000
-3.862303 46611.000000
-1.302087 46591.000000
1.256321 46153.000000
3.812908 45072.000000
6.367690 44910.000000
8.920655 44998.000000
11.471820 43299.000000
14.021172 42249.000000
16.568727 40523.000000
19.114471 39788.000000
21.658422 38437.000000
24.200569 35246.000000
26.740919 32193.000000
29.279484 29826.000000
31.816252 24752.000000
34.351219 16250.000000
36.884407 10725.000000
39.415813 7237.000000
41.945427 6517.000000
44.473244 6388.000000
46.999302 5605.000000
49.523571 4991.000000
52.046070 4346.000000
54.566772 3983.000000
57.085720 4052.000000
59.602894 4799.000000
62.118290 5954.000000
64.631905 7037.000000
67.143768 6985.000000
69.653885 5460.000000
72.162209 3673.000000
74.668777 2816.000000
77.173599 2253.000000
79.676666 1830.000000
82.177956 1704.000000
84.677505 1718.000000
87.175301 1608.000000
89.671364 1715.000000
92.165649 1856.000000
94.658195 2232.000000
97.149025 2295.000000
99.638084 2111.000000
102.125397 1601.000000
104.610985 1380.000000
107.094833 1249.000000
109.576935 1130.000000
112.057312 1097.000000
114.535965 993.000000
117.012894 855.000000
119.488068 901.000000
121.961533 864.000000
124.433266 851.000000
126.903290 874.000000
129.371567 967.000000
131.838165 803.000000
134.303009 869.000000
136.766159 917.000000
139.227570 992.000000
141.687286 1059.000000
144.145279 1091.000000
146.601578 1262.000000
149.056168 1499.000000
151.509033 1616.000000
153.960220 1810.000000
156.409714 2127.000000
158.857483 2419.000000
161.303543 2783.000000
163.747925 3096.000000
166.190628 3393.000000
168.631638 3670.000000
171.070938 3850.000000
173.508530 3946.000000
175.944489 4031.000000
178.378708 4109.000000
180.811249 4129.000000
183.242142 4073.000000
185.671310 4180.000000
188.098831 4213.000000
190.524673 4102.000000
192.948837 4185.000000
195.371338 4146.000000
197.792145 4139.000000
200.211288 4355.000000
202.628769 4551.000000
205.044556 4602.000000
207.458694 4785.000000
209.871201 5050.000000
212.282028 5334.000000
214.691177 5729.000000
217.098694 5907.000000
219.504501 6211.000000
221.908722 6676.000000
224.311234 6957.000000
226.712128 7214.000000
229.111374 7414.000000
231.508957 7491.000000
233.904877 7544.000000
236.299179 7791.000000
238.691818 7780.000000
241.082840 7683.000000
243.472198 7678.000000
245.859940 7916.000000
248.246033 7794.000000
250.630493 7832.000000
253.013306 7845.000000
255.394547 7880.000000
257.774078 7911.000000
260.152039 7776.000000
262.528320 7821.000000
264.903046 7835.000000
267.276123 7803.000000
269.647552 7753.000000
272.017334 7823.000000
274.385559 7682.000000
276.752136 7774.000000
279.117126 7858.000000
281.480499 7850.000000
283.842224 7787.000000
286.202362 7708.000000
288.560883 7704.000000
290.917816 7708.000000
293.273132 7724.000000
295.626862 7775.000000
297.978943 7740.000000
300.329468 7727.000000
302.678406 7761.000000
305.025696 7628.000000
307.371460 7565.000000
309.715546 7509.000000
312.058105 7531.000000
314.399048 7623.000000
316.738373 7532.000000
319.076141 7569.000000
321.412354 7482.000000
323.746918 7541.000000
326.079926 7522.000000
328.411377 7475.000000
330.741241 7454.000000
333.069519 7456.000000
335.396179 7533.000000
337.721344 7516.000000
340.044891 7506.000000
342.366882 7440.000000
344.687317 7356.000000
347.006134 7318.000000
349.323395 7308.000000
351.639130 7484.000000
353.953278 7407.000000
356.265839 7256.000000
358.576843 7231.000000
360.886322 7284.000000
363.194275 7396.000000
365.500610 7334.000000
367.805359 7399.000000
370.108643 7277.000000
372.410309 7429.000000
374.710480 7357.000000
377.009094 7372.000000
379.306152 7395.000000
381.601654 7310.000000
383.895630 7430.000000
386.188019 7422.000000
388.478912 7412.000000
390.768280 7518.000000
393.056061 7477.000000
395.342316 7568.000000
397.627075 7720.000000
399.910217 7699.000000
402.191925 7616.000000
404.472107 7598.000000
406.750702 7473.000000
409.027771 7528.000000
411.303314 7317.000000
413.577332 7441.000000
415.849915 7367.000000
418.120880 7555.000000
420.390350 7471.000000
422.658325 7389.000000
424.924744 7278.000000
427.189667 7362.000000
429.453125 7382.000000
431.714996 7269.000000
433.975403 7274.000000
436.234253 7159.000000
438.491638 7297.000000
440.747528 7224.000000
443.001923 7155.000000
445.254791 7111.000000
447.506104 7134.000000
449.756012 7042.000000
452.004333 7103.000000
454.251221 6998.000000
456.496643 7089.000000
458.740509 6995.000000
460.982880 7028.000000
463.223755 7002.000000
465.463226 6955.000000
467.701111 7043.000000
469.937561 7013.000000
472.172485 6836.000000
474.405945 6772.000000
476.637970 6798.000000
478.868469 6785.000000
481.097473 6838.000000
483.325012 6924.000000
485.551056 6817.000000
487.775665 6809.000000
489.998810 6922.000000
492.220490 6736.000000
494.440613 6900.000000
496.659332 6978.000000
498.876556 6821.000000
501.092407 6939.000000
503.306641 6900.000000
505.519562 6947.000000
507.730896 6804.000000
509.940796 6878.000000
512.149231 6830.000000
514.356323 6955.000000
516.561829 6802.000000
518.765930 6852.000000
520.968506 6864.000000
523.169678 6909.000000
525.369507 6891.000000
527.567810 6828.000000
529.764587 6961.000000
531.960022 6909.000000
534.153931 6869.000000
536.346497 6801.000000
538.537537 6733.000000
540.727173 6902.000000
542.915405 6834.000000
545.102112 6583.000000
547.287354 6766.000000
549.471313 6558.000000
551.653687 6525.000000
553.834717 6495.000000
556.014221 6535.000000
558.192444 6577.000000
560.369141 6380.000000
562.544434 6431.000000
564.718323 6409.000000
566.890747 6314.000000
569.061768 6294.000000
571.231323 6403.000000
573.399597 6386.000000
575.566345 6342.000000
577.731628 6328.000000
579.895508 6475.000000
582.058105 6374.000000
584.219177 6455.000000
586.378845 6444.000000
588.537170 6457.000000
590.693970 6514.000000
592.849426 6487.000000
595.003479 6385.000000
597.156189 6456.000000
599.307373 6422.000000
601.457214 6455.000000
603.605713 6394.000000
605.752625 6461.000000
607.898315 6484.000000
610.042603 6361.000000
612.185425 6450.000000
614.326782 6540.000000
616.466919 6446.000000
618.605530 6309.000000
620.742859 6422.000000
622.878723 6472.000000
625.013184 6364.000000
627.146179 6320.000000
629.278015 6374.000000
631.408386 6248.000000
633.537354 6233.000000
635.664856 6264.000000
637.791077 6195.000000
639.915771 6119.000000
642.039246 6031.000000
644.161377 6181.000000
646.282043 6096.000000
648.401367 6022.000000
650.519287 6115.000000
652.635864 6138.000000
654.751038 6001.000000
656.864868 5925.000000
658.977234 5953.000000
661.088379 6001.000000
663.198120 5928.000000
665.306396 6061.000000
667.413513 5889.000000
669.519165 5954.000000
671.623352 5906.000000
673.726318 5959.000000
675.827881 5950.000000
677.928101 6066.000000
680.026917 6045.000000
682.124390 6092.000000
684.220581 6014.000000
686.315308 6004.000000
688.408813 6012.000000
690.500977 5889.000000
692.591614 6011.000000
694.681030 6087.000000
696.769165 6024.000000
698.855835 6207.000000
700.941284 6121.000000
703.025208 6027.000000
705.107910 6043.000000
707.189331 6084.000000
709.269287 5862.000000
711.348022 5682.000000
713.425293 5681.000000
715.501282 5774.000000
717.575989 5771.000000
719.649414 5648.000000
721.721313 5816.000000
723.792053 5871.000000
725.861450 5751.000000
727.929443 5774.000000
729.996094 5757.000000
732.061523 5588.000000
734.125610 5710.000000
736.188354 5679.000000
738.249756 5552.000000
740.309875 5622.000000
742.368591 5672.000000
744.426086 5517.000000
746.482300 5433.000000
748.537109 5468.000000
750.590637 5488.000000
752.642761 5448.000000
754.693665 5441.000000
756.743347 5481.000000
758.791565 5448.000000
760.838562 5499.000000
762.884277 5311.000000
764.928589 5369.000000
766.971619 5401.000000
769.013428 5300.000000
771.053894 5365.000000
773.092957 5409.000000
775.130859 5387.000000
777.167419 5402.000000
779.202759 5521.000000
781.236755 5570.000000
783.269348 5558.000000
785.300781 5583.000000
787.330811 5145.000000
789.359558 5562.000000
791.387146 5601.000000
793.413391 5615.000000
795.438232 5571.000000
797.461975 5534.000000
799.484314 5753.000000
801.505432 5733.000000
803.525208 5690.000000
805.543701 5858.000000
807.560974 5960.000000
809.576843 5834.000000
811.591553 5911.000000
813.604919 5839.000000
815.617065 5645.000000
817.627991 5676.000000
819.637573 5503.000000
821.645935 5486.000000
823.652893 5379.000000
825.658630 5418.000000
827.663147 5436.000000
829.666382 5290.000000
831.668335 5372.000000
833.669006 5310.000000
835.668457 5401.000000
837.666565 5427.000000
839.663574 5388.000000
841.659180 5452.000000
843.653625 5420.000000
845.646729 5327.000000
847.638611 5218.000000
849.629150 5161.000000
851.618408 5120.000000
853.606628 5036.000000
855.593445 5137.000000
857.579041 5156.000000
859.563354 5026.000000
861.546570 4956.000000
863.528381 5037.000000
865.508972 5113.000000
867.488281 5012.000000
869.466431 4996.000000
871.443237 4989.000000
873.418762 5027.000000
875.393250 5082.000000
877.366272 5095.000000
879.338257 5217.000000
881.308899 5258.000000
883.278381 5249.000000
885.246521 5160.000000
887.213501 5199.000000
889.179138 5217.000000
891.143616 5196.000000
893.106873 5111.000000
895.068909 4964.000000
897.029663 5142.000000
898.989197 5174.000000
900.947449 5152.000000
902.904602 5010.000000
904.860596 5019.000000
906.815186 5004.000000
908.768555 5028.000000
910.720764 5093.000000
912.671753 4971.000000
914.621460 4921.000000
916.570007 4861.000000
918.517334 4829.000000
920.463379 4830.000000
922.408142 4682.000000
924.351868 4671.000000
926.294434 4607.000000
928.235718 4551.000000
930.175659 4555.000000
932.114502 4500.000000
934.052063 4483.000000
935.988403 4494.000000
937.923584 4579.000000
939.857483 4523.000000
941.790283 4471.000000
943.721863 4473.000000
945.652283 4471.000000
947.581482 4581.000000
949.509338 4449.000000
951.436157 4599.000000
953.361694 4450.000000
955.285950 4463.000000
957.209106 4463.000000
959.131104 4643.000000
961.051819 4550.000000
962.971375 4500.000000
964.889771 4610.000000
966.807129 4621.000000
968.723022 4610.000000
970.637817 4728.000000
972.551392 4640.000000
974.463806 4745.000000
976.375000 4655.000000
978.285034 4633.000000
980.193787 4699.000000
982.101501 4664.000000
984.007996 4589.000000
985.913269 4590.000000
987.817444 4519.000000
989.720398 4490.000000
991.622131 4529.000000
993.522705 4294.000000
995.422119 4435.000000
997.320313 4498.000000
999.217346 4551.000000
1001.113159 4377.000000
1003.007813 4283.000000
1004.901367 4306.000000
1006.793640 4296.000000
1008.684998 4247.000000
1010.575012 4202.000000
1012.463806 4294.000000
1014.351440 4276.000000
1016.237915 4160.000000
1018.123230 4114.000000
1020.007385 4088.000000
1021.890320 4009.000000
1023.772217 4107.000000
1025.652832 4093.000000
1027.532349 3960.000000
1029.410889 4075.000000
1031.288086 4214.000000
1033.163940 4182.000000
1035.038818 4134.000000
1036.912720 4148.000000
1038.785156 4151.000000
1040.656616 4044.000000
1042.526733 4165.000000
1044.395874 3995.000000
1046.263794 4123.000000
1048.130615 4070.000000
1049.996338 4088.000000
1051.860840 4079.000000
1053.724243 4222.000000
1055.586304 4043.000000
1057.447388 4209.000000
1059.307373 4124.000000
1061.166016 4117.000000
1063.023560 4129.000000
1064.880005 4174.000000
1066.735352 4193.000000
1068.589478 4152.000000
1070.442749 4201.000000
1072.294556 4086.000000
1074.145386 4216.000000
1075.994995 4054.000000
1077.843384 4116.000000
1079.690918 4026.000000
1081.537109 4056.000000
1083.382080 4236.000000
1085.226196 4123.000000
1087.068970 4060.000000
1088.910522 4015.000000
1090.751343 4108.000000
1092.590576 3901.000000
1094.429077 4039.000000
1096.266235 3972.000000
1098.102173 4014.000000
1099.937134 3925.000000
1101.770874 3867.000000
1103.603638 3779.000000
1105.435059 3763.000000
1107.265625 3868.000000
1109.094849 3810.000000
1110.923096 3729.000000
1112.750122 3607.000000
1114.576172 3694.000000
1116.401001 3712.000000
1118.224731 3711.000000
1120.047241 3638.000000
1121.868652 3646.000000
1123.689209 3587.000000
1125.508301 3608.000000
1127.326538 3590.000000
1129.143433 3741.000000
1130.959473 3707.000000
1132.774292 3662.000000
1134.588013 3732.000000
1136.400635 3755.000000
1138.212036 3739.000000
1140.022461 3793.000000
1141.831787 3751.000000
1143.639771 3741.000000
1145.447021 3930.000000
1147.252808 3898.000000
1149.057739 3962.000000
1150.861572 3907.000000
1152.664185 4094.000000
1154.465942 3992.000000
1156.266235 4020.000000
1158.065552 3945.000000
1159.863892 3866.000000
1161.660889 3880.000000
1163.457153 3868.000000
1165.252075 3780.000000
1167.045898 3798.000000
1168.838867 3713.000000
1170.630493 3756.000000
1172.421143 3588.000000
1174.210815 3592.000000
1175.999023 3609.000000
1177.786377 3526.000000
1179.572632 3604.000000
1181.357788 3568.000000
1183.141846 3557.000000
1184.924805 3507.000000
1186.706787 3553.000000
1188.487549 3496.000000
1190.267334 3587.000000
1192.046021 3581.000000
1193.823730 3542.000000
1195.600220 3474.000000
1197.375610 3371.000000
1199.149902 3382.000000
1200.923096 3414.000000
1202.695435 3364.000000
1204.466431 3344.000000
1206.236572 3310.000000
1208.005493 3300.000000
1209.773315 3320.000000
1211.540283 3352.000000
1213.305908 3305.000000
1215.070557 3364.000000
1216.834106 3400.000000
1218.596558 3357.000000
1220.358154 3433.000000
1222.118530 3374.000000
1223.877808 3295.000000
1225.636230 3215.000000
1227.393433 3319.000000
1229.149536 3262.000000
1230.904541 3380.000000
1232.658691 3359.000000
1234.411499 3275.000000
1236.163330 3279.000000
1237.914307 3413.000000
1239.663940 3395.000000
1241.412720 3318.000000
1243.160156 3427.000000
1244.906860 3473.000000
1246.652344 3250.000000
1248.396973 3487.000000
1250.140259 3357.000000
1251.882568 3390.000000
1253.623779 3445.000000
1255.364136 3317.000000
1257.103394 3267.000000
1258.841431 3065.000000
1260.578613 3117.000000
1262.314575 3230.000000
1264.049561 3238.000000
1265.783569 3263.000000
1267.516602 3365.000000
1269.248413 3243.000000
1270.979248 3340.000000
1272.708862 3289.000000
1274.437622 3289.000000
1276.165283 3331.000000
1277.891846 3454.000000
1279.617554 3340.000000
1281.341919 3378.000000
1283.065430 3341.000000
1284.787964 3322.000000
1286.509521 3405.000000
1288.229858 3384.000000
1289.949219 3356.000000
1291.667480 3302.000000
1293.384766 3265.000000
1295.101074 3322.000000
1296.816162 3191.000000
1298.530273 3372.000000
1300.243408 3317.000000
1301.955688 3198.000000
1303.666748 3209.000000
1305.376831 3299.000000
1307.085815 3152.000000
1308.793579 3162.000000
1310.500732 3232.000000
1312.206421 3181.000000
1313.911377 3234.000000
1315.615356 3147.000000
1317.318115 3236.000000
1319.019897 3377.000000
1320.720825 3277.000000
1322.420410 4864.000000
1324.119141 1063.000000
1325.817139 3236.000000
1327.513794 3130.000000
1329.209351 3250.000000
1330.904053 3216.000000
1332.597534 3142.000000
1334.290161 3228.000000
1335.981934 3237.000000
1337.672363 3132.000000
1339.362061 2979.000000
1341.050659 3105.000000
1342.738159 2991.000000
1344.424683 3013.000000
1346.110107 2876.000000
1347.794556 3022.000000
1349.478149 2979.000000
1351.160522 3078.000000
1352.841919 3062.000000
1354.522461 3288.000000
1356.201782 3152.000000
1357.880493 3237.000000
1359.557861 3276.000000
1361.234131 3209.000000
1362.909424 3236.000000
1364.583984 3236.000000
1366.257324 3090.000000
1367.929688 3172.000000
1369.601074 3154.000000
1371.271484 3216.000000
1372.940796 3292.000000
1374.609131 3100.000000
1376.276611 3108.000000
1377.942993 3145.000000
1379.608398 3092.000000
1381.272827 3099.000000
1382.936035 3020.000000
1384.598633 3037.000000
1386.259888 3002.000000
1387.920288 2984.000000
1389.579590 2977.000000
1391.237915 3013.000000
1392.895508 2994.000000
1394.551880 2983.000000
1396.207397 2927.000000
1397.861694 2966.000000
1399.515137 2998.000000
1401.167480 2985.000000
1402.819092 2867.000000
1404.469482 2930.000000
1406.118774 2809.000000
1407.767334 2909.000000
1409.414795 2818.000000
1411.061279 2737.000000
1412.706909 2713.000000
1414.351563 2770.000000
1415.994995 2641.000000
1417.637573 2681.000000
1419.279053 2679.000000
1420.919678 2723.000000
1422.559326 2656.000000
1424.197876 2723.000000
1425.835571 2698.000000
1427.472168 2682.000000
1429.107788 2659.000000
1430.742676 2551.000000
1432.376465 2653.000000
1434.009155 2721.000000
1435.640869 2664.000000
1437.271729 2698.000000
1438.901489 2651.000000
1440.530151 2642.000000
1442.158203 2679.000000
1443.785156 2696.000000
1445.410889 2572.000000
1447.036011 2730.000000
1448.660034 2629.000000
1450.283081 2670.000000
1451.905151 2767.000000
1453.526123 2828.000000
1455.146118 2780.000000
1456.765381 2794.000000
1458.383301 2901.000000
1460.000610 2555.000000
1461.616943 2829.000000
1463.232056 2751.000000
1464.846313 2780.000000
1466.459717 2735.000000
1468.072021 2759.000000
1469.683472 2731.000000
1471.294067 2534.000000
1472.903442 2632.000000
1474.511841 2666.000000
1476.119385 2718.000000
1477.725952 2630.000000
1479.331787 2605.000000
1480.936401 2668.000000
1482.540161 2515.000000
1484.142700 2565.000000
1485.744629 2396.000000
1487.345337 2457.000000
1488.945313 2356.000000
1490.544189 2446.000000
1492.142212 2430.000000
1493.739136 2352.000000
1495.335205 2506.000000
1496.930298 2616.000000
1498.524414 2477.000000
1500.117798 2507.000000
1501.710083 2581.000000
1503.301147 2488.000000
1504.891724 2475.000000
1506.480957 2494.000000
1508.069580 2385.000000
1509.657104 2478.000000
1511.243530 2448.000000
1512.829224 2443.000000
1514.413818 2436.000000
1515.997559 2382.000000
1517.580200 2375.000000
1519.162109 2323.000000
1520.742920 2430.000000
1522.322998 2404.000000
1523.901855 2304.000000
1525.479858 2334.000000
1527.057129 2249.000000
1528.633179 2236.000000
1530.208496 2480.000000
1531.782715 2295.000000
1533.356201 2300.000000
1534.928467 2346.000000
1536.500000 2219.000000
1538.070557 2231.000000
1539.640259 2173.000000
1541.208740 2236.000000
1542.776489 2213.000000
1544.343384 2258.000000
1545.909058 2194.000000
1547.473999 2190.000000
1549.037842 2148.000000
1550.601074 2210.000000
1552.162964 2255.000000
1553.724243 2316.000000
1555.284424 2236.000000
1556.843872 2272.000000
1558.402222 2271.000000
1559.959839 2206.000000
1561.516357 2208.000000
1563.071655 2161.000000
1564.626343 2112.000000
1566.180298 2157.000000
1567.733276 2039.000000
1569.284912 2168.000000
1570.835815 2222.000000
1572.385986 2133.000000
1573.935181 2218.000000
1575.483032 2141.000000
1577.030396 2160.000000
1578.576782 2251.000000
1580.122314 2203.000000
1581.666870 2175.000000
1583.210205 2189.000000
1584.752930 2035.000000
1586.294800 2151.000000
1587.835571 2167.000000
1589.375366 2217.000000
1590.914429 2046.000000
1592.452393 2115.000000
1593.989868 2077.000000
1595.526001 1990.000000
1597.061035 2082.000000
1598.595581 2105.000000
1600.129150 2054.000000
1601.661865 2169.000000
1603.192993 2167.000000
1604.723877 2165.000000
1606.253906 2038.000000
1607.782715 2027.000000
1609.310425 2039.000000
1610.837524 2043.000000
1612.363892 2121.000000
1613.889282 2056.000000
1615.413818 2069.000000
1616.937012 2110.000000
1618.459473 2045.000000
1619.981201 2026.000000
1621.502075 2091.000000
1623.021484 2010.000000
1624.540405 2137.000000
1626.058594 2026.000000
1627.575928 2031.000000
1629.092163 2001.000000
1630.607056 1971.000000
1632.121460 2074.000000
1633.635132 2061.000000
1635.147705 1979.000000
1636.659058 2095.000000
1638.170044 1933.000000
1639.679932 1904.000000
1641.188965 1882.000000
1642.696655 1890.000000
1644.203979 1946.000000
1645.710449 1911.000000
1647.215942 1939.000000
1648.720581 1835.000000
1650.223755 1832.000000
1651.726318 1757.000000
1653.228516 1870.000000
1654.729370 1770.000000
1656.229126 1814.000000
1657.728027 1840.000000
1659.226563 1747.000000
1660.723877 1868.000000
1662.220459 1777.000000
1663.715454 1715.000000
1665.210205 1781.000000
1666.704102 1754.000000
1668.197021 1780.000000
1669.688599 1491.000000
1671.179688 1761.000000
1672.670166 1699.000000
1674.159546 1800.000000
1675.647461 1632.000000
1677.135132 1717.000000
1678.621826 1746.000000
1680.107666 1770.000000
1681.592651 1709.000000
1683.076172 1727.000000
1684.559448 1711.000000
1686.041870 1688.000000
1687.523193 1665.000000
1689.003052 1690.000000
1690.482666 1666.000000
1691.961548 1633.000000
1693.439453 1284.000000
1694.916382 1702.000000
1696.392090 1708.000000
1697.867432 1684.000000
1699.341553 1613.000000
1700.815063 1681.000000
1702.287109 1573.000000
1703.758911 1737.000000
1705.229736 1589.000000
1706.699707 1606.000000
1708.168335 1722.000000
1709.636475 1654.000000
1711.103882 1734.000000
1712.570190 1678.000000
1714.035889 1671.000000
1715.499878 1684.000000
1716.963745 1600.000000
1718.426758 1732.000000
1719.888794 1637.000000
1721.349609 1663.000000
1722.809814 1608.000000
1724.269287 1652.000000
1725.727905 1685.000000
1727.185547 1678.000000
1728.641846 1621.000000
1730.097900 1683.000000
1731.552979 1692.000000
1733.007080 1591.000000
1734.459961 1563.000000
1735.912598 1601.000000
1737.364136 1510.000000
1738.814941 1700.000000
1740.264771 1582.000000
1741.713257 1627.000000
1743.161377 1598.000000
1744.608643 1536.000000
1746.055176 1433.000000
1747.500122 1524.000000
1748.944824 1566.000000
1750.388672 1612.000000
1751.831665 1504.000000
1753.273193 1514.000000
1754.714478 1528.000000
1756.154907 1483.500000
1757.594360 1439.000000
1759.032837 1556.000000
1760.470337 1585.000000
1761.907349 1528.000000
1763.343384 1558.000000
1764.778564 1482.000000
1766.212280 1473.000000
1767.645874 1502.000000
1769.078491 1507.000000
1770.510254 1552.000000
1771.941162 1557.000000
1773.370850 1481.000000
1774.799805 1396.000000
1776.228271 1533.000000
1777.655762 1436.000000
1779.081909 1342.000000
1780.507813 1481.000000
1781.932617 1379.000000
1783.356812 1490.000000
1784.779541 1325.000000
1786.201782 1365.000000
1787.623291 1470.000000
1789.044067 1441.000000
1790.463867 1369.000000
1791.882324 1387.000000
1793.300293 1370.000000
1794.717651 1337.000000
1796.134155 1454.000000
1797.549194 1258.000000
1798.963867 1361.000000
1800.377930 1320.000000
1801.790771 1317.000000
1803.203003 1449.000000
1804.613892 1349.000000
1806.024292 1279.000000
1807.433960 1324.000000
1808.842651 1358.000000
1810.250244 1391.000000
1811.657349 1297.000000
1813.063599 1362.000000
1814.468872 1367.000000
1815.873047 1320.000000
1817.276855 1301.000000
1818.679688 1381.000000
1820.081665 1361.000000
1821.483032 1390.000000
1822.882935 1387.000000
1824.282227 1362.000000
1825.681030 1321.000000
1827.078979 1366.000000
1828.475586 1308.000000
1829.871582 1358.000000
1831.266846 1316.000000
1832.661499 1274.000000
1834.055176 1345.000000
1835.447510 1364.000000
1836.839355 1375.000000
1838.230591 1312.000000
1839.620850 1329.000000
1841.009888 1366.000000
1842.398560 1364.000000
1843.786255 1281.000000
1845.173218 1275.000000
1846.558838 1337.000000
1847.944214 1175.000000
1849.328735 1332.000000
1850.712524 1369.000000
1852.095215 1174.000000
1853.476685 1161.000000
1854.857666 1266.000000
1856.238159 1260.000000
1857.617676 1278.000000
1858.995728 1248.000000
1860.373657 1103.000000
1861.750610 1108.000000
1863.126831 1144.000000
1864.502197 1299.000000
1865.876099 1232.000000
1867.249878 1166.000000
1868.622803 1228.000000
1869.994629 1200.000000
1871.365479 1183.000000
1872.735962 1208.000000
1874.105347 1169.000000
1875.474243 1175.000000
1876.841553 1072.000000
1878.208740 1138.000000
1879.574951 1160.000000
1880.940430 1107.000000
1882.305176 1039.000000
1883.668335 1068.000000
1885.031372 1188.000000
1886.393555 1133.000000
1887.754883 1073.000000
1889.114868 1190.000000
1890.474487 1151.000000
1891.833496 1107.000000
1893.191528 1046.000000
1894.548706 1074.000000
1895.904663 1109.000000
1897.260376 1118.000000
1898.615112 1067.000000
1899.968994 1021.000000
1901.321777 1108.000000
1902.674072 1157.000000
1904.025635 1077.000000
1905.376343 1095.000000
1906.725830 1095.000000
1908.074829 1120.000000
1909.422974 1134.000000
1910.770508 1089.000000
1912.117310 1086.000000
1913.462524 1146.000000
1914.807495 1072.000000
1916.151733 1127.000000
1917.495117 1134.000000
1918.837158 1140.000000
1920.178955 1096.000000
1921.519897 1097.000000
1922.860107 1182.000000
1924.199341 1021.000000
1925.537598 956.000000
1926.875244 1024.000000
1928.212158 1129.000000
1929.548218 1131.000000
1930.883057 1122.000000
1932.217529 1088.000000
1933.551270 1036.000000
1934.884155 1010.000000
1936.215576 1011.000000
1937.547119 1003.000000
1938.877319 1067.000000
1940.207031 1100.000000
1941.535889 999.000000
1942.863525 1091.000000
1944.190674 1093.000000
1945.517090 1039.000000
1946.842773 1011.000000
1948.167114 975.000000
1949.491211 1038.000000
1950.814453 1075.000000
1952.136963 995.000000
1953.458374 1058.000000
1954.778809 1050.000000
1956.098633 997.000000
1957.418091 1019.000000
1958.736572 934.000000
1960.053711 989.000000
1961.370483 960.000000
1962.686523 927.000000
1964.001831 977.000000
1965.315674 896.000000
1966.629272 981.000000
1967.942139 977.000000
1969.254150 943.000000
1970.565552 934.000000
1971.875610 1004.000000
1973.185181 915.000000
1974.494019 933.000000
1975.802246 941.000000
1977.109131 940.000000
1978.415405 960.000000
1979.721313 954.000000
1981.026001 889.000000
1982.330200 986.000000
1983.633179 921.000000
1984.935791 844.000000
1986.237427 904.000000
1987.538452 871.000000
1988.837891 943.000000
1990.137451 887.000000
1991.435913 967.000000
1992.733887 840.000000
1994.030273 909.000000
1995.326660 894.000000
1996.622070 787.000000
1997.916748 825.000000
1999.210571 865.000000
2000.503174 810.000000
2001.795288 840.000000
2003.086914 847.000000
2004.377808 782.000000
2005.667114 933.000000
2006.956177 876.000000
2008.244507 881.000000
2009.532104 743.000000
2010.818848 816.000000
2012.104492 827.000000
2013.389771 760.000000
2014.674072 750.000000
2015.957764 806.000000
2017.240112 808.000000
2018.522095 810.000000
2019.803589 877.000000
2021.084106 843.000000
2022.363892 809.000000
2023.642578 776.000000
2024.920532 837.000000
2026.197998 766.000000
2027.474854 738.000000
2028.750000 878.000000
2030.025269 769.000000
2031.299561 843.000000
2032.572876 732.000000
2033.845337 835.000000
2035.117432 888.000000
2036.388428 834.000000
2037.659180 854.000000
2038.928589 792.000000
2040.196899 829.000000
2041.465210 773.000000
2042.732544 840.000000
2043.999146 880.000000
2045.264526 799.000000
2046.529297 1114.000000
2047.793823 814.000000
2049.057129 835.000000
2050.320068 764.000000
2051.581055 773.000000
2052.842529 764.000000
2054.102783 803.000000
2055.362305 795.000000
2056.621094 769.000000
2057.878906 763.000000
2059.136230 801.000000
2060.392822 755.000000
2061.647949 722.000000
2062.903076 778.000000
2064.157227 767.000000
2065.410645 833.000000
2066.663330 914.000000
2067.914795 759.000000
2069.166016 779.000000
2070.416504 750.000000
2071.666260 834.000000
2072.914551 368.000000
2074.162842 806.000000
2075.410156 786.000000
2076.656738 741.000000
2077.902588 760.000000
2079.147217 720.000000
2080.391357 656.000000
2081.635010 760.000000
2082.877686 797.000000
2084.119141 752.000000
2085.360352 727.000000
2086.601074 688.000000
2087.840820 771.000000
2089.079346 710.000000
2090.317383 591.000000
2091.554688 782.000000
2092.791748 584.000000
2094.027344 697.000000
2095.262207 667.000000
2096.496826 651.000000
2097.730469 779.000000
2098.963135 712.000000
2100.195068 706.000000
2101.426514 699.000000
2102.656982 642.000000
2103.886719 698.000000
2105.116211 733.000000
2106.343750 656.000000
2107.571533 687.000000
2108.798584 659.000000
2110.024658 712.000000
2111.249268 641.000000
2112.474121 735.000000
2113.697754 735.000000
2114.920898 635.000000
2116.142822 732.000000
2117.364502 733.000000
2118.585205 694.000000
2119.805176 666.000000
2121.024658 714.000000
2122.242676 628.000000
2123.460693 626.000000
2124.677734 619.000000
2125.894287 667.000000
2127.109131 725.000000
2128.324219 728.000000
2129.538330 731.000000
2130.751709 657.000000
2131.964355 663.000000
2133.175537 625.000000
2134.386963 663.000000
2135.597168 898.000000
2136.806885 715.000000
2138.015137 594.000000
2139.223389 621.000000
2140.430908 593.000000
2141.637207 545.000000
2142.842773 618.000000
2144.048096 540.000000
2145.252441 602.000000
2146.456055 638.000000
2147.659180 643.000000
2148.860840 664.000000
2150.062256 612.000000
2151.262939 613.000000
2152.462891 584.000000
2153.661621 766.000000
2154.860107 608.000000
2156.058105 549.000000
2157.255127 709.000000
2158.451416 576.000000
2159.646484 572.000000
2160.841309 588.000000
2162.035400 597.000000
2163.228516 551.000000
2164.420654 555.000000
2165.612549 663.000000
2166.803711 464.000000
2167.993896 643.000000
2169.183350 518.000000
2170.372314 573.000000
2171.560303 482.000000
2172.748047 572.000000
2173.934326 507.000000
2175.119873 484.000000
2176.305176 494.000000
2177.489990 512.000000
2178.673584 560.000000
2179.856445 530.000000
2181.038330 477.000000
2182.219971 648.000000
2183.401123 484.000000
2184.581055 567.000000
2185.760010 633.000000
2186.938477 549.000000
2188.116699 549.000000
2189.293701 551.000000
2190.469727 489.000000
2191.645508 586.000000
2192.820801 622.000000
2193.994629 534.000000
2195.167969 551.000000
2196.341064 558.000000
2197.512939 565.000000
2198.684326 521.000000
2199.855225 645.000000
2201.024414 399.000000
2202.193604 521.000000
2203.362305 598.000000
2204.530029 499.000000
2205.696777 635.000000
2206.862793 542.000000
2208.028320 493.000000
2209.193604 527.000000
2210.357422 503.000000
2211.520752 481.000000
2212.682861 467.000000
2213.845215 398.000000
2215.006348 486.000000
2216.166504 534.000000
2217.326172 489.000000
2218.485596 427.000000
2219.643799 475.000000
2220.801025 441.000000
2221.958008 519.000000
2223.114258 485.000000
2224.269775 554.000000
2225.424561 491.000000
2226.578369 514.000000
2227.731201 423.000000
2228.884521 534.000000
2230.035889 563.000000
2231.187012 478.000000
2232.337402 520.000000
2233.487305 470.000000
2234.636230 513.000000
2235.784668 410.000000
2236.931641 469.000000
2238.078857 464.000000
2239.224854 461.000000
2240.370605 390.000000
2241.514648 389.000000
2242.658936 437.000000
2243.802246 480.000000
2244.944824 439.000000
2246.086426 392.000000
2247.227783 423.000000
2248.368164 326.000000
2249.507813 397.000000
2250.646973 454.000000
2251.784912 381.000000
2252.922852 415.000000
2254.059814 411.000000
2255.196045 365.000000
2256.331299 424.000000
2257.465820 433.000000
2258.600098 514.000000
2259.733887 434.000000
2260.866211 389.000000
2261.998047 448.000000
2263.129395 395.000000
2264.259766 391.000000
2265.389893 315.000000
2266.518799 401.000000
2267.647217 452.000000
2268.775146 367.000000
2269.902100 414.000000
2271.028320 347.000000
2272.153564 407.000000
2273.278809 379.000000
2274.403320 411.000000
2275.526611 408.000000
2276.649170 391.000000
2277.771240 378.000000
2278.892822 490.000000
2280.013672 326.000000
2281.133301 345.000000
2282.252441 439.000000
2283.371338 395.000000
2284.489502 349.000000
2285.606689 436.000000
2286.722900 373.000000
2287.838867 435.000000
2288.954102 459.000000
2290.068604 407.000000
2291.181885 436.000000
2292.295166 346.000000
2293.407715 414.000000
2294.519531 445.000000
2295.630615 302.000000
2296.740479 375.000000
2297.849854 333.000000
2298.958984 481.000000
2300.067139 378.000000
2301.174316 328.000000
2302.281250 390.000000
2303.387451 358.000000
2304.493164 461.000000
2305.597412 480.000000
2306.701416 384.000000
2307.804932 359.000000
2308.907959 385.000000
2310.009766 335.000000
2311.110840 316.000000
2312.211426 408.000000
2313.311523 325.000000
2314.410889 397.000000
2315.508789 327.000000
2316.607178 296.000000
2317.704102 332.000000
2318.800781 399.000000
2319.896973 374.000000
2320.991455 354.000000
2322.085938 196.000000
2323.179688 352.000000
2324.273193 329.000000
2325.364990 395.000000
2326.456787 409.000000
2327.547852 361.000000
2328.638184 449.000000
2329.727539 447.000000
2330.816895 437.000000
2331.905029 342.000000
2332.992676 459.000000
2334.080078 397.000000
2335.165771 423.000000
2336.251221 298.000000
2337.336426 280.000000
2338.420654 379.000000
2339.503906 346.000000
2340.586914 331.000000
2341.668945 252.000000
2342.750732 393.000000
2343.831787 301.000000
2344.911621 300.000000
2345.990967 202.000000
2347.069824 327.000000
2348.148193 318.000000
2349.225098 442.000000
2350.301758 347.000000
2351.378174 243.000000
2352.453613 327.000000
2353.528076 228.000000
2354.602295 224.000000
2355.675781 370.000000
2356.748779 333.000000
2357.820557 219.000000
2358.892090 316.000000
2359.962646 308.000000
2361.032959 280.000000
2362.102295 269.000000
2363.170654 242.000000
2364.238770 312.000000
2365.306152 280.000000
2366.373047 308.000000
2367.439209 259.000000
2368.504150 244.000000
2369.569092 247.000000
2370.633301 184.000000
2371.696777 408.000000
2372.759033 293.000000
2373.821289 297.000000
2374.882568 334.000000
2375.943604 301.000000
2377.003418 276.000000
2378.062500 245.000000
2379.121582 262.000000
2380.179688 220.000000
2381.237061 227.000000
2382.293457 292.000000
2383.349609 281.000000
2384.405273 256.000000
2385.460205 228.000000
2386.513672 347.000000
2387.567383 272.000000
2388.620117 175.000000
2389.672363 251.000000
2390.723877 240.000000
2391.774414 293.000000
2392.824707 313.000000
2393.874023 297.000000
2394.923340 305.000000
2395.971191 264.000000
2397.018555 279.000000
2398.065674 237.000000
2399.111816 259.000000
2400.157227 238.000000
2401.201904 243.000000
2402.246582 238.000000
2403.289795 126.000000
2404.333008 186.000000
2405.374756 232.000000
2406.416748 186.000000
2407.458008 221.000000
2408.498291 216.000000
2409.537842 205.000000
2410.576416 293.000000
2411.615234 204.000000
2412.652832 238.000000
2413.690186 195.000000
2414.726318 245.000000
2415.762207 297.000000
2416.797363 253.000000
2417.832031 192.000000
2418.865234 238.000000
2419.898682 270.000000
2420.931152 225.000000
2421.963379 290.000000
2422.994141 271.000000
2424.024902 244.000000
2425.055176 265.000000
2426.084229 273.000000
2427.113281 235.000000
2428.140625 275.000000
2429.168457 253.000000
2430.195068 241.000000
2431.221436 191.000000
2432.246338 217.000000
2433.271484 230.000000
2434.295654 335.000000
2435.319580 278.000000
2436.342285 337.000000
2437.364258 217.000000
2438.385986 208.000000
2439.406982 198.000000
2440.427490 192.000000
2441.446777 243.000000
2442.466064 215.000000
2443.484375 236.000000
2444.502441 247.000000
2445.519043 259.000000
2446.535645 193.000000
2447.551514 213.000000
2448.567383 168.000000
2449.581787 265.000000
2450.595459 182.000000
2451.608643 197.000000
2452.621582 210.000000
2453.633789 215.000000
2454.645020 170.000000
2455.656006 259.000000
2456.666260 122.000000
2457.676025 145.000000
2458.684814 167.000000
2459.692871 219.000000
2460.700928 313.000000
2461.707764 268.000000
2462.714355 230.000000
2463.719727 195.000000
2464.724854 218.000000
2465.729736 218.000000
2466.733398 308.000000
2467.736816 191.000000
2468.739258 186.000000
2469.741455 235.000000
2470.743164 168.000000
2471.743896 203.000000
2472.743652 206.000000
2473.743408 164.000000
2474.742188 178.000000
2475.740479 184.000000
2476.737793 189.000000
2477.734863 140.000000
2478.731934 125.000000
2479.727539 157.000000
2480.723145 123.000000
2481.717041 145.000000
2482.710938 172.000000
2483.704346 110.000000
2484.697266 142.000000
2485.689209 241.000000
2486.680420 194.000000
2487.671387 148.000000
2488.661865 152.000000
2489.651367 212.000000
2490.640137 298.000000
2491.628906 228.000000
2492.616699 229.000000
2493.603271 208.000000
2494.589844 237.000000
2495.575928 189.000000
2496.561279 143.000000
2497.545654 83.000000
2498.529785 205.000000
2499.513916 213.000000
2500.496582 209.000000
2501.478760 138.000000
2502.460449 165.000000
2503.441406 138.000000
2504.421875 161.000000
2505.402100 158.000000
2506.380859 229.000000
2507.359375 261.000000
2508.337402 88.000000
2509.314941 171.000000
2510.291504 160.000000
2511.267822 226.000000
2512.243408 107.000000
2513.218506 256.000000
2514.193115 158.000000
2515.166504 201.000000
2516.139648 244.000000
2517.112549 203.000000
2518.084473 133.000000
2519.055664 129.000000
2520.026367 198.000000
2520.996826 216.000000
2521.966553 18.000000
2522.935303 83.000000
2523.903320 195.000000
2524.871338 235.000000
2525.838379 107.000000
2526.805176 152.000000
2527.770752 183.000000
2528.736328 234.000000
2529.701172 266.000000
2530.665527 126.000000
2531.628662 135.000000
2532.592041 154.000000
2533.554443 137.000000
2534.516602 187.000000
2535.477539 144.000000
2536.437744 202.000000
2537.398193 137.000000
2538.357666 186.000000
2539.316406 171.000000
2540.274170 125.000000
2541.232178 179.000000
2542.189453 42.000000
2543.145752 192.000000
2544.101807 169.000000
2545.056641 150.000000
2546.011719 214.000000
2546.966064 60.000000
2547.919678 403.000000
2548.872314 113.000000
2549.824707 129.000000
2550.776611 125.000000
2551.727783 104.000000
2552.678223 103.000000
2553.628174 193.000000
2554.577881 82.000000
2555.526855 98.000000
2556.475342 95.000000
2557.422607 125.000000
2558.369873 179.000000
2559.316406 225.000000
2560.262451 235.000000
2561.207520 206.000000
2562.152344 85.000000
2563.096680 50.000000
2564.040527 127.000000
2564.983887 202.000000
2565.925781 160.000000
2566.867920 135.000000
2567.809326 139.000000
2568.750000 106.000000
2569.689941 253.000000
2570.629883 137.000000
2571.568848 189.000000
2572.507568 86.000000
2573.445313 124.000000
2574.382813 118.000000
2575.319580 86.000000
2576.255615 87.000000
2577.191162 201.000000
2578.125977 152.000000
2579.060791 171.000000
2579.994629 160.000000
2580.927979 323.000000
2581.860596 82.000000
2582.792969 127.000000
2583.724609 126.000000
2584.655762 160.000000
2585.586426 134.000000
2586.515869 204.000000
2587.445313 145.000000
2588.374268 164.000000
2589.302979 148.000000
2590.229980 -48.000000
2591.157227 147.000000
2592.083984 182.000000
2593.010010 51.000000
2593.935791 184.000000
2594.860352 125.000000
2595.784668 155.000000
2596.708496 184.000000
2597.631836 189.000000
2598.554199 149.000000
2599.476318 117.000000
2600.397949 194.000000
2601.318848 131.000000
2602.239014 226.000000
2603.158936 26.000000
2604.078369 174.000000
2604.997559 140.000000
2605.915771 121.000000
2606.832764 48.000000
2607.750000 104.000000
2608.666992 151.000000
2609.583008 84.000000
2610.497803 129.000000
2611.413086 119.000000
2612.327637 28.000000
2613.241211 123.000000
2614.154785 116.000000
2615.067139 146.000000
2615.979492 114.000000
2616.890869 196.000000
2617.802002 95.000000
2618.712402 63.000000
2619.622559 100.000000
2620.531982 132.000000
2621.440918 136.000000
2622.348877 153.000000
2623.257080 118.000000
2624.164307 89.000000
2625.071045 139.000000
2625.977051 140.000000
2626.882813 105.000000
2627.787842 77.000000
2628.692627 109.000000
2629.596680 93.000000
2630.499756 85.000000
2631.402832 122.000000
2632.304932 117.000000
2633.207031 90.000000
2634.108887 97.000000
2635.009033 195.000000
2635.909424 175.000000
2636.809082 37.000000
2637.708496 109.000000
2638.606445 43.000000
2639.504883 123.000000
2640.402832 34.000000
2641.300049 214.000000
2642.196045 191.000000
2643.092041 22.000000
2643.987793 118.000000
2644.882813 80.000000
2645.777588 96.000000
2646.670898 87.000000
2647.564209 81.000000
2648.457275 156.000000
2649.350098 88.000000
2650.241211 4.000000
2651.132568 135.000000
2652.023438 59.000000
2652.913574 81.000000
2653.803467 69.000000
2654.692139 136.000000
2655.581055 129.000000
2656.469482 150.000000
2657.356934 97.000000
2658.243408 142.000000
2659.130371 65.000000
2660.016602 150.000000
2660.902344 181.000000
2661.786865 106.000000
2662.671387 88.000000
2663.555664 193.000000
2664.439209 213.000000
2665.322266 98.000000
2666.204590 59.000000
2667.086426 127.000000
2667.967529 14.000000
2668.848877 94.000000
2669.728760 168.000000
2670.608887 58.000000
2671.488281 14.000000
2672.367676 200.000000
2673.246338 153.000000
2674.123291 9.000000
2675.000977 135.000000
2675.877930 48.000000
2676.754150 95.000000
2677.629883 82.000000
2678.504883 94.000000
2679.380127 110.000000
2680.254395 124.000000
2681.128174 49.000000
2682.001221 136.000000
2682.874023 141.000000
2683.746582 123.000000
2684.618408 72.000000
2685.489502 38.000000
2686.360352 32.000000
2687.230713 90.000000
2688.100830 55.000000
2688.969238 125.000000
2689.838379 44.000000
2690.706787 107.000000
2691.574951 107.000000
2692.442383 38.000000
2693.308594 65.000000
2694.175293 125.000000
2695.041016 141.000000
2695.906738 114.000000
2696.770996 136.000000
2697.635986 65.000000
2698.499512 87.000000
2699.363281 30.000000
2700.225586 49.000000
2701.088379 33.000000
2701.950195 102.000000
2702.811523 62.000000
2703.672852 -17.000000
2704.532959 137.000000
2705.393066 11.000000
2706.252686 83.000000
2707.112061 -39.000000
2707.969727 41.000000
2708.827637 97.000000
2709.686035 38.000000
2710.543213 34.000000
2711.399658 67.000000
2712.255615 77.000000
2713.111572 71.000000
2713.966797 43.000000
2714.821289 84.000000
2715.675293 46.000000
2716.529297 166.000000
2717.382324 -62.000000
2718.235596 66.000000
2719.087158 31.000000
2719.939209 103.000000
2720.791016 72.000000
2721.641602 84.000000
2722.492188 -64.000000
2723.342285 130.000000
2724.191650 70.000000
2725.041016 41.000000
2725.889160 5.000000
2726.736816 101.000000
2727.584961 4.000000
2728.431885 80.000000
2729.279297 250.000000
2730.125244 27.000000
2730.970459 54.000000
2731.816162 52.000000
2732.660889 108.000000
2733.505615 103.000000
2734.349121 91.000000
2735.192871 103.000000
2736.035889 11.000000
2736.878418 73.000000
2737.719971 113.000000
2738.562012 19.000000
2739.403076 101.000000
2740.243896 -18.000000
2741.084473 78.000000
2741.923828 49.000000
2742.763184 98.000000
2743.602539 46.000000
2744.440674 65.000000
2745.278320 136.000000
2746.115967 79.000000
2746.953125 44.000000
2747.790039 55.000000
2748.626465 17.000000
2749.461670 156.000000
2750.297119 31.000000
2751.132080 112.000000
2751.966309 154.000000
2752.800293 63.000000
2753.633789 64.000000
2754.467285 57.000000
2755.299805 88.000000
2756.131836 93.000000
2756.963379 -10.000000
2757.794922 17.000000
2758.625488 102.000000
2759.456299 169.000000
2760.285889 46.000000
2761.115479 112.000000
2761.944824 157.000000
2762.773438 49.000000
2763.601563 58.000000
2764.429199 31.000000
2765.256836 48.000000
2766.083984 14.000000
2766.910400 114.000000
2767.736328 48.000000
2768.561768 43.000000
2769.386963 73.000000
2770.212158 -48.000000
2771.036133 40.000000
2771.860107 31.000000
2772.684082 22.000000
2773.506836 139.000000
2774.329834 -155.000000
2775.151611 19.000000
2775.973389 -5.000000
2776.795166 24.000000
2777.615967 49.000000
2778.436035 50.000000
2779.256348 46.000000
2780.076172 2.000000
2780.895996 76.000000
2781.713867 130.000000
2782.532959 69.000000
2783.350830 51.000000
2784.168457 72.000000
2784.985596 96.000000
2785.802246 91.000000
2786.618652 -10.000000
2787.434570 54.000000
2788.250244 115.000000
2789.064941 75.000000
2789.880127 235.000000
2790.694580 83.000000
2791.508545 127.000000
2792.322266 -34.000000
2793.134766 -43.000000
2793.947510 10.000000
2794.759766 41.000000
2795.571533 58.000000
2796.382568 107.000000
2797.194336 85.000000
2798.004883 35.000000
2798.815430 29.000000
2799.624512 101.000000
2800.434326 35.000000
2801.243408 71.000000
2802.052246 115.000000
2802.860596 98.000000
2803.667969 86.000000
2804.475830 167.000000
2805.282959 22.000000
2806.089844 19.000000
2806.895508 -57.000000
2807.701660 -16.000000
2808.507080 82.000000
2809.312500 -32.000000
2810.117188 97.000000
2810.920898 83.000000
2811.725098 51.000000
2812.528809 -31.000000
2813.332275 120.000000
2814.134277 115.000000
2814.937012 22.000000
2815.739014 -2.000000
2816.540771 2.000000
2817.342041 25.000000
2818.142822 47.000000
2818.943115 37.000000
2819.743652 204.000000
2820.543213 20.000000
2821.342285 -14.000000
2822.141357 83.000000
2822.940186 26.000000
2823.738525 132.000000
2824.535889 12.000000
2825.333496 28.000000
2826.130371 45.000000
2826.927490 -5.000000
2827.723877 0.000000
2828.519531 29.000000
2829.315186 -57.000000
2830.110596 -343.000000
2830.905518 110.000000
2831.699707 12.000000
2832.493896 94.000000
2833.287842 54.000000
2834.081299 -17.000000
2834.874023 16.000000
2835.666504 12.000000
2836.458984 11.000000
2837.251221 93.000000
2838.042969 63.000000
2838.833740 20.000000
2839.624512 85.000000
2840.415527 83.000000
2841.205566 50.000000
2841.995117 150.000000
2842.784912 49.000000
2843.573730 82.000000
2844.362549 94.000000
2845.151367 -33.000000
2845.939209 59.000000
2846.726563 9.000000
2847.514160 95.000000
2848.301270 124.000000
2849.087646 38.000000
2849.874023 -38.000000
2850.660156 98.000000
2851.445801 6.000000
2852.230469 28.000000
2853.015625 40.000000
2853.800537 -23.000000
2854.584717 92.000000
2855.368896 96.000000
2856.151855 80.000000
2856.935059 87.000000
2857.718018 119.000000
2858.500488 64.000000
2859.282715 40.000000
2860.064453 20.000000
2860.845947 50.000000
2861.627686 22.000000
2862.408691 89.000000
2863.188965 -4.000000
2863.968994 116.000000
2864.749023 -16.000000
2865.528809 101.000000
2866.307617 147.000000
2867.086670 -3.000000
2867.865234 91.000000
2868.643555 89.000000
2869.421387 51.000000
2870.198975 99.000000
2870.976318 19.000000
2871.753418 89.000000
2872.530029 -17.000000
2873.306152 -2.000000
2874.082275 31.000000
2874.857910 59.000000
2875.633301 146.000000
2876.408203 130.000000
2877.182861 20.000000
2877.957520 74.000000
2878.731934 14.000000
2879.505615 68.000000
2880.278564 52.000000
2881.052246 16.000000
2881.824951 21.000000
2882.597656 20.000000
2883.369629 40.000000
2884.141357 91.000000
2884.913574 87.000000
2885.684570 95.000000
2886.455078 136.000000
2887.226074 8.000000
2887.997070 30.000000
2888.767334 -39.000000
2889.536621 59.000000
2890.306152 129.000000
2891.075684 64.000000
2891.844727 40.000000
2892.613281 -5.000000
2893.381836 7.000000
2894.149414 91.000000
2894.917480 99.000000
2895.685059 91.000000
2896.452637 19.000000
2897.218994 111.000000
2897.986328 -27.000000
2898.752441 -9.000000
2899.518799 67.000000
2900.283691 11.000000
2901.049072 14.000000
2901.814941 77.000000
2902.579346 143.000000
2903.343750 5.000000
2904.108398 70.000000
2904.872070 112.000000
2905.636475 -49.000000
2906.400146 22.000000
2907.163086 6.000000
2907.925781 48.000000
2908.688965 37.000000
2909.451660 -5.000000
2910.213135 16.000000
2910.975098 16.000000
spectrumdark 2048
-97.255714 6150.000000
-94.628845 6150.000000
-92.003853 6125.000000
-89.380753 6373.000000
-86.759521 5822.000000
-84.140190 6290.000000
-81.522720 6072.000000
-78.907127 6487.000000
-76.293411 6203.000000
-73.681572 5872.000000
-71.071594 6128.000000
-68.463501 5973.000000
-65.857254 5939.000000
-63.252880 5999.000000
-60.650372 6132.000000
-58.049717 5636.000000
-55.450924 6295.000000
-52.853989 6899.000000
-50.258907 6502.000000
-47.665680 6424.000000
-45.074303 6264.000000
-42.484772 6782.000000
-39.897083 5935.000000
-37.311245 6061.000000
-34.727249 6488.000000
-32.145092 5741.000000
-29.564779 6316.000000
-26.986294 5690.000000
-24.409651 6223.000000
-21.834833 6277.000000
-19.261856 6523.000000
-16.690699 6548.000000
-14.121375 6805.000000
-11.553877 7739.000000
-8.988197 6279.000000
-6.424344 6450.000000
-3.862303 5981.000000
-1.302087 5855.000000
1.256321 6150.000000
3.812908 6974.000000
6.367690 6668.000000
8.920655 5962.000000
11.471820 6726.000000
14.021172 6477.000000
16.568727 6553.000000
19.114471 6021.000000
21.658422 5728.000000
24.200569 6645.000000
26.740919 6891.000000
29.279484 6843.000000
31.816252 6227.000000
34.351219 5836.000000
36.884407 7238.000000
39.415813 6355.000000
41.945427 7170.000000
44.473244 6442.000000
46.999302 7892.000000
49.523571 5712.000000
52.046070 6230.000000
54.566772 6768.000000
57.085720 6233.000000
59.602894 6408.000000
62.118290 6680.000000
64.631905 5660.000000
67.143768 5697.000000
69.653885 6535.000000
72.162209 6557.000000
74.668777 5896.000000
77.173599 6341.000000
79.676666 6495.000000
82.177956 6230.000000
84.677505 6094.000000
87.175301 6373.000000
89.671364 5758.000000
92.165649 7214.000000
94.658195 5793.000000
97.149025 6897.000000
99.638084 7147.000000
102.125397 6409.000000
104.610985 6200.000000
107.094833 6410.000000
109.576935 5734.000000
112.057312 6535.000000
114.535965 6227.000000
117.012894 6465.000000
119.488068 7233.000000
121.961533 6804.000000
124.433266 5898.000000
126.903290 6714.000000
129.371567 6234.000000
131.838165 6338.000000
134.303009 5768.000000
136.766159 6205.000000
139.227570 7244.000000
141.687286 6828.000000
144.145279 6436.000000
146.601578 6025.000000
149.056168 5818.000000
151.509033 6829.000000
153.960220 6356.000000
156.409714 6564.000000
158.857483 6075.000000
161.303543 6596.000000
163.747925 8662.000000
166.190628 6404.000000
168.631638 6757.000000
171.070938 6195.000000
173.508530 7256.000000
175.944489 6609.000000
178.378708 6909.000000
180.811249 7206.000000
183.242142 6638.000000
185.671310 6752.000000
188.098831 6671.000000
190.524673 6355.000000
192.948837 6669.000000
195.371338 7204.000000
197.792145 7489.000000
200.211288 6458.000000
202.628769 5999.000000
205.044556 7610.000000
207.458694 7096.000000
209.871201 6330.000000
212.282028 6088.000000
214.691177 6243.000000
217.098694 7389.000000
219.504501 6184.000000
221.908722 6508.000000
224.311234 6680.000000
226.712128 6903.000000
229.111374 6474.000000
231.508957 6864.000000
233.904877 7320.000000
236.299179 6496.000000
238.691818 5778.000000
241.082840 6797.000000
243.472198 6593.000000
245.859940 6349.000000
248.246033 6973.000000
250.630493 6041.000000
253.013306 7855.000000
255.394547 6594.000000
257.774078 6659.000000
260.152039 6494.000000
262.528320 7534.000000
264.903046 7494.000000
267.276123 7861.000000
269.647552 6219.000000
272.017334 6433.000000
274.385559 5933.000000
276.752136 6325.000000
279.117126 6686.000000
281.480499 5962.000000
283.842224 6222.000000
286.202362 7070.000000
288.560883 5915.000000
290.917816 6529.000000
293.273132 6421.000000
295.626862 5908.000000
297.978943 5944.000000
300.329468 6283.000000
302.678406 6334.000000
305.025696 6850.000000
307.371460 6449.000000
309.715546 6528.000000
312.058105 7366.000000
314.399048 7544.000000
316.738373 7204.000000
319.076141 6967.000000
321.412354 8073.000000
323.746918 6261.000000
326.079926 6477.000000
328.411377 5901.000000
330.741241 6611.000000
333.069519 6395.000000
335.396179 7167.000000
337.721344 6350.000000
340.044891 6226.000000
342.366882 6038.000000
344.687317 7547.000000
347.006134 7746.000000
349.323395 5956.000000
351.639130 5773.000000
353.953278 6949.000000
356.265839 6291.000000
358.576843 6337.000000
360.886322 7080.000000
363.194275 6386.000000
365.500610 5699.000000
367.805359 6359.000000
370.108643 6419.000000
372.410309 6260.000000
374.710480 6400.000000
377.009094 6263.000000
379.306152 5702.000000
381.601654 6142.000000
383.895630 5825.000000
386.188019 5220.000000
388.478912 5602.000000
390.768280 6157.000000
393.056061 6244.000000
395.342316 6515.000000
397.627075 6928.000000
399.910217 6025.000000
402.191925 6431.000000
404.472107 6129.000000
406.750702 7270.000000
409.027771 6405.000000
411.303314 6719.000000
413.577332 6450.000000
415.849915 6371.000000
418.120880 6312.000000
420.390350 6391.000000
422.658325 7103.000000
424.924744 7244.000000
427.189667 6271.000000
429.453125 6204.000000
431.714996 6523.000000
433.975403 5943.000000
436.234253 6609.000000
438.491638 6134.000000
440.747528 5657.000000
443.001923 5830.000000
445.254791 5487.000000
447.506104 6931.000000
449.756012 6057.000000
452.004333 6275.000000
454.251221 5708.000000
456.496643 6471.000000
458.740509 6491.000000
460.982880 6778.000000
463.223755 5638.000000
465.463226 6733.000000
467.701111 5454.000000
469.937561 5931.000000
472.172485 6113.000000
474.405945 7345.000000
476.637970 6727.000000
478.868469 5713.000000
481.097473 6478.000000
483.325012 6255.000000
485.551056 5946.000000
487.775665 6542.000000
489.998810 5823.000000
492.220490 6428.000000
494.440613 6663.000000
496.659332 5609.000000
498.876556 6353.000000
501.092407 5559.000000
503.306641 6177.000000
505.519562 6403.000000
507.730896 6475.000000
509.940796 6906.000000
512.149231 6571.000000
514.356323 6579.000000
516.561829 6483.000000
518.765930 6606.000000
520.968506 6213.000000
523.169678 6518.000000
525.369507 6686.000000
527.567810 6955.000000
529.764587 5288.000000
531.960022 5762.000000
534.153931 5541.000000
536.346497 7521.000000
538.537537 6694.000000
540.727173 6004.000000
542.915405 6920.000000
545.102112 7162.000000
547.287354 6759.000000
549.471313 6228.000000
551.653687 6396.000000
553.834717 6189.000000
556.014221 6004.000000
558.192444 5822.000000
560.369141 6093.000000
562.544434 6356.000000
564.718323 6411.000000
566.890747 5973.000000
569.061768 6096.000000
571.231323 6339.000000
573.399597 5288.000000
575.566345 6426.000000
577.731628 6330.000000
579.895508 6101.000000
582.058105 5766.000000
584.219177 6001.000000
586.378845 5624.000000
588.537170 5804.000000
590.693970 6167.000000
592.849426 6557.000000
595.003479 5795.000000
597.156189 6176.000000
599.307373 7244.000000
601.457214 6787.000000
603.605713 6735.000000
605.752625 6079.000000
607.898315 6449.000000
610.042603 6472.000000
612.185425 6986.000000
614.326782 6187.000000
616.466919 6459.000000
618.605530 7582.000000
620.742859 5729.000000
622.878723 6576.000000
625.013184 6862.000000
627.146179 7210.000000
629.278015 6581.000000
631.408386 6575.000000
633.537354 6836.000000
635.664856 6460.000000
637.791077 6209.000000
639.915771 7335.000000
642.039246 6471.000000
644.161377 6797.000000
646.282043 6805.000000
648.401367 6591.000000
650.519287 5714.000000
652.635864 5646.000000
654.751038 6503.000000
656.864868 6514.000000
658.977234 5850.000000
661.088379 6113.000000
663.198120 5417.000000
665.306396 5963.000000
667.413513 6301.000000
669.519165 6769.000000
671.623352 5702.000000
673.726318 5671.000000
675.827881 7018.000000
677.928101 5311.000000
680.026917 6758.000000
682.124390 6216.000000
684.220581 7031.000000
686.315308 6225.000000
688.408813 6971.000000
690.500977 6597.000000
692.591614 7969.000000
694.681030 6651.000000
696.769165 6479.000000
698.855835 5979.000000
700.941284 6667.000000
703.025208 5190.000000
705.107910 5954.000000
707.189331 5883.000000
709.269287 7555.000000
711.348022 6295.000000
713.425293 5585.000000
715.501282 6553.000000
717.575989 6059.000000
719.649414 6915.000000
721.721313 6291.000000
723.792053 7442.000000
725.861450 5811.000000
727.929443 6458.000000
729.996094 6362.000000
732.061523 7110.000000
734.125610 5761.000000
736.188354 6106.000000
738.249756 6432.000000
740.309875 6629.000000
742.368591 6040.000000
744.426086 6658.000000
746.482300 6473.000000
748.537109 6740.000000
750.590637 6366.000000
752.642761 7477.000000
754.693665 5853.000000
756.743347 6635.000000
758.791565 6357.000000
760.838562 6169.000000
762.884277 7007.000000
764.928589 5363.000000
766.971619 5775.000000
769.013428 14951.000000
771.053894 7015.000000
773.092957 6347.000000
775.130859 6158.000000
777.167419 6083.000000
779.202759 5414.000000
781.236755 5799.000000
783.269348 6882.000000
785.300781 5464.000000
787.330811 12166.000000
789.359558 6005.000000
791.387146 6302.000000
793.413391 6317.000000
795.438232 5820.000000
797.461975 5640.000000
799.484314 6334.000000
801.505432 5817.000000
803.525208 6742.000000
805.543701 4864.000000
807.560974 6733.000000
809.576843 6860.000000
811.591553 5698.000000
813.604919 6345.000000
815.617065 6292.000000
817.627991 6042.000000
819.637573 6493.000000
821.645935 5284.000000
823.652893 5666.000000
825.658630 6008.000000
827.663147 5756.000000
829.666382 5655.000000
831.668335 6452.000000
833.669006 5997.000000
835.668457 5908.000000
837.666565 6369.000000
839.663574 6979.000000
841.659180 6209.000000
843.653625 5971.000000
845.646729 6224.000000
847.638611 6818.000000
849.629150 5546.000000
851.618408 6702.000000
853.606628 6015.000000
855.593445 5665.000000
857.579041 6364.000000
859.563354 7260.000000
861.546570 6320.000000
863.528381 6382.000000
865.508972 5803.000000
867.488281 7701.000000
869.466431 7080.000000
871.443237 6276.000000
873.418762 5912.000000
875.393250 6203.000000
877.366272 5979.000000
879.338257 5404.000000
881.308899 6320.000000
883.278381 6141.000000
885.246521 5631.000000
887.213501 5214.000000
889.179138 6137.000000
891.143616 5753.000000
893.106873 6010.000000
895.068909 6466.000000
897.029663 5812.000000
898.989197 6415.000000
900.947449 6639.000000
902.904602 6344.000000
904.860596 6093.000000
906.815186 6896.000000
908.768555 6495.000000
910.720764 6378.000000
912.671753 6317.000000
914.621460 7115.000000
916.570007 6260.000000
918.517334 6102.000000
920.463379 6056.000000
922.408142 6091.000000
924.351868 6302.000000
926.294434 5968.000000
928.235718 5552.000000
930.175659 6477.000000
932.114502 5702.000000
934.052063 5552.000000
935.988403 5956.000000
937.923584 5808.000000
939.857483 6026.000000
941.790283 5849.000000
943.721863 6785.000000
945.652283 5229.000000
947.581482 6325.000000
949.509338 7037.000000
951.436157 6586.000000
953.361694 5915.000000
955.285950 5426.000000
957.209106 5998.000000
959.131104 6662.000000
961.051819 7312.000000
962.971375 6462.000000
964.889771 5325.000000
966.807129 6381.000000
968.723022 6445.000000
970.637817 6101.000000
972.551392 5996.000000
974.463806 6374.000000
976.375000 6498.000000
978.285034 5470.000000
980.193787 6151.000000
982.101501 6077.000000
984.007996 6317.000000
985.913269 5696.000000
987.817444 6788.000000
989.720398 6215.000000
991.622131 6802.000000
993.522705 6478.000000
995.422119 6617.000000
997.320313 5316.000000
999.217346 6551.000000
1001.113159 6545.000000
1003.007813 7701.000000
1004.901367 5590.000000
1006.793640 7104.000000
1008.684998 6066.000000
1010.575012 5311.000000
1012.463806 6522.000000
1014.351440 6252.000000
1016.237915 6929.000000
1018.123230 6752.000000
1020.007385 5951.000000
1021.890320 5956.000000
1023.772217 6213.000000
1025.652832 5154.000000
1027.532349 5912.000000
1029.410889 6127.000000
1031.288086 5388.000000
1033.163940 6231.000000
1035.038818 5920.000000
1036.912720 6604.000000
1038.785156 7018.000000
1040.656616 6745.000000
1042.526733 5522.000000
1044.395874 5597.000000
1046.263794 5769.000000
1048.130615 7116.000000
1049.996338 6707.000000
1051.860840 6448.000000
1053.724243 6375.000000
1055.586304 6494.000000
1057.447388 5856.000000
1059.307373 6478.000000
1061.166016 6581.000000
1063.023560 5794.000000
1064.880005 6697.000000
1066.735352 5933.000000
1068.589478 5801.000000
1070.442749 6195.000000
1072.294556 6356.000000
1074.145386 6118.000000
1075.994995 6143.000000
1077.843384 5735.000000
1079.690918 7974.000000
1081.537109 5652.000000
1083.382080 6128.000000
1085.226196 5407.000000
1087.068970 5514.000000
1088.910522 6525.000000
1090.751343 5481.000000
1092.590576 5824.000000
1094.429077 6038.000000
1096.266235 6033.000000
1098.102173 6791.000000
1099.937134 6602.000000
1101.770874 5380.000000
1103.603638 5524.000000
1105.435059 6159.000000
1107.265625 7246.000000
1109.094849 6541.000000
1110.923096 6429.000000
1112.750122 7116.000000
1114.576172 5395.000000
1116.401001 6313.000000
1118.224731 7055.000000
1120.047241 6134.000000
1121.868652 5877.000000
1123.689209 5939.000000
1125.508301 6575.000000
1127.326538 7110.000000
1129.143433 6852.000000
1130.959473 6595.000000
1132.774292 6499.000000
1134.588013 5638.000000
1136.400635 5785.000000
1138.212036 5672.000000
1140.022461 6135.000000
1141.831787 6763.000000
1143.639771 7012.000000
1145.447021 5894.000000
1147.252808 5932.000000
1149.057739 5383.000000
1150.861572 5426.000000
1152.664185 6101.000000
1154.465942 6145.000000
1156.266235 6108.000000
1158.065552 6122.000000
1159.863892 5873.000000
1161.660889 5450.000000
1163.457153 5906.000000
1165.252075 6072.000000
1167.045898 6336.000000
1168.838867 7734.000000
1170.630493 5756.000000
1172.421143 6557.000000
1174.210815 6013.000000
1175.999023 5820.000000
1177.786377 7493.000000
1179.572632 6760.000000
1181.357788 5726.000000
1183.141846 5982.000000
1184.924805 7700.000000
1186.706787 5854.000000
1188.487549 5925.000000
1190.267334 6349.000000
1192.046021 6901.000000
1193.823730 6617.000000
1195.600220 7200.000000
1197.375610 6599.000000
1199.149902 6507.000000
1200.923096 6703.000000
1202.695435 6502.000000
1204.466431 6677.000000
1206.236572 5742.000000
1208.005493 6163.000000
1209.773315 6338.000000
1211.540283 5773.000000
1213.305908 5934.000000
1215.070557 6933.000000
1216.834106 6539.000000
1218.596558 5952.000000
1220.358154 6662.000000
1222.118530 5889.000000
1223.877808 6303.000000
1225.636230 6039.000000
1227.393433 7048.000000
1229.149536 6528.000000
1230.904541 5514.000000
1232.658691 5958.000000
1234.411499 5822.000000
1236.163330 6052.000000
1237.914307 5892.000000
1239.663940 4965.000000
1241.412720 7036.000000
1243.160156 6460.000000
1244.906860 6581.000000
1246.652344 6537.000000
1248.396973 6386.000000
1250.140259 6784.000000
1251.882568 6649.000000
1253.623779 5343.000000
1255.364136 5074.000000
1257.103394 5788.000000
1258.841431 6613.000000
1260.578613 7094.000000
1262.314575 6099.000000
1264.049561 6396.000000
1265.783569 7244.000000
1267.516602 5987.000000
1269.248413 6256.000000
1270.979248 6423.000000
1272.708862 7264.000000
1274.437622 5957.000000
1276.165283 5698.000000
1277.891846 5533.000000
1279.617554 5530.000000
1281.341919 6445.000000
1283.065430 5243.000000
1284.787964 6945.000000
1286.509521 6542.000000
1288.229858 6177.000000
1289.949219 6643.000000
1291.667480 7239.000000
1293.384766 6470.000000
1295.101074 5721.000000
1296.816162 6451.000000
1298.530273 6179.000000
1300.243408 5778.000000
1301.955688 6441.000000
1303.666748 8322.000000
1305.376831 5610.000000
1307.085815 6310.000000
1308.793579 6689.000000
1310.500732 6986.000000
1312.206421 5773.000000
1313.911377 6849.000000
1315.615356 6165.000000
1317.318115 6039.000000
1319.019897 6508.000000
1320.720825 6047.000000
1322.420410 9002.000000
1324.119141 30742.000000
1325.817139 5607.000000
1327.513794 6528.000000
1329.209351 7143.000000
1330.904053 6821.000000
1332.597534 5792.000000
1334.290161 5367.000000
1335.981934 7104.000000
1337.672363 6278.000000
1339.362061 6615.000000
1341.050659 6096.000000
1342.738159 7583.000000
1344.424683 5657.000000
1346.110107 6777.000000
1347.794556 5970.000000
1349.478149 7300.000000
1351.160522 6391.000000
1352.841919 5975.000000
1354.522461 6502.000000
1356.201782 6705.000000
1357.880493 5809.000000
1359.557861 6470.000000
1361.234131 5790.000000
1362.909424 5573.000000
1364.583984 6619.000000
1366.257324 6499.000000
1367.929688 6797.000000
1369.601074 5168.000000
1371.271484 6723.000000
1372.940796 6103.000000
1374.609131 5719.000000
1376.276611 5927.000000
1377.942993 6448.000000
1379.608398 6058.000000
1381.272827 5835.000000
1382.936035 5911.000000
1384.598633 5670.000000
1386.259888 6341.000000
1387.920288 6569.000000
1389.579590 6435.000000
1391.237915 6450.000000
1392.895508 6821.000000
1394.551880 6459.000000
1396.207397 6995.000000
1397.861694 6295.000000
1399.515137 5825.000000
1401.167480 6094.000000
1402.819092 6482.000000
1404.469482 7187.000000
1406.118774 6270.000000
1407.767334 7454.000000
1409.414795 7869.000000
1411.061279 6165.000000
1412.706909 6258.000000
1414.351563 5965.000000
1415.994995 7045.000000
1417.637573 7142.000000
1419.279053 6874.000000
1420.919678 6436.000000
1422.559326 6502.000000
1424.197876 5966.000000
1425.835571 6585.000000
1427.472168 6380.000000
1429.107788 5972.000000
1430.742676 6381.000000
1432.376465 5893.000000
1434.009155 6086.000000
1435.640869 5681.000000
1437.271729 6073.000000
1438.901489 6006.000000
1440.530151 7791.000000
1442.158203 6000.000000
1443.785156 6187.000000
1445.410889 6223.000000
1447.036011 6121.000000
1448.660034 6498.000000
1450.283081 6029.000000
1451.905151 6011.000000
1453.526123 7383.000000
1455.146118 6311.000000
1456.765381 6929.000000
1458.383301 5630.000000
1460.000610 14438.000000
1461.616943 5514.000000
1463.232056 7215.000000
1464.846313 6235.000000
1466.459717 5172.000000
1468.072021 5612.000000
1469.683472 6272.000000
1471.294067 6426.000000
1472.903442 5990.000000
1474.511841 5977.000000
1476.119385 6208.000000
1477.725952 6732.000000
1479.331787 5320.000000
1480.936401 6256.000000
1482.540161 5507.000000
1484.142700 6760.000000
1485.744629 5568.000000
1487.345337 5473.000000
1488.945313 5633.000000
1490.544189 6266.000000
1492.142212 6441.000000
1493.739136 6649.000000
1495.335205 6298.000000
1496.930298 6051.000000
1498.524414 5500.000000
1500.117798 6551.000000
1501.710083 5502.000000
1503.301147 5980.000000
1504.891724 6719.000000
1506.480957 6465.000000
1508.069580 6119.000000
1509.657104 6540.000000
1511.243530 6824.000000
1512.829224 6146.000000
1514.413818 6622.000000
1515.997559 6219.000000
1517.580200 6233.000000
1519.162109 6617.000000
1520.742920 6656.000000
1522.322998 6001.000000
1523.901855 6254.000000
1525.479858 6347.000000
1527.057129 6319.000000
1528.633179 5704.000000
1530.208496 5850.000000
1531.782715 6301.000000
1533.356201 5494.000000
1534.928467 5903.000000
1536.500000 6381.000000
1538.070557 6389.000000
1539.640259 6315.000000
1541.208740 5440.000000
1542.776489 6554.000000
1544.343384 5571.000000
1545.909058 6794.000000
1547.473999 5966.000000
1549.037842 5092.000000
1550.601074 7449.000000
1552.162964 6283.000000
1553.724243 5921.000000
1555.284424 5693.000000
1556.843872 5713.000000
1558.402222 5903.000000
1559.959839 6326.000000
1561.516357 6959.000000
1563.071655 5874.000000
1564.626343 6322.000000
1566.180298 5619.000000
1567.733276 6397.000000
1569.284912 5619.000000
1570.835815 5845.000000
1572.385986 6224.000000
1573.935181 6291.000000
1575.483032 5747.000000
1577.030396 5486.000000
1578.576782 5627.000000
1580.122314 5052.000000
1581.666870 6663.000000
1583.210205 6367.000000
1584.752930 6625.000000
1586.294800 6454.000000
1587.835571 6696.000000
1589.375366 5787.000000
1590.914429 6742.000000
1592.452393 5890.000000
1593.989868 6121.000000
1595.526001 5928.000000
1597.061035 6682.000000
1598.595581 6212.000000
1600.129150 5984.000000
1601.661865 6011.000000
1603.192993 6261.000000
1604.723877 6236.000000
1606.253906 5757.000000
1607.782715 6165.000000
1609.310425 6190.000000
1610.837524 6042.000000
1612.363892 5817.000000
1613.889282 6282.000000
1615.413818 5783.000000
1616.937012 5753.000000
1618.459473 5585.000000
1619.981201 6531.000000
1621.502075 6929.000000
1623.021484 15507.000000
1624.540405 6070.000000
1626.058594 6062.000000
1627.575928 5891.000000
1629.092163 6427.000000
1630.607056 6963.000000
1632.121460 6661.000000
1633.635132 5768.000000
1635.147705 6814.000000
1636.659058 5894.000000
1638.170044 6427.000000
1639.679932 6286.000000
1641.188965 6184.000000
1642.696655 5612.000000
1644.203979 6072.000000
1645.710449 7098.000000
1647.215942 6209.000000
1648.720581 6873.000000
1650.223755 6208.000000
1651.726318 6616.000000
1653.228516 6337.000000
1654.729370 6698.000000
1656.229126 7546.000000
1657.728027 5953.000000
1659.226563 6532.000000
1660.723877 6218.000000
1662.220459 5976.000000
1663.715454 6537.000000
1665.210205 6382.000000
1666.704102 5196.000000
1668.197021 5649.000000
1669.688599 21184.000000
1671.179688 6463.000000
1672.670166 6140.000000
1674.159546 5977.000000
1675.647461 6991.000000
1677.135132 6841.000000
1678.621826 6030.000000
1680.107666 5364.000000
1681.592651 6050.000000
1683.076172 6135.000000
1684.559448 6166.000000
1686.041870 5852.000000
1687.523193 6232.000000
1689.003052 6141.000000
1690.482666 5466.000000
1691.961548 6613.000000
1693.439453 5968.000000
1694.916382 6108.000000
1696.392090 5734.000000
1697.867432 6053.000000
1699.341553 6291.000000
1700.815063 5480.000000
1702.287109 5636.000000
1703.758911 6852.000000
1705.229736 6414.000000
1706.699707 7111.000000
1708.168335 5108.000000
1709.636475 5841.000000
1711.103882 6325.000000
1712.570190 5488.000000
1714.035889 5743.000000
1715.499878 6192.000000
1716.963745 5979.000000
1718.426758 6906.000000
1719.888794 6372.000000
1721.349609 6526.000000
1722.809814 5521.000000
1724.269287 5663.000000
1725.727905 6076.000000
1727.185547 5964.000000
1728.641846 6257.000000
1730.097900 5971.000000
1731.552979 6419.000000
1733.007080 5992.000000
1734.459961 6869.000000
1735.912598 5955.000000
1737.364136 6835.000000
1738.814941 5946.000000
1740.264771 6600.000000
1741.713257 5858.000000
1743.161377 7330.000000
1744.608643 6611.000000
1746.055176 6688.000000
1747.500122 6680.000000
1748.944824 6156.000000
1750.388672 5852.000000
1751.831665 5539.000000
1753.273193 6580.000000
1754.714478 6353.000000
1756.154907 6319.000000
1757.594360 6285.000000
1759.032837 5251.000000
1760.470337 6012.000000
1761.907349 7466.000000
1763.343384 5792.000000
1764.778564 7098.000000
1766.212280 6206.000000
1767.645874 6440.000000
1769.078491 6665.000000
1770.510254 5768.000000
1771.941162 5712.000000
1773.370850 6313.000000
1774.799805 6185.000000
1776.228271 6271.000000
1777.655762 6652.000000
1779.081909 6280.000000
1780.507813 5607.000000
1781.932617 6899.000000
1783.356812 5479.000000
1784.779541 6660.000000
1786.201782 6556.000000
1787.623291 6851.000000
1789.044067 5935.000000
1790.463867 5994.000000
1791.882324 6124.000000
1793.300293 6813.000000
1794.717651 5522.000000
1796.134155 6039.000000
1797.549194 6584.000000
1798.963867 5833.000000
1800.377930 6598.000000
1801.790771 5961.000000
1803.203003 6954.000000
1804.613892 7104.000000
1806.024292 7810.000000
1807.433960 6481.000000
1808.842651 5926.000000
1810.250244 5396.000000
1811.657349 6425.000000
1813.063599 6385.000000
1814.468872 6679.000000
1815.873047 5945.000000
1817.276855 5993.000000
1818.679688 6207.000000
1820.081665 6062.000000
1821.483032 5874.000000
1822.882935 6299.000000
1824.282227 6406.000000
1825.681030 6571.000000
1827.078979 7372.000000
1828.475586 5748.000000
1829.871582 6714.000000
1831.266846 5884.000000
1832.661499 8151.000000
1834.055176 6000.000000
1835.447510 6797.000000
1836.839355 6421.000000
1838.230591 5849.000000
1839.620850 7066.000000
1841.009888 6020.000000
1842.398560 6039.000000
1843.786255 6011.000000
1845.173218 5771.000000
1846.558838 6869.000000
1847.944214 5897.000000
1849.328735 6351.000000
1850.712524 6275.000000
1852.095215 6415.000000
1853.476685 5419.000000
1854.857666 6530.000000
1856.238159 6302.000000
1857.617676 5723.000000
1858.995728 5955.000000
1860.373657 6330.000000
1861.750610 7896.000000
1863.126831 6128.000000
1864.502197 6039.000000
1865.876099 5627.000000
1867.249878 5720.000000
1868.622803 6180.000000
1869.994629 5961.000000
1871.365479 6926.000000
1872.735962 5454.000000
1874.105347 6044.000000
1875.474243 6097.000000
1876.841553 7186.000000
1878.208740 6048.000000
1879.574951 6025.000000
1880.940430 6768.000000
1882.305176 7486.000000
1883.668335 6829.000000
1885.031372 6872.000000
1886.393555 6362.000000
1887.754883 6485.000000
1889.114868 5621.000000
1890.474487 5755.000000
1891.833496 6141.000000
1893.191528 6629.000000
1894.548706 7318.000000
1895.904663 5934.000000
1897.260376 7658.000000
1898.615112 5866.000000
1899.968994 5598.000000
1901.321777 5901.000000
1902.674072 5973.000000
1904.025635 5924.000000
1905.376343 6852.000000
1906.725830 6544.000000
1908.074829 6659.000000
1909.422974 5758.000000
1910.770508 6165.000000
1912.117310 6292.000000
1913.462524 6792.000000
1914.807495 6074.000000
1916.151733 5417.000000
1917.495117 6442.000000
1918.837158 6009.000000
1920.178955 6680.000000
1921.519897 7020.000000
1922.860107 6115.000000
1924.199341 6320.000000
1925.537598 6310.000000
1926.875244 6489.000000
1928.212158 6953.000000
1929.548218 6703.000000
1930.883057 5564.000000
1932.217529 6700.000000
1933.551270 7230.000000
1934.884155 6262.000000
1936.215576 5794.000000
1937.547119 6377.000000
1938.877319 6581.000000
1940.207031 5757.000000
1941.535889 6101.000000
1942.863525 5800.000000
1944.190674 5011.000000
1945.517090 5830.000000
1946.842773 6519.000000
1948.167114 5778.000000
1949.491211 6652.000000
1950.814453 6306.000000
1952.136963 6404.000000
1953.458374 5779.000000
1954.778809 7389.000000
1956.098633 6060.000000
1957.418091 5532.000000
1958.736572 6844.000000
1960.053711 5906.000000
1961.370483 5830.000000
1962.686523 6560.000000
1964.001831 6557.000000
1965.315674 6313.000000
1966.629272 5665.000000
1967.942139 6284.000000
1969.254150 5944.000000
1970.565552 6075.000000
1971.875610 6254.000000
1973.185181 5826.000000
1974.494019 6169.000000
1975.802246 6561.000000
1977.109131 6126.000000
1978.415405 7204.000000
1979.721313 5601.000000
1981.026001 6423.000000
1982.330200 5895.000000
1983.633179 5724.000000
1984.935791 7580.000000
1986.237427 6143.000000
1987.538452 6770.000000
1988.837891 6007.000000
1990.137451 6608.000000
1991.435913 5229.000000
1992.733887 6078.000000
1994.030273 6113.000000
1995.326660 5730.000000
1996.622070 5628.000000
1997.916748 6507.000000
1999.210571 5724.000000
2000.503174 6515.000000
2001.795288 5684.000000
2003.086914 7152.000000
2004.377808 6490.000000
2005.667114 6213.000000
2006.956177 6790.000000
2008.244507 5964.000000
2009.532104 6088.000000
2010.818848 6633.000000
2012.104492 5650.000000
2013.389771 6360.000000
2014.674072 6057.000000
2015.957764 5629.000000
2017.240112 6075.000000
2018.522095 6445.000000
2019.803589 6772.000000
2021.084106 5883.000000
2022.363892 6086.000000
2023.642578 6770.000000
2024.920532 5822.000000
2026.197998 5928.000000
2027.474854 6319.000000
2028.750000 5749.000000
2030.025269 6624.000000
2031.299561 5996.000000
2032.572876 5957.000000
2033.845337 5943.000000
2035.117432 6059.000000
2036.388428 6944.000000
2037.659180 6561.000000
2038.928589 6050.000000
2040.196899 6699.000000
2041.465210 6674.000000
2042.732544 5920.000000
2043.999146 5974.000000
2045.264526 5653.000000
2046.529297 5478.000000
2047.793823 5392.000000
2049.057129 5885.000000
2050.320068 6428.000000
2051.581055 6131.000000
2052.842529 6093.000000
2054.102783 5873.000000
2055.362305 6434.000000
2056.621094 6232.000000
2057.878906 6974.000000
2059.136230 6194.000000
2060.392822 6010.000000
2061.647949 6533.000000
2062.903076 5609.000000
2064.157227 5592.000000
2065.410645 5629.000000
2066.663330 6761.000000
2067.914795 6243.000000
2069.166016 6263.000000
2070.416504 5632.000000
2071.666260 5379.000000
2072.914551 6494.000000
2074.162842 6499.000000
2075.410156 7458.000000
2076.656738 5620.000000
2077.902588 5994.000000
2079.147217 6977.000000
2080.391357 7638.000000
2081.635010 5525.000000
2082.877686 6013.000000
2084.119141 6908.000000
2085.360352 5947.000000
2086.601074 6332.000000
2087.840820 6719.000000
2089.079346 7030.000000
2090.317383 6245.000000
2091.554688 5750.000000
2092.791748 6660.000000
2094.027344 6071.000000
2095.262207 6249.000000
2096.496826 6122.000000
2097.730469 5585.000000
2098.963135 6085.000000
2100.195068 6810.000000
2101.426514 6438.000000
2102.656982 6781.000000
2103.886719 5951.000000
2105.116211 5942.000000
2106.343750 6032.000000
2107.571533 6004.000000
2108.798584 6271.000000
2110.024658 5442.000000
2111.249268 6397.000000
2112.474121 6929.000000
2113.697754 7020.000000
2114.920898 6262.000000
2116.142822 7485.000000
2117.364502 5939.000000
2118.585205 6798.000000
2119.805176 6052.000000
2121.024658 6105.000000
2122.242676 6599.000000
2123.460693 7015.000000
2124.677734 5741.000000
2125.894287 5593.000000
2127.109131 6554.000000
2128.324219 6251.000000
2129.538330 6731.000000
2130.751709 5631.000000
2131.964355 6102.000000
2133.175537 5825.000000
2134.386963 6531.000000
2135.597168 6603.000000
2136.806885 5866.000000
2138.015137 6220.000000
2139.223389 5679.000000
2140.430908 5899.000000
2141.637207 7666.000000
2142.842773 5909.000000
2144.048096 5728.000000
2145.252441 5507.000000
2146.456055 6307.000000
2147.659180 6188.000000
2148.860840 6566.000000
2150.062256 5320.000000
2151.262939 6318.000000
2152.462891 6030.000000
2153.661621 5916.000000
2154.860107 6952.000000
2156.058105 6212.000000
2157.255127 5945.000000
2158.451416 5224.000000
2159.646484 5300.000000
2160.841309 6125.000000
2162.035400 5549.000000
2163.228516 5986.000000
2164.420654 6841.000000
2165.612549 5865.000000
2166.803711 6375.000000
2167.993896 6222.000000
2169.183350 6493.000000
2170.372314 6739.000000
2171.560303 6259.000000
2172.748047 5755.000000
2173.934326 5988.000000
2175.119873 6607.000000
2176.305176 6019.000000
2177.489990 5871.000000
2178.673584 6302.000000
2179.856445 7520.000000
2181.038330 6342.000000
2182.219971 6027.000000
2183.401123 6587.000000
2184.581055 5733.000000
2185.760010 5520.000000
2186.938477 6309.000000
2188.116699 6866.000000
2189.293701 7147.000000
2190.469727 6699.000000
2191.645508 6068.000000
2192.820801 5566.000000
2193.994629 6645.000000
2195.167969 6170.000000
2196.341064 6118.000000
2197.512939 6400.000000
2198.684326 7084.000000
2199.855225 6226.000000
2201.024414 6992.000000
2202.193604 7556.000000
2203.362305 6241.000000
2204.530029 5888.000000
2205.696777 5664.000000
2206.862793 7105.000000
2208.028320 6669.000000
2209.193604 5971.000000
2210.357422 6708.000000
2211.520752 5445.000000
2212.682861 6211.000000
2213.845215 6262.000000
2215.006348 6654.000000
2216.166504 6641.000000
2217.326172 6335.000000
2218.485596 6586.000000
2219.643799 6373.000000
2220.801025 6328.000000
2221.958008 6707.000000
2223.114258 6551.000000
2224.269775 6745.000000
2225.424561 6298.000000
2226.578369 6380.000000
2227.731201 6054.000000
2228.884521 6843.000000
2230.035889 6187.000000
2231.187012 6173.000000
2232.337402 6493.000000
2233.487305 7676.000000
2234.636230 6302.000000
2235.784668 5255.000000
2236.931641 6774.000000
2238.078857 7130.000000
2239.224854 6116.000000
2240.370605 7260.000000
2241.514648 7398.000000
2242.658936 6765.000000
2243.802246 6137.000000
2244.944824 5968.000000
2246.086426 5793.000000
2247.227783 5856.000000
2248.368164 6466.000000
2249.507813 6506.000000
2250.646973 5764.000000
2251.784912 5878.000000
2252.922852 6180.000000
2254.059814 5341.000000
2255.196045 6341.000000
2256.331299 6153.000000
2257.465820 7253.000000
2258.600098 6313.000000
2259.733887 5447.000000
2260.866211 6115.000000
2261.998047 6766.000000
2263.129395 6282.000000
2264.259766 6491.000000
2265.389893 8111.000000
2266.518799 6703.000000
2267.647217 5988.000000
2268.775146 5628.000000
2269.902100 6122.000000
2271.028320 5966.000000
2272.153564 6746.000000
2273.278809 6533.000000
2274.403320 6420.000000
2275.526611 5953.000000
2276.649170 6348.000000
2277.771240 5985.000000
2278.892822 7298.000000
2280.013672 6385.000000
2281.133301 6394.000000
2282.252441 7084.000000
2283.371338 7667.000000
2284.489502 7284.000000
2285.606689 5858.000000
2286.722900 6429.000000
2287.838867 6972.000000
2288.954102 6886.000000
2290.068604 7316.000000
2291.181885 5737.000000
2292.295166 6346.000000
2293.407715 5996.000000
2294.519531 5409.000000
2295.630615 6765.000000
2296.740479 6399.000000
2297.849854 6180.000000
2298.958984 6644.000000
2300.067139 6298.000000
2301.174316 6822.000000
2302.281250 5883.000000
2303.387451 6220.000000
2304.493164 6545.000000
2305.597412 6525.000000
2306.701416 5457.000000
2307.804932 5735.000000
2308.907959 6548.000000
2310.009766 7446.000000
2311.110840 7343.000000
2312.211426 6575.000000
2313.311523 5575.000000
2314.410889 6349.000000
2315.508789 6600.000000
2316.607178 6998.000000
2317.704102 8178.000000
2318.800781 6870.000000
2319.896973 5775.000000
2320.991455 6885.000000
2322.085938 7560.000000
2323.179688 5869.000000
2324.273193 6097.000000
2325.364990 6447.000000
2326.456787 6930.000000
2327.547852 6168.000000
2328.638184 6250.000000
2329.727539 6882.000000
2330.816895 6091.000000
2331.905029 6356.000000
2332.992676 6848.000000
2334.080078 6473.000000
2335.165771 6680.000000
2336.251221 7739.000000
2337.336426 6340.000000
2338.420654 6724.000000
2339.503906 5867.000000
2340.586914 6424.000000
2341.668945 7102.000000
2342.750732 5980.000000
2343.831787 7393.000000
2344.911621 6655.000000
2345.990967 5745.000000
2347.069824 6777.000000
2348.148193 6489.000000
2349.225098 6246.000000
2350.301758 6931.000000
2351.378174 6067.000000
2352.453613 6442.000000
2353.528076 5958.000000
2354.602295 6328.000000
2355.675781 6731.000000
2356.748779 6195.000000
2357.820557 7040.000000
2358.892090 6248.000000
2359.962646 6792.000000
2361.032959 7498.000000
2362.102295 7543.000000
2363.170654 6848.000000
2364.238770 6749.000000
2365.306152 7124.000000
2366.373047 7112.000000
2367.439209 6114.000000
2368.504150 6885.000000
2369.569092 6971.000000
2370.633301 6408.000000
2371.696777 6889.000000
2372.759033 5745.000000
2373.821289 6382.000000
2374.882568 6359.000000
2375.943604 5932.000000
2377.003418 6310.000000
2378.062500 7959.000000
2379.121582 6477.000000
2380.179688 7627.000000
2381.237061 6904.000000
2382.293457 8049.000000
2383.349609 7771.000000
2384.405273 6263.000000
2385.460205 7046.000000
2386.513672 6708.000000
2387.567383 6546.000000
2388.620117 6362.000000
2389.672363 6803.000000
2390.723877 6228.000000
2391.774414 6637.000000
2392.824707 6464.000000
2393.874023 6189.000000
2394.923340 6131.000000
2395.971191 6924.000000
2397.018555 6986.000000
2398.065674 6289.000000
2399.111816 6650.000000
2400.157227 6195.000000
2401.201904 6769.000000
2402.246582 7733.000000
2403.289795 7510.000000
2404.333008 6581.000000
2405.374756 5771.000000
2406.416748 6706.000000
2407.458008 7186.000000
2408.498291 6153.000000
2409.537842 6442.000000
2410.576416 6314.000000
2411.615234 6124.000000
2412.652832 6537.000000
2413.690186 6915.000000
2414.726318 7241.000000
2415.762207 6193.000000
2416.797363 6268.000000
2417.832031 6651.000000
2418.865234 7206.000000
2419.898682 6502.000000
2420.931152 6735.000000
2421.963379 6777.000000
2422.994141 7075.000000
2424.024902 6393.000000
2425.055176 6792.000000
2426.084229 6879.000000
2427.113281 6651.000000
2428.140625 7346.000000
2429.168457 6682.000000
2430.195068 7305.000000
2431.221436 6994.000000
2432.246338 7735.000000
2433.271484 6572.000000
2434.295654 7060.000000
2435.319580 6686.000000
2436.342285 5789.000000
2437.364258 6371.000000
2438.385986 6620.000000
2439.406982 6717.000000
2440.427490 6037.000000
2441.446777 6502.000000
2442.466064 6570.000000
2443.484375 8417.000000
2444.502441 6263.000000
2445.519043 6475.000000
2446.535645 6525.000000
2447.551514 6009.000000
2448.567383 6987.000000
2449.581787 6835.000000
2450.595459 5590.000000
2451.608643 7251.000000
2452.621582 5995.000000
2453.633789 7199.000000
2454.645020 6674.000000
2455.656006 7637.000000
2456.666260 6426.000000
2457.676025 7634.000000
2458.684814 5934.000000
2459.692871 5993.000000
2460.700928 6291.000000
2461.707764 7316.000000
2462.714355 5413.000000
2463.719727 7436.000000
2464.724854 6946.000000
2465.729736 5827.000000
2466.733398 6513.000000
2467.736816 6395.000000
2468.739258 7569.000000
2469.741455 7385.000000
2470.743164 6911.000000
2471.743896 6623.000000
2472.743652 6883.000000
2473.743408 6751.000000
2474.742188 5699.000000
2475.740479 6602.000000
2476.737793 7059.000000
2477.734863 6163.000000
2478.731934 6894.000000
2479.727539 5826.000000
2480.723145 7145.000000
2481.717041 6735.000000
2482.710938 8091.000000
2483.704346 6896.000000
2484.697266 6793.000000
2485.689209 7515.000000
2486.680420 7287.000000
2487.671387 6775.000000
2488.661865 5872.000000
2489.651367 6538.000000
2490.640137 6479.000000
2491.628906 5662.000000
2492.616699 6814.000000
2493.603271 6553.000000
2494.589844 8012.000000
2495.575928 6774.000000
2496.561279 7145.000000
2497.545654 8432.000000
2498.529785 5998.000000
2499.513916 6837.000000
2500.496582 5781.000000
2501.478760 6998.000000
2502.460449 6849.000000
2503.441406 7252.000000
2504.421875 6547.000000
2505.402100 5751.000000
2506.380859 6328.000000
2507.359375 7519.000000
2508.337402 6760.000000
2509.314941 7102.000000
2510.291504 6143.000000
2511.267822 5924.000000
2512.243408 6482.000000
2513.218506 6192.000000
2514.193115 6453.000000
2515.166504 7494.000000
2516.139648 6781.000000
2517.112549 6892.000000
2518.084473 6132.000000
2519.055664 6858.000000
2520.026367 6937.000000
2520.996826 7734.000000
2521.966553 8133.000000
2522.935303 6148.000000
2523.903320 6160.000000
2524.871338 7747.000000
2525.838379 6365.000000
2526.805176 5554.000000
2527.770752 7256.000000
2528.736328 6965.000000
2529.701172 7714.000000
2530.665527 6319.000000
2531.628662 6417.000000
2532.592041 5853.000000
2533.554443 6046.000000
2534.516602 6681.000000
2535.477539 6382.000000
2536.437744 6131.000000
2537.398193 6174.000000
2538.357666 6788.000000
2539.316406 6838.000000
2540.274170 6684.000000
2541.232178 6211.000000
2542.189453 6825.000000
2543.145752 6049.000000
2544.101807 7097.000000
2545.056641 6268.000000
2546.011719 7727.000000
2546.966064 7010.000000
2547.919678 6659.000000
2548.872314 7231.000000
2549.824707 6740.000000
2550.776611 6998.000000
2551.727783 6412.000000
2552.678223 7658.000000
2553.628174 7223.000000
2554.577881 7436.000000
2555.526855 6704.000000
2556.475342 6305.000000
2557.422607 7121.000000
2558.369873 6302.000000
2559.316406 6520.000000
2560.262451 6745.000000
2561.207520 7395.000000
2562.152344 6739.000000
2563.096680 7212.000000
2564.040527 6840.000000
2564.983887 6607.000000
2565.925781 6590.000000
2566.867920 6582.000000
2567.809326 6193.000000
2568.750000 7181.000000
2569.689941 7262.000000
2570.629883 5732.000000
2571.568848 6157.000000
2572.507568 7550.000000
2573.445313 7207.000000
2574.382813 5500.000000
2575.319580 7025.000000
2576.255615 6822.000000
2577.191162 7508.000000
2578.125977 6294.000000
2579.060791 5953.000000
2579.994629 7022.000000
2580.927979 7000.000000
2581.860596 5936.000000
2582.792969 6909.000000
2583.724609 5506.000000
2584.655762 7040.000000
2585.586426 7005.000000
2586.515869 6821.000000
2587.445313 7263.000000
2588.374268 6481.000000
2589.302979 7408.000000
2590.229980 7378.000000
2591.157227 5859.000000
2592.083984 6802.000000
2593.010010 6343.000000
2593.935791 5636.000000
2594.860352 7624.000000
2595.784668 7594.000000
2596.708496 5356.000000
2597.631836 7243.000000
2598.554199 6244.000000
2599.476318 6861.000000
2600.397949 8244.000000
2601.318848 6405.000000
2602.239014 5747.000000
2603.158936 6377.000000
2604.078369 6342.000000
2604.997559 6412.000000
2605.915771 5823.000000
2606.832764 6063.000000
2607.750000 7291.000000
2608.666992 5869.000000
2609.583008 7569.000000
2610.497803 6663.000000
2611.413086 6683.000000
2612.327637 6590.000000
2613.241211 6590.000000
2614.154785 6107.000000
2615.067139 7615.000000
2615.979492 7026.000000
2616.890869 6728.000000
2617.802002 5716.000000
2618.712402 7235.000000
2619.622559 6667.000000
2620.531982 6160.000000
2621.440918 6612.000000
2622.348877 6257.000000
2623.257080 6819.000000
2624.164307 6670.000000
2625.071045 7029.000000
2625.977051 6069.000000
2626.882813 6619.000000
2627.787842 6518.000000
2628.692627 7837.000000
2629.596680 6455.000000
2630.499756 6382.000000
2631.402832 6451.000000
2632.304932 5625.000000
2633.207031 6750.000000
2634.108887 6983.000000
2635.009033 6656.000000
2635.909424 6359.000000
2636.809082 6447.000000
2637.708496 5996.000000
2638.606445 6898.000000
2639.504883 6736.000000
2640.402832 6387.000000
2641.300049 6086.000000
2642.196045 6144.000000
2643.092041 6808.000000
2643.987793 6129.000000
2644.882813 6458.000000
2645.777588 6668.000000
2646.670898 7092.000000
2647.564209 6364.000000
2648.457275 6738.000000
2649.350098 6436.000000
2650.241211 7473.000000
2651.132568 6416.000000
2652.023438 7616.000000
2652.913574 7288.000000
2653.803467 6592.000000
2654.692139 7302.000000
2655.581055 6629.000000
2656.469482 6556.000000
2657.356934 7297.000000
2658.243408 6449.000000
2659.130371 7148.000000
2660.016602 6870.000000
2660.902344 6764.000000
2661.786865 6483.000000
2662.671387 6398.000000
2663.555664 6137.000000
2664.439209 7040.000000
2665.322266 7793.000000
2666.204590 7359.000000
2667.086426 6173.000000
2667.967529 6638.000000
2668.848877 6080.000000
2669.728760 6542.000000
2670.608887 7407.000000
2671.488281 7283.000000
2672.367676 6200.000000
2673.246338 6124.000000
2674.123291 6476.000000
2675.000977 6715.000000
2675.877930 6419.000000
2676.754150 8097.000000
2677.629883 7177.000000
2678.504883 6260.000000
2679.380127 7743.000000
2680.254395 6983.000000
2681.128174 7351.000000
2682.001221 6974.000000
2682.874023 6148.000000
2683.746582 6083.000000
2684.618408 7011.000000
2685.489502 6566.000000
2686.360352 6892.000000
2687.230713 7141.000000
2688.100830 6766.000000
2688.969238 6310.000000
2689.838379 7380.000000
2690.706787 7097.000000
2691.574951 6623.000000
2692.442383 6940.000000
2693.308594 5901.000000
2694.175293 7124.000000
2695.041016 7375.000000
2695.906738 7182.000000
2696.770996 7888.000000
2697.635986 6647.000000
2698.499512 7300.000000
2699.363281 5898.000000
2700.225586 7424.000000
2701.088379 6844.000000
2701.950195 5910.000000
2702.811523 6912.000000
2703.672852 6769.000000
2704.532959 7385.000000
2705.393066 7336.000000
2706.252686 6597.000000
2707.112061 6932.000000
2707.969727 7155.000000
2708.827637 6903.000000
2709.686035 7357.000000
2710.543213 6738.000000
2711.399658 6004.000000
2712.255615 6927.000000
2713.111572 6118.000000
2713.966797 6967.000000
2714.821289 6121.000000
2715.675293 6845.000000
2716.529297 7259.000000
2717.382324 6348.000000
2718.235596 6466.000000
2719.087158 7731.000000
2719.939209 6775.000000
2720.791016 6331.000000
2721.641602 6404.000000
2722.492188 6780.000000
2723.342285 7106.000000
2724.191650 7047.000000
2725.041016 7026.000000
2725.889160 6696.000000
2726.736816 6564.000000
2727.584961 7068.000000
2728.431885 6871.000000
2729.279297 5488.000000
2730.125244 7484.000000
2730.970459 7025.000000
2731.816162 6437.000000
2732.660889 6971.000000
2733.505615 7293.000000
2734.349121 6900.000000
2735.192871 7831.000000
2736.035889 7147.000000
2736.878418 6062.000000
2737.719971 6231.000000
2738.562012 6848.000000
2739.403076 6907.000000
2740.243896 5859.000000
2741.084473 5936.000000
2741.923828 7751.000000
2742.763184 6852.000000
2743.602539 6931.000000
2744.440674 6798.000000
2745.278320 7744.000000
2746.115967 6346.000000
2746.953125 7145.000000
2747.790039 6239.000000
2748.626465 6041.000000
2749.461670 6597.000000
2750.297119 6312.000000
2751.132080 6314.000000
2751.966309 6203.000000
2752.800293 6858.000000
2753.633789 6826.000000
2754.467285 7993.000000
2755.299805 6789.000000
2756.131836 7314.000000
2756.963379 6849.000000
2757.794922 7084.000000
2758.625488 7190.000000
2759.456299 7206.000000
2760.285889 7340.000000
2761.115479 6622.000000
2761.944824 7241.000000
2762.773438 6840.000000
2763.601563 6809.000000
2764.429199 6985.000000
2765.256836 6753.000000
2766.083984 7870.000000
2766.910400 5756.000000
2767.736328 7483.000000
2768.561768 6874.000000
2769.386963 7794.000000
2770.212158 7157.000000
2771.036133 6793.000000
2771.860107 6555.000000
2772.684082 7669.000000
2773.506836 6416.000000
2774.329834 6994.000000
2775.151611 6923.000000
2775.973389 6974.000000
2776.795166 6507.000000
2777.615967 8001.000000
2778.436035 6541.000000
2779.256348 7010.000000
2780.076172 7300.000000
2780.895996 6422.000000
2781.713867 5931.000000
2782.532959 8038.000000
2783.350830 6517.000000
2784.168457 6753.000000
2784.985596 7144.000000
2785.802246 7271.000000
2786.618652 7276.000000
2787.434570 6311.000000
2788.250244 5939.000000
2789.064941 6381.000000
2789.880127 6930.000000
2790.694580 7149.000000
2791.508545 6559.000000
2792.322266 7430.000000
2793.134766 8839.000000
2793.947510 7024.000000
2794.759766 7447.000000
2795.571533 7191.000000
2796.382568 7329.000000
2797.194336 6607.000000
2798.004883 7253.000000
2798.815430 7075.000000
2799.624512 7338.000000
2800.434326 8166.000000
2801.243408 7798.000000
2802.052246 6626.000000
2802.860596 7131.000000
2803.667969 6188.000000
2804.475830 6456.000000
2805.282959 6964.000000
2806.089844 6808.000000
2806.895508 7211.000000
2807.701660 6672.000000
2808.507080 6484.000000
2809.312500 7361.000000
2810.117188 6205.000000
2810.920898 7582.000000
2811.725098 7497.000000
2812.528809 6396.000000
2813.332275 6050.000000
2814.134277 6574.000000
2814.937012 7392.000000
2815.739014 7834.000000
2816.540771 6232.000000
2817.342041 6532.000000
2818.142822 7276.000000
2818.943115 6528.000000
2819.743652 6609.000000
2820.543213 8069.000000
2821.342285 7233.000000
2822.141357 6464.000000
2822.940186 6957.000000
2823.738525 6338.000000
2824.535889 7027.000000
2825.333496 7038.000000
2826.130371 6685.000000
2826.927490 7407.000000
2827.723877 8125.000000
2828.519531 7046.000000
2829.315186 7413.000000
2830.110596 7935.000000
2830.905518 7395.000000
2831.699707 6675.000000
2832.493896 6844.000000
2833.287842 5742.000000
2834.081299 6930.000000
2834.874023 7183.000000
2835.666504 8223.000000
2836.458984 7729.000000
2837.251221 7744.000000
2838.042969 6480.000000
2838.833740 6810.000000
2839.624512 8830.000000
2840.415527 7438.000000
2841.205566 6228.000000
2841.995117 7593.000000
2842.784912 7164.000000
2843.573730 7361.000000
2844.362549 7773.000000
2845.151367 7745.000000
2845.939209 7551.000000
2846.726563 7265.000000
2847.514160 7535.000000
2848.301270 7270.000000
2849.087646 6687.000000
2849.874023 7447.000000
2850.660156 7246.000000
2851.445801 7583.000000
2852.230469 7212.000000
2853.015625 6919.000000
2853.800537 7482.000000
2854.584717 7064.000000
2855.368896 6875.000000
2856.151855 8292.000000
2856.935059 6791.000000
2857.718018 6776.000000
2858.500488 7713.000000
2859.282715 6306.000000
2860.064453 6665.000000
2860.845947 7626.000000
2861.627686 7504.000000
2862.408691 7614.000000
2863.188965 6616.000000
2863.968994 6726.000000
2864.749023 8224.000000
2865.528809 7456.000000
2866.307617 8068.000000
2867.086670 7700.000000
2867.865234 6761.000000
2868.643555 6968.000000
2869.421387 7260.000000
2870.198975 6956.000000
2870.976318 7516.000000
2871.753418 6975.000000
2872.530029 6496.000000
2873.306152 7561.000000
2874.082275 7208.000000
2874.857910 8324.000000
2875.633301 7186.000000
2876.408203 6612.000000
2877.182861 8075.000000
2877.957520 6740.000000
2878.731934 7933.000000
2879.505615 6857.000000
2880.278564 7245.000000
2881.052246 6842.000000
2881.824951 7600.000000
2882.597656 7914.000000
2883.369629 8247.000000
2884.141357 6263.000000
2884.913574 6801.000000
2885.684570 6884.000000
2886.455078 6164.000000
2887.226074 8339.000000
2887.997070 7395.000000
2888.767334 8015.000000
2889.536621 7680.000000
2890.306152 6932.000000
2891.075684 7279.000000
2891.844727 7363.000000
2892.613281 7974.000000
2893.381836 7900.000000
2894.149414 6968.000000
2894.917480 6591.000000
2895.685059 7423.000000
2896.452637 8448.000000
2897.218994 7316.000000
2897.986328 6585.000000
2898.752441 7258.000000
2899.518799 6982.000000
2900.283691 8352.000000
2901.049072 7017.000000
2901.814941 6499.000000
2902.579346 7664.000000
2903.343750 7737.000000
2904.108398 8401.000000
2904.872070 6643.000000
2905.636475 8574.000000
2906.400146 6741.000000
2907.163086 8451.000000
2907.925781 6498.000000
2908.688965 8946.000000
2909.451660 7012.000000
2910.213135 6866.000000
2910.975098 6866.000000
