scanname Analyse121
timestamp 2017-02-10 23:11:29
ccdbias 954.133789
ccdgain 3.473401
sigmaread 8.960639
laserwavenum -0.495740
wavenumcorrection 0.027224
scancount 1
totalexposurems 10000
singleexposurems 10000
measurementstate Unknown
scanmode Manual
snr 118.837646 1.519253 1.142724
replacelist 1
754 24350.000000 18781.000000
peaks 4
387.079529 0.303548 0.000000 0.052681 0.000008
876.492188 0.283589 0.000000 0.184583 0.000021
1151.831543 0.252990 0.000000 0.082701 0.000022
1318.626099 0.278995 0.000000 12.491108 0.003475
finalresult GLS_Multiple 82
A11658	2-(2-Nitrovinyl)furan	9.598989e-002
A4543	1,4-Butanediol divinyl ether	7.399278e-002
A2782	Acetamide	7.057435e-002
A8147	6-Chloro-2,4-dinitroaniline	6.981364e-002
A4408	Acetamidine hydrochloride	6.950001e-002
A11101	Hydrogen peroxide, 70%	6.919274e-002
A0113	Hydrogen peroxide	6.908790e-002
A14031	Methyl (S)-(+)-2-pyrrolidone-5-carboxylate	6.892235e-002
A10296	Tri(ethylene glycol) divinyl ether	6.857241e-002
A2453	Calcium chromate	6.853979e-002
A11100	Hydrogen peroxide, 50%	6.850424e-002
A8462	Ethanol	6.807040e-002
A4675	1,4-Butanediol vinyl ether	6.801100e-002
A1201	1,1,2,2-Tetrachloro-1,2-dimethyldisilane	6.788207e-002
A12040	Ethanol w/ sweetener	6.783901e-002
A0969	Diethylene glycol monopropyl ether	6.783901e-002
A8849	2-Ethoxytetrahydrofuran	6.775181e-002
A0273	Denatured Solvent Alcohol	6.773804e-002
A4972	Boric acid	6.772070e-002
A14612	Ammonium hydrogenoxalate hydrate	6.771801e-002
A1558	2-Bromo-2-nitro-1,3-propanediol	6.756245e-002
A8690	2-Amino-5-nitrobenzophenone	6.755086e-002
A4211	Ethanolamine hydrochloride	6.742430e-002
A8224	2-Bromobenzotrifluoride	6.739587e-002
A0825	D-Sorbitol	6.737655e-002
A3227	Selenium oxychloride	6.735824e-002
A2125	Chromium(0) hexacarbonyl	6.735525e-002
A3134	Phosphorus tribromide	6.730285e-002
A9459	1-(4-Nitrophenyl)-3-pyrrolidino-2-pyrazolin-5-one	6.726756e-002
A3074	Ethyl n-propyl ether	6.721225e-002
A2146	Potassium dioxide	6.715469e-002
A12797	Pentachlorocyclopropane	6.711395e-002
A13320	Titanium tetrachloride	6.702165e-002
A12779	1,2-Dibromocyclopentene	6.698762e-002
A3082	Methyl n-propyl ether	6.691439e-002
A10758	Pentachloroanisole	6.687971e-002
A6996	4-Fluoro-4'-hydroxybenzophenone	6.686526e-002
A7885	beta-Carotene	6.683061e-002
A3640	(+/-)-1,2,4-Butanetriol	6.681873e-002
A2471	1,2,3,4-Tetrachloronaphthalene	6.676002e-002
A16025	HL (distilled mustard / lewisite mixture)	6.673501e-002
A5277	2,4,6-Trichlorobenzoic acid	6.668993e-002
A6214	1,2-Dibromotetrachloroethane	6.665977e-002
A16018	L (lewisite blister agent, lot D)	6.660223e-002
A1989	Lewisite (blister agent)	6.652997e-002
A5771	2-Methylnaphthalene-bis(hexachlorocyclopentadiene)	6.649417e-002
A8116	Dimethyl oxalate	6.648857e-002
A3976	2-Aminopyrimidine	6.642606e-002
A12725	Cerium(III) fluoride	6.642018e-002
A3180	1,2-Diethylhydrazine dihydrochloride	6.638938e-002
A0292	Hydrazine	6.633730e-002
A5041	2,4,5,6-Tetrachloropyrimidine	6.630392e-002
A8415	2-Chloro-6-methoxy-3-nitropyridine	6.630099e-002
A10506	5,7-Dichloro-8-quinolinol	6.629343e-002
A0251	Ethylamine	6.623294e-002
A7779	Aminopyrazine	6.622119e-002
A1351	Sodium propionate	6.619216e-002
A7749	Ethyl ethoxyacetate	6.618231e-002
A4354	Allantoin	6.618231e-002
A2611	2-Nitroethanol	6.614188e-002
A4380	3-Amino-1,2,4-triazine	6.612428e-002
A3184	Selenourea	6.601175e-002
A7073	trans,trans-Muconic acid	6.598866e-002
A6465	2-Amino-5-bromopyrimidine	6.598399e-002
A12691	Ethylamine hydrochloride	6.596942e-002
A3938	Lead(II) acetylacetonate	6.591801e-002
A1564	Cyclooctatetraene	6.589209e-002
A3512	1,1'-Carbonyldiimidazole	6.588917e-002
A12862	Tropylium tetrafluoroborate	6.588163e-002
A4505	4-Hydroxybenzophenone	6.586703e-002
A1920	Sodium phosphate monobasic	6.586703e-002
A7097	Calcium D-gluconate monohydrate	6.583232e-002
A5356	N-Methylpropionamide	6.581821e-002
A8064	Diethyl bromomalonate	6.575099e-002
A4350	Yttrium(III) oxide	6.573632e-002
A2435	Sodium percarbonate	6.567656e-002
A8636	Imidazole	6.544865e-002
A7262	2-(Trifluoromethyl)benzenesulfonyl chloride	6.537054e-002
A2943	Potassium binoxalate	6.536596e-002
A7078	L-Pyroglutamic acid	6.531167e-002
A6889	Pyrazole	6.528848e-002
A5739	(R)-(+)-2-Pyrrolidone-5-carboxylic acid	6.521774e-002
spectrum 2048
-97.105713 44548.000000
-94.478844 44548.000000
-91.853851 45343.000000
-89.230751 45471.000000
-86.609520 46377.000000
-83.990189 46186.000000
-81.372719 46516.000000
-78.757126 46333.000000
-76.143410 46658.000000
-73.531570 46974.000000
-70.921593 46837.000000
-68.313499 46992.000000
-65.707253 47159.000000
-63.102886 47089.000000
-60.500378 46984.000000
-57.899723 47525.000000
-55.300930 46865.000000
-52.703995 46213.000000
-50.108913 46695.000000
-47.515686 46625.000000
-44.924309 46878.000000
-42.334778 46421.000000
-39.747089 47215.000000
-37.161251 47063.000000
-34.577255 46610.000000
-31.995094 47344.000000
-29.414782 46669.000000
-26.836296 47285.000000
-24.259653 46843.000000
-21.684835 46696.000000
-19.111858 46483.000000
-16.540701 46361.000000
-13.971378 46101.000000
-11.403880 45089.000000
-8.838201 46495.000000
-6.274346 46146.000000
-3.712306 46485.000000
-1.152090 46574.000000
1.406318 46161.000000
3.962905 45059.000000
6.517687 44797.000000
9.070652 44814.000000
11.621817 43288.000000
14.171168 42310.000000
16.718725 40909.000000
19.264469 40370.000000
21.808420 39095.000000
24.350567 36672.000000
26.890917 34407.000000
29.429482 31953.000000
31.966249 28952.000000
34.501213 19398.000000
37.034401 12176.000000
39.565807 7257.000000
42.095421 6474.000000
44.623238 6363.000000
47.149296 5744.000000
49.673565 4903.000000
52.196064 4330.000000
54.716766 3987.000000
57.235714 4155.000000
59.752888 4767.000000
62.268284 5687.000000
64.781906 6724.000000
67.293770 6342.000000
69.803886 5026.000000
72.312210 3406.000000
74.818779 2770.000000
77.323601 2244.000000
79.826668 1859.000000
82.327957 1716.000000
84.827507 1567.000000
87.325302 1469.000000
89.821365 1669.000000
92.315651 1990.000000
94.808197 2195.000000
97.299026 2303.000000
99.788086 2086.000000
102.275398 1622.000000
104.760986 1253.000000
107.244835 1177.000000
109.726936 1202.000000
112.207314 1000.000000
114.685966 991.000000
117.162895 925.000000
119.638069 917.000000
122.111534 956.000000
124.583267 804.000000
127.053291 939.000000
129.521561 1006.000000
131.988159 1070.000000
134.453003 1077.000000
136.916153 1232.000000
139.377563 1334.000000
141.837280 1656.000000
144.295273 1872.000000
146.751572 2227.000000
149.206161 2719.000000
151.659027 3161.000000
154.110214 3845.000000
156.559708 4584.000000
159.007477 5494.000000
161.453537 6351.000000
163.897919 6974.000000
166.340622 7983.000000
168.781631 8512.000000
171.220932 8972.000000
173.658524 9469.000000
176.094482 9817.000000
178.528702 9625.000000
180.961243 10024.000000
183.392136 9997.000000
185.821304 10039.000000
188.248825 10159.000000
190.674667 10209.000000
193.098831 10335.000000
195.521332 10182.000000
197.942139 10355.000000
200.361282 10727.000000
202.778763 11042.000000
205.194550 11347.000000
207.608688 11804.000000
210.021194 12519.000000
212.432022 13310.000000
214.841171 14041.000000
217.248688 14735.000000
219.654495 15792.000000
222.058716 16706.000000
224.461227 17569.000000
226.862122 18083.000000
229.261368 18590.000000
231.658951 18989.000000
234.054871 18948.000000
236.449173 19121.000000
238.841812 19418.000000
241.232834 19284.000000
243.622192 19334.000000
246.009933 19599.000000
248.396027 19509.000000
250.780487 19557.000000
253.163300 19420.000000
255.544540 19667.000000
257.924072 19614.000000
260.302032 19695.000000
262.678314 19631.000000
265.053040 19689.000000
267.426117 19359.000000
269.797546 19700.000000
272.167328 19567.000000
274.535553 19638.000000
276.902130 19679.000000
279.267120 19535.000000
281.630493 19636.000000
283.992218 19694.000000
286.352356 19508.000000
288.710876 19606.000000
291.067810 19571.000000
293.423126 19556.000000
295.776855 19685.000000
298.128937 19535.000000
300.479462 19552.000000
302.828400 19673.000000
305.175690 19576.000000
307.521454 19441.000000
309.865540 19382.000000
312.208099 19516.000000
314.549042 19326.000000
316.888367 19300.000000
319.226135 19391.000000
321.562347 18977.000000
323.896912 19283.000000
326.229919 19148.000000
328.561371 19117.000000
330.891235 19126.000000
333.219513 19142.000000
335.546173 19074.000000
337.871338 19199.000000
340.194885 19058.000000
342.516876 18948.000000
344.837311 18935.000000
347.156128 18828.000000
349.473389 18863.000000
351.789124 18977.000000
354.103271 18835.000000
356.415833 18886.000000
358.726837 18745.000000
361.036316 18938.000000
363.344269 18926.000000
365.650604 18946.000000
367.955353 18840.000000
370.258636 19146.000000
372.560303 19084.000000
374.860474 19096.000000
377.159088 19171.000000
379.456146 19175.000000
381.751648 19371.000000
384.045624 19243.000000
386.338013 19392.000000
388.628906 19363.000000
390.918274 19437.000000
393.206055 19546.000000
395.492310 19486.000000
397.777069 19507.000000
400.060211 19610.000000
402.341919 19595.000000
404.622101 19673.000000
406.900696 19567.000000
409.177765 19570.000000
411.453308 19480.000000
413.727325 19415.000000
415.999908 19403.000000
418.270874 19474.000000
420.540344 19499.000000
422.808319 19383.000000
425.074738 19238.000000
427.339661 19163.000000
429.603119 19229.000000
431.864990 19178.000000
434.125397 19094.000000
436.384247 19240.000000
438.641632 19113.000000
440.897522 19119.000000
443.151917 19020.000000
445.404785 18992.000000
447.656097 18860.000000
449.906006 18642.000000
452.154327 18670.000000
454.401215 18689.000000
456.646637 18616.000000
458.890503 18481.000000
461.132874 18616.000000
463.373749 18511.000000
465.613220 18487.000000
467.851105 18604.000000
470.087555 18602.000000
472.322479 18444.000000
474.555939 18122.000000
476.787964 18263.000000
479.018463 18327.000000
481.247467 18272.000000
483.475006 18376.000000
485.701050 18268.000000
487.925659 18338.000000
490.148804 18250.000000
492.370483 18212.000000
494.590607 18379.000000
496.809326 18627.000000
499.026550 18432.000000
501.242401 18569.000000
503.456635 18409.000000
505.669556 18474.000000
507.880890 18483.000000
510.090790 18472.000000
512.299255 18630.000000
514.506348 18514.000000
516.711853 18512.000000
518.915955 18355.000000
521.118530 18433.000000
523.319702 18588.000000
525.519531 18559.000000
527.717834 18401.000000
529.914612 18422.000000
532.110046 18470.000000
534.303955 18396.000000
536.496521 18286.000000
538.687561 18174.000000
540.877197 18436.000000
543.065430 18312.000000
545.252136 18136.000000
547.437378 18064.000000
549.621338 17829.000000
551.803711 17711.000000
553.984741 17684.000000
556.164246 17516.000000
558.342468 17432.000000
560.519165 17442.000000
562.694458 17343.000000
564.868347 17420.000000
567.040771 17160.000000
569.211792 17325.000000
571.381348 17244.000000
573.549622 17499.000000
575.716370 17484.000000
577.881653 17412.000000
580.045532 17530.000000
582.208130 17521.000000
584.369202 17610.000000
586.528870 17508.000000
588.687195 17431.000000
590.843994 17788.000000
592.999451 17606.000000
595.153503 17759.000000
597.306213 17740.000000
599.457397 17674.000000
601.607239 17839.000000
603.755737 17695.000000
605.902649 17659.000000
608.048340 17715.000000
610.192627 17567.000000
612.335449 18117.000000
614.476807 17779.000000
616.616943 17690.000000
618.755554 17547.000000
620.892883 17735.000000
623.028748 17725.000000
625.163208 17617.000000
627.296204 17464.000000
629.428040 17269.000000
631.558411 17313.000000
633.687378 17310.000000
635.814880 17242.000000
637.941101 16997.000000
640.065796 16854.000000
642.189270 16863.000000
644.311401 16669.000000
646.432068 16808.000000
648.551392 16674.000000
650.669312 16771.000000
652.785889 16846.000000
654.901062 16827.000000
657.014893 16420.000000
659.127258 16627.000000
661.238403 16610.000000
663.348145 16419.000000
665.456421 16506.000000
667.563538 16503.000000
669.669189 16471.000000
671.773376 16481.000000
673.876343 16582.000000
675.977905 16476.000000
678.078125 16714.000000
680.176941 16574.000000
682.274414 16859.000000
684.370605 16777.000000
686.465332 16920.000000
688.558838 16715.000000
690.651001 16608.000000
692.741638 16854.000000
694.831055 16834.000000
696.919189 16977.000000
699.005859 17066.000000
701.091309 16880.000000
703.175232 17048.000000
705.257935 16780.000000
707.339355 16771.000000
709.419312 16344.000000
711.498047 15983.000000
713.575317 15763.000000
715.651306 15949.000000
717.726013 16029.000000
719.799438 15812.000000
721.871338 16582.000000
723.942078 16202.000000
726.011475 16194.000000
728.079468 15810.000000
730.146118 15812.000000
732.211548 15740.000000
734.275635 15663.000000
736.338379 15709.000000
738.399780 15652.000000
740.459900 15672.000000
742.518616 15569.000000
744.576111 15462.000000
746.632324 15474.000000
748.687134 15360.000000
750.740662 15428.000000
752.792786 15230.000000
754.843689 15352.000000
756.893372 15324.000000
758.941589 15295.000000
760.988586 15160.000000
763.034302 15003.000000
765.078613 15112.000000
767.121643 15825.000000
769.163452 14098.000000
771.203918 15252.000000
773.242981 15131.000000
775.280884 15240.000000
777.317444 15382.000000
779.352783 15315.000000
781.386780 15412.000000
783.419373 15382.000000
785.450806 15744.000000
787.480835 15167.000000
789.509583 15566.000000
791.537170 15780.000000
793.563416 15572.000000
795.588257 15820.000000
797.612000 15866.000000
799.634338 15740.000000
801.655457 15804.000000
803.675232 15768.000000
805.693726 15984.000000
807.710999 15852.000000
809.726868 15939.000000
811.741577 15888.000000
813.754944 15791.000000
815.767090 15791.000000
817.778015 15525.000000
819.787598 15341.000000
821.795959 15191.000000
823.802917 15098.000000
825.808655 15103.000000
827.813171 15055.000000
829.816406 14965.000000
831.818359 14741.000000
833.819031 14883.000000
835.818481 14697.000000
837.816589 14646.000000
839.813599 14715.000000
841.809204 14681.000000
843.803650 14606.000000
845.796753 14531.000000
847.788635 14325.000000
849.779175 14310.000000
851.768433 14287.000000
853.756653 14045.000000
855.743469 14062.000000
857.729065 14079.000000
859.713379 14160.000000
861.696594 14058.000000
863.678406 14154.000000
865.658997 14181.000000
867.638306 14023.000000
869.616455 14021.000000
871.593262 14200.000000
873.568787 14345.000000
875.543274 14430.000000
877.516296 14777.000000
879.488281 14678.000000
881.458923 14671.000000
883.428406 14826.000000
885.396545 14849.000000
887.363525 14649.000000
889.329163 14717.000000
891.293640 14690.000000
893.256897 14733.000000
895.218933 14350.000000
897.179688 14485.000000
899.139221 14499.000000
901.097473 14381.000000
903.054626 14178.000000
905.010620 14409.000000
906.965210 14318.000000
908.918579 14318.000000
910.870789 14391.000000
912.821777 14156.000000
914.771484 13891.000000
916.720032 13668.000000
918.667358 13855.000000
920.613403 13765.000000
922.558167 13473.000000
924.501892 13485.000000
926.444458 13240.000000
928.385742 13257.000000
930.325684 12974.000000
932.264526 12958.000000
934.202087 12958.000000
936.138428 12827.000000
938.073608 12843.000000
940.007507 12788.000000
941.940308 12880.000000
943.871887 12781.000000
945.802307 12989.000000
947.731506 12837.000000
949.659363 12924.000000
951.586182 13029.000000
953.511719 12870.000000
955.435974 13158.000000
957.359131 12967.000000
959.281128 13091.000000
961.201843 13066.000000
963.121399 13120.000000
965.039795 13339.000000
966.957153 13427.000000
968.873047 13433.000000
970.787842 13340.000000
972.701416 13296.000000
974.613831 13333.000000
976.525024 13391.000000
978.435059 13322.000000
980.343811 13251.000000
982.251526 13247.000000
984.158020 13287.000000
986.063293 13166.000000
987.967468 13047.000000
989.870422 13137.000000
991.772156 13037.000000
993.672729 13006.000000
995.572144 13140.000000
997.470337 12993.000000
999.367371 12943.000000
1001.263184 12610.000000
1003.157837 12367.000000
1005.051392 12388.000000
1006.943665 12299.000000
1008.835022 12163.000000
1010.725037 12180.000000
1012.613831 11998.000000
1014.501465 12080.000000
1016.387939 12069.000000
1018.273254 11882.000000
1020.157410 12088.000000
1022.040344 12076.000000
1023.922241 11869.000000
1025.802856 12026.000000
1027.682373 11951.000000
1029.560913 11976.000000
1031.438110 12029.000000
1033.313965 11911.000000
1035.188843 11945.000000
1037.062744 11882.000000
1038.935181 12084.000000
1040.806641 11903.000000
1042.676758 12046.000000
1044.545898 11951.000000
1046.413818 11880.000000
1048.280640 11828.000000
1050.146362 12106.000000
1052.010864 12200.000000
1053.874268 12179.000000
1055.736328 12311.000000
1057.597412 12136.000000
1059.457397 12135.000000
1061.316040 12239.000000
1063.173584 12121.000000
1065.030029 12205.000000
1066.885376 12289.000000
1068.739502 12309.000000
1070.592773 12174.000000
1072.444580 12215.000000
1074.295410 12322.000000
1076.145020 12234.000000
1077.993408 12214.000000
1079.840942 12121.000000
1081.687134 12083.000000
1083.532104 12120.000000
1085.376221 11919.000000
1087.218994 12060.000000
1089.060547 12058.000000
1090.901367 11962.000000
1092.740601 11684.000000
1094.579102 11874.000000
1096.416260 11668.000000
1098.252197 11648.000000
1100.087158 11257.000000
1101.920898 11347.000000
1103.753662 11288.000000
1105.585083 11160.000000
1107.415649 11396.000000
1109.244873 11137.000000
1111.073120 10619.000000
1112.900146 10777.000000
1114.726196 10864.000000
1116.551025 10795.000000
1118.374756 10670.000000
1120.197266 10790.000000
1122.018677 10677.000000
1123.839233 10796.000000
1125.658325 10767.000000
1127.476563 10796.000000
1129.293457 10860.000000
1131.109497 10902.000000
1132.924316 10964.000000
1134.738037 11050.000000
1136.550659 11064.000000
1138.362061 11192.000000
1140.172485 11280.000000
1141.981812 11228.000000
1143.789795 11208.000000
1145.597046 11379.000000
1147.402832 11495.000000
1149.207764 11364.000000
1151.011597 11345.000000
1152.814209 11351.000000
1154.615967 11431.000000
1156.416260 11366.000000
1158.215576 11344.000000
1160.013916 11027.000000
1161.810913 11169.000000
1163.607178 11118.000000
1165.402100 11005.000000
1167.195923 10848.000000
1168.988892 10726.000000
1170.780518 10722.000000
1172.571167 10580.000000
1174.360840 10550.000000
1176.149048 10552.000000
1177.936401 10428.000000
1179.722656 10616.000000
1181.507813 10500.000000
1183.291870 10524.000000
1185.074829 10540.000000
1186.856812 10512.000000
1188.637573 10456.000000
1190.417358 10503.000000
1192.196045 10313.000000
1193.973755 10308.000000
1195.750244 10228.000000
1197.525635 10100.000000
1199.299927 9989.000000
1201.073120 9810.000000
1202.845459 9792.000000
1204.616455 9748.000000
1206.386597 9905.000000
1208.155518 9890.000000
1209.923340 9743.000000
1211.690308 9837.000000
1213.455933 9708.000000
1215.220581 9721.000000
1216.984131 9851.000000
1218.746582 9894.000000
1220.508179 9743.000000
1222.268555 9623.000000
1224.027832 9654.000000
1225.786255 9553.000000
1227.543457 9853.000000
1229.299561 9726.000000
1231.054565 9719.000000
1232.808716 9893.000000
1234.561523 9835.000000
1236.313354 9894.000000
1238.064331 10063.000000
1239.813965 9949.000000
1241.562744 10062.000000
1243.310181 10042.000000
1245.056885 10049.000000
1246.802368 10278.000000
1248.546997 9954.000000
1250.290283 10032.000000
1252.032593 9980.000000
1253.773804 9919.000000
1255.514160 9797.000000
1257.253418 9548.000000
1258.991455 9352.000000
1260.728638 9080.000000
1262.464600 9422.000000
1264.199585 9569.000000
1265.933594 9641.000000
1267.666626 9672.000000
1269.398438 9808.000000
1271.129272 9912.000000
1272.858887 9934.000000
1274.587646 9947.000000
1276.315308 9941.000000
1278.041870 9909.000000
1279.767578 9917.000000
1281.491943 9872.000000
1283.215454 9826.000000
1284.937988 9797.000000
1286.659546 9890.000000
1288.379883 9829.000000
1290.099243 9725.000000
1291.817505 9652.000000
1293.534790 9637.000000
1295.251099 9773.000000
1296.966187 9831.000000
1298.680298 9858.000000
1300.393433 9609.000000
1302.105713 9413.000000
1303.816772 9290.000000
1305.526855 9299.000000
1307.235840 9352.000000
1308.943604 9083.000000
1310.650757 9181.000000
1312.356445 9132.000000
1314.061401 9127.000000
1315.765381 9183.000000
1317.468140 9359.000000
1319.169922 9530.000000
1320.870850 9380.000000
1322.570435 14894.000000
1324.269165 2702.000000
1325.967163 8894.000000
1327.663818 8883.000000
1329.359375 8828.000000
1331.054077 8711.000000
1332.747559 8896.000000
1334.440186 8748.000000
1336.131958 8758.000000
1337.822388 8663.000000
1339.512085 8695.000000
1341.200684 8792.000000
1342.888184 8668.000000
1344.574707 8640.000000
1346.260132 8434.000000
1347.944580 8505.000000
1349.628174 8652.000000
1351.310547 8643.000000
1352.991943 8820.000000
1354.672485 8848.000000
1356.351807 8826.000000
1358.030518 8963.000000
1359.707886 8893.000000
1361.384155 9148.000000
1363.059448 9169.000000
1364.734009 8959.000000
1366.407349 9006.000000
1368.079712 8943.000000
1369.751099 9076.000000
1371.421509 9146.000000
1373.090820 8974.000000
1374.759155 8848.000000
1376.426636 9006.000000
1378.093018 8832.000000
1379.758423 8921.000000
1381.422852 8857.000000
1383.086060 8864.000000
1384.748657 8799.000000
1386.409912 8571.000000
1388.070313 8714.000000
1389.729614 8502.000000
1391.387939 8493.000000
1393.045532 8407.000000
1394.701904 8498.000000
1396.357422 8451.000000
1398.011719 8439.000000
1399.665161 8573.000000
1401.317505 8546.000000
1402.969116 8493.000000
1404.619507 8450.000000
1406.268799 8205.000000
1407.917358 8199.000000
1409.564819 7979.000000
1411.211304 7945.000000
1412.856934 7949.000000
1414.501587 7895.000000
1416.145020 7839.000000
1417.787598 7847.000000
1419.429077 7897.000000
1421.069702 7818.000000
1422.709351 7710.000000
1424.347900 7841.000000
1425.985596 7661.000000
1427.622192 7745.000000
1429.257813 7781.000000
1430.892700 7531.000000
1432.526489 7622.000000
1434.159180 7690.000000
1435.790894 7609.000000
1437.421753 7607.000000
1439.051514 7645.000000
1440.680176 7616.000000
1442.308228 7553.000000
1443.935181 7654.000000
1445.560913 7578.000000
1447.186035 7690.000000
1448.810059 7743.000000
1450.433105 7723.000000
1452.055176 7797.000000
1453.676147 7904.000000
1455.296143 7840.000000
1456.915405 7790.000000
1458.533325 7765.000000
1460.150635 7724.500000
1461.766968 7684.000000
1463.382080 7623.000000
1464.996338 7564.000000
1466.609741 7849.000000
1468.222046 7914.000000
1469.833496 7821.000000
1471.444092 7786.000000
1473.053467 7824.000000
1474.661865 7895.000000
1476.269409 7859.000000
1477.875977 7969.000000
1479.481812 7812.000000
1481.086426 7663.000000
1482.690186 7518.000000
1484.292725 7414.000000
1485.894653 7175.000000
1487.495361 7176.000000
1489.095337 6985.000000
1490.694214 7008.000000
1492.292236 7225.000000
1493.889160 7051.000000
1495.485229 7352.000000
1497.080322 7651.000000
1498.674438 7488.000000
1500.267822 7661.000000
1501.860107 7543.000000
1503.451172 7445.000000
1505.041748 7365.000000
1506.630981 7292.000000
1508.219604 7319.000000
1509.807129 7250.000000
1511.393555 7202.000000
1512.979248 7137.000000
1514.563843 7143.000000
1516.147583 7079.000000
1517.730225 7180.000000
1519.312134 7129.000000
1520.892944 7126.000000
1522.473022 7026.000000
1524.051880 6891.000000
1525.629883 6875.000000
1527.207153 6806.000000
1528.783203 6824.000000
1530.358521 6791.000000
1531.932739 6721.000000
1533.506226 6701.000000
1535.078491 6531.000000
1536.650024 6740.000000
1538.220581 6799.000000
1539.790283 6510.000000
1541.358765 6689.000000
1542.926514 6622.000000
1544.493408 6527.000000
1546.059082 6575.000000
1547.624023 6641.000000
1549.187866 6627.000000
1550.751099 6603.000000
1552.312988 6610.000000
1553.874268 6446.000000
1555.434448 6482.000000
1556.993896 6526.000000
1558.552246 6701.000000
1560.109863 6424.000000
1561.666382 6456.000000
1563.221680 6416.000000
1564.776367 6439.000000
1566.330322 6510.000000
1567.883301 6464.000000
1569.434937 6520.000000
1570.985840 6457.000000
1572.536011 6409.000000
1574.085205 6439.000000
1575.633057 6499.000000
1577.180420 6392.000000
1578.726807 6513.000000
1580.272339 6402.000000
1581.816895 6550.000000
1583.360229 6594.000000
1584.902954 6513.000000
1586.444824 6349.000000
1587.985596 6429.000000
1589.525391 6472.000000
1591.064453 6317.000000
1592.602417 6337.000000
1594.139893 6302.000000
1595.676025 6457.000000
1597.211060 6328.000000
1598.745605 6322.000000
1600.279175 6265.000000
1601.811890 6292.000000
1603.343018 6353.000000
1604.873901 6333.000000
1606.403931 6392.000000
1607.932739 6233.000000
1609.460449 6296.000000
1610.987549 6183.000000
1612.513916 6370.000000
1614.039307 6279.000000
1615.563843 6253.000000
1617.087036 6271.000000
1618.609497 6177.000000
1620.131226 6253.000000
1621.652100 6197.000000
1623.171509 5970.000000
1624.690430 6146.000000
1626.208618 6158.000000
1627.725952 6130.000000
1629.242188 6073.000000
1630.757080 5957.000000
1632.271484 6120.000000
1633.785156 6060.000000
1635.297729 5981.000000
1636.809082 5994.000000
1638.320068 5929.000000
1639.829956 5967.000000
1641.338989 5867.000000
1642.846680 5858.000000
1644.354004 5825.000000
1645.860474 5870.000000
1647.365967 5902.000000
1648.870605 5702.000000
1650.373779 5756.000000
1651.876343 5771.000000
1653.378540 5807.000000
1654.879395 5667.000000
1656.379150 5728.000000
1657.878052 5616.000000
1659.376587 5610.000000
1660.873901 5602.000000
1662.370483 5570.000000
1663.865479 5624.000000
1665.360229 5584.000000
1666.854126 5359.000000
1668.347046 5627.000000
1669.838623 4836.000000
1671.329712 5359.000000
1672.820190 5256.000000
1674.309570 5366.000000
1675.797485 5330.000000
1677.285156 5301.000000
1678.771851 5373.000000
1680.257690 5412.000000
1681.742676 5316.000000
1683.226196 5107.000000
1684.709473 5166.000000
1686.191895 5286.000000
1687.673218 5235.000000
1689.153076 5161.000000
1690.632690 5181.000000
1692.111572 5188.000000
1693.589478 5115.000000
1695.066406 5175.000000
1696.542114 5154.000000
1698.017456 5149.000000
1699.491577 5073.000000
1700.965088 5210.000000
1702.437134 5161.000000
1703.908936 5124.000000
1705.379761 5147.000000
1706.849731 5157.000000
1708.318359 5209.000000
1709.786499 5181.000000
1711.253906 5147.000000
1712.720215 5139.000000
1714.185913 5270.000000
1715.649902 5118.000000
1717.113770 5165.000000
1718.576782 5070.000000
1720.038818 5141.000000
1721.499634 5119.000000
1722.959839 5200.000000
1724.419312 5170.000000
1725.877930 5228.000000
1727.335571 5179.000000
1728.791870 5110.000000
1730.247925 5177.000000
1731.703003 5084.000000
1733.157104 5028.000000
1734.609985 5174.000000
1736.062622 5117.000000
1737.514160 5126.000000
1738.964966 5025.000000
1740.414795 5043.000000
1741.863281 5075.000000
1743.311401 4894.000000
1744.758667 5028.000000
1746.205200 4918.000000
1747.650146 4887.000000
1749.094849 4901.000000
1750.538696 4640.000000
1751.981689 4917.000000
1753.423218 4844.000000
1754.864502 4938.000000
1756.304932 4518.000000
1757.744385 4771.000000
1759.182861 4746.000000
1760.620361 4764.000000
1762.057373 4641.000000
1763.493408 4639.000000
1764.928589 4594.000000
1766.362305 4700.000000
1767.795898 4763.000000
1769.228516 4746.000000
1770.660278 4794.000000
1772.091187 4760.000000
1773.520874 4816.000000
1774.949829 4697.000000
1776.378296 4597.000000
1777.805786 4423.000000
1779.231934 4249.000000
1780.657837 4427.000000
1782.082642 4457.000000
1783.506836 4482.000000
1784.929565 4458.000000
1786.351807 4355.000000
1787.773315 4319.000000
1789.194092 4494.000000
1790.613892 4369.000000
1792.032349 4275.000000
1793.450317 4173.000000
1794.867676 4233.000000
1796.284180 4369.000000
1797.699219 4322.000000
1799.113892 4346.000000
1800.527954 4273.000000
1801.940796 4290.000000
1803.353027 4309.000000
1804.763916 4189.000000
1806.174316 4240.000000
1807.583984 4215.000000
1808.992676 4221.000000
1810.400269 4317.000000
1811.807373 4258.000000
1813.213623 4288.000000
1814.618896 4322.000000
1816.023071 4309.000000
1817.426880 4231.000000
1818.829712 4300.000000
1820.231689 4335.000000
1821.633057 4208.000000
1823.032959 4269.000000
1824.432251 4197.000000
1825.831055 4265.000000
1827.229004 4178.000000
1828.625610 4224.000000
1830.021606 4294.000000
1831.416870 4219.000000
1832.811523 4174.000000
1834.205200 4152.000000
1835.597534 4276.000000
1836.989380 4148.000000
1838.380615 4151.000000
1839.770874 4087.000000
1841.159912 4164.000000
1842.548584 4116.000000
1843.936279 4136.000000
1845.323242 4093.000000
1846.708862 4062.000000
1848.094238 4012.000000
1849.478760 4189.000000
1850.862549 4011.000000
1852.245239 4015.000000
1853.626709 3975.000000
1855.007690 4044.000000
1856.388184 3955.000000
1857.767700 3962.000000
1859.145752 3973.000000
1860.523682 3930.000000
1861.900635 3876.000000
1863.276855 3873.000000
1864.652222 3836.000000
1866.026123 3847.000000
1867.399902 3809.000000
1868.772827 3720.000000
1870.144653 3717.000000
1871.515503 3701.000000
1872.885986 3675.000000
1874.255371 3722.000000
1875.624268 3749.000000
1876.991577 3695.000000
1878.358765 3690.000000
1879.724976 3638.000000
1881.090454 3685.000000
1882.455200 3746.000000
1883.818359 3597.000000
1885.181396 3656.000000
1886.543579 3687.000000
1887.904907 3618.000000
1889.264893 3576.000000
1890.624512 3610.000000
1891.983521 3576.000000
1893.341553 3515.000000
1894.698730 3452.000000
1896.054688 3496.000000
1897.410400 3468.000000
1898.765137 3508.000000
1900.119019 3507.000000
1901.471802 3591.000000
1902.824097 3452.000000
1904.175659 3544.000000
1905.526367 3500.000000
1906.875854 3627.000000
1908.224854 3534.000000
1909.572998 3559.000000
1910.920532 3588.000000
1912.267334 3560.000000
1913.612549 3591.000000
1914.957520 3501.000000
1916.301758 3598.000000
1917.645142 3532.000000
1918.987183 3531.000000
1920.328979 3703.000000
1921.669922 3486.000000
1923.010132 3577.000000
1924.349365 3603.000000
1925.687622 3470.000000
1927.025269 3526.000000
1928.362183 3525.000000
1929.698242 3578.000000
1931.033081 3466.000000
1932.367554 3453.000000
1933.701294 3479.000000
1935.034180 3431.000000
1936.365601 3429.000000
1937.697144 3321.000000
1939.027344 3349.000000
1940.357056 3374.000000
1941.685913 3557.000000
1943.013550 3374.000000
1944.340698 3346.000000
1945.667114 3409.000000
1946.992798 3461.000000
1948.317139 3207.000000
1949.641235 3301.000000
1950.964478 3311.000000
1952.286987 3238.000000
1953.608398 3278.000000
1954.928833 3311.000000
1956.248657 3313.000000
1957.568115 3241.000000
1958.886597 3183.000000
1960.203735 3227.000000
1961.520508 3166.000000
1962.836548 3163.000000
1964.151855 3223.000000
1965.465698 3213.000000
1966.779297 3194.000000
1968.092163 3192.000000
1969.404175 3198.000000
1970.715576 3101.000000
1972.025635 3085.000000
1973.335205 3088.000000
1974.644043 3124.000000
1975.952271 3047.000000
1977.259155 3118.000000
1978.565430 3137.000000
1979.871338 3024.000000
1981.176025 3083.000000
1982.480225 3070.000000
1983.783203 3033.000000
1985.085815 3083.000000
1986.387451 2932.000000
1987.688477 2958.000000
1988.987915 3028.000000
1990.287476 2999.000000
1991.585938 2893.000000
1992.883911 3021.000000
1994.180298 2927.000000
1995.476685 2756.000000
1996.772095 2770.000000
1998.066772 2778.000000
1999.360596 2890.000000
2000.653198 2778.000000
2001.945313 2776.000000
2003.236938 2831.000000
2004.527832 2799.000000
2005.817139 2804.000000
2007.106201 2803.000000
2008.394531 2756.000000
2009.682129 2774.000000
2010.968872 2714.000000
2012.254517 2780.000000
2013.539795 2647.000000
2014.824097 2600.000000
2016.107788 2751.000000
2017.390137 2708.000000
2018.672119 2724.000000
2019.953613 2709.000000
2021.234131 2604.000000
2022.513916 2623.000000
2023.792603 2672.000000
2025.070557 2619.000000
2026.348022 2722.000000
2027.624878 2660.000000
2028.900024 2753.000000
2030.175293 2732.000000
2031.449585 2614.000000
2032.722900 2763.000000
2033.995361 2716.000000
2035.267456 2803.000000
2036.538452 2720.000000
2037.809204 2652.000000
2039.078613 2774.000000
2040.346924 2700.000000
2041.615234 2626.000000
2042.882568 2688.000000
2044.149170 2668.000000
2045.414551 2671.000000
2046.679321 3044.000000
2047.943848 2705.000000
2049.207031 2591.000000
2050.469971 2536.000000
2051.730957 2666.000000
2052.992432 2633.000000
2054.252686 2611.000000
2055.512207 2586.000000
2056.770996 2604.000000
2058.028809 2567.000000
2059.286133 2526.000000
2060.542725 2551.000000
2061.797852 2557.000000
2063.052979 2612.000000
2064.307129 2658.000000
2065.560547 2469.000000
2066.813232 2517.000000
2068.064697 2534.000000
2069.315918 2529.000000
2070.566406 2517.000000
2071.816162 2486.000000
2073.064453 2473.000000
2074.312744 2491.000000
2075.560059 2442.000000
2076.806641 2374.000000
2078.052490 2399.000000
2079.297119 2467.000000
2080.541260 2437.000000
2081.784912 2471.000000
2083.027588 2383.000000
2084.269043 2350.000000
2085.510254 2378.000000
2086.750977 2407.000000
2087.990723 2290.000000
2089.229248 2395.000000
2090.467285 2365.000000
2091.704590 2349.000000
2092.941650 2310.000000
2094.177246 2403.000000
2095.412109 2289.000000
2096.646729 2295.000000
2097.880371 2314.000000
2099.113037 2313.000000
2100.344971 2274.000000
2101.576416 2247.000000
2102.806885 2233.000000
2104.036621 2239.000000
2105.266113 2266.000000
2106.493652 2239.000000
2107.721436 2181.000000
2108.948486 2287.000000
2110.174561 2158.000000
2111.399170 2232.000000
2112.624023 2086.000000
2113.847656 2151.000000
2115.070801 2162.000000
2116.292725 2124.000000
2117.514404 2196.000000
2118.735107 2176.000000
2119.955078 2187.000000
2121.174561 2301.000000
2122.392578 2279.000000
2123.610596 2205.000000
2124.827637 2156.000000
2126.044189 2202.000000
2127.259033 2278.000000
2128.474121 2130.000000
2129.688232 2179.000000
2130.901611 2128.000000
2132.114258 2127.000000
2133.325439 2076.000000
2134.536865 2091.000000
2135.747070 1943.000000
2136.956787 2197.000000
2138.165039 2170.000000
2139.373291 2108.000000
2140.580811 2089.000000
2141.787109 2026.000000
2142.992676 1966.000000
2144.197998 2176.000000
2145.402344 2200.000000
2146.605957 2050.000000
2147.809082 2084.000000
2149.010742 2084.000000
2150.212158 2187.000000
2151.412842 1967.000000
2152.612793 2163.000000
2153.811523 2088.000000
2155.010010 1981.000000
2156.208008 2105.000000
2157.405029 1982.000000
2158.601318 2029.000000
2159.796387 2008.000000
2160.991211 2014.000000
2162.185303 2098.000000
2163.378418 1916.000000
2164.570557 1955.000000
2165.762451 1969.000000
2166.953613 1789.000000
2168.143799 1901.000000
2169.333252 1917.000000
2170.522217 1898.000000
2171.710205 1891.000000
2172.897949 1817.000000
2174.084229 1814.000000
2175.269775 1841.000000
2176.455078 1893.000000
2177.639893 1838.000000
2178.823486 1925.000000
2180.006348 1684.000000
2181.188232 1815.000000
2182.369873 1758.000000
2183.551025 1796.000000
2184.730957 1770.000000
2185.909912 1691.000000
2187.088379 1750.000000
2188.266602 1807.000000
2189.443604 1789.000000
2190.619629 1744.000000
2191.795410 1741.000000
2192.970703 1677.000000
2194.144531 1795.000000
2195.317871 1822.000000
2196.490967 1744.000000
2197.662842 1770.000000
2198.834229 1765.000000
2200.005127 1806.000000
2201.174316 1829.000000
2202.343506 1772.000000
2203.512207 1760.000000
2204.679932 1726.000000
2205.846680 1765.000000
2207.012695 1694.000000
2208.178223 1753.000000
2209.343506 1707.000000
2210.507324 1729.000000
2211.670654 1799.000000
2212.832764 1747.000000
2213.995117 1631.000000
2215.156250 1762.000000
2216.316406 1795.000000
2217.476074 1718.000000
2218.635498 1737.000000
2219.793701 1551.000000
2220.950928 1681.000000
2222.107910 1682.000000
2223.264160 1700.000000
2224.419678 1669.000000
2225.574463 1614.000000
2226.728271 1654.000000
2227.881104 1632.000000
2229.034424 1692.000000
2230.185791 1627.000000
2231.336914 1588.000000
2232.487305 1608.000000
2233.637207 1587.000000
2234.786133 1641.000000
2235.934570 1622.000000
2237.081543 1664.000000
2238.228760 1520.000000
2239.374756 1481.000000
2240.520508 1513.000000
2241.664551 1517.000000
2242.808838 1516.000000
2243.952148 1553.000000
2245.094727 1514.000000
2246.236328 1470.000000
2247.377686 1506.000000
2248.518066 1561.000000
2249.657715 1543.000000
2250.796875 1364.000000
2251.934814 1477.000000
2253.072754 1364.000000
2254.209717 1526.000000
2255.345947 1423.000000
2256.481201 1408.000000
2257.615723 1386.000000
2258.750000 1432.000000
2259.883789 1448.000000
2261.016113 1434.000000
2262.147949 1463.000000
2263.279297 1475.000000
2264.409668 1372.000000
2265.539795 1273.000000
2266.668701 1429.000000
2267.797119 1455.000000
2268.925049 1398.000000
2270.052002 1280.000000
2271.178223 1313.000000
2272.303467 1329.000000
2273.428711 1322.000000
2274.553223 1331.000000
2275.676514 1385.000000
2276.799072 1335.000000
2277.921143 1394.000000
2279.042725 1349.000000
2280.163574 1414.000000
2281.283203 1374.000000
2282.402344 1281.000000
2283.521240 1317.000000
2284.639404 1334.000000
2285.756592 1353.000000
2286.872803 1285.000000
2287.988770 1218.000000
2289.104004 1327.000000
2290.218506 1292.000000
2291.331787 1305.000000
2292.445068 1333.000000
2293.557617 1271.000000
2294.669434 1354.000000
2295.780518 1340.000000
2296.890381 1271.000000
2297.999756 1294.000000
2299.108887 1327.000000
2300.217041 1312.000000
2301.324219 1364.000000
2302.431152 1250.000000
2303.537354 1367.000000
2304.643066 1329.000000
2305.747314 1368.000000
2306.851318 1252.000000
2307.954834 1243.000000
2309.057861 1314.000000
2310.159668 1267.000000
2311.260742 1264.000000
2312.361328 1220.000000
2313.461426 1254.000000
2314.560791 1275.000000
2315.658691 1282.000000
2316.757080 1213.000000
2317.854004 1261.000000
2318.950684 1257.000000
2320.046875 1334.000000
2321.141357 1192.000000
2322.235840 1189.000000
2323.329590 1222.000000
2324.423096 1165.000000
2325.514893 1349.000000
2326.606689 1313.000000
2327.697754 1211.000000
2328.788086 1335.000000
2329.877441 1389.000000
2330.966797 1278.000000
2332.054932 1190.000000
2333.142578 1225.000000
2334.229980 1278.000000
2335.315674 1273.000000
2336.401123 1175.000000
2337.486328 1261.000000
2338.570557 1163.000000
2339.653809 1081.000000
2340.736816 1115.000000
2341.818848 1110.000000
2342.900635 1185.000000
2343.981689 1162.000000
2345.061523 1089.000000
2346.140869 1094.000000
2347.219727 1028.000000
2348.298096 1171.000000
2349.375000 1161.000000
2350.451660 1166.000000
2351.528076 1056.000000
2352.603516 992.000000
2353.677979 1105.000000
2354.752197 1093.000000
2355.825684 1087.000000
2356.898682 1060.000000
2357.970459 1041.000000
2359.041992 1037.000000
2360.112549 1061.000000
2361.182861 1059.000000
2362.252197 1076.000000
2363.320557 1054.000000
2364.388672 1022.000000
2365.456055 987.000000
2366.522949 1107.000000
2367.589111 957.000000
2368.654053 1091.000000
2369.718994 932.000000
2370.783203 955.000000
2371.846680 926.000000
2372.908936 998.000000
2373.971191 985.000000
2375.032471 1013.000000
2376.093506 971.000000
2377.153320 1013.000000
2378.212402 1047.000000
2379.271484 1019.000000
2380.329590 1070.000000
2381.386963 1026.000000
2382.443359 918.000000
2383.499512 1018.000000
2384.555176 983.000000
2385.610107 957.000000
2386.663574 933.000000
2387.717285 940.000000
2388.770020 981.000000
2389.822266 1027.000000
2390.873779 942.000000
2391.924316 990.000000
2392.974609 928.000000
2394.023926 959.000000
2395.073242 977.000000
2396.121094 964.000000
2397.168457 984.000000
2398.215576 959.000000
2399.261719 938.000000
2400.307129 957.000000
2401.351807 852.000000
2402.396484 991.000000
2403.439697 1042.000000
2404.482910 993.000000
2405.524658 1030.000000
2406.566650 972.000000
2407.607910 895.000000
2408.648193 908.000000
2409.687744 906.000000
2410.726318 980.000000
2411.765137 1017.000000
2412.802734 1013.000000
2413.840088 936.000000
2414.876221 956.000000
2415.912109 912.000000
2416.947266 926.000000
2417.981934 978.000000
2419.015137 960.000000
2420.048584 829.000000
2421.081055 935.000000
2422.113281 912.000000
2423.144043 985.000000
2424.174805 920.000000
2425.205078 906.000000
2426.234131 1006.000000
2427.263184 868.000000
2428.290527 863.000000
2429.318359 932.000000
2430.344971 811.000000
2431.371338 847.000000
2432.396240 840.000000
2433.421387 854.000000
2434.445557 939.000000
2435.469482 890.000000
2436.492188 910.000000
2437.514160 924.000000
2438.535889 805.000000
2439.556885 778.000000
2440.577393 844.000000
2441.596680 843.000000
2442.615967 824.000000
2443.634277 838.000000
2444.652344 893.000000
2445.668945 851.000000
2446.685547 823.000000
2447.701416 805.000000
2448.717285 836.000000
2449.731689 799.000000
2450.745361 777.000000
2451.758545 778.000000
2452.771484 789.000000
2453.783691 788.000000
2454.794922 762.000000
2455.805908 798.000000
2456.816162 745.000000
2457.825928 814.000000
2458.834717 764.000000
2459.842773 832.000000
2460.850830 784.000000
2461.857666 806.000000
2462.864258 696.000000
2463.869629 783.000000
2464.874756 788.000000
2465.879639 656.000000
2466.883301 684.000000
2467.886719 732.000000
2468.889160 758.000000
2469.891357 761.000000
2470.893066 839.000000
2471.893799 749.000000
2472.893555 744.000000
2473.893311 765.000000
2474.892090 722.000000
2475.890381 693.000000
2476.887695 743.000000
2477.884766 723.000000
2478.881836 675.000000
2479.877441 765.000000
2480.873047 733.000000
2481.866943 710.000000
2482.860840 659.000000
2483.854248 787.000000
2484.847168 754.000000
2485.839111 801.000000
2486.830322 641.000000
2487.821289 678.000000
2488.811768 714.000000
2489.801270 703.000000
2490.790039 770.000000
2491.778809 694.000000
2492.766602 759.000000
2493.753174 712.000000
2494.739746 815.000000
2495.725830 748.000000
2496.711182 613.000000
2497.695557 715.000000
2498.679688 729.000000
2499.663818 663.000000
2500.646484 688.000000
2501.628662 690.000000
2502.610352 718.000000
2503.591309 725.000000
2504.571777 619.000000
2505.552002 721.000000
2506.530762 735.000000
2507.509277 676.000000
2508.487305 686.000000
2509.464844 711.000000
2510.441406 717.000000
2511.417725 715.000000
2512.393311 679.000000
2513.368408 675.000000
2514.343018 650.000000
2515.316406 649.000000
2516.289551 725.000000
2517.262451 759.000000
2518.234375 665.000000
2519.205566 636.000000
2520.176270 603.000000
2521.146729 670.000000
2522.116455 605.000000
2523.085205 722.000000
2524.053223 663.000000
2525.021240 619.000000
2525.988281 676.000000
2526.955078 607.000000
2527.920654 664.000000
2528.886230 687.000000
2529.851074 578.000000
2530.815430 629.000000
2531.778564 675.000000
2532.741943 632.000000
2533.704346 590.000000
2534.666504 660.000000
2535.627441 691.000000
2536.587646 593.000000
2537.548096 601.000000
2538.507568 659.000000
2539.466309 664.000000
2540.424072 610.000000
2541.382080 526.000000
2542.339355 585.000000
2543.295654 574.000000
2544.251709 631.000000
2545.206543 517.000000
2546.161621 699.000000
2547.115967 641.000000
2548.069580 524.000000
2549.022217 542.000000
2549.974609 577.000000
2550.926514 581.000000
2551.877686 562.000000
2552.828125 524.000000
2553.778076 531.000000
2554.727783 575.000000
2555.676758 589.000000
2556.625244 539.000000
2557.572510 505.000000
2558.519775 575.000000
2559.466309 578.000000
2560.412354 530.000000
2561.357422 522.000000
2562.302246 611.000000
2563.246582 498.000000
2564.190430 512.000000
2565.133789 535.000000
2566.075684 469.000000
2567.017822 474.000000
2567.959229 504.000000
2568.899902 452.000000
2569.839844 567.000000
2570.779785 525.000000
2571.718750 628.000000
2572.657471 507.000000
2573.595215 576.000000
2574.532715 475.000000
2575.469482 537.000000
2576.405518 564.000000
2577.341064 546.000000
2578.275879 524.000000
2579.210693 543.000000
2580.144531 623.000000
2581.077881 367.000000
2582.010498 496.000000
2582.942871 419.000000
2583.874512 475.000000
2584.805664 506.000000
2585.736328 358.000000
2586.665771 531.000000
2587.595215 626.000000
2588.524170 555.000000
2589.452881 664.000000
2590.379883 628.000000
2591.307129 627.000000
2592.233887 576.000000
2593.159912 519.000000
2594.085693 528.000000
2595.010254 512.000000
2595.934570 554.000000
2596.858398 528.000000
2597.781738 551.000000
2598.704102 569.000000
2599.626221 560.000000
2600.547852 395.000000
2601.468750 587.000000
2602.388916 575.000000
2603.308838 546.000000
2604.228271 436.000000
2605.147461 447.000000
2606.065674 535.000000
2606.982666 583.000000
2607.899902 561.000000
2608.816895 495.000000
2609.732910 438.000000
2610.647705 497.000000
2611.562988 414.000000
2612.477539 490.000000
2613.391113 481.000000
2614.304688 487.000000
2615.217041 442.000000
2616.129395 448.000000
2617.040771 421.000000
2617.951904 510.000000
2618.862305 458.000000
2619.772461 475.000000
2620.681885 511.000000
2621.590820 519.000000
2622.498779 483.000000
2623.406982 460.000000
2624.314209 462.000000
2625.220947 402.000000
2626.126953 402.000000
2627.032715 490.000000
2627.937744 587.000000
2628.842529 555.000000
2629.746582 403.000000
2630.649658 472.000000
2631.552734 472.000000
2632.454834 459.000000
2633.356934 387.000000
2634.258789 370.000000
2635.158936 429.000000
2636.059326 452.000000
2636.958984 499.000000
2637.858398 393.000000
2638.756348 472.000000
2639.654785 522.000000
2640.552734 421.000000
2641.449951 470.000000
2642.345947 433.000000
2643.241943 308.000000
2644.137695 441.000000
2645.032715 518.000000
2645.927490 464.000000
2646.820801 433.000000
2647.714111 456.000000
2648.607178 450.000000
2649.500000 357.000000
2650.391113 397.000000
2651.282471 485.000000
2652.173340 444.000000
2653.063477 463.000000
2653.953369 429.000000
2654.842041 425.000000
2655.730957 402.000000
2656.619385 509.000000
2657.506836 442.000000
2658.393311 330.000000
2659.280273 502.000000
2660.166504 337.000000
2661.052246 434.000000
2661.936768 424.000000
2662.821289 388.000000
2663.705566 320.000000
2664.589111 453.000000
2665.472168 416.000000
2666.354492 445.000000
2667.236328 355.000000
2668.117432 376.000000
2668.998779 434.000000
2669.878662 465.000000
2670.758789 458.000000
2671.638184 393.000000
2672.517578 404.000000
2673.396240 347.000000
2674.273193 511.000000
2675.150879 371.000000
2676.027832 462.000000
2676.904053 416.000000
2677.779785 287.000000
2678.654785 299.000000
2679.530029 362.000000
2680.404297 401.000000
2681.278076 377.000000
2682.151123 383.000000
2683.023926 383.000000
2683.896484 437.000000
2684.768311 379.000000
2685.639404 375.000000
2686.510254 290.000000
2687.380615 397.000000
2688.250732 294.000000
2689.119141 411.000000
2689.988281 313.000000
2690.856689 416.000000
2691.724854 330.000000
2692.592285 407.000000
2693.458496 371.000000
2694.325195 314.000000
2695.190918 392.000000
2696.056641 332.000000
2696.920898 201.000000
2697.785889 370.000000
2698.649414 284.000000
2699.513184 292.000000
2700.375488 341.000000
2701.238281 390.000000
2702.100098 363.000000
2702.961426 464.000000
2703.822754 315.000000
2704.682861 274.000000
2705.542969 401.000000
2706.402588 330.000000
2707.261963 383.000000
2708.119629 197.000000
2708.977539 305.000000
2709.835938 293.000000
2710.693115 320.000000
2711.549561 298.000000
2712.405518 323.000000
2713.261475 354.000000
2714.116699 375.000000
2714.971191 324.000000
2715.825195 344.000000
2716.679199 271.000000
2717.532227 364.000000
2718.385498 379.000000
2719.237061 253.000000
2720.089111 344.000000
2720.940918 373.000000
2721.791504 348.000000
2722.642090 238.000000
2723.492188 354.000000
2724.341553 352.000000
2725.190918 221.000000
2726.039063 352.000000
2726.886719 313.000000
2727.734863 253.000000
2728.581787 305.000000
2729.429199 334.000000
2730.275146 296.000000
2731.120361 350.000000
2731.966064 306.000000
2732.810791 290.000000
2733.655518 255.000000
2734.499023 368.000000
2735.342773 327.000000
2736.185791 283.000000
2737.028320 316.000000
2737.869873 318.000000
2738.711914 283.000000
2739.552979 303.000000
2740.393799 317.000000
2741.234375 353.000000
2742.073730 320.000000
2742.913086 313.000000
2743.752441 319.000000
2744.590576 310.000000
2745.428223 253.000000
2746.265869 376.000000
2747.103027 354.000000
2747.939941 190.000000
2748.776367 263.000000
2749.611572 407.000000
2750.447021 364.000000
2751.281982 287.000000
2752.116211 359.000000
2752.950195 350.000000
2753.783691 347.000000
2754.617188 248.000000
2755.449707 262.000000
2756.281738 262.000000
2757.113281 239.000000
2757.944824 230.000000
2758.775391 308.000000
2759.606201 228.000000
2760.435791 271.000000
2761.265381 261.000000
2762.094727 365.000000
2762.923340 345.000000
2763.751465 204.000000
2764.579102 290.000000
2765.406738 213.000000
2766.233887 413.000000
2767.060303 282.000000
2767.886230 259.000000
2768.711670 265.000000
2769.536865 247.000000
2770.362061 218.000000
2771.186035 301.000000
2772.010010 302.000000
2772.833984 235.000000
2773.656738 275.000000
2774.479736 307.000000
2775.301514 263.000000
2776.123291 255.000000
2776.945068 255.000000
2777.765869 210.000000
2778.585938 183.000000
2779.406250 239.000000
2780.226074 230.000000
2781.045898 290.000000
2781.863770 192.000000
2782.682861 205.000000
2783.500732 317.000000
2784.318359 236.000000
2785.135498 267.000000
2785.952148 176.000000
2786.768555 307.000000
2787.584473 183.000000
2788.400146 275.000000
2789.214844 258.000000
2790.030029 260.000000
2790.844482 143.000000
2791.658447 243.000000
2792.472168 346.000000
2793.284668 232.000000
2794.097412 268.000000
2794.909668 195.000000
2795.721436 279.000000
2796.532471 151.000000
2797.344238 164.000000
2798.154785 195.000000
2798.965332 266.000000
2799.774414 235.000000
2800.584229 251.000000
2801.393311 228.000000
2802.202148 289.000000
2803.010498 228.000000
2803.817871 225.000000
2804.625732 179.000000
2805.432861 217.000000
2806.239746 181.000000
2807.045410 168.000000
2807.851563 262.000000
2808.656982 242.000000
2809.462402 198.000000
2810.267090 210.000000
2811.070801 201.000000
2811.875000 237.000000
2812.678711 292.000000
2813.482178 185.000000
2814.284180 257.000000
2815.086914 205.000000
2815.888916 182.000000
2816.690674 228.000000
2817.491943 221.000000
2818.292725 245.000000
2819.093018 190.000000
2819.893555 228.000000
2820.693115 216.000000
2821.492188 250.000000
2822.291260 275.000000
2823.090088 72.000000
2823.888428 119.000000
2824.685791 188.000000
2825.483398 213.000000
2826.280273 162.000000
2827.077393 300.000000
2827.873779 299.000000
2828.669434 260.000000
2829.465088 218.000000
2830.260498 233.000000
2831.055420 185.000000
2831.849609 259.000000
2832.643799 223.000000
2833.437744 200.000000
2834.231201 182.000000
2835.023926 274.000000
2835.816406 210.000000
2836.608887 166.000000
2837.401123 267.000000
2838.192871 183.000000
2838.983643 116.000000
2839.774414 137.000000
2840.565430 233.000000
2841.355469 310.000000
2842.145020 90.000000
2842.934814 205.000000
2843.723633 243.000000
2844.512451 134.000000
2845.301270 200.000000
2846.089111 157.000000
2846.876465 254.000000
2847.664063 211.000000
2848.451172 237.000000
2849.237549 184.000000
2850.023926 170.000000
2850.810059 184.000000
2851.595703 259.000000
2852.380371 173.000000
2853.165527 208.000000
2853.950439 197.000000
2854.734619 167.000000
2855.518799 118.000000
2856.301758 177.000000
2857.084961 168.000000
2857.867920 257.000000
2858.650391 155.000000
2859.432617 145.000000
2860.214355 218.000000
2860.995850 219.000000
2861.777588 183.000000
2862.558594 189.000000
2863.338867 210.000000
2864.118896 161.000000
2864.898926 189.000000
2865.678711 229.000000
2866.457520 255.000000
2867.236572 224.000000
2868.015137 110.000000
2868.793457 231.000000
2869.571289 158.000000
2870.348877 270.000000
2871.126221 172.000000
2871.903320 137.000000
2872.679932 138.000000
2873.456055 233.000000
2874.232178 280.000000
2875.007813 192.000000
2875.783203 166.000000
2876.558105 296.000000
2877.332764 219.000000
2878.107422 211.000000
2878.881836 227.000000
2879.655518 131.000000
2880.428467 148.000000
2881.202148 238.000000
2881.974854 234.000000
2882.747559 130.000000
2883.519531 145.000000
2884.291260 135.000000
2885.063477 253.000000
2885.834473 224.000000
2886.604980 305.000000
2887.375977 229.000000
2888.146973 269.000000
2888.917236 213.000000
2889.686523 169.000000
2890.456055 225.000000
2891.225586 242.000000
2891.994629 269.000000
2892.763184 230.000000
2893.531738 178.000000
2894.299316 143.000000
2895.067383 192.000000
2895.834961 198.000000
2896.602539 180.000000
2897.368896 219.000000
2898.136230 127.000000
2898.902344 99.000000
2899.668701 231.000000
2900.433594 199.000000
2901.198975 241.000000
2901.964844 219.000000
2902.729248 182.000000
2903.493652 154.000000
2904.258301 198.000000
2905.021973 246.000000
2905.786377 159.000000
2906.550049 139.000000
2907.312988 121.000000
2908.075684 148.000000
2908.838867 152.000000
2909.601563 190.000000
2910.363037 150.000000
2911.125000 150.000000
spectrumdark 2048
-97.105713 6176.000000
-94.478844 6176.000000
-91.853851 6067.000000
-89.230751 6408.000000
-86.609520 5759.000000
-83.990189 6209.000000
-81.372719 6084.000000
-78.757126 6395.000000
-76.143410 6177.000000
-73.531570 5899.000000
-70.921593 6106.000000
-68.313499 6021.000000
-65.707253 5854.000000
-63.102886 5990.000000
-60.500378 6090.000000
-57.899723 5597.000000
-55.300930 6246.000000
-52.703995 6905.000000
-50.108913 6460.000000
-47.515686 6496.000000
-44.924309 6251.000000
-42.334778 6705.000000
-39.747089 5870.000000
-37.161251 6036.000000
-34.577255 6461.000000
-31.995094 5687.000000
-29.414782 6371.000000
-26.836296 5717.000000
-24.259653 6156.000000
-21.684835 6251.000000
-19.111858 6423.000000
-16.540701 6487.000000
-13.971378 6735.000000
-11.403880 7689.000000
-8.838201 6243.000000
-6.274346 6474.000000
-3.712306 6019.000000
-1.152090 5842.000000
1.406318 6123.000000
3.962905 6906.000000
6.517687 6692.000000
9.070652 6058.000000
11.621817 6740.000000
14.171168 6527.000000
16.718725 6665.000000
19.264469 6048.000000
21.808420 5753.000000
24.350567 6612.000000
26.890917 6751.000000
29.429482 6779.000000
31.966249 6216.000000
34.501213 5767.000000
37.034401 7269.000000
39.565807 6319.000000
42.095421 7075.000000
44.623238 6537.000000
47.149296 7823.000000
49.673565 5671.000000
52.196064 6219.000000
54.716766 6735.000000
57.235714 6294.000000
59.752888 6415.000000
62.268284 6646.000000
64.781906 5634.000000
67.293770 5786.000000
69.803886 6549.000000
72.312210 6503.000000
74.818779 5941.000000
77.323601 6349.000000
79.826668 6449.000000
82.327957 6242.000000
84.827507 6119.000000
87.325302 6342.000000
89.821365 5750.000000
92.315651 7227.000000
94.808197 5825.000000
97.299026 6914.000000
99.788086 7217.000000
102.275398 6357.000000
104.760986 6210.000000
107.244835 6439.000000
109.726936 5725.000000
112.207314 6594.000000
114.685966 6255.000000
117.162895 6477.000000
119.638069 7195.000000
122.111534 6787.000000
124.583267 5928.000000
127.053291 6678.000000
129.521561 6242.000000
131.988159 6246.000000
134.453003 5738.000000
136.916153 6192.000000
139.377563 7296.000000
141.837280 6764.000000
144.295273 6361.000000
146.751572 5992.000000
149.206161 5793.000000
151.659027 6828.000000
154.110214 6344.000000
156.559708 6571.000000
159.007477 6065.000000
161.453537 6498.000000
163.897919 8717.000000
166.340622 6428.000000
168.781631 6722.000000
171.220932 6251.000000
173.658524 7189.000000
176.094482 6602.000000
178.528702 7025.000000
180.961243 7129.000000
183.392136 6690.000000
185.821304 6738.000000
188.248825 6684.000000
190.674667 6375.000000
193.098831 6703.000000
195.521332 7225.000000
197.942139 7364.000000
200.361282 6484.000000
202.778763 6046.000000
205.194550 7594.000000
207.608688 7067.000000
210.021194 6356.000000
212.432022 6017.000000
214.841171 6248.000000
217.248688 7368.000000
219.654495 6195.000000
222.058716 6529.000000
224.461227 6726.000000
226.862122 6844.000000
229.261368 6484.000000
231.658951 6774.000000
234.054871 7214.000000
236.449173 6581.000000
238.841812 5816.000000
241.232834 6788.000000
243.622192 6588.000000
246.009933 6397.000000
248.396027 6995.000000
250.780487 6072.000000
253.163300 7869.000000
255.544540 6621.000000
257.924072 6663.000000
260.302032 6518.000000
262.678314 7568.000000
265.053040 7526.000000
267.426117 7846.000000
269.797546 6127.000000
272.167328 6460.000000
274.535553 5909.000000
276.902130 6296.000000
279.267120 6728.000000
281.630493 6043.000000
283.992218 6221.000000
286.352356 7099.000000
288.710876 5876.000000
291.067810 6516.000000
293.423126 6422.000000
295.776855 5918.000000
298.128937 5895.000000
300.479462 6349.000000
302.828400 6377.000000
305.175690 6757.000000
307.521454 6417.000000
309.865540 6506.000000
312.208099 7311.000000
314.549042 7535.000000
316.888367 7178.000000
319.226135 6874.000000
321.562347 8080.000000
323.896912 6203.000000
326.229919 6447.000000
328.561371 5960.000000
330.891235 6612.000000
333.219513 6413.000000
335.546173 7167.000000
337.871338 6307.000000
340.194885 6217.000000
342.516876 5981.000000
344.837311 7467.000000
347.156128 7746.000000
349.473389 5974.000000
351.789124 5862.000000
354.103271 6951.000000
356.415833 6298.000000
358.726837 6424.000000
361.036316 6993.000000
363.344269 6320.000000
365.650604 5710.000000
367.955353 6452.000000
370.258636 6392.000000
372.560303 6230.000000
374.860474 6377.000000
377.159088 6265.000000
379.456146 5701.000000
381.751648 6041.000000
384.045624 5893.000000
386.338013 5238.000000
388.628906 5562.000000
390.918274 6187.000000
393.206055 6246.000000
395.492310 6546.000000
397.777069 7025.000000
400.060211 6040.000000
402.341919 6422.000000
404.622101 6124.000000
406.900696 7213.000000
409.177765 6455.000000
411.453308 6684.000000
413.727325 6428.000000
415.999908 6440.000000
418.270874 6242.000000
420.540344 6359.000000
422.808319 7085.000000
425.074738 7249.000000
427.339661 6300.000000
429.603119 6268.000000
431.864990 6431.000000
434.125397 6010.000000
436.384247 6562.000000
438.641632 6109.000000
440.897522 5688.000000
443.151917 5779.000000
445.404785 5468.000000
447.656097 6816.000000
449.906006 6050.000000
452.154327 6209.000000
454.401215 5666.000000
456.646637 6473.000000
458.890503 6468.000000
461.132874 6721.000000
463.373749 5703.000000
465.613220 6644.000000
467.851105 5438.000000
470.087555 5864.000000
472.322479 6087.000000
474.555939 7311.000000
476.787964 6680.000000
479.018463 5641.000000
481.247467 6485.000000
483.475006 6355.000000
485.701050 5934.000000
487.925659 6549.000000
490.148804 5898.000000
492.370483 6459.000000
494.590607 6643.000000
496.809326 5649.000000
499.026550 6239.000000
501.242401 5488.000000
503.456635 6166.000000
505.669556 6462.000000
507.880890 6482.000000
510.090790 6891.000000
512.299255 6468.000000
514.506348 6545.000000
516.711853 6433.000000
518.915955 6552.000000
521.118530 6242.000000
523.319702 6540.000000
525.519531 6631.000000
527.717834 6946.000000
529.914612 5328.000000
532.110046 5836.000000
534.303955 5592.000000
536.496521 7510.000000
538.687561 6708.000000
540.877197 5981.000000
543.065430 6932.000000
545.252136 7121.000000
547.437378 6769.000000
549.621338 6220.000000
551.803711 6363.000000
553.984741 6169.000000
556.164246 6027.000000
558.342468 5886.000000
560.519165 6028.000000
562.694458 6354.000000
564.868347 6358.000000
567.040771 5947.000000
569.211792 6032.000000
571.381348 6312.000000
573.549622 5280.000000
575.716370 6365.000000
577.881653 6323.000000
580.045532 6140.000000
582.208130 5708.000000
584.369202 5980.000000
586.528870 5643.000000
588.687195 5823.000000
590.843994 6125.000000
592.999451 6564.000000
595.153503 5685.000000
597.306213 6210.000000
599.457397 7210.000000
601.607239 6779.000000
603.755737 6609.000000
605.902649 6042.000000
608.048340 6501.000000
610.192627 6473.000000
612.335449 6671.000000
614.476807 6178.000000
616.616943 6440.000000
618.755554 7542.000000
620.892883 5694.000000
623.028748 6555.000000
625.163208 6869.000000
627.296204 7189.000000
629.428040 6681.000000
631.558411 6569.000000
633.687378 6770.000000
635.814880 6490.000000
637.941101 6278.000000
640.065796 7334.000000
642.189270 6382.000000
644.311401 6892.000000
646.432068 6833.000000
648.551392 6612.000000
650.669312 5697.000000
652.785889 5644.000000
654.901062 6436.000000
657.014893 6451.000000
659.127258 5697.000000
661.238403 6090.000000
663.348145 5421.000000
665.456421 6041.000000
667.563538 6271.000000
669.669189 6818.000000
671.773376 5668.000000
673.876343 5750.000000
675.977905 6938.000000
678.078125 5254.000000
680.176941 6656.000000
682.274414 6220.000000
684.370605 7036.000000
686.465332 6173.000000
688.558838 6957.000000
690.651001 6625.000000
692.741638 7896.000000
694.831055 6668.000000
696.919189 6466.000000
699.005859 5986.000000
701.091309 6695.000000
703.175232 5112.000000
705.257935 5937.000000
707.339355 5928.000000
709.419312 7584.000000
711.498047 6195.000000
713.575317 5605.000000
715.651306 6614.000000
717.726013 5969.000000
719.799438 6905.000000
721.871338 6235.000000
723.942078 7398.000000
726.011475 5736.000000
728.079468 6462.000000
730.146118 6359.000000
732.211548 7031.000000
734.275635 5769.000000
736.338379 6140.000000
738.399780 6509.000000
740.459900 6579.000000
742.518616 6022.000000
744.576111 6614.000000
746.632324 6436.000000
748.687134 6667.000000
750.740662 6319.000000
752.792786 7440.000000
754.843689 5772.000000
756.893372 6633.000000
758.941589 6299.000000
760.988586 6187.000000
763.034302 7029.000000
765.078613 5349.000000
767.121643 5766.000000
769.163452 14879.000000
771.203918 7159.000000
773.242981 6362.000000
775.280884 6082.000000
777.317444 6028.000000
779.352783 5379.000000
781.386780 5738.000000
783.419373 6892.000000
785.450806 5545.000000
787.480835 12005.000000
789.509583 5990.000000
791.537170 6225.000000
793.563416 6420.000000
795.588257 5859.000000
797.612000 5570.000000
799.634338 6400.000000
801.655457 5843.000000
803.675232 6669.000000
805.693726 4947.000000
807.710999 6745.000000
809.726868 6805.000000
811.741577 5723.000000
813.754944 6423.000000
815.767090 6215.000000
817.778015 6126.000000
819.787598 6595.000000
821.795959 5279.000000
823.802917 5711.000000
825.808655 6050.000000
827.813171 5728.000000
829.816406 5583.000000
831.818359 6471.000000
833.819031 6027.000000
835.818481 5937.000000
837.816589 6401.000000
839.813599 6950.000000
841.809204 6215.000000
843.803650 5974.000000
845.796753 6170.000000
847.788635 6802.000000
849.779175 5573.000000
851.768433 6766.000000
853.756653 5996.000000
855.743469 5665.000000
857.729065 6392.000000
859.713379 7214.000000
861.696594 6277.000000
863.678406 6340.000000
865.658997 5822.000000
867.638306 7708.000000
869.616455 7072.000000
871.593262 6138.000000
873.568787 5872.000000
875.543274 6165.000000
877.516296 5969.000000
879.488281 5436.000000
881.458923 6385.000000
883.428406 6077.000000
885.396545 5590.000000
887.363525 5227.000000
889.329163 6096.000000
891.293640 5810.000000
893.256897 5962.000000
895.218933 6529.000000
897.179688 5811.000000
899.139221 6372.000000
901.097473 6704.000000
903.054626 6300.000000
905.010620 6042.000000
906.965210 6851.000000
908.918579 6457.000000
910.870789 6428.000000
912.821777 6336.000000
914.771484 7112.000000
916.720032 6335.000000
918.667358 6091.000000
920.613403 6089.000000
922.558167 6056.000000
924.501892 6277.000000
926.444458 5955.000000
928.385742 5523.000000
930.325684 6491.000000
932.264526 5729.000000
934.202087 5418.000000
936.138428 5947.000000
938.073608 5826.000000
940.007507 6087.000000
941.940308 5866.000000
943.871887 6692.000000
945.802307 5215.000000
947.731506 6453.000000
949.659363 6975.000000
951.586182 6600.000000
953.511719 6008.000000
955.435974 5335.000000
957.359131 6038.000000
959.281128 6719.000000
961.201843 7264.000000
963.121399 6429.000000
965.039795 5271.000000
966.957153 6412.000000
968.873047 6399.000000
970.787842 6120.000000
972.701416 5990.000000
974.613831 6411.000000
976.525024 6400.000000
978.435059 5474.000000
980.343811 6229.000000
982.251526 6121.000000
984.158020 6398.000000
986.063293 5724.000000
987.967468 6801.000000
989.870422 6119.000000
991.772156 6819.000000
993.672729 6569.000000
995.572144 6525.000000
997.470337 5303.000000
999.367371 6734.000000
1001.263184 6438.000000
1003.157837 7719.000000
1005.051392 5531.000000
1006.943665 7086.000000
1008.835022 6044.000000
1010.725037 5373.000000
1012.613831 6638.000000
1014.501465 6283.000000
1016.387939 6877.000000
1018.273254 6749.000000
1020.157410 5914.000000
1022.040344 5805.000000
1023.922241 6254.000000
1025.802856 5131.000000
1027.682373 5847.000000
1029.560913 6084.000000
1031.438110 5394.000000
1033.313965 6164.000000
1035.188843 5938.000000
1037.062744 6598.000000
1038.935181 6964.000000
1040.806641 6696.000000
1042.676758 5516.000000
1044.545898 5484.000000
1046.413818 5781.000000
1048.280640 7125.000000
1050.146362 6700.000000
1052.010864 6429.000000
1053.874268 6456.000000
1055.736328 6411.000000
1057.597412 5927.000000
1059.457397 6509.000000
1061.316040 6615.000000
1063.173584 5817.000000
1065.030029 6759.000000
1066.885376 5898.000000
1068.739502 5783.000000
1070.592773 6242.000000
1072.444580 6342.000000
1074.295410 6071.000000
1076.145020 6125.000000
1077.993408 5719.000000
1079.840942 7916.000000
1081.687134 5592.000000
1083.532104 6230.000000
1085.376221 5415.000000
1087.218994 5507.000000
1089.060547 6553.000000
1090.901367 5480.000000
1092.740601 5745.000000
1094.579102 6055.000000
1096.416260 6043.000000
1098.252197 6735.000000
1100.087158 6636.000000
1101.920898 5399.000000
1103.753662 5515.000000
1105.585083 6126.000000
1107.415649 7147.000000
1109.244873 6537.000000
1111.073120 6526.000000
1112.900146 7090.000000
1114.726196 5421.000000
1116.551025 6355.000000
1118.374756 7091.000000
1120.197266 6093.000000
1122.018677 5857.000000
1123.839233 5875.000000
1125.658325 6614.000000
1127.476563 7018.000000
1129.293457 6822.000000
1131.109497 6614.000000
1132.924316 6410.000000
1134.738037 5600.000000
1136.550659 5801.000000
1138.362061 5644.000000
1140.172485 6124.000000
1141.981812 6725.000000
1143.789795 7004.000000
1145.597046 5923.000000
1147.402832 5821.000000
1149.207764 5320.000000
1151.011597 5362.000000
1152.814209 6189.000000
1154.615967 6082.000000
1156.416260 5787.000000
1158.215576 6064.000000
1160.013916 5872.000000
1161.810913 5411.000000
1163.607178 5840.000000
1165.402100 6086.000000
1167.195923 6317.000000
1168.988892 7764.000000
1170.780518 5759.000000
1172.571167 6488.000000
1174.360840 5969.000000
1176.149048 5874.000000
1177.936401 6989.000000
1179.722656 6714.000000
1181.507813 5732.000000
1183.291870 5946.000000
1185.074829 7637.000000
1186.856812 5902.000000
1188.637573 5877.000000
1190.417358 6297.000000
1192.196045 6932.000000
1193.973755 6698.000000
1195.750244 7156.000000
1197.525635 6610.000000
1199.299927 6543.000000
1201.073120 6740.000000
1202.845459 6621.000000
1204.616455 6776.000000
1206.386597 5700.000000
1208.155518 6066.000000
1209.923340 6325.000000
1211.690308 5774.000000
1213.455933 5929.000000
1215.220581 6953.000000
1216.984131 6517.000000
1218.746582 5975.000000
1220.508179 6656.000000
1222.268555 5907.000000
1224.027832 6302.000000
1225.786255 6047.000000
1227.543457 6982.000000
1229.299561 6460.000000
1231.054565 5566.000000
1232.808716 5980.000000
1234.561523 5890.000000
1236.313354 6029.000000
1238.064331 5925.000000
1239.813965 4925.000000
1241.562744 7012.000000
1243.310181 6401.000000
1245.056885 6598.000000
1246.802368 6366.000000
1248.546997 6442.000000
1250.290283 6737.000000
1252.032593 6659.000000
1253.773804 5348.000000
1255.514160 5048.000000
1257.253418 5761.000000
1258.991455 6566.000000
1260.728638 7086.000000
1262.464600 6061.000000
1264.199585 6441.000000
1265.933594 7238.000000
1267.666626 6020.000000
1269.398438 6209.000000
1271.129272 6387.000000
1272.858887 7199.000000
1274.587646 5880.000000
1276.315308 5664.000000
1278.041870 5510.000000
1279.767578 5566.000000
1281.491943 6422.000000
1283.215454 5192.000000
1284.937988 6821.000000
1286.659546 6592.000000
1288.379883 6113.000000
1290.099243 6648.000000
1291.817505 7221.000000
1293.534790 6439.000000
1295.251099 5784.000000
1296.966187 6354.000000
1298.680298 6120.000000
1300.393433 5750.000000
1302.105713 6459.000000
1303.816772 8293.000000
1305.526855 5676.000000
1307.235840 6277.000000
1308.943604 6676.000000
1310.650757 6995.000000
1312.356445 5763.000000
1314.061401 6856.000000
1315.765381 6211.000000
1317.468140 5968.000000
1319.169922 6535.000000
1320.870850 6010.000000
1322.570435 9677.000000
1324.269165 31150.000000
1325.967163 5549.000000
1327.663818 6379.000000
1329.359375 7085.000000
1331.054077 6855.000000
1332.747559 5668.000000
1334.440186 5379.000000
1336.131958 7043.000000
1337.822388 6267.000000
1339.512085 6566.000000
1341.200684 6048.000000
1342.888184 7610.000000
1344.574707 5638.000000
1346.260132 6802.000000
1347.944580 5957.000000
1349.628174 7192.000000
1351.310547 6365.000000
1352.991943 5833.000000
1354.672485 6492.000000
1356.351807 6694.000000
1358.030518 5825.000000
1359.707886 6499.000000
1361.384155 5750.000000
1363.059448 5524.000000
1364.734009 6621.000000
1366.407349 6399.000000
1368.079712 6786.000000
1369.751099 5109.000000
1371.421509 6657.000000
1373.090820 6162.000000
1374.759155 5718.000000
1376.426636 5957.000000
1378.093018 6342.000000
1379.758423 6014.000000
1381.422852 5812.000000
1383.086060 5913.000000
1384.748657 5695.000000
1386.409912 6325.000000
1388.070313 6548.000000
1389.729614 6453.000000
1391.387939 6542.000000
1393.045532 6902.000000
1394.701904 6475.000000
1396.357422 6969.000000
1398.011719 6327.000000
1399.665161 5849.000000
1401.317505 6097.000000
1402.969116 6442.000000
1404.619507 7170.000000
1406.268799 6271.000000
1407.917358 7438.000000
1409.564819 7819.000000
1411.211304 6185.000000
1412.856934 6196.000000
1414.501587 5966.000000
1416.145020 6952.000000
1417.787598 7126.000000
1419.429077 6759.000000
1421.069702 6501.000000
1422.709351 6445.000000
1424.347900 5997.000000
1425.985596 6601.000000
1427.622192 6291.000000
1429.257813 5918.000000
1430.892700 6355.000000
1432.526489 5834.000000
1434.159180 6099.000000
1435.790894 5671.000000
1437.421753 6080.000000
1439.051514 6051.000000
1440.680176 7713.000000
1442.308228 5998.000000
1443.935181 6114.000000
1445.560913 6156.000000
1447.186035 6142.000000
1448.810059 6515.000000
1450.433105 6008.000000
1452.055176 6052.000000
1453.676147 7340.000000
1455.296143 6253.000000
1456.915405 6903.000000
1458.533325 5697.000000
1460.150635 5621.000000
1461.766968 5545.000000
1463.382080 7183.000000
1464.996338 6287.000000
1466.609741 5183.000000
1468.222046 5583.000000
1469.833496 6238.000000
1471.444092 6335.000000
1473.053467 5998.000000
1474.661865 5974.000000
1476.269409 6147.000000
1477.875977 6633.000000
1479.481812 5286.000000
1481.086426 6309.000000
1482.690186 5556.000000
1484.292725 6863.000000
1485.894653 5534.000000
1487.495361 5509.000000
1489.095337 5639.000000
1490.694214 6229.000000
1492.292236 6426.000000
1493.889160 6652.000000
1495.485229 6327.000000
1497.080322 5906.000000
1498.674438 5482.000000
1500.267822 6505.000000
1501.860107 5496.000000
1503.451172 5978.000000
1505.041748 6749.000000
1506.630981 6516.000000
1508.219604 6178.000000
1509.807129 6484.000000
1511.393555 6856.000000
1512.979248 6167.000000
1514.563843 6577.000000
1516.147583 6200.000000
1517.730225 6269.000000
1519.312134 6560.000000
1520.892944 6626.000000
1522.473022 6018.000000
1524.051880 6236.000000
1525.629883 6351.000000
1527.207153 6272.000000
1528.783203 5620.000000
1530.358521 5845.000000
1531.932739 6285.000000
1533.506226 5439.000000
1535.078491 5977.000000
1536.650024 6352.000000
1538.220581 6434.000000
1539.790283 6291.000000
1541.358765 5415.000000
1542.926514 6519.000000
1544.493408 5637.000000
1546.059082 6776.000000
1547.624023 5890.000000
1549.187866 5010.000000
1550.751099 7387.000000
1552.312988 6310.000000
1553.874268 6008.000000
1555.434448 5668.000000
1556.993896 5732.000000
1558.552246 5863.000000
1560.109863 6225.000000
1561.666382 7009.000000
1563.221680 5880.000000
1564.776367 6301.000000
1566.330322 5586.000000
1567.883301 6291.000000
1569.434937 5631.000000
1570.985840 5860.000000
1572.536011 6179.000000
1574.085205 6353.000000
1575.633057 5763.000000
1577.180420 5518.000000
1578.726807 5701.000000
1580.272339 5099.000000
1581.816895 6618.000000
1583.360229 6335.000000
1584.902954 6608.000000
1586.444824 6451.000000
1587.985596 6666.000000
1589.525391 5808.000000
1591.064453 6738.000000
1592.602417 5897.000000
1594.139893 6131.000000
1595.676025 5897.000000
1597.211060 6665.000000
1598.745605 6205.000000
1600.279175 5967.000000
1601.811890 5890.000000
1603.343018 6287.000000
1604.873901 6378.000000
1606.403931 5734.000000
1607.932739 6107.000000
1609.460449 6113.000000
1610.987549 6026.000000
1612.513916 5861.000000
1614.039307 6229.000000
1615.563843 5791.000000
1617.087036 5743.000000
1618.609497 5657.000000
1620.131226 6566.000000
1621.652100 6875.000000
1623.171509 15602.000000
1624.690430 6142.000000
1626.208618 6110.000000
1627.725952 5893.000000
1629.242188 6419.000000
1630.757080 7016.000000
1632.271484 6693.000000
1633.785156 5749.000000
1635.297729 6694.000000
1636.809082 5919.000000
1638.320068 6441.000000
1639.829956 6211.000000
1641.338989 6199.000000
1642.846680 5648.000000
1644.354004 6102.000000
1645.860474 7075.000000
1647.365967 6242.000000
1648.870605 6823.000000
1650.373779 6157.000000
1651.876343 6528.000000
1653.378540 6299.000000
1654.879395 6609.000000
1656.379150 7490.000000
1657.878052 5946.000000
1659.376587 6453.000000
1660.873901 6207.000000
1662.370483 5895.000000
1663.865479 6440.000000
1665.360229 6313.000000
1666.854126 5215.000000
1668.347046 5631.000000
1669.838623 21183.000000
1671.329712 6441.000000
1672.820190 6122.000000
1674.309570 5939.000000
1675.797485 6955.000000
1677.285156 6830.000000
1678.771851 5971.000000
1680.257690 5360.000000
1681.742676 6075.000000
1683.226196 6287.000000
1684.709473 6169.000000
1686.191895 5831.000000
1687.673218 6205.000000
1689.153076 6198.000000
1690.632690 5427.000000
1692.111572 6531.000000
1693.589478 5995.000000
1695.066406 6066.000000
1696.542114 5717.000000
1698.017456 6175.000000
1699.491577 6314.000000
1700.965088 5478.000000
1702.437134 5521.000000
1703.908936 6890.000000
1705.379761 6438.000000
1706.849731 7081.000000
1708.318359 5120.000000
1709.786499 5807.000000
1711.253906 6453.000000
1712.720215 5484.000000
1714.185913 5706.000000
1715.649902 6201.000000
1717.113770 5919.000000
1718.576782 6954.000000
1720.038818 6401.000000
1721.499634 6577.000000
1722.959839 5450.000000
1724.419312 5639.000000
1725.877930 6072.000000
1727.335571 5930.000000
1728.791870 6199.000000
1730.247925 6044.000000
1731.703003 6427.000000
1733.157104 6005.000000
1734.609985 6872.000000
1736.062622 5910.000000
1737.514160 6632.000000
1738.964966 5966.000000
1740.414795 6559.000000
1741.863281 5857.000000
1743.311401 7328.000000
1744.758667 6492.000000
1746.205200 6613.000000
1747.650146 6718.000000
1749.094849 6191.000000
1750.538696 5992.000000
1751.981689 5468.000000
1753.423218 6551.000000
1754.864502 6301.000000
1756.304932 19322.000000
1757.744385 6257.000000
1759.182861 5292.000000
1760.620361 6050.000000
1762.057373 7530.000000
1763.493408 5857.000000
1764.928589 7202.000000
1766.362305 6137.000000
1767.795898 6465.000000
1769.228516 6660.000000
1770.660278 5874.000000
1772.091187 5744.000000
1773.520874 6307.000000
1774.949829 6047.000000
1776.378296 6252.000000
1777.805786 6649.000000
1779.231934 6204.000000
1780.657837 5563.000000
1782.082642 6851.000000
1783.506836 5573.000000
1784.929565 6583.000000
1786.351807 6540.000000
1787.773315 6898.000000
1789.194092 5835.000000
1790.613892 5902.000000
1792.032349 6139.000000
1793.450317 6885.000000
1794.867676 5513.000000
1796.284180 6022.000000
1797.699219 6504.000000
1799.113892 5815.000000
1800.527954 6523.000000
1801.940796 5978.000000
1803.353027 6929.000000
1804.763916 7056.000000
1806.174316 7811.000000
1807.583984 6542.000000
1808.992676 5968.000000
1810.400269 5395.000000
1811.807373 6473.000000
1813.213623 6330.000000
1814.618896 6676.000000
1816.023071 5949.000000
1817.426880 5994.000000
1818.829712 6230.000000
1820.231689 6021.000000
1821.633057 5865.000000
1823.032959 6315.000000
1824.432251 6377.000000
1825.831055 6556.000000
1827.229004 7423.000000
1828.625610 5711.000000
1830.021606 6702.000000
1831.416870 5854.000000
1832.811523 8128.000000
1834.205200 6022.000000
1835.597534 6790.000000
1836.989380 6393.000000
1838.380615 5860.000000
1839.770874 7065.000000
1841.159912 6017.000000
1842.548584 6089.000000
1843.936279 5930.000000
1845.323242 5793.000000
1846.708862 6895.000000
1848.094238 5915.000000
1849.478760 6314.000000
1850.862549 6333.000000
1852.245239 6378.000000
1853.626709 5423.000000
1855.007690 6491.000000
1856.388184 6324.000000
1857.767700 5711.000000
1859.145752 5909.000000
1860.523682 6259.000000
1861.900635 7891.000000
1863.276855 6093.000000
1864.652222 6014.000000
1866.026123 5618.000000
1867.399902 5662.000000
1868.772827 6231.000000
1870.144653 5999.000000
1871.515503 6972.000000
1872.885986 5488.000000
1874.255371 5977.000000
1875.624268 6078.000000
1876.991577 7090.000000
1878.358765 6008.000000
1879.724976 6008.000000
1881.090454 6726.000000
1882.455200 7428.000000
1883.818359 6785.000000
1885.181396 6876.000000
1886.543579 6281.000000
1887.904907 6417.000000
1889.264893 5660.000000
1890.624512 5758.000000
1891.983521 6157.000000
1893.341553 6666.000000
1894.698730 7290.000000
1896.054688 5921.000000
1897.410400 7616.000000
1898.765137 5843.000000
1900.119019 5560.000000
1901.471802 5909.000000
1902.824097 5995.000000
1904.175659 5908.000000
1905.526367 6890.000000
1906.875854 6480.000000
1908.224854 6634.000000
1909.572998 5787.000000
1910.920532 6113.000000
1912.267334 6229.000000
1913.612549 6740.000000
1914.957520 6088.000000
1916.301758 5438.000000
1917.645142 6538.000000
1918.987183 5967.000000
1920.328979 6628.000000
1921.669922 6952.000000
1923.010132 6132.000000
1924.349365 6269.000000
1925.687622 6202.000000
1927.025269 6469.000000
1928.362183 6948.000000
1929.698242 6676.000000
1931.033081 5602.000000
1932.367554 6748.000000
1933.701294 7223.000000
1935.034180 6248.000000
1936.365601 5740.000000
1937.697144 6384.000000
1939.027344 6553.000000
1940.357056 5779.000000
1941.685913 5977.000000
1943.013550 5837.000000
1944.340698 4993.000000
1945.667114 5819.000000
1946.992798 6430.000000
1948.317139 5758.000000
1949.641235 6666.000000
1950.964478 6371.000000
1952.286987 6422.000000
1953.608398 5797.000000
1954.928833 7356.000000
1956.248657 5977.000000
1957.568115 5519.000000
1958.886597 6821.000000
1960.203735 5875.000000
1961.520508 5860.000000
1962.836548 6598.000000
1964.151855 6550.000000
1965.465698 6295.000000
1966.779297 5630.000000
1968.092163 6201.000000
1969.404175 5976.000000
1970.715576 6081.000000
1972.025635 6307.000000
1973.335205 5880.000000
1974.644043 6091.000000
1975.952271 6597.000000
1977.259155 6022.000000
1978.565430 7147.000000
1979.871338 5588.000000
1981.176025 6307.000000
1982.480225 5874.000000
1983.783203 5668.000000
1985.085815 7554.000000
1986.387451 6152.000000
1987.688477 6759.000000
1988.987915 6020.000000
1990.287476 6536.000000
1991.585938 5293.000000
1992.883911 6000.000000
1994.180298 6079.000000
1995.476685 5824.000000
1996.772095 5629.000000
1998.066772 6627.000000
1999.360596 5665.000000
2000.653198 6519.000000
2001.945313 5708.000000
2003.236938 7095.000000
2004.527832 6383.000000
2005.817139 6307.000000
2007.106201 6755.000000
2008.394531 5985.000000
2009.682129 6022.000000
2010.968872 6607.000000
2012.254517 5650.000000
2013.539795 6378.000000
2014.824097 6014.000000
2016.107788 5561.000000
2017.390137 6043.000000
2018.672119 6429.000000
2019.953613 6757.000000
2021.234131 5892.000000
2022.513916 6102.000000
2023.792603 6791.000000
2025.070557 5831.000000
2026.348022 5826.000000
2027.624878 6244.000000
2028.900024 5769.000000
2030.175293 6574.000000
2031.449585 6094.000000
2032.722900 5893.000000
2033.995361 5945.000000
2035.267456 6062.000000
2036.538452 6893.000000
2037.809204 6593.000000
2039.078613 5922.000000
2040.346924 6659.000000
2041.615234 6616.000000
2042.882568 5918.000000
2044.149170 5958.000000
2045.414551 5633.000000
2046.679321 5483.000000
2047.943848 5416.000000
2049.207031 5861.000000
2050.469971 6441.000000
2051.730957 6130.000000
2052.992432 6114.000000
2054.252686 5860.000000
2055.512207 6378.000000
2056.770996 6222.000000
2058.028809 6877.000000
2059.286133 6165.000000
2060.542725 5968.000000
2061.797852 6496.000000
2063.052979 5596.000000
2064.307129 5578.000000
2065.560547 5650.000000
2066.813232 6777.000000
2068.064697 6260.000000
2069.315918 6364.000000
2070.566406 5600.000000
2071.816162 5476.000000
2073.064453 6495.000000
2074.312744 6529.000000
2075.560059 7501.000000
2076.806641 5601.000000
2078.052490 6061.000000
2079.297119 6902.000000
2080.541260 7595.000000
2081.784912 5479.000000
2083.027588 5975.000000
2084.269043 6942.000000
2085.510254 5976.000000
2086.750977 6302.000000
2087.990723 6791.000000
2089.229248 7010.000000
2090.467285 6164.000000
2091.704590 5760.000000
2092.941650 6669.000000
2094.177246 5999.000000
2095.412109 6177.000000
2096.646729 6060.000000
2097.880371 5685.000000
2099.113037 6054.000000
2100.344971 6847.000000
2101.576416 6402.000000
2102.806885 6797.000000
2104.036621 6035.000000
2105.266113 5960.000000
2106.493652 6007.000000
2107.721436 5981.000000
2108.948486 6254.000000
2110.174561 5534.000000
2111.399170 6357.000000
2112.624023 6954.000000
2113.847656 7046.000000
2115.070801 6204.000000
2116.292725 7541.000000
2117.514404 5971.000000
2118.735107 6824.000000
2119.955078 6000.000000
2121.174561 6092.000000
2122.392578 6575.000000
2123.610596 7026.000000
2124.827637 5744.000000
2126.044189 5789.000000
2127.259033 6529.000000
2128.474121 6370.000000
2129.688232 6832.000000
2130.901611 5689.000000
2132.114258 6095.000000
2133.325439 5766.000000
2134.536865 6549.000000
2135.747070 6828.000000
2136.956787 5878.000000
2138.165039 6143.000000
2139.373291 5629.000000
2140.580811 5891.000000
2141.787109 7637.000000
2142.992676 5956.000000
2144.197998 5650.000000
2145.402344 5338.000000
2146.605957 6314.000000
2147.809082 6226.000000
2149.010742 6561.000000
2150.212158 5237.000000
2151.412842 6293.000000
2152.612793 5945.000000
2153.811523 5964.000000
2155.010010 7018.000000
2156.208008 6167.000000
2157.405029 6030.000000
2158.601318 5147.000000
2159.796387 5300.000000
2160.991211 6100.000000
2162.185303 5555.000000
2163.378418 6037.000000
2164.570557 6882.000000
2165.762451 5876.000000
2166.953613 6336.000000
2168.143799 6298.000000
2169.333252 6486.000000
2170.522217 6776.000000
2171.710205 5948.000000
2172.897949 5721.000000
2174.084229 5881.000000
2175.269775 6521.000000
2176.455078 5956.000000
2177.639893 5800.000000
2178.823486 6299.000000
2180.006348 7478.000000
2181.188232 6258.000000
2182.369873 6097.000000
2183.551025 6545.000000
2184.730957 5747.000000
2185.909912 5573.000000
2187.088379 6352.000000
2188.266602 6871.000000
2189.443604 7150.000000
2190.619629 6647.000000
2191.795410 6111.000000
2192.970703 5648.000000
2194.144531 6626.000000
2195.317871 6120.000000
2196.490967 6191.000000
2197.662842 6387.000000
2198.834229 7065.000000
2200.005127 6348.000000
2201.174316 6852.000000
2202.343506 7543.000000
2203.512207 6302.000000
2204.679932 5850.000000
2205.846680 5624.000000
2207.012695 7141.000000
2208.178223 6702.000000
2209.343506 5949.000000
2210.507324 6736.000000
2211.670654 5360.000000
2212.832764 6171.000000
2213.995117 6172.000000
2215.156250 6630.000000
2216.316406 6620.000000
2217.476074 6232.000000
2218.635498 6515.000000
2219.793701 6380.000000
2220.950928 6288.000000
2222.107910 6740.000000
2223.264160 6545.000000
2224.419678 6715.000000
2225.574463 6268.000000
2226.728271 6389.000000
2227.881104 5977.000000
2229.034424 6855.000000
2230.185791 6182.000000
2231.336914 6189.000000
2232.487305 6526.000000
2233.637207 7663.000000
2234.786133 6274.000000
2235.934570 5212.000000
2237.081543 6682.000000
2238.228760 6988.000000
2239.374756 6091.000000
2240.520508 7225.000000
2241.664551 7284.000000
2242.808838 6696.000000
2243.952148 6132.000000
2245.094727 5959.000000
2246.236328 5763.000000
2247.377686 5808.000000
2248.518066 6388.000000
2249.657715 6348.000000
2250.796875 5851.000000
2251.934814 5838.000000
2253.072754 6228.000000
2254.209717 5312.000000
2255.345947 6312.000000
2256.481201 6134.000000
2257.615723 7284.000000
2258.750000 6353.000000
2259.883789 5412.000000
2261.016113 6201.000000
2262.147949 6741.000000
2263.279297 6245.000000
2264.409668 6506.000000
2265.539795 8120.000000
2266.668701 6594.000000
2267.797119 6042.000000
2268.925049 5478.000000
2270.052002 6153.000000
2271.178223 5913.000000
2272.303467 6745.000000
2273.428711 6529.000000
2274.553223 6389.000000
2275.676514 5894.000000
2276.799072 6330.000000
2277.921143 5954.000000
2279.042725 7378.000000
2280.163574 6307.000000
2281.283203 6433.000000
2282.402344 7125.000000
2283.521240 7628.000000
2284.639404 7172.000000
2285.756592 5854.000000
2286.872803 6450.000000
2287.988770 7027.000000
2289.104004 6836.000000
2290.218506 7364.000000
2291.331787 5789.000000
2292.445068 6385.000000
2293.557617 6039.000000
2294.669434 5336.000000
2295.780518 6728.000000
2296.890381 6410.000000
2297.999756 6146.000000
2299.108887 6666.000000
2300.217041 6304.000000
2301.324219 6716.000000
2302.431152 5948.000000
2303.537354 6249.000000
2304.643066 6589.000000
2305.747314 6513.000000
2306.851318 5472.000000
2307.954834 5765.000000
2309.057861 6535.000000
2310.159668 7426.000000
2311.260742 7330.000000
2312.361328 6636.000000
2313.461426 5503.000000
2314.560791 6375.000000
2315.658691 6552.000000
2316.757080 7000.000000
2317.854004 8184.000000
2318.950684 6846.000000
2320.046875 5762.000000
2321.141357 6836.000000
2322.235840 7601.000000
2323.329590 5805.000000
2324.423096 6073.000000
2325.514893 6420.000000
2326.606689 6848.000000
2327.697754 6102.000000
2328.788086 6227.000000
2329.877441 6827.000000
2330.966797 6020.000000
2332.054932 6369.000000
2333.142578 6813.000000
2334.229980 6427.000000
2335.315674 6707.000000
2336.401123 7741.000000
2337.486328 6262.000000
2338.570557 6738.000000
2339.653809 5946.000000
2340.736816 6422.000000
2341.818848 7122.000000
2342.900635 5989.000000
2343.981689 7393.000000
2345.061523 6649.000000
2346.140869 5708.000000
2347.219727 6792.000000
2348.298096 6502.000000
2349.375000 6270.000000
2350.451660 6878.000000
2351.528076 6052.000000
2352.603516 6501.000000
2353.677979 5953.000000
2354.752197 6321.000000
2355.825684 6733.000000
2356.898682 6161.000000
2357.970459 6994.000000
2359.041992 6259.000000
2360.112549 6763.000000
2361.182861 7458.000000
2362.252197 7507.000000
2363.320557 6829.000000
2364.388672 6759.000000
2365.456055 7066.000000
2366.522949 7076.000000
2367.589111 6130.000000
2368.654053 6775.000000
2369.718994 6974.000000
2370.783203 6380.000000
2371.846680 6945.000000
2372.908936 5769.000000
2373.971191 6331.000000
2375.032471 6380.000000
2376.093506 5908.000000
2377.153320 6342.000000
2378.212402 7863.000000
2379.271484 6422.000000
2380.329590 7464.000000
2381.386963 6853.000000
2382.443359 8044.000000
2383.499512 7762.000000
2384.555176 6180.000000
2385.610107 6972.000000
2386.663574 6782.000000
2387.717285 6541.000000
2388.770020 6248.000000
2389.822266 6724.000000
2390.873779 6117.000000
2391.924316 6621.000000
2392.974609 6495.000000
2394.023926 6176.000000
2395.073242 6189.000000
2396.121094 6862.000000
2397.168457 6931.000000
2398.215576 6315.000000
2399.261719 6664.000000
2400.307129 6143.000000
2401.351807 6740.000000
2402.396484 7731.000000
2403.439697 7454.000000
2404.482910 6524.000000
2405.524658 5698.000000
2406.566650 6665.000000
2407.607910 7106.000000
2408.648193 6089.000000
2409.687744 6416.000000
2410.726318 6305.000000
2411.765137 5874.000000
2412.802734 6449.000000
2413.840088 6863.000000
2414.876221 7301.000000
2415.912109 6242.000000
2416.947266 6285.000000
2417.981934 6627.000000
2419.015137 7234.000000
2420.048584 6494.000000
2421.081055 6625.000000
2422.113281 6839.000000
2423.144043 6998.000000
2424.174805 6373.000000
2425.205078 6784.000000
2426.234131 6798.000000
2427.263184 6614.000000
2428.290527 7376.000000
2429.318359 6679.000000
2430.344971 7265.000000
2431.371338 6949.000000
2432.396240 7689.000000
2433.421387 6556.000000
2434.445557 7043.000000
2435.469482 6678.000000
2436.492188 5794.000000
2437.514160 6262.000000
2438.535889 6640.000000
2439.556885 6682.000000
2440.577393 6004.000000
2441.596680 6545.000000
2442.615967 6552.000000
2443.634277 8388.000000
2444.652344 6232.000000
2445.668945 6473.000000
2446.685547 6534.000000
2447.701416 5984.000000
2448.717285 6992.000000
2449.731689 6816.000000
2450.745361 5595.000000
2451.758545 7217.000000
2452.771484 6021.000000
2453.783691 7164.000000
2454.794922 6665.000000
2455.805908 7647.000000
2456.816162 6382.000000
2457.825928 7563.000000
2458.834717 5920.000000
2459.842773 5954.000000
2460.850830 6318.000000
2461.857666 7301.000000
2462.864258 5463.000000
2463.869629 7637.000000
2464.874756 6896.000000
2465.879639 5888.000000
2466.883301 6539.000000
2467.886719 6403.000000
2468.889160 7583.000000
2469.891357 7320.000000
2470.893066 6841.000000
2471.893799 6574.000000
2472.893555 6815.000000
2473.893311 6690.000000
2474.892090 5689.000000
2475.890381 6615.000000
2476.887695 7048.000000
2477.884766 6115.000000
2478.881836 6916.000000
2479.877441 5782.000000
2480.873047 7127.000000
2481.866943 6749.000000
2482.860840 8106.000000
2483.854248 6832.000000
2484.847168 6728.000000
2485.839111 7395.000000
2486.830322 7270.000000
2487.821289 6768.000000
2488.811768 5885.000000
2489.801270 6561.000000
2490.790039 6479.000000
2491.778809 5673.000000
2492.766602 6773.000000
2493.753174 6587.000000
2494.739746 7866.000000
2495.725830 6671.000000
2496.711182 7146.000000
2497.695557 8334.000000
2498.679688 6010.000000
2499.663818 6896.000000
2500.646484 5794.000000
2501.628662 6981.000000
2502.610352 6832.000000
2503.591309 7257.000000
2504.571777 6516.000000
2505.552002 5736.000000
2506.530762 6291.000000
2507.509277 7593.000000
2508.487305 6739.000000
2509.464844 7052.000000
2510.441406 6061.000000
2511.417725 5946.000000
2512.393311 6427.000000
2513.368408 6259.000000
2514.343018 6452.000000
2515.316406 7527.000000
2516.289551 6781.000000
2517.262451 6818.000000
2518.234375 6139.000000
2519.205566 6852.000000
2520.176270 6746.000000
2521.146729 7738.000000
2522.116455 8065.000000
2523.085205 6067.000000
2524.053223 6093.000000
2525.021240 7796.000000
2525.988281 6281.000000
2526.955078 5506.000000
2527.920654 7218.000000
2528.886230 6934.000000
2529.851074 7725.000000
2530.815430 6306.000000
2531.778564 6344.000000
2532.741943 5869.000000
2533.704346 5981.000000
2534.666504 6642.000000
2535.627441 6336.000000
2536.587646 6113.000000
2537.548096 6154.000000
2538.507568 6783.000000
2539.466309 6769.000000
2540.424072 6712.000000
2541.382080 6230.000000
2542.339355 6761.000000
2543.295654 6087.000000
2544.251709 7011.000000
2545.206543 6244.000000
2546.161621 7661.000000
2547.115967 6995.000000
2548.069580 6530.000000
2549.022217 7206.000000
2549.974609 6729.000000
2550.926514 6971.000000
2551.877686 6399.000000
2552.828125 7660.000000
2553.778076 7285.000000
2554.727783 7342.000000
2555.676758 6599.000000
2556.625244 6279.000000
2557.572510 7112.000000
2558.519775 6290.000000
2559.466309 6544.000000
2560.412354 6730.000000
2561.357422 7391.000000
2562.302246 6672.000000
2563.246582 7180.000000
2564.190430 6880.000000
2565.133789 6629.000000
2566.075684 6594.000000
2567.017822 6624.000000
2567.959229 6177.000000
2568.899902 7197.000000
2569.839844 7258.000000
2570.779785 5749.000000
2571.718750 6136.000000
2572.657471 7503.000000
2573.595215 7143.000000
2574.532715 5520.000000
2575.469482 6955.000000
2576.405518 6760.000000
2577.341064 7470.000000
2578.275879 6386.000000
2579.210693 5944.000000
2580.144531 7010.000000
2581.077881 7257.000000
2582.010498 5877.000000
2582.942871 6997.000000
2583.874512 5472.000000
2584.805664 7093.000000
2585.736328 7082.000000
2586.665771 6871.000000
2587.595215 7150.000000
2588.524170 6444.000000
2589.452881 7342.000000
2590.379883 7213.000000
2591.307129 5850.000000
2592.233887 6728.000000
2593.159912 6284.000000
2594.085693 5584.000000
2595.010254 7627.000000
2595.934570 7584.000000
2596.858398 5408.000000
2597.781738 7228.000000
2598.704102 6244.000000
2599.626221 6815.000000
2600.547852 8357.000000
2601.468750 6357.000000
2602.388916 5892.000000
2603.308838 6344.000000
2604.228271 6403.000000
2605.147461 6454.000000
2606.065674 5806.000000
2606.982666 5948.000000
2607.899902 7248.000000
2608.816895 5879.000000
2609.732910 7584.000000
2610.647705 6577.000000
2611.562988 6652.000000
2612.477539 6549.000000
2613.391113 6563.000000
2614.304688 6105.000000
2615.217041 7670.000000
2616.129395 7064.000000
2617.040771 6818.000000
2617.951904 5670.000000
2618.862305 7235.000000
2619.772461 6641.000000
2620.681885 6133.000000
2621.590820 6632.000000
2622.498779 6225.000000
2623.406982 6819.000000
2624.314209 6690.000000
2625.220947 7102.000000
2626.126953 6224.000000
2627.032715 6574.000000
2627.937744 6459.000000
2628.842529 7769.000000
2629.746582 6477.000000
2630.649658 6388.000000
2631.552734 6393.000000
2632.454834 5650.000000
2633.356934 6802.000000
2634.258789 7006.000000
2635.158936 6752.000000
2636.059326 6390.000000
2636.958984 6556.000000
2637.858398 6073.000000
2638.756348 6849.000000
2639.654785 6629.000000
2640.552734 6384.000000
2641.449951 6081.000000
2642.345947 6199.000000
2643.241943 6902.000000
2644.137695 6094.000000
2645.032715 6381.000000
2645.927490 6682.000000
2646.820801 7031.000000
2647.714111 6304.000000
2648.607178 6713.000000
2649.500000 6478.000000
2650.391113 7392.000000
2651.282471 6359.000000
2652.173340 7616.000000
2653.063477 7275.000000
2653.953369 6553.000000
2654.842041 7273.000000
2655.730957 6654.000000
2656.619385 6556.000000
2657.506836 7278.000000
2658.393311 6511.000000
2659.280273 7059.000000
2660.166504 6884.000000
2661.052246 6761.000000
2661.936768 6489.000000
2662.821289 6367.000000
2663.705566 6227.000000
2664.589111 7025.000000
2665.472168 7770.000000
2666.354492 7266.000000
2667.236328 6227.000000
2668.117432 6571.000000
2668.998779 6050.000000
2669.878662 6504.000000
2670.758789 7309.000000
2671.638184 7163.000000
2672.517578 6171.000000
2673.396240 6157.000000
2674.273193 6364.000000
2675.150879 6771.000000
2676.027832 6355.000000
2676.904053 8070.000000
2677.779785 7242.000000
2678.654785 6304.000000
2679.530029 7735.000000
2680.404297 6962.000000
2681.278076 7320.000000
2682.151123 6992.000000
2683.023926 6200.000000
2683.896484 6074.000000
2684.768311 6956.000000
2685.639404 6516.000000
2686.510254 6940.000000
2687.380615 7085.000000
2688.250732 6741.000000
2689.119141 6300.000000
2689.988281 7405.000000
2690.856689 7060.000000
2691.724854 6723.000000
2692.592285 6979.000000
2693.458496 5856.000000
2694.325195 7203.000000
2695.190918 7349.000000
2696.056641 7187.000000
2696.920898 8007.000000
2697.785889 6569.000000
2698.649414 7290.000000
2699.513184 5854.000000
2700.375488 7446.000000
2701.238281 6750.000000
2702.100098 5915.000000
2702.961426 6813.000000
2703.822754 6729.000000
2704.682861 7464.000000
2705.542969 7296.000000
2706.402588 6570.000000
2707.261963 6839.000000
2708.119629 7199.000000
2708.977539 6864.000000
2709.835938 7361.000000
2710.693115 6740.000000
2711.549561 5998.000000
2712.405518 6846.000000
2713.261475 6064.000000
2714.116699 6858.000000
2714.971191 6153.000000
2715.825195 6812.000000
2716.679199 7304.000000
2717.532227 6285.000000
2718.385498 6412.000000
2719.237061 7746.000000
2720.089111 6760.000000
2720.940918 6237.000000
2721.791504 6459.000000
2722.642090 6477.000000
2723.492188 7105.000000
2724.341553 6977.000000
2725.190918 7019.000000
2726.039063 6666.000000
2726.886719 6578.000000
2727.734863 7030.000000
2728.581787 6818.000000
2729.429199 5658.000000
2730.275146 7457.000000
2731.120361 7000.000000
2731.966064 6425.000000
2732.810791 6964.000000
2733.655518 7349.000000
2734.499023 6838.000000
2735.342773 7797.000000
2736.185791 7127.000000
2737.028320 6061.000000
2737.869873 6282.000000
2738.711914 6801.000000
2739.552979 6922.000000
2740.393799 5763.000000
2741.234375 5914.000000
2742.073730 7740.000000
2742.913086 6815.000000
2743.752441 6892.000000
2744.590576 6830.000000
2745.428223 7809.000000
2746.265869 6324.000000
2747.103027 7107.000000
2747.939941 6232.000000
2748.776367 6021.000000
2749.611572 6554.000000
2750.447021 6257.000000
2751.281982 6287.000000
2752.116211 6197.000000
2752.950195 6835.000000
2753.783691 6784.000000
2754.617188 8003.000000
2755.449707 6810.000000
2756.281738 7274.000000
2757.113281 6807.000000
2757.944824 7152.000000
2758.775391 7131.000000
2759.606201 7313.000000
2760.435791 7285.000000
2761.265381 6691.000000
2762.094727 7200.000000
2762.923340 6782.000000
2763.751465 6815.000000
2764.579102 6971.000000
2765.406738 6703.000000
2766.233887 7917.000000
2767.060303 5816.000000
2767.886230 7479.000000
2768.711670 6870.000000
2769.536865 7774.000000
2770.362061 7182.000000
2771.186035 6716.000000
2772.010010 6470.000000
2772.833984 7652.000000
2773.656738 6404.000000
2774.479736 6945.000000
2775.301514 6928.000000
2776.123291 6905.000000
2776.945068 6544.000000
2777.765869 7988.000000
2778.585938 6642.000000
2779.406250 7008.000000
2780.226074 7274.000000
2781.045898 6452.000000
2781.863770 6040.000000
2782.682861 8069.000000
2783.500732 6437.000000
2784.318359 6784.000000
2785.135498 7149.000000
2785.952148 7361.000000
2786.768555 7174.000000
2787.584473 6318.000000
2788.400146 5993.000000
2789.214844 6391.000000
2790.030029 6983.000000
2790.844482 7240.000000
2791.658447 6584.000000
2792.472168 7374.000000
2793.284668 8755.000000
2794.097412 6951.000000
2794.909668 7524.000000
2795.721436 7204.000000
2796.532471 7437.000000
2797.344238 6563.000000
2798.154785 7239.000000
2798.965332 7028.000000
2799.774414 7368.000000
2800.584229 8270.000000
2801.393311 7835.000000
2802.202148 6659.000000
2803.010498 7188.000000
2803.817871 6153.000000
2804.625732 6496.000000
2805.432861 6750.000000
2806.239746 6871.000000
2807.045410 7145.000000
2807.851563 6591.000000
2808.656982 6457.000000
2809.462402 7297.000000
2810.267090 6239.000000
2811.070801 7654.000000
2811.875000 7454.000000
2812.678711 6302.000000
2813.482178 6142.000000
2814.284180 6266.000000
2815.086914 7361.000000
2815.888916 7821.000000
2816.690674 6200.000000
2817.491943 6561.000000
2818.292725 7249.000000
2819.093018 6535.000000
2819.893555 6682.000000
2820.693115 8044.000000
2821.492188 7151.000000
2822.291260 6446.000000
2823.090088 7015.000000
2823.888428 6401.000000
2824.685791 7093.000000
2825.483398 7014.000000
2826.280273 6721.000000
2827.077393 7335.000000
2827.873779 7954.000000
2828.669434 6983.000000
2829.465088 7317.000000
2830.260498 7514.000000
2831.055420 7450.000000
2831.849609 6612.000000
2832.643799 6895.000000
2833.437744 5743.000000
2834.231201 6853.000000
2835.023926 7125.000000
2835.816406 8117.000000
2836.608887 7674.000000
2837.401123 7439.000000
2838.192871 6471.000000
2838.983643 6846.000000
2839.774414 8882.000000
2840.565430 7480.000000
2841.355469 6194.000000
2842.145020 7703.000000
2842.934814 7144.000000
2843.723633 7332.000000
2844.512451 7837.000000
2845.301270 7741.000000
2846.089111 7546.000000
2846.876465 7177.000000
2847.664063 7532.000000
2848.451172 7382.000000
2849.237549 6695.000000
2850.023926 7469.000000
2850.810059 7211.000000
2851.595703 7536.000000
2852.380371 7141.000000
2853.165527 6891.000000
2853.950439 7450.000000
2854.734619 7135.000000
2855.518799 6973.000000
2856.301758 8259.000000
2857.084961 6831.000000
2857.867920 6721.000000
2858.650391 7814.000000
2859.432617 6274.000000
2860.214355 6658.000000
2860.995850 7603.000000
2861.777588 7474.000000
2862.558594 7601.000000
2863.338867 6608.000000
2864.118896 6736.000000
2864.898926 8187.000000
2865.678711 7421.000000
2866.457520 8102.000000
2867.236572 7652.000000
2868.015137 6836.000000
2868.793457 6966.000000
2869.571289 7202.000000
2870.348877 6896.000000
2871.126221 7509.000000
2871.903320 6984.000000
2872.679932 6476.000000
2873.456055 7484.000000
2874.232178 7116.000000
2875.007813 8266.000000
2875.783203 7212.000000
2876.558105 6556.000000
2877.332764 8012.000000
2878.107422 6653.000000
2878.881836 7769.000000
2879.655518 6745.000000
2880.428467 7169.000000
2881.202148 6732.000000
2881.974854 7615.000000
2882.747559 7858.000000
2883.519531 8199.000000
2884.291260 6271.000000
2885.063477 6708.000000
2885.834473 6842.000000
2886.604980 6096.000000
2887.375977 8307.000000
2888.146973 7327.000000
2888.917236 7961.000000
2889.686523 7668.000000
2890.456055 6961.000000
2891.225586 7186.000000
2891.994629 7259.000000
2892.763184 7834.000000
2893.531738 7901.000000
2894.299316 6998.000000
2895.067383 6649.000000
2895.834961 7390.000000
2896.602539 8321.000000
2897.368896 7307.000000
2898.136230 6548.000000
2898.902344 7263.000000
2899.668701 6921.000000
2900.433594 8283.000000
2901.198975 6995.000000
2901.964844 6428.000000
2902.729248 7691.000000
2903.493652 7735.000000
2904.258301 8419.000000
2905.021973 6578.000000
2905.786377 8440.000000
2906.550049 6755.000000
2907.312988 8398.000000
2908.075684 6486.000000
2908.838867 8948.000000
2909.601563 7004.000000
2910.363037 6783.000000
2911.125000 6783.000000
