scanname Analyse081
timestamp 2017-02-10 21:59:29
ccdbias 953.424316
ccdgain 3.473401
sigmaread 8.960639
laserwavenum -0.572871
wavenumcorrection -0.049907
scancount 1
totalexposurems 10000
singleexposurems 10000
measurementstate Unknown
scanmode Manual
snr 293.469666 9.872116 8.314046
replacelist 5
672 51271.000000 30626.000000
754 48258.000000 14631.000000
858 41972.000000 15618.000000
889 39140.000000 21553.000000
948 35749.000000 19584.000000
peaks 61
278.502563 0.719798 0.000000 1.411875 0.000183
284.870911 0.719759 0.000000 0.845480 0.000063
293.092529 0.721628 0.000000 0.696034 0.000031
330.167938 0.741066 0.000000 0.954553 0.000152
342.429047 0.744030 0.000000 0.786305 0.000035
349.454926 0.747340 0.000000 0.689043 0.000025
360.646515 0.750802 0.000000 0.705265 0.000062
385.882751 0.750035 0.000000 1.172458 0.000275
458.631561 0.764350 0.000000 0.257463 0.000041
487.281342 0.779762 0.000000 0.837249 0.000108
534.870178 0.781758 0.000000 0.606363 0.000143
559.426941 0.822769 0.000000 1.411960 0.000242
571.588806 0.829650 0.000000 0.638260 0.000157
582.970581 0.822073 0.000000 0.677168 0.000107
661.004639 0.855225 0.000000 0.979539 0.000215
673.508667 0.851739 0.000000 1.428021 0.000275
715.774841 0.871475 0.000000 5.506966 0.001159
724.473877 0.853427 0.000000 1.245542 0.000053
742.875488 0.878350 0.000000 1.083275 0.000118
757.157532 0.902736 0.000000 5.981995 0.000686
779.205017 0.905534 0.000000 8.459509 0.001321
832.172607 0.903791 0.000000 0.442395 0.000169
843.720154 0.910419 0.000000 1.075949 0.000054
853.202026 0.935177 0.000000 1.093318 0.000284
868.611816 0.930908 0.000000 0.775690 0.000157
936.212036 1.004040 0.000000 0.748175 0.000414
954.285400 0.983052 0.000000 3.524309 0.001072
1013.623535 1.024009 0.000000 2.030180 0.000779
1020.099060 1.025683 0.000000 1.025985 0.000156
1027.186401 1.037118 0.000000 0.588668 0.000252
1044.310547 1.033934 0.000000 4.073244 0.001337
1104.187012 1.050577 0.000000 2.416102 0.000656
1117.748291 1.089008 0.000000 2.272400 0.000652
1134.526733 1.066334 0.000000 2.021311 0.000881
1150.239868 1.048298 0.000000 2.351394 0.000963
1174.367065 1.073013 0.000000 1.360679 0.000469
1185.716797 1.076685 0.000000 0.651305 0.000078
1211.070068 1.143914 0.000000 0.909434 0.000268
1222.722778 1.155929 0.000000 1.565107 0.000576
1232.428833 1.139436 0.000000 1.153046 0.000318
1260.017212 1.172581 0.000000 2.822953 0.001333
1281.145874 1.120796 0.000000 0.412877 0.000482
1313.630981 1.172229 0.000000 2.194860 0.001188
1328.167969 1.207570 0.000000 2.366585 0.001304
1347.856689 1.225212 0.000000 0.638817 0.000660
1386.625366 1.186153 0.000000 0.390381 0.000327
1414.842163 1.214954 0.000000 1.481893 0.000703
1428.534058 1.232831 0.000000 0.864283 0.000130
1434.646484 1.253499 0.000000 0.814045 0.000239
1446.983643 1.275179 0.000000 2.507028 0.001103
1458.890503 1.260747 0.000000 3.389980 0.002004
1489.732178 1.239353 0.000000 3.775145 0.002237
1532.242432 1.174004 0.000000 0.819600 0.000559
1558.003296 1.179240 0.000000 1.376151 0.000799
1578.589355 1.179065 0.000000 1.596615 0.001344
1617.033569 1.178838 0.000000 1.364309 0.001272
1668.502686 1.196842 0.000000 6.208069 0.004273
1700.812378 1.096552 0.000000 1.390699 0.001454
1712.753662 1.076717 0.000000 0.718047 0.000429
1755.664063 1.094178 0.000000 2.451886 0.002228
1781.197388 1.030404 0.000000 0.511741 0.000612
finalresult GLS_NoMatch 0
spectrum 2048
-97.028587 44951.000000
-94.401718 44951.000000
-91.776726 45640.000000
-89.153625 45728.000000
-86.532394 46684.000000
-83.913063 46437.000000
-81.295593 46707.000000
-78.680000 46593.000000
-76.066284 46868.000000
-73.454445 47229.000000
-70.844467 47161.000000
-68.236374 47271.000000
-65.630127 47314.000000
-63.025753 47315.000000
-60.423244 47258.000000
-57.822590 47642.000000
-55.223797 47110.000000
-52.626862 46513.000000
-50.031780 46874.000000
-47.438553 46835.000000
-44.847176 47109.000000
-42.257645 46663.000000
-39.669956 47361.000000
-37.084118 47303.000000
-34.500122 46789.000000
-31.917963 47557.000000
-29.337650 46890.000000
-26.759165 47555.000000
-24.182522 47003.000000
-21.607704 46938.000000
-19.034727 46702.000000
-16.463570 46608.000000
-13.894247 46307.000000
-11.326749 45350.000000
-8.761069 46705.000000
-6.197216 46404.000000
-3.635175 46729.000000
-1.074959 46785.000000
1.483449 46317.000000
4.040036 45183.000000
6.594818 44977.000000
9.147783 44907.000000
11.698948 43102.000000
14.248300 41797.000000
16.795856 40074.000000
19.341600 40023.000000
21.885551 39006.000000
24.427698 36413.000000
26.968048 33278.000000
29.506613 29699.000000
32.043381 25154.000000
34.578346 18976.000000
37.111534 11554.000000
39.642941 7855.000000
42.172554 7418.000000
44.700371 7164.000000
47.226429 6327.000000
49.750698 5637.000000
52.273197 4922.000000
54.793900 4588.000000
57.312847 4787.000000
59.830021 5561.000000
62.345417 7327.000000
64.859032 7596.000000
67.370895 7576.000000
69.881012 5854.000000
72.389336 3937.000000
74.895905 3274.000000
77.400726 2763.000000
79.903793 2353.000000
82.405083 2203.000000
84.904633 1989.000000
87.402428 1952.000000
89.898491 2115.000000
92.392776 2346.000000
94.885323 2582.000000
97.376152 2619.000000
99.865211 2584.000000
102.352524 19223.000000
104.838112 30233.000000
107.321960 35316.000000
109.804062 38354.000000
112.284439 40068.000000
114.763092 42866.000000
117.240021 43638.000000
119.715195 43707.000000
122.188660 44717.000000
124.660393 46225.000000
127.130417 45681.000000
129.598694 46359.000000
132.065292 46531.000000
134.530136 47258.000000
136.993286 46839.000000
139.454697 45822.000000
141.914413 46433.000000
144.372406 46882.000000
146.828705 47305.000000
149.283295 47477.000000
151.736160 46507.000000
154.187347 46963.000000
156.636841 46837.000000
159.084610 47334.000000
161.530670 46881.000000
163.975052 44694.000000
166.417755 46917.000000
168.858765 46625.000000
171.298065 47168.000000
173.735657 46177.000000
176.171616 46845.000000
178.605835 46526.000000
181.038376 46286.000000
183.469269 46692.000000
185.898438 46689.000000
188.325958 46715.000000
190.751801 47131.000000
193.175964 46820.000000
195.598465 46307.000000
198.019272 46138.000000
200.438416 46946.000000
202.855896 47462.000000
205.271683 45856.000000
207.685822 46415.000000
210.098328 47087.000000
212.509155 47343.000000
214.918304 47188.000000
217.325821 45944.000000
219.731628 47271.000000
222.135849 46905.000000
224.538361 46762.000000
226.939255 46508.000000
229.338501 46984.000000
231.736084 46574.000000
234.132004 46171.000000
236.526306 46917.000000
238.918945 47524.000000
241.309967 46613.000000
243.699326 46881.000000
246.087067 46999.000000
248.473160 46478.000000
250.857620 47368.000000
253.240433 45501.000000
255.621674 46745.000000
258.001190 46742.000000
260.379150 46923.000000
262.755432 45823.000000
265.130157 45862.000000
267.503235 45546.000000
269.874664 47244.000000
272.244446 46953.000000
274.612671 47490.000000
276.979248 47076.000000
279.344238 46716.000000
281.707611 47425.000000
284.069336 47166.000000
286.429474 46320.000000
288.787994 47429.000000
291.144928 46868.000000
293.500244 47019.000000
295.853973 47416.000000
298.206055 47404.000000
300.556580 47098.000000
302.905518 47081.000000
305.252808 46645.000000
307.598572 46960.000000
309.942657 46891.000000
312.285217 46060.000000
314.626160 45841.000000
316.965485 46189.000000
319.303253 46439.000000
321.639465 45342.000000
323.974030 47131.000000
326.307037 46991.000000
328.638489 47466.000000
330.968353 46862.000000
333.296631 47075.000000
335.623291 46190.000000
337.948456 47070.000000
340.272003 47216.000000
342.593994 47424.000000
344.914429 45902.000000
347.233246 45715.000000
349.550507 47468.000000
351.866241 47623.000000
354.180389 46495.000000
356.492950 47072.000000
358.803955 47065.000000
361.113434 46360.000000
363.421387 47081.000000
365.727722 47809.000000
368.032471 46997.000000
370.335754 46993.000000
372.637421 47144.000000
374.937592 47114.000000
377.236206 47158.000000
379.533264 47418.000000
381.828766 47395.000000
384.122742 47509.000000
386.415131 48152.000000
388.706024 47789.000000
390.995392 47200.000000
393.283173 47134.000000
395.569427 46937.000000
397.854187 46424.000000
400.137329 47314.000000
402.419037 47013.000000
404.699219 47315.000000
406.977814 46182.000000
409.254883 46848.000000
411.530426 46608.000000
413.804443 46890.000000
416.077026 46927.000000
418.347992 47144.000000
420.617462 46981.000000
422.885437 46320.000000
425.151855 46159.000000
427.416779 47022.000000
429.680237 47088.000000
431.942108 46927.000000
434.202515 47384.000000
436.461365 46742.000000
438.718750 47296.000000
440.974640 47667.000000
443.229034 47574.000000
445.481903 47913.000000
447.733215 46493.000000
449.983124 47312.000000
452.231445 47146.000000
454.478333 47761.000000
456.723755 46986.000000
458.967621 46873.000000
461.209991 46552.000000
463.450867 47796.000000
465.690338 46699.000000
467.928223 47972.000000
470.164673 47510.000000
472.399597 47360.000000
474.633057 46128.000000
476.865082 46695.000000
479.095581 47688.000000
481.324585 46971.000000
483.552124 47091.000000
485.778168 47412.000000
488.002777 46918.000000
490.225922 47573.000000
492.447601 46946.000000
494.667725 46606.000000
496.886444 47760.000000
499.103668 47104.000000
501.319519 47873.000000
503.533752 47271.000000
505.746674 46908.000000
507.958008 46949.000000
510.167908 46516.000000
512.376404 46958.000000
514.583496 46886.000000
516.789001 47056.000000
518.993103 46814.000000
521.195679 47271.000000
523.396851 46776.000000
525.596680 46716.000000
527.794983 46431.000000
529.991760 48008.000000
532.187195 47509.000000
534.381104 47833.000000
536.573669 45865.000000
538.764709 46626.000000
540.954346 47313.000000
543.142578 46453.000000
545.329285 46227.000000
547.514526 46593.000000
549.698486 47205.000000
551.880859 46885.000000
554.061890 47345.000000
556.241394 47374.000000
558.419617 47502.000000
560.596313 47465.000000
562.771606 46961.000000
564.945496 46938.000000
567.117920 47419.000000
569.288940 47321.000000
571.458496 47054.000000
573.626770 48127.000000
575.793518 46956.000000
577.958801 47014.000000
580.122681 47233.000000
582.285278 47549.000000
584.446350 47318.000000
586.606018 47720.000000
588.764343 47604.000000
590.921143 47197.000000
593.076599 46746.000000
595.230652 47501.000000
597.383362 47236.000000
599.534546 46053.000000
601.684387 46610.000000
603.832886 46721.000000
605.979797 47286.000000
608.125488 46873.000000
610.269775 46985.000000
612.412598 46372.000000
614.553955 47134.000000
616.694092 46952.000000
618.832703 45758.000000
620.970032 47611.000000
623.105896 46761.000000
625.240356 46460.000000
627.373352 46180.000000
629.505188 46727.000000
631.635559 46818.000000
633.764526 46633.000000
635.892029 46864.000000
638.018250 47244.000000
640.142944 45985.000000
642.266418 46888.000000
644.388550 46537.000000
646.509216 46427.000000
648.628540 46803.000000
650.746460 47665.000000
652.863037 47596.000000
654.978210 46987.000000
657.092041 46914.000000
659.204407 47406.000000
661.315552 47198.000000
663.425293 47909.000000
665.533569 46750.000000
667.640686 46944.000000
669.746338 46517.000000
671.850525 47452.000000
673.953491 47617.000000
676.055054 46372.000000
678.155273 47928.000000
680.254089 46653.000000
682.351563 47035.000000
684.447754 46382.000000
686.542480 47100.000000
688.635986 46273.000000
690.728149 46686.000000
692.818787 45389.000000
694.908203 46679.000000
696.996338 46845.000000
699.083008 47258.000000
701.168457 46652.000000
703.252380 48174.000000
705.335083 47390.000000
707.416504 47351.000000
709.496460 45684.000000
711.575195 47056.000000
713.652466 47709.000000
715.728455 46665.000000
717.803162 47166.000000
719.876587 46287.000000
721.948486 46992.000000
724.019226 45822.000000
726.088623 47462.000000
728.156616 46796.000000
730.223267 46866.000000
732.288696 46187.000000
734.352783 47567.000000
736.415527 47116.000000
738.476929 46711.000000
740.537048 46608.000000
742.595764 47238.000000
744.653259 46654.000000
746.709473 46817.000000
748.764282 46561.000000
750.817810 46872.000000
752.869934 45797.000000
754.920837 47449.000000
756.970520 46586.000000
759.018738 46886.000000
761.065735 47061.000000
763.111450 46218.000000
765.155762 47903.000000
767.198792 47524.000000
769.240601 38260.000000
771.281067 46318.000000
773.320129 46900.000000
775.358032 47190.000000
777.394592 47328.000000
779.429932 47896.000000
781.463928 47472.000000
783.496521 46345.000000
785.527954 47775.000000
787.557983 41748.000000
789.586731 47356.000000
791.614319 46937.000000
793.640564 46874.000000
795.665405 47458.000000
797.689148 47704.000000
799.711487 46889.000000
801.732605 47474.000000
803.752380 46545.000000
805.770874 48384.000000
807.788147 46560.000000
809.804016 46491.000000
811.818726 47533.000000
813.832092 46802.000000
815.844238 47036.000000
817.855164 47117.000000
819.864746 46646.000000
821.873108 47934.000000
823.880066 47561.000000
825.885803 47144.000000
827.890320 47478.000000
829.893555 47549.000000
831.895508 46752.000000
833.896179 47079.000000
835.895630 47328.000000
837.893738 46848.000000
839.890747 46261.000000
841.886353 46971.000000
843.880798 47254.000000
845.873901 47005.000000
847.865784 46443.000000
849.856323 47647.000000
851.845581 46345.000000
853.833801 47192.000000
855.820618 47487.000000
857.806213 46801.000000
859.790527 45921.000000
861.773743 46886.000000
863.755554 46811.000000
865.736145 47353.000000
867.715454 45463.000000
869.693604 46165.000000
871.670410 47017.000000
873.645935 47178.000000
875.620422 46975.000000
877.593445 47251.000000
879.565430 47711.000000
881.536072 46769.000000
883.505554 46996.000000
885.473694 47597.000000
887.440674 47895.000000
889.406311 47049.000000
891.370789 47350.000000
893.334045 47145.000000
895.296082 46622.000000
897.256836 47261.000000
899.216370 46754.000000
901.174622 46425.000000
903.131775 46755.000000
905.087769 47113.000000
907.042358 46266.000000
908.995728 46596.000000
910.947937 46631.000000
912.898926 46643.000000
914.848633 45971.000000
916.797180 46732.000000
918.744507 46932.000000
920.690552 47002.000000
922.635315 46966.000000
924.579041 46721.000000
926.521606 47037.000000
928.462891 47481.000000
930.402832 46576.000000
932.341675 47269.000000
934.279236 47546.000000
936.215576 47071.000000
938.150757 47170.000000
940.084656 46904.000000
942.017456 47158.000000
943.949036 46140.000000
945.879456 47851.000000
947.808655 46688.000000
949.736511 46037.000000
951.663330 46388.000000
953.588867 47033.000000
955.513123 47685.000000
957.436279 47104.000000
959.358276 46282.000000
961.278992 45740.000000
963.198547 46585.000000
965.116943 47726.000000
967.034302 46576.000000
968.950195 46595.000000
970.864990 46856.000000
972.778564 47049.000000
974.690979 46660.000000
976.602173 46521.000000
978.512207 47537.000000
980.420959 46755.000000
982.328674 46993.000000
984.235168 46612.000000
986.140442 47259.000000
988.044617 46139.000000
989.947571 46794.000000
991.849304 46191.000000
993.749878 46432.000000
995.649292 46302.000000
997.547485 47678.000000
999.444519 46352.000000
1001.340332 46385.000000
1003.234985 45219.000000
1005.128540 47284.000000
1007.020813 45767.000000
1008.912170 46769.000000
1010.802185 47471.000000
1012.690979 46289.000000
1014.578613 46589.000000
1016.465088 45962.000000
1018.350403 46117.000000
1020.234558 46882.000000
1022.117493 47010.000000
1023.999390 46582.000000
1025.880005 47701.000000
1027.759521 47025.000000
1029.638062 46841.000000
1031.515259 47491.000000
1033.391113 46660.000000
1035.265991 46982.000000
1037.139893 46263.000000
1039.012329 45845.000000
1040.883789 46130.000000
1042.753906 47347.000000
1044.623047 47383.000000
1046.490967 47122.000000
1048.357788 45902.000000
1050.223511 46252.000000
1052.088013 46494.000000
1053.951416 46389.000000
1055.813477 46377.000000
1057.674561 46939.000000
1059.534546 46416.000000
1061.393188 46304.000000
1063.250732 47071.000000
1065.107178 46197.000000
1066.962524 46918.000000
1068.816650 47053.000000
1070.669922 46649.000000
1072.521729 46501.000000
1074.372559 46714.000000
1076.222168 46752.000000
1078.070557 47062.000000
1079.918091 44806.000000
1081.764282 47202.000000
1083.609253 46493.000000
1085.453369 47359.000000
1087.296143 47208.000000
1089.137695 46212.000000
1090.978516 47228.000000
1092.817749 46926.000000
1094.656250 46590.000000
1096.493408 46604.000000
1098.329346 45888.000000
1100.164307 46145.000000
1101.998047 47269.000000
1103.830811 46901.000000
1105.662231 46465.000000
1107.492798 45313.000000
1109.322021 46014.000000
1111.150269 46174.000000
1112.977295 45509.000000
1114.803345 47163.000000
1116.628174 46229.000000
1118.451904 45424.000000
1120.274414 46499.000000
1122.095825 46729.000000
1123.916382 46662.000000
1125.735474 45965.000000
1127.553711 45443.000000
1129.370605 45779.000000
1131.186646 45942.000000
1133.001465 46051.000000
1134.815186 46949.000000
1136.627808 46730.000000
1138.439209 46905.000000
1140.249634 46377.000000
1142.058960 45774.000000
1143.866943 45583.000000
1145.674194 46588.000000
1147.479980 46575.000000
1149.284912 47110.000000
1151.088745 47089.000000
1152.891357 46314.000000
1154.693115 46412.000000
1156.493408 46257.000000
1158.292725 46335.000000
1160.091064 46583.000000
1161.888062 46828.000000
1163.684326 46423.000000
1165.479248 46238.000000
1167.273071 45965.000000
1169.066040 44497.000000
1170.857666 46489.000000
1172.648315 45702.000000
1174.437988 46196.000000
1176.226196 46375.000000
1178.013550 44625.000000
1179.799805 45363.000000
1181.584961 46325.000000
1183.369019 46108.000000
1185.151978 44426.000000
1186.933960 46183.000000
1188.714722 46219.000000
1190.494507 45822.000000
1192.273193 45028.000000
1194.050903 45345.000000
1195.827393 44831.000000
1197.602783 45414.000000
1199.377075 45361.000000
1201.150269 45152.000000
1202.922607 45237.000000
1204.693604 45218.000000
1206.463745 46244.000000
1208.232666 45698.000000
1210.000488 45536.000000
1211.767456 45939.000000
1213.533081 45875.000000
1215.297729 44807.000000
1217.061279 45221.000000
1218.823730 45853.000000
1220.585327 45114.000000
1222.345703 45906.000000
1224.104980 45526.000000
1225.863403 45793.000000
1227.620605 44830.000000
1229.376709 45392.000000
1231.131714 46312.000000
1232.885864 45867.000000
1234.638672 46014.000000
1236.390503 45848.000000
1238.141479 45948.000000
1239.891113 47017.000000
1241.639893 44890.000000
1243.387329 45471.000000
1245.134033 45303.000000
1246.879517 45417.000000
1248.624146 45433.000000
1250.367432 45021.000000
1252.109741 45147.000000
1253.850952 46431.000000
1255.591309 46634.000000
1257.330566 45926.000000
1259.068604 45110.000000
1260.805786 44631.000000
1262.541748 45609.000000
1264.276733 45296.000000
1266.010742 44511.000000
1267.743774 45827.000000
1269.475586 45537.000000
1271.206421 45387.000000
1272.936035 44523.000000
1274.664795 45935.000000
1276.392456 46070.000000
1278.119019 46225.000000
1279.844727 46289.000000
1281.569092 45394.000000
1283.292603 46514.000000
1285.015137 44861.000000
1286.736694 45117.000000
1288.457031 45475.000000
1290.176392 44960.000000
1291.894653 44392.000000
1293.611938 45138.000000
1295.328247 45811.000000
1297.043335 45143.000000
1298.757446 45388.000000
1300.470581 45731.000000
1302.182861 44951.000000
1303.893921 43123.000000
1305.604004 46086.000000
1307.312988 45087.000000
1309.020752 44642.000000
1310.727905 44337.000000
1312.433594 45570.000000
1314.138550 44431.000000
1315.842529 45258.000000
1317.545288 45397.000000
1319.247070 44747.000000
1320.947998 45239.000000
1322.647583 42550.000000
1324.346313 44044.500000
1326.044312 45539.000000
1327.740967 44537.000000
1329.436523 43698.000000
1331.131226 44064.000000
1332.824707 45101.000000
1334.517334 45406.000000
1336.209106 43394.000000
1337.899536 44568.000000
1339.589233 44203.000000
1341.277832 44742.000000
1342.965332 43249.000000
1344.651855 45148.000000
1346.337280 44053.000000
1348.021729 44803.000000
1349.705322 43583.000000
1351.387695 44369.000000
1353.069092 44860.000000
1354.749634 44329.000000
1356.428955 44150.000000
1358.107666 45030.000000
1359.785034 44302.000000
1361.461304 44989.000000
1363.136597 45211.000000
1364.811157 44164.000000
1366.484497 44196.000000
1368.156860 43892.000000
1369.828247 45469.000000
1371.498657 43834.000000
1373.167969 44328.000000
1374.836304 44800.000000
1376.503784 44456.000000
1378.170166 44002.000000
1379.835571 44196.000000
1381.500000 44431.000000
1383.163208 44276.000000
1384.825806 44343.000000
1386.487061 43631.000000
1388.147461 43365.000000
1389.806763 43422.000000
1391.465088 43272.000000
1393.122681 42802.000000
1394.779053 43154.000000
1396.434570 42553.000000
1398.088867 43112.000000
1399.742310 43456.000000
1401.394653 43165.000000
1403.046265 42727.000000
1404.696655 41977.000000
1406.345947 42729.000000
1407.994507 41311.000000
1409.641968 40885.000000
1411.288452 42510.000000
1412.934082 42271.000000
1414.578735 42477.000000
1416.222168 41454.000000
1417.864746 41303.000000
1419.506226 41503.000000
1421.146851 41818.000000
1422.786499 41774.000000
1424.425049 42167.000000
1426.062744 41549.000000
1427.699341 41731.000000
1429.334961 42124.000000
1430.969849 41645.000000
1432.603638 42211.000000
1434.236328 41890.000000
1435.868042 42463.000000
1437.498901 42076.000000
1439.128662 42262.000000
1440.757324 40609.000000
1442.385376 42415.000000
1444.012329 42151.000000
1445.638062 42264.000000
1447.263184 42380.000000
1448.887207 42006.000000
1450.510254 42617.000000
1452.132324 42634.000000
1453.753296 41235.000000
1455.373291 42240.000000
1456.992554 41548.000000
1458.610474 42694.000000
1460.227783 42594.000000
1461.844116 42494.000000
1463.459229 40228.000000
1465.073486 41184.000000
1466.686890 42085.000000
1468.299194 41655.000000
1469.910645 40896.000000
1471.521240 40704.000000
1473.130615 40868.000000
1474.739014 40738.000000
1476.346558 40331.000000
1477.953125 39760.000000
1479.558960 40996.000000
1481.163574 39712.000000
1482.767334 40353.000000
1484.369873 38827.000000
1485.971802 39952.000000
1487.572510 39851.000000
1489.172485 39735.000000
1490.771362 39175.000000
1492.369385 38941.000000
1493.966309 38736.000000
1495.562378 39095.000000
1497.157471 39399.000000
1498.751587 39838.000000
1500.344971 38626.000000
1501.937256 39523.000000
1503.528320 38654.000000
1505.118896 37982.000000
1506.708130 38128.000000
1508.296753 38299.000000
1509.884277 37814.000000
1511.470703 37404.000000
1513.056396 37935.000000
1514.640991 37440.000000
1516.224731 37605.000000
1517.807373 37533.000000
1519.389282 37024.000000
1520.970093 36863.000000
1522.550171 37340.000000
1524.129028 36849.000000
1525.707031 36557.000000
1527.284302 36575.000000
1528.860352 37018.000000
1530.435669 36672.000000
1532.009888 36186.000000
1533.583374 36950.000000
1535.155640 36473.000000
1536.727173 36065.000000
1538.297729 35892.000000
1539.867432 35909.000000
1541.435913 36740.000000
1543.003662 35418.000000
1544.570557 36297.000000
1546.136230 35048.000000
1547.701172 35885.000000
1549.265015 36599.000000
1550.828247 34276.000000
1552.390137 35342.000000
1553.951416 35481.000000
1555.511597 35727.000000
1557.071045 35679.000000
1558.629395 35591.000000
1560.187012 35276.000000
1561.743530 34463.000000
1563.298828 35558.000000
1564.853516 35029.000000
1566.407471 35738.000000
1567.960449 35060.000000
1569.512085 35779.000000
1571.062988 35592.000000
1572.613159 35238.000000
1574.162354 35136.000000
1575.710205 35687.000000
1577.257568 35942.000000
1578.803955 35783.000000
1580.349487 36589.000000
1581.894043 35104.000000
1583.437378 35402.000000
1584.980103 35037.000000
1586.521973 35171.000000
1588.062744 34817.000000
1589.602539 35595.000000
1591.141602 34645.000000
1592.679565 35254.000000
1594.217041 34958.000000
1595.753174 35310.000000
1597.288208 34399.000000
1598.822754 34698.000000
1600.356323 34945.000000
1601.889038 34925.000000
1603.420166 34753.000000
1604.951050 34737.000000
1606.481079 35105.000000
1608.009888 34806.000000
1609.537598 34879.000000
1611.064697 35207.000000
1612.591064 35446.000000
1614.116455 35062.000000
1615.640991 35491.000000
1617.164185 35599.000000
1618.686646 35897.000000
1620.208374 35157.000000
1621.729248 34961.000000
1623.248657 34995.500000
1624.767578 35030.000000
1626.285767 34210.000000
1627.803101 34295.000000
1629.319336 33819.000000
1630.834229 33136.000000
1632.348633 33071.000000
1633.862305 33853.000000
1635.374878 32747.000000
1636.886230 33443.000000
1638.397217 32796.000000
1639.907104 32994.000000
1641.416138 32962.000000
1642.923828 33345.000000
1644.431152 32895.000000
1645.937622 31936.000000
1647.443115 32572.000000
1648.947754 31868.000000
1650.450928 32414.000000
1651.953491 31882.000000
1653.455688 31991.000000
1654.956543 31555.000000
1656.456299 30511.000000
1657.955200 31908.000000
1659.453735 31228.000000
1660.951050 31411.000000
1662.447632 31734.000000
1663.942627 31138.000000
1665.437378 31460.000000
1666.931274 32627.000000
1668.424194 32818.000000
1669.915771 32201.000000
1671.406860 31584.000000
1672.897339 29997.000000
1674.386719 30046.000000
1675.874634 29156.000000
1677.362305 29035.000000
1678.848999 29712.000000
1680.334839 30175.000000
1681.819824 29348.000000
1683.303345 29148.000000
1684.786621 28825.000000
1686.269043 29336.000000
1687.750366 28898.000000
1689.230225 28887.000000
1690.709839 29611.000000
1692.188721 28409.000000
1693.666626 28948.000000
1695.143555 28717.000000
1696.619263 29087.000000
1698.094604 28827.000000
1699.568726 28537.000000
1701.042236 29345.000000
1702.514282 29319.000000
1703.986084 28166.000000
1705.456909 28615.000000
1706.926880 27814.000000
1708.395508 29558.000000
1709.863647 28802.000000
1711.331055 28376.000000
1712.797363 29206.000000
1714.263062 29017.000000
1715.727051 28720.000000
1717.190918 29053.000000
1718.653931 27989.000000
1720.115967 28576.000000
1721.576782 28154.000000
1723.036987 29249.000000
1724.496460 29006.000000
1725.955078 28499.000000
1727.412720 28588.000000
1728.869019 28343.000000
1730.325073 28575.000000
1731.780151 28183.000000
1733.234253 28506.000000
1734.687134 27668.000000
1736.139771 28526.000000
1737.591309 27621.000000
1739.042114 28431.000000
1740.491943 27608.000000
1741.940430 28232.000000
1743.388550 26843.000000
1744.835815 27582.000000
1746.282349 27402.000000
1747.727295 27419.000000
1749.171997 27860.000000
1750.615845 28185.000000
1752.058838 28897.000000
1753.500366 28143.000000
1754.941650 28834.000000
1756.382080 28378.500000
1757.821533 27923.000000
1759.260010 27397.000000
1760.697510 26771.000000
1762.134521 25464.000000
1763.570557 26911.000000
1765.005737 25770.000000
1766.439453 26595.000000
1767.873047 26362.000000
1769.305664 25992.000000
1770.737427 26727.000000
1772.168335 26556.000000
1773.598022 25813.000000
1775.026978 25636.000000
1776.455444 25192.000000
1777.882935 24231.000000
1779.309082 24115.000000
1780.734985 25390.000000
1782.159790 24579.000000
1783.583984 25436.000000
1785.006714 24698.000000
1786.428955 24754.000000
1787.850464 24405.000000
1789.271240 24727.000000
1790.691040 24488.000000
1792.109497 24532.000000
1793.527466 23840.000000
1794.944824 24435.000000
1796.361328 24307.000000
1797.776367 23972.000000
1799.191040 24224.000000
1800.605103 23867.000000
1802.017944 24379.000000
1803.430176 24026.000000
1804.841064 23871.000000
1806.251465 23312.000000
1807.661133 23822.000000
1809.069824 23882.000000
1810.477417 24324.000000
1811.884521 23994.000000
1813.290771 24057.000000
1814.696045 23951.000000
1816.100220 24124.000000
1817.504028 24100.000000
1818.906860 23971.000000
1820.308838 23914.000000
1821.710205 24034.000000
1823.110107 23848.000000
1824.509399 23881.000000
1825.908203 23858.000000
1827.306152 23292.000000
1828.702759 23925.000000
1830.098755 23465.000000
1831.494019 23993.000000
1832.888672 22661.000000
1834.282349 23653.000000
1835.674683 23362.000000
1837.066528 23502.000000
1838.457764 23749.000000
1839.848022 23137.000000
1841.237061 23438.000000
1842.625732 23235.000000
1844.013428 23271.000000
1845.400391 23394.000000
1846.786011 22871.000000
1848.171387 23156.000000
1849.555908 22937.000000
1850.939697 22941.000000
1852.322388 22524.000000
1853.703857 22950.000000
1855.084839 22311.000000
1856.465332 22234.000000
1857.844849 22178.000000
1859.222900 22428.000000
1860.600830 22504.000000
1861.977783 21738.000000
1863.354004 22087.000000
1864.729370 21923.000000
1866.103271 21731.000000
1867.477051 21600.000000
1868.849976 21440.000000
1870.221802 21497.000000
1871.592651 21098.000000
1872.963135 21219.000000
1874.332520 21084.000000
1875.701416 21028.000000
1877.068726 20898.000000
1878.435913 20955.000000
1879.802124 20842.000000
1881.167603 20771.000000
1882.532349 20721.000000
1883.895508 20617.000000
1885.258545 20550.000000
1886.620728 20657.000000
1887.982056 20507.000000
1889.342041 20473.000000
1890.701660 20385.000000
1892.060669 20335.000000
1893.418701 20255.000000
1894.775879 20063.000000
1896.131836 20301.000000
1897.487549 20034.000000
1898.842285 20350.000000
1900.196167 20310.000000
1901.548950 20282.000000
1902.901245 20190.000000
1904.252808 20243.000000
1905.603516 20152.000000
1906.953003 20325.000000
1908.302002 20267.000000
1909.650146 20232.000000
1910.997681 20157.000000
1912.344482 20140.000000
1913.689697 20054.000000
1915.034668 20138.000000
1916.378906 20221.000000
1917.722290 20209.000000
1919.064331 20208.000000
1920.406128 20200.000000
1921.747070 19908.000000
1923.087280 20181.000000
1924.426514 20061.000000
1925.764771 20077.000000
1927.102417 20112.000000
1928.439331 20068.000000
1929.775391 19946.000000
1931.110229 20082.000000
1932.444702 19722.000000
1933.778442 19456.000000
1935.111328 19644.000000
1936.442749 19636.000000
1937.774292 19457.000000
1939.104492 19432.000000
1940.434204 19465.000000
1941.763062 19544.000000
1943.090698 19396.000000
1944.417847 19382.000000
1945.744263 19380.000000
1947.069946 19282.000000
1948.394287 19256.000000
1949.718384 19207.000000
1951.041626 19127.000000
1952.364136 19028.000000
1953.685547 18987.000000
1955.005981 18893.000000
1956.325806 18863.000000
1957.645264 18878.000000
1958.963745 18540.000000
1960.280884 18665.000000
1961.597656 18482.000000
1962.913696 18306.000000
1964.229004 18455.000000
1965.542847 18452.000000
1966.856445 18462.000000
1968.169312 18159.000000
1969.481323 18316.000000
1970.792725 18203.000000
1972.102783 17973.000000
1973.412354 17923.000000
1974.721191 17581.000000
1976.029419 17711.000000
1977.336304 17563.000000
1978.642578 17651.000000
1979.948486 17689.000000
1981.253174 17729.000000
1982.557373 17778.000000
1983.860352 17558.000000
1985.162964 17523.000000
1986.464600 17495.000000
1987.765625 17107.000000
1989.065063 17136.000000
1990.364624 16973.000000
1991.663086 17039.000000
1992.961060 16833.000000
1994.257446 16913.000000
1995.553833 16871.000000
1996.849243 16814.000000
1998.143921 16575.000000
1999.437744 16601.000000
2000.730347 16457.000000
2002.022461 16481.000000
2003.314087 16392.000000
2004.604980 16414.000000
2005.894287 16518.000000
2007.183350 16307.000000
2008.471680 16375.000000
2009.759277 16289.000000
2011.046021 16120.000000
2012.331665 16116.000000
2013.616943 16234.000000
2014.901245 16034.000000
2016.184937 16318.000000
2017.467285 16027.000000
2018.749268 15867.000000
2020.030762 15803.000000
2021.311279 15975.000000
2022.591064 15900.000000
2023.869751 15834.000000
2025.147705 15818.000000
2026.425171 15799.000000
2027.702026 15919.000000
2028.977173 16052.000000
2030.252441 16248.000000
2031.526733 16084.000000
2032.800049 16145.000000
2034.072510 16281.000000
2035.344604 16268.000000
2036.615601 15989.000000
2037.886353 16015.000000
2039.155762 16123.000000
2040.424072 15958.000000
2041.692383 16064.000000
2042.959717 15979.000000
2044.226318 15966.000000
2045.491699 15874.000000
2046.756470 15859.000000
2048.020996 15824.000000
2049.284180 15817.000000
2050.547119 15644.000000
2051.808105 15683.000000
2053.069580 15486.000000
2054.329834 15380.000000
2055.589355 15359.000000
2056.848145 15280.000000
2058.105957 15321.000000
2059.363281 15308.000000
2060.619873 15260.000000
2061.875000 15121.000000
2063.130127 15272.000000
2064.384277 15061.000000
2065.637695 15048.000000
2066.890381 14900.000000
2068.141846 14942.000000
2069.393066 15071.000000
2070.643555 14957.000000
2071.893311 15108.000000
2073.141602 14509.000000
2074.389893 14780.000000
2075.637207 14594.000000
2076.883789 14659.000000
2078.129639 14549.000000
2079.374268 14462.000000
2080.618408 14456.000000
2081.862061 14485.000000
2083.104736 14357.000000
2084.346191 14338.000000
2085.587402 14195.000000
2086.828125 14380.000000
2088.067871 14162.000000
2089.306396 14170.000000
2090.544434 14080.000000
2091.781738 13958.000000
2093.018799 13987.000000
2094.254395 13908.000000
2095.489258 13925.000000
2096.723877 14019.000000
2097.957520 14240.000000
2099.190186 13937.000000
2100.422119 13700.000000
2101.653564 13847.000000
2102.884033 13671.000000
2104.113770 13849.000000
2105.343262 13685.000000
2106.570801 13545.000000
2107.798584 13446.000000
2109.025635 13310.000000
2110.251709 13339.000000
2111.476318 13382.000000
2112.701172 13065.000000
2113.924805 13224.000000
2115.147949 13224.000000
2116.369873 13066.000000
2117.591553 13236.000000
2118.812256 13254.000000
2120.032227 13240.000000
2121.251709 13380.000000
2122.469727 13356.000000
2123.687744 13347.000000
2124.904785 13376.000000
2126.121338 13453.000000
2127.336182 13360.000000
2128.551270 13368.000000
2129.765381 13214.000000
2130.978760 13180.000000
2132.191406 13111.000000
2133.402588 13271.000000
2134.614014 13077.000000
2135.824219 13116.000000
2137.033936 13164.000000
2138.242188 13175.000000
2139.450439 13186.000000
2140.657959 13093.000000
2141.864258 12823.000000
2143.069824 13047.000000
2144.275146 12899.000000
2145.479492 12955.000000
2146.683105 12877.000000
2147.886230 12763.000000
2149.087891 12855.000000
2150.289307 12917.000000
2151.489990 12761.000000
2152.689941 12683.000000
2153.888672 12762.000000
2155.087158 12687.000000
2156.285156 12694.000000
2157.482178 12314.000000
2158.678467 12503.000000
2159.873535 12256.000000
2161.068359 12214.000000
2162.262451 12064.000000
2163.455566 12093.000000
2164.647705 11863.000000
2165.839600 11848.000000
2167.030762 11763.000000
2168.220947 11748.000000
2169.410400 11834.000000
2170.599365 11778.000000
2171.787354 11495.000000
2172.975098 11507.000000
2174.161377 11497.000000
2175.346924 11244.000000
2176.532227 11188.000000
2177.717041 11214.000000
2178.900635 11155.000000
2180.083496 11203.000000
2181.265381 11307.000000
2182.447021 11268.000000
2183.628174 11197.000000
2184.808105 11354.000000
2185.987061 11350.000000
2187.165527 11055.000000
2188.343750 11131.000000
2189.520752 11118.000000
2190.696777 11033.000000
2191.872559 11215.000000
2193.047852 11173.000000
2194.221680 11098.000000
2195.395020 11257.000000
2196.568115 11122.000000
2197.739990 11174.000000
2198.911377 11209.000000
2200.082275 11252.000000
2201.251465 11189.000000
2202.420654 11180.000000
2203.589355 11189.000000
2204.757080 11149.000000
2205.923828 11196.000000
2207.089844 11107.000000
2208.255371 10968.000000
2209.420654 11099.000000
2210.584473 10918.000000
2211.747803 11000.000000
2212.909912 10886.000000
2214.072266 10976.000000
2215.233398 10786.000000
2216.393555 10809.000000
2217.553223 10747.000000
2218.712646 10816.000000
2219.870850 10664.000000
2221.028076 10540.000000
2222.185059 10493.000000
2223.341309 10742.000000
2224.496826 10581.000000
2225.651611 10575.000000
2226.805420 10392.000000
2227.958252 10582.000000
2229.111572 10375.000000
2230.262939 10269.000000
2231.414063 10182.000000
2232.564453 10268.000000
2233.714355 10032.000000
2234.863281 10350.000000
2236.011719 10141.000000
2237.158691 10124.000000
2238.305908 10093.000000
2239.451904 10065.000000
2240.597656 9904.000000
2241.741699 9839.000000
2242.885986 9729.000000
2244.029297 9650.000000
2245.171875 9658.000000
2246.313477 9500.000000
2247.454834 9574.000000
2248.595215 9430.000000
2249.734863 9532.000000
2250.874023 9449.000000
2252.011963 9336.000000
2253.149902 9319.000000
2254.286865 9300.000000
2255.423096 9356.000000
2256.558350 9291.000000
2257.692871 9177.000000
2258.827148 9373.000000
2259.960938 9457.000000
2261.093262 9679.000000
2262.225098 9285.000000
2263.356445 9111.000000
2264.486816 9090.000000
2265.616943 8879.000000
2266.745850 8962.000000
2267.874268 8803.000000
2269.002197 8895.000000
2270.129150 8793.000000
2271.255371 8738.000000
2272.380615 8791.000000
2273.505859 8855.000000
2274.630371 8850.000000
2275.753662 8947.000000
2276.876221 8881.000000
2277.998291 8954.000000
2279.119873 8730.000000
2280.240723 8745.000000
2281.360352 8933.000000
2282.479492 8738.000000
2283.598389 8445.000000
2284.716553 8608.000000
2285.833740 8521.000000
2286.949951 8630.000000
2288.065918 8587.000000
2289.181152 8562.000000
2290.295654 8585.000000
2291.408936 8666.000000
2292.522217 8644.000000
2293.634766 8766.000000
2294.746582 8724.000000
2295.857666 8663.000000
2296.967529 8721.000000
2298.076904 8787.000000
2299.186035 8693.000000
2300.294189 8700.000000
2301.401367 8746.000000
2302.508301 8817.000000
2303.614502 8765.000000
2304.720215 8557.000000
2305.824463 8599.000000
2306.928467 8627.000000
2308.031982 8466.000000
2309.135010 8558.000000
2310.236816 8507.000000
2311.337891 8445.000000
2312.438477 8318.000000
2313.538574 8328.000000
2314.637939 8337.000000
2315.735840 8339.000000
2316.834229 8266.000000
2317.931152 8216.000000
2319.027832 8243.000000
2320.124023 8182.000000
2321.218506 8146.000000
2322.312988 7981.000000
2323.406738 7991.000000
2324.500244 8051.000000
2325.592041 7944.000000
2326.683838 7940.000000
2327.774902 8053.000000
2328.865234 8010.000000
2329.954590 7911.000000
2331.043945 7964.000000
2332.132080 7847.000000
2333.219727 7986.000000
2334.307129 7839.000000
2335.392822 7831.000000
2336.478271 7768.000000
2337.563477 7750.000000
2338.647705 7544.000000
2339.730957 7654.000000
2340.813965 7498.000000
2341.895996 7611.000000
2342.977783 7529.000000
2344.058838 7556.000000
2345.138672 7311.000000
2346.218018 7296.000000
2347.296875 7306.000000
2348.375244 7345.000000
2349.452148 7327.000000
2350.528809 7297.000000
2351.605225 7336.000000
2352.680664 7253.000000
2353.755127 7271.000000
2354.829346 7123.000000
2355.902832 7051.000000
2356.975830 7044.000000
2358.047607 6979.000000
2359.119141 6978.000000
2360.189697 6918.000000
2361.260010 6922.000000
2362.329346 6955.000000
2363.397705 7018.000000
2364.465820 6852.000000
2365.533203 6893.000000
2366.600098 6920.000000
2367.666260 6894.000000
2368.731201 6792.000000
2369.796143 6673.000000
2370.860352 6654.000000
2371.923828 6821.000000
2372.986084 6583.000000
2374.048340 6816.000000
2375.109619 6650.000000
2376.170654 6712.000000
2377.230469 6595.000000
2378.289551 6630.000000
2379.348633 6609.000000
2380.406738 6728.000000
2381.464111 6741.000000
2382.520508 6506.000000
2383.576660 6552.000000
2384.632324 6550.000000
2385.687256 6632.000000
2386.740723 6498.000000
2387.794434 6484.000000
2388.847168 6505.000000
2389.899414 6588.000000
2390.950928 6620.000000
2392.001465 6520.000000
2393.051758 6496.000000
2394.101074 6478.000000
2395.150391 6460.000000
2396.198242 6483.000000
2397.245605 6408.000000
2398.292725 6495.000000
2399.338867 6308.000000
2400.384277 6524.000000
2401.428955 6415.000000
2402.473633 6320.000000
2403.516846 6325.000000
2404.560059 6381.000000
2405.601807 6421.000000
2406.643799 6309.000000
2407.685059 6364.000000
2408.725342 6399.000000
2409.764893 6409.000000
2410.803467 6426.000000
2411.842285 6301.000000
2412.879883 6381.000000
2413.917236 6366.000000
2414.953369 6370.000000
2415.989258 6395.000000
2417.024414 6270.000000
2418.059082 6238.000000
2419.092285 6133.000000
2420.125732 6140.000000
2421.158203 6302.000000
2422.190430 6148.000000
2423.221191 6176.000000
2424.251953 6193.000000
2425.282227 6068.000000
2426.311279 6076.000000
2427.340332 6088.000000
2428.367676 5964.000000
2429.395508 6049.000000
2430.422119 5839.000000
2431.448486 5895.000000
2432.473389 5852.000000
2433.498535 5815.000000
2434.522705 5746.000000
2435.546631 5773.000000
2436.569336 5789.000000
2437.591309 5641.000000
2438.613037 5630.000000
2439.634033 5705.000000
2440.654541 5605.000000
2441.673828 5611.000000
2442.693115 5479.000000
2443.711426 5453.000000
2444.729492 5494.000000
2445.746094 5417.000000
2446.762695 5483.000000
2447.778564 5526.000000
2448.794434 5399.000000
2449.808838 5396.000000
2450.822510 5426.000000
2451.835693 5391.000000
2452.848633 5364.000000
2453.860840 5286.000000
2454.872070 5360.000000
2455.883057 5359.000000
2456.893311 5355.000000
2457.903076 5288.000000
2458.911865 5212.000000
2459.919922 5279.000000
2460.927979 5219.000000
2461.934814 5189.000000
2462.941406 5132.000000
2463.946777 4991.000000
2464.951904 5034.000000
2465.956787 5111.000000
2466.960449 5082.000000
2467.963867 5143.000000
2468.966309 5114.000000
2469.968506 5224.000000
2470.970215 5126.000000
2471.970947 5129.000000
2472.970703 5038.000000
2473.970459 5117.000000
2474.969238 4959.000000
2475.967529 4992.000000
2476.964844 4962.000000
2477.961914 4963.000000
2478.958984 4970.000000
2479.954590 4966.000000
2480.950195 4884.000000
2481.944092 4991.000000
2482.937988 5002.000000
2483.931396 5024.000000
2484.924316 4876.000000
2485.916260 5009.000000
2486.907471 4945.000000
2487.898438 5008.000000
2488.888916 4956.000000
2489.878418 5013.000000
2490.867188 5145.000000
2491.855957 4990.000000
2492.843750 4948.000000
2493.830322 4895.000000
2494.816895 4854.000000
2495.802979 4914.000000
2496.788330 4984.000000
2497.772705 4872.000000
2498.756836 4801.000000
2499.740967 4853.000000
2500.723633 4796.000000
2501.705811 4787.000000
2502.687500 4860.000000
2503.668457 4746.000000
2504.648926 4759.000000
2505.629150 4788.000000
2506.607910 4805.000000
2507.586426 4693.000000
2508.564453 4800.000000
2509.541992 4585.000000
2510.518555 4856.000000
2511.494873 4787.000000
2512.470459 4711.000000
2513.445557 4696.000000
2514.420166 4710.000000
2515.393555 4676.000000
2516.366699 4630.000000
2517.339600 4618.000000
2518.311523 4721.000000
2519.282715 4488.000000
2520.253418 4444.000000
2521.223877 4435.000000
2522.193604 4496.000000
2523.162354 4373.000000
2524.130371 4472.000000
2525.098389 4416.000000
2526.065430 4394.000000
2527.032227 4400.000000
2527.997803 4390.000000
2528.963379 4349.000000
2529.928223 4480.000000
2530.892578 4271.000000
2531.855713 4344.000000
2532.819092 4440.000000
2533.781494 4378.000000
2534.743652 4344.000000
2535.704590 4371.000000
2536.664795 4349.000000
2537.625244 4312.000000
2538.584717 4325.000000
2539.543457 4383.000000
2540.501221 4298.000000
2541.459229 4221.000000
2542.416504 4060.000000
2543.372803 4146.000000
2544.328857 4017.000000
2545.283691 4097.000000
2546.238770 4054.000000
2547.193115 4000.000000
2548.146729 4451.000000
2549.099365 3994.000000
2550.051758 4074.000000
2551.003662 3975.000000
2551.954834 3940.000000
2552.905273 3919.000000
2553.855225 3965.000000
2554.804932 3893.000000
2555.753906 4003.000000
2556.702393 3997.000000
2557.649658 3959.000000
2558.596924 3923.000000
2559.543457 3778.000000
2560.489502 3850.000000
2561.434570 3829.000000
2562.379395 3863.000000
2563.323730 3813.000000
2564.267578 3711.000000
2565.210938 3808.000000
2566.152832 3819.000000
2567.094971 3781.000000
2568.036377 3719.000000
2568.977051 3834.000000
2569.916992 3733.000000
2570.856934 3699.000000
2571.795898 3793.000000
2572.734619 3729.000000
2573.672363 3781.000000
2574.609863 3782.000000
2575.546631 3723.000000
2576.482666 3706.000000
2577.418213 3675.000000
2578.353027 3714.000000
2579.287842 3897.000000
2580.221680 3806.000000
2581.155029 3869.000000
2582.087646 3726.000000
2583.020020 3744.000000
2583.951660 3675.000000
2584.882813 3615.000000
2585.813477 3671.000000
2586.742920 3680.000000
2587.672363 3624.000000
2588.601318 3697.000000
2589.530029 3629.000000
2590.457031 3629.000000
2591.384277 3580.000000
2592.311035 3663.000000
2593.237061 3618.000000
2594.162842 3625.000000
2595.087402 3654.000000
2596.011719 3729.000000
2596.935547 3594.000000
2597.858887 3664.000000
2598.781250 3550.000000
2599.703369 3560.000000
2600.625000 3499.000000
2601.545898 3600.000000
2602.466064 3631.000000
2603.385986 3625.000000
2604.305420 3525.000000
2605.224609 3513.000000
2606.142822 3509.000000
2607.059814 3482.000000
2607.977051 3450.000000
2608.894043 3358.000000
2609.810059 3346.000000
2610.724854 3402.000000
2611.640137 3383.000000
2612.554688 3365.000000
2613.468262 3387.000000
2614.381836 3457.000000
2615.294189 3388.000000
2616.206543 3471.000000
2617.117920 3334.000000
2618.029053 3346.000000
2618.939453 3182.000000
2619.849609 3308.000000
2620.759033 3258.000000
2621.667969 3316.000000
2622.575928 3224.000000
2623.484131 3303.000000
2624.391357 3296.000000
2625.298096 3201.000000
2626.204102 3144.000000
2627.109863 3181.000000
2628.014893 3250.000000
2628.919678 3163.000000
2629.823730 3175.000000
2630.726807 3152.000000
2631.629883 3045.000000
2632.531982 3015.000000
2633.434082 3178.000000
2634.335938 3158.000000
2635.236084 3052.000000
2636.136475 3127.000000
2637.036133 3119.000000
2637.935547 3032.000000
2638.833496 3024.000000
2639.731934 3095.000000
2640.629883 2970.000000
2641.527100 2922.000000
2642.423096 2955.000000
2643.319092 2964.000000
2644.214844 2874.000000
2645.109863 3037.000000
2646.004639 2923.000000
2646.897949 2962.000000
2647.791260 2916.000000
2648.684326 2833.000000
2649.577148 2911.000000
2650.468262 2902.000000
2651.359619 2864.000000
2652.250488 2816.000000
2653.140625 2818.000000
2654.030518 2843.000000
2654.919189 2871.000000
2655.808105 2828.000000
2656.696533 2809.000000
2657.583984 2733.000000
2658.470459 2817.000000
2659.357422 2882.000000
2660.243652 2753.000000
2661.129395 2701.000000
2662.013916 2813.000000
2662.898438 2761.000000
2663.782715 2799.000000
2664.666260 2858.000000
2665.549316 2773.000000
2666.431641 2697.000000
2667.313477 2867.000000
2668.194580 2874.000000
2669.075928 2859.000000
2669.955811 2851.000000
2670.835938 2923.000000
2671.715332 2810.000000
2672.594727 2851.000000
2673.473389 2769.000000
2674.350342 2762.000000
2675.228027 2729.000000
2676.104980 2816.000000
2676.981201 2699.000000
2677.856934 2795.000000
2678.731934 2703.000000
2679.607178 2646.000000
2680.481445 2648.000000
2681.355225 2569.000000
2682.228271 2619.000000
2683.101074 2715.000000
2683.973633 2576.000000
2684.845459 2680.000000
2685.716553 2506.000000
2686.587402 2654.000000
2687.457764 2647.000000
2688.327881 2541.000000
2689.196289 2501.000000
2690.065430 2677.000000
2690.933838 2624.000000
2691.802002 2606.000000
2692.669434 2478.000000
2693.535645 2670.000000
2694.402344 2453.000000
2695.268066 2571.000000
2696.133789 2516.000000
2696.998047 2452.000000
2697.863037 2481.000000
2698.726563 2393.000000
2699.590332 2455.000000
2700.452637 2504.000000
2701.315430 2435.000000
2702.177246 2485.000000
2703.038574 2391.000000
2703.899902 2454.000000
2704.760010 2476.000000
2705.620117 2511.000000
2706.479736 2490.000000
2707.339111 2402.000000
2708.196777 2553.000000
2709.054688 2389.000000
2709.913086 2443.000000
2710.770264 2444.000000
2711.626709 2432.000000
2712.482666 2429.000000
2713.338623 2370.000000
2714.193848 2338.000000
2715.048340 2351.000000
2715.902344 2307.000000
2716.756348 2309.000000
2717.609375 2261.000000
2718.462646 2303.000000
2719.314209 2314.000000
2720.166260 2314.000000
2721.018066 2290.000000
2721.868652 2362.000000
2722.719238 2235.000000
2723.569336 2309.000000
2724.418701 2233.000000
2725.268066 2279.000000
2726.116211 2203.000000
2726.963867 2234.000000
2727.812012 2345.000000
2728.658936 2349.000000
2729.506348 2251.000000
2730.352295 2286.000000
2731.197510 2236.000000
2732.043213 2207.000000
2732.887939 2286.000000
2733.732666 2231.000000
2734.576172 2217.000000
2735.419922 2188.000000
2736.262939 2102.000000
2737.105469 2244.000000
2737.947021 2199.000000
2738.789063 2165.000000
2739.630127 2193.000000
2740.470947 2223.000000
2741.311523 2233.000000
2742.150879 2185.000000
2742.990234 2237.000000
2743.829590 2230.000000
2744.667725 2230.000000
2745.505371 2294.000000
2746.343018 2197.000000
2747.180176 2187.000000
2748.017090 2196.000000
2748.853516 2164.000000
2749.688721 2156.000000
2750.524170 2129.000000
2751.359131 2126.000000
2752.193359 2172.000000
2753.027344 2048.000000
2753.860840 2076.000000
2754.694336 2063.000000
2755.526855 2051.000000
2756.358887 2128.000000
2757.190430 2151.000000
2758.021973 2117.000000
2758.852539 2085.000000
2759.683350 1986.000000
2760.512939 2028.000000
2761.342529 2026.000000
2762.171875 2063.000000
2763.000488 1997.000000
2763.828613 2091.000000
2764.656250 2001.000000
2765.483887 2025.000000
2766.311035 1963.000000
2767.137451 2094.000000
2767.963379 1990.000000
2768.788818 1993.000000
2769.614014 1950.000000
2770.439209 1962.000000
2771.263184 1940.000000
2772.087158 1928.000000
2772.911133 1866.000000
2773.733887 1860.000000
2774.556885 1916.000000
2775.378662 1891.000000
2776.200439 1945.000000
2777.022217 1856.000000
2777.843018 1944.000000
2778.663086 1884.000000
2779.483398 1827.000000
2780.303223 1978.000000
2781.123047 1860.000000
2781.940918 1797.000000
2782.760010 1825.000000
2783.577881 1809.000000
2784.395508 1820.000000
2785.212646 1748.000000
2786.029297 1738.000000
2786.845703 1825.000000
2787.661621 1766.000000
2788.477295 1848.000000
2789.291992 1764.000000
2790.107178 1820.000000
2790.921631 1842.000000
2791.735596 1848.000000
2792.549316 1752.000000
2793.361816 1696.000000
2794.174561 1736.000000
2794.986816 1776.000000
2795.798584 1757.000000
2796.609619 1675.000000
2797.421387 1780.000000
2798.231934 1693.000000
2799.042480 1691.000000
2799.851563 1721.000000
2800.661377 1751.000000
2801.470459 1755.000000
2802.279297 1630.000000
2803.087646 1666.000000
2803.895020 1634.000000
2804.702881 1746.000000
2805.510010 1810.000000
2806.316895 1648.000000
2807.122559 1743.000000
2807.928711 1672.000000
2808.734131 1696.000000
2809.539551 1723.000000
2810.344238 1696.000000
2811.147949 1614.000000
2811.952148 1659.000000
2812.755859 1660.000000
2813.559326 1650.000000
2814.361328 1617.000000
2815.164063 1572.000000
2815.966064 1617.000000
2816.767822 1756.000000
2817.569092 1592.000000
2818.369873 1578.000000
2819.170166 1713.000000
2819.970703 1641.000000
2820.770264 1667.000000
2821.569336 1696.000000
2822.368408 1557.000000
2823.167236 1629.000000
2823.965576 1686.000000
2824.762939 1679.000000
2825.560547 1627.000000
2826.357422 1682.000000
2827.154541 1630.000000
2827.950928 1513.000000
2828.746582 1634.000000
2829.542236 1599.000000
2830.337646 1335.000000
2831.132568 1588.000000
2831.926758 1618.000000
2832.720947 1593.000000
2833.514893 1574.000000
2834.308350 1537.000000
2835.101074 1619.000000
2835.893555 1593.000000
2836.686035 1687.000000
2837.478271 1571.000000
2838.270020 1605.000000
2839.060791 1662.000000
2839.851563 1562.000000
2840.642578 1566.000000
2841.432617 1514.000000
2842.222168 1611.000000
2843.011963 1607.000000
2843.800781 1520.000000
2844.589600 1568.000000
2845.378418 1492.000000
2846.166260 1554.000000
2846.953613 1542.000000
2847.741211 1517.000000
2848.528320 1524.000000
2849.314697 1571.000000
2850.101074 1528.000000
2850.887207 1520.000000
2851.672852 1459.000000
2852.457520 1427.000000
2853.242676 1494.000000
2854.027588 1472.000000
2854.811768 1472.000000
2855.595947 1501.000000
2856.378906 1477.000000
2857.162109 1443.000000
2857.945068 1444.000000
2858.727539 1499.000000
2859.509766 1469.000000
2860.291504 1530.000000
2861.072998 1479.000000
2861.854736 1556.000000
2862.635742 1501.000000
2863.416016 1499.000000
2864.196045 1444.000000
2864.976074 1553.000000
2865.755859 1481.000000
2866.534668 1634.000000
2867.313721 1450.000000
2868.092285 1561.000000
2868.870605 1589.000000
2869.648438 1634.000000
2870.426025 1609.000000
2871.203369 1544.000000
2871.980469 1641.000000
2872.757080 1601.000000
2873.533203 1660.000000
2874.309326 1677.000000
2875.084961 1728.000000
2875.860352 1725.000000
2876.635254 1678.000000
2877.409912 1732.000000
2878.184570 1802.000000
2878.958984 1727.000000
2879.732666 1742.000000
2880.505615 1785.000000
2881.279297 1785.000000
2882.052002 1687.000000
2882.824707 1890.000000
2883.596680 1751.000000
2884.368408 1790.000000
2885.140625 1559.000000
2885.911621 1749.000000
2886.682129 1784.000000
2887.453125 1670.000000
2888.224121 1780.000000
2888.994385 1546.000000
2889.763672 1735.000000
2890.533203 1640.000000
2891.302734 1737.000000
2892.071777 1720.000000
2892.840332 1684.000000
2893.608887 1574.000000
2894.376465 1632.000000
2895.144531 1699.000000
2895.912109 1692.000000
2896.679688 1528.000000
2897.446045 1449.000000
2898.213379 1593.000000
2898.979492 1662.000000
2899.745850 1512.000000
2900.510742 1568.000000
2901.276123 1535.000000
2902.041992 1582.000000
2902.806396 1595.000000
2903.570801 1605.000000
2904.335449 1549.000000
2905.099121 1526.000000
2905.863525 1479.000000
2906.627197 1587.000000
2907.390137 1370.000000
2908.152832 1519.000000
2908.916016 1408.000000
2909.678711 1438.000000
2910.440186 1550.000000
2911.202148 1550.000000
spectrumdark 2048
-97.028587 6208.000000
-94.401718 6208.000000
-91.776726 6126.000000
-89.153625 6492.000000
-86.532394 5798.000000
-83.913063 6306.000000
-81.295593 6196.000000
-78.680000 6444.000000
-76.066284 6229.000000
-73.454445 5936.000000
-70.844467 6117.000000
-68.236374 6040.000000
-65.630127 6024.000000
-63.025753 6067.000000
-60.423244 6101.000000
-57.822590 5722.000000
-55.223797 6269.000000
-52.626862 6860.000000
-50.031780 6510.000000
-47.438553 6527.000000
-44.847176 6244.000000
-42.257645 6731.000000
-39.669956 5949.000000
-37.084118 6045.000000
-34.500122 6503.000000
-31.917963 5765.000000
-29.337650 6398.000000
-26.759165 5738.000000
-24.182522 6210.000000
-21.607704 6283.000000
-19.034727 6499.000000
-16.463570 6557.000000
-13.894247 6844.000000
-11.326749 7765.000000
-8.761069 6310.000000
-6.197216 6522.000000
-3.635175 6050.000000
-1.074959 5889.000000
1.483449 6154.000000
4.040036 7028.000000
6.594818 6704.000000
9.147783 6004.000000
11.698948 6763.000000
14.248300 6545.000000
16.795856 6736.000000
19.341600 6004.000000
21.885551 5809.000000
24.427698 6718.000000
26.968048 6810.000000
29.506613 6933.000000
32.043381 6228.000000
34.578346 5771.000000
37.111534 7308.000000
39.642941 6405.000000
42.172554 7167.000000
44.700371 6524.000000
47.226429 7879.000000
49.750698 5680.000000
52.273197 6258.000000
54.793900 6738.000000
57.312847 6273.000000
59.830021 6451.000000
62.345417 6680.000000
64.859032 5704.000000
67.370895 5780.000000
69.881012 6563.000000
72.389336 6627.000000
74.895905 5984.000000
77.400726 6369.000000
79.903793 6456.000000
82.405083 6331.000000
84.904633 6231.000000
87.402428 6433.000000
89.898491 5758.000000
92.392776 7285.000000
94.885323 5854.000000
97.376152 6958.000000
99.865211 7186.000000
102.352524 6420.000000
104.838112 6270.000000
107.321960 6497.000000
109.804062 5832.000000
112.284439 6649.000000
114.763092 6228.000000
117.240021 6573.000000
119.715195 7251.000000
122.188660 6888.000000
124.660393 5918.000000
127.130417 6788.000000
129.598694 6327.000000
132.065292 6338.000000
134.530136 5736.000000
136.993286 6216.000000
139.454697 7352.000000
141.914413 6791.000000
144.372406 6392.000000
146.828705 6008.000000
149.283295 5905.000000
151.736160 6857.000000
154.187347 6434.000000
156.636841 6616.000000
159.084610 6112.000000
161.530670 6583.000000
163.975052 8759.000000
166.417755 6537.000000
168.858765 6849.000000
171.298065 6312.000000
173.735657 7267.000000
176.171616 6602.000000
178.605835 6986.000000
181.038376 7187.000000
183.469269 6769.000000
185.898438 6791.000000
188.325958 6756.000000
190.751801 6365.000000
193.175964 6702.000000
195.598465 7159.000000
198.019272 7386.000000
200.438416 6541.000000
202.855896 6039.000000
205.271683 7633.000000
207.685822 7082.000000
210.098328 6373.000000
212.509155 6107.000000
214.918304 6279.000000
217.325821 7510.000000
219.731628 6196.000000
222.135849 6611.000000
224.538361 6690.000000
226.939255 6954.000000
229.338501 6489.000000
231.736084 6861.000000
234.132004 7282.000000
236.526306 6552.000000
238.918945 5924.000000
241.309967 6854.000000
243.699326 6554.000000
246.087067 6440.000000
248.473160 6997.000000
250.857620 6132.000000
253.240433 7941.000000
255.621674 6705.000000
258.001190 6717.000000
260.379150 6543.000000
262.755432 7621.000000
265.130157 7607.000000
267.503235 7918.000000
269.874664 6211.000000
272.244446 6483.000000
274.612671 5950.000000
276.979248 6362.000000
279.344238 6764.000000
281.707611 6026.000000
284.069336 6299.000000
286.429474 7161.000000
288.787994 6008.000000
291.144928 6585.000000
293.500244 6448.000000
295.853973 6019.000000
298.206055 6038.000000
300.556580 6361.000000
302.905518 6398.000000
305.252808 6857.000000
307.598572 6511.000000
309.942657 6605.000000
312.285217 7411.000000
314.626160 7637.000000
316.965485 7231.000000
319.303253 7027.000000
321.639465 8143.000000
323.974030 6363.000000
326.307037 6482.000000
328.638489 6015.000000
330.968353 6631.000000
333.296631 6387.000000
335.623291 7270.000000
337.948456 6376.000000
340.272003 6246.000000
342.593994 6034.000000
344.914429 7590.000000
347.233246 7789.000000
349.550507 6008.000000
351.866241 5821.000000
354.180389 6969.000000
356.492950 6381.000000
358.803955 6423.000000
361.113434 7136.000000
363.421387 6411.000000
365.727722 5699.000000
368.032471 6462.000000
370.335754 6467.000000
372.637421 6317.000000
374.937592 6366.000000
377.236206 6339.000000
379.533264 6041.000000
381.828766 6090.000000
384.122742 5934.000000
386.415131 5285.000000
388.706024 5642.000000
390.995392 6282.000000
393.283173 6292.000000
395.569427 6545.000000
397.854187 7043.000000
400.137329 6113.000000
402.419037 6408.000000
404.699219 6153.000000
406.977814 7242.000000
409.254883 6546.000000
411.530426 6795.000000
413.804443 6560.000000
416.077026 6518.000000
418.347992 6316.000000
420.617462 6456.000000
422.885437 7106.000000
425.151855 7297.000000
427.416779 6364.000000
429.680237 6368.000000
431.942108 6532.000000
434.202515 6020.000000
436.461365 6686.000000
438.718750 6169.000000
440.974640 5741.000000
443.229034 5840.000000
445.481903 5524.000000
447.733215 6936.000000
449.983124 6111.000000
452.231445 6290.000000
454.478333 5684.000000
456.723755 6461.000000
458.967621 6549.000000
461.209991 6918.000000
463.450867 5684.000000
465.690338 6760.000000
467.928223 5462.000000
470.164673 5951.000000
472.399597 6049.000000
474.633057 7317.000000
476.865082 6764.000000
479.095581 5764.000000
481.324585 6479.000000
483.552124 6331.000000
485.778168 6003.000000
488.002777 6552.000000
490.225922 5896.000000
492.447601 6466.000000
494.667725 6806.000000
496.886444 5682.000000
499.103668 6333.000000
501.319519 5585.000000
503.533752 6173.000000
505.746674 6501.000000
507.958008 6468.000000
510.167908 6946.000000
512.376404 6539.000000
514.583496 6626.000000
516.789001 6423.000000
518.993103 6644.000000
521.195679 6181.000000
523.396851 6650.000000
525.596680 6716.000000
527.794983 7003.000000
529.991760 5368.000000
532.187195 5907.000000
534.381104 5600.000000
536.573669 7552.000000
538.764709 6751.000000
540.954346 6080.000000
543.142578 6947.000000
545.329285 7184.000000
547.514526 6809.000000
549.698486 6202.000000
551.880859 6517.000000
554.061890 6083.000000
556.241394 6036.000000
558.419617 5923.000000
560.596313 5973.000000
562.771606 6427.000000
564.945496 6474.000000
567.117920 5993.000000
569.288940 6094.000000
571.458496 6374.000000
573.626770 5282.000000
575.793518 6448.000000
577.958801 6375.000000
580.122681 6173.000000
582.285278 5852.000000
584.446350 6084.000000
586.606018 5685.000000
588.764343 5779.000000
590.921143 6175.000000
593.076599 6645.000000
595.230652 5872.000000
597.383362 6119.000000
599.534546 7314.000000
601.684387 6786.000000
603.832886 6650.000000
605.979797 6092.000000
608.125488 6498.000000
610.269775 6409.000000
612.412598 7064.000000
614.553955 6228.000000
616.694092 6433.000000
618.832703 7657.000000
620.970032 5730.000000
623.105896 6644.000000
625.240356 6936.000000
627.373352 7195.000000
629.505188 6643.000000
631.635559 6548.000000
633.764526 6793.000000
635.892029 6532.000000
638.018250 6143.000000
640.142944 7427.000000
642.266418 6464.000000
644.388550 6851.000000
646.509216 6953.000000
648.628540 6623.000000
650.746460 5715.000000
652.863037 5740.000000
654.978210 6446.000000
657.092041 6478.000000
659.204407 5931.000000
661.315552 6183.000000
663.425293 5440.000000
665.533569 6616.000000
667.640686 6408.000000
669.746338 6846.000000
671.850525 5902.000000
673.953491 5769.000000
676.055054 6961.000000
678.155273 5437.000000
680.254089 6761.000000
682.351563 6369.000000
684.447754 7002.000000
686.542480 6263.000000
688.635986 7122.000000
690.728149 6710.000000
692.818787 7983.000000
694.908203 6677.000000
696.996338 6494.000000
699.083008 6073.000000
701.168457 6717.000000
703.252380 5206.000000
705.335083 5990.000000
707.416504 5976.000000
709.496460 7611.000000
711.575195 6254.000000
713.652466 5604.000000
715.728455 6660.000000
717.803162 6137.000000
719.876587 7027.000000
721.948486 6329.000000
724.019226 7492.000000
726.088623 5825.000000
728.156616 6507.000000
730.223267 6430.000000
732.288696 7119.000000
734.352783 5777.000000
736.415527 6207.000000
738.476929 6567.000000
740.537048 6696.000000
742.595764 6082.000000
744.653259 6691.000000
746.709473 6446.000000
748.764282 6719.000000
750.817810 6449.000000
752.869934 7492.000000
754.920837 5850.000000
756.970520 6684.000000
759.018738 6403.000000
761.065735 6230.000000
763.111450 7097.000000
765.155762 5420.000000
767.198792 5761.000000
769.240601 14999.000000
771.281067 6980.000000
773.320129 6415.000000
775.358032 6140.000000
777.394592 6002.000000
779.429932 5419.000000
781.463928 5841.000000
783.496521 6994.000000
785.527954 5541.000000
787.557983 11569.000000
789.586731 6006.000000
791.614319 6390.000000
793.640564 6452.000000
795.665405 5878.000000
797.689148 5623.000000
799.711487 6408.000000
801.732605 5876.000000
803.752380 6772.000000
805.770874 4949.000000
807.788147 6743.000000
809.804016 6844.000000
811.818726 5756.000000
813.832092 6481.000000
815.844238 6287.000000
817.855164 6162.000000
819.864746 6653.000000
821.873108 5352.000000
823.880066 5718.000000
825.885803 6086.000000
827.890320 5781.000000
829.893555 5710.000000
831.895508 6504.000000
833.896179 6188.000000
835.895630 5952.000000
837.893738 6398.000000
839.890747 7021.000000
841.886353 6297.000000
843.880798 6053.000000
845.873901 6256.000000
847.865784 6821.000000
849.856323 5630.000000
851.845581 6891.000000
853.833801 6054.000000
855.820618 5764.000000
857.806213 6447.000000
859.790527 7313.000000
861.773743 6367.000000
863.755554 6397.000000
865.736145 5897.000000
867.715454 7770.000000
869.693604 7067.000000
871.670410 6234.000000
873.645935 6071.000000
875.620422 6254.000000
877.593445 5996.000000
879.565430 5510.000000
881.536072 6465.000000
883.505554 6199.000000
885.473694 5629.000000
887.440674 5288.000000
889.406311 6133.000000
891.370789 5843.000000
893.334045 6022.000000
895.296082 6538.000000
897.256836 5885.000000
899.216370 6407.000000
901.174622 6730.000000
903.131775 6400.000000
905.087769 6072.000000
907.042358 6878.000000
908.995728 6570.000000
910.947937 6500.000000
912.898926 6492.000000
914.848633 7156.000000
916.797180 6377.000000
918.744507 6176.000000
920.690552 6125.000000
922.635315 6133.000000
924.579041 6373.000000
926.521606 6034.000000
928.462891 5624.000000
930.402832 6503.000000
932.341675 5774.000000
934.279236 5538.000000
936.215576 6000.000000
938.150757 5864.000000
940.084656 6146.000000
942.017456 5933.000000
943.949036 6933.000000
945.879456 5240.000000
947.808655 6421.000000
949.736511 7064.000000
951.663330 6691.000000
953.588867 6022.000000
955.513123 5389.000000
957.436279 5990.000000
959.358276 6781.000000
961.278992 7354.000000
963.198547 6493.000000
965.116943 5311.000000
967.034302 6449.000000
968.950195 6463.000000
970.864990 6197.000000
972.778564 6035.000000
974.690979 6410.000000
976.602173 6534.000000
978.512207 5491.000000
980.420959 6283.000000
982.328674 6103.000000
984.235168 6424.000000
986.140442 5808.000000
988.044617 6862.000000
989.947571 6198.000000
991.849304 6798.000000
993.749878 6549.000000
995.649292 6672.000000
997.547485 5285.000000
999.444519 6585.000000
1001.340332 6541.000000
1003.234985 7715.000000
1005.128540 5652.000000
1007.020813 7159.000000
1008.912170 6142.000000
1010.802185 5434.000000
1012.690979 6595.000000
1014.578613 6288.000000
1016.465088 6942.000000
1018.350403 6753.000000
1020.234558 5992.000000
1022.117493 5891.000000
1023.999390 6304.000000
1025.880005 5192.000000
1027.759521 5883.000000
1029.638062 6100.000000
1031.515259 5463.000000
1033.391113 6264.000000
1035.265991 5961.000000
1037.139893 6694.000000
1039.012329 7081.000000
1040.883789 6835.000000
1042.753906 5545.000000
1044.623047 5551.000000
1046.490967 5809.000000
1048.357788 7079.000000
1050.223511 6715.000000
1052.088013 6482.000000
1053.951416 6547.000000
1055.813477 6542.000000
1057.674561 5979.000000
1059.534546 6479.000000
1061.393188 6657.000000
1063.250732 5834.000000
1065.107178 6721.000000
1066.962524 5986.000000
1068.816650 5850.000000
1070.669922 6250.000000
1072.521729 6389.000000
1074.372559 6234.000000
1076.222168 6149.000000
1078.070557 5793.000000
1079.918091 8029.000000
1081.764282 5635.000000
1083.609253 6296.000000
1085.453369 5403.000000
1087.296143 5555.000000
1089.137695 6530.000000
1090.978516 5523.000000
1092.817749 5829.000000
1094.656250 6106.000000
1096.493408 6115.000000
1098.329346 6812.000000
1100.164307 6590.000000
1101.998047 5418.000000
1103.830811 5780.000000
1105.662231 6202.000000
1107.492798 7328.000000
1109.322021 6609.000000
1111.150269 6492.000000
1112.977295 7145.000000
1114.803345 5480.000000
1116.628174 6369.000000
1118.451904 7171.000000
1120.274414 6125.000000
1122.095825 5879.000000
1123.916382 5949.000000
1125.735474 6607.000000
1127.553711 7155.000000
1129.370605 6846.000000
1131.186646 6707.000000
1133.001465 6567.000000
1134.815186 5643.000000
1136.627808 5875.000000
1138.439209 5697.000000
1140.249634 6174.000000
1142.058960 6787.000000
1143.866943 6962.000000
1145.674194 5995.000000
1147.479980 5970.000000
1149.284912 5441.000000
1151.088745 5430.000000
1152.891357 6157.000000
1154.693115 6087.000000
1156.493408 6189.000000
1158.292725 6099.000000
1160.091064 5884.000000
1161.888062 5559.000000
1163.684326 5935.000000
1165.479248 6094.000000
1167.273071 6359.000000
1169.066040 7805.000000
1170.857666 5786.000000
1172.648315 6559.000000
1174.437988 6064.000000
1176.226196 5886.000000
1178.013550 7567.000000
1179.799805 6832.000000
1181.584961 5842.000000
1183.369019 6077.000000
1185.151978 7733.000000
1186.933960 5930.000000
1188.714722 5928.000000
1190.494507 6293.000000
1192.273193 7019.000000
1194.050903 6718.000000
1195.827393 7232.000000
1197.602783 6585.000000
1199.377075 6590.000000
1201.150269 6798.000000
1202.922607 6645.000000
1204.693604 6689.000000
1206.463745 5658.000000
1208.232666 6213.000000
1210.000488 6332.000000
1211.767456 5934.000000
1213.533081 5959.000000
1215.297729 7029.000000
1217.061279 6658.000000
1218.823730 6004.000000
1220.585327 6752.000000
1222.345703 5926.000000
1224.104980 6335.000000
1225.863403 6077.000000
1227.620605 7064.000000
1229.376709 6485.000000
1231.131714 5584.000000
1232.885864 6019.000000
1234.638672 5867.000000
1236.390503 6072.000000
1238.141479 5978.000000
1239.891113 4928.000000
1241.639893 7066.000000
1243.387329 6467.000000
1245.134033 6621.000000
1246.879517 6500.000000
1248.624146 6441.000000
1250.367432 6872.000000
1252.109741 6678.000000
1253.850952 5366.000000
1255.591309 5101.000000
1257.330566 5826.000000
1259.068604 6656.000000
1260.805786 7120.000000
1262.541748 6153.000000
1264.276733 6475.000000
1266.010742 7269.000000
1267.743774 5965.000000
1269.475586 6289.000000
1271.206421 6454.000000
1272.936035 7331.000000
1274.664795 5922.000000
1276.392456 5702.000000
1278.119019 5599.000000
1279.844727 5517.000000
1281.569092 6403.000000
1283.292603 5268.000000
1285.015137 6900.000000
1286.736694 6643.000000
1288.457031 6218.000000
1290.176392 6723.000000
1291.894653 7289.000000
1293.611938 6465.000000
1295.328247 5798.000000
1297.043335 6448.000000
1298.757446 6191.000000
1300.470581 5811.000000
1302.182861 6531.000000
1303.893921 8320.000000
1305.604004 5337.000000
1307.312988 6363.000000
1309.020752 6698.000000
1310.727905 7091.000000
1312.433594 5817.000000
1314.138550 6955.000000
1315.842529 6107.000000
1317.545288 5992.000000
1319.247070 6626.000000
1320.947998 6103.000000
1322.647583 8762.000000
1324.346313 7209.000000
1326.044312 5656.000000
1327.740967 6537.000000
1329.436523 7214.000000
1331.131226 6837.000000
1332.824707 5765.000000
1334.517334 5452.000000
1336.209106 7471.000000
1337.899536 6296.000000
1339.589233 6643.000000
1341.277832 6119.000000
1342.965332 7608.000000
1344.651855 5715.000000
1346.337280 6804.000000
1348.021729 6018.000000
1349.705322 7311.000000
1351.387695 6437.000000
1353.069092 6026.000000
1354.749634 6561.000000
1356.428955 6753.000000
1358.107666 5890.000000
1359.785034 6562.000000
1361.461304 5852.000000
1363.136597 5630.000000
1364.811157 6635.000000
1366.484497 6561.000000
1368.156860 6853.000000
1369.828247 5241.000000
1371.498657 6804.000000
1373.167969 6251.000000
1374.836304 5767.000000
1376.503784 5995.000000
1378.170166 6403.000000
1379.835571 6172.000000
1381.500000 5867.000000
1383.163208 5915.000000
1384.825806 5771.000000
1386.487061 6439.000000
1388.147461 6596.000000
1389.806763 6494.000000
1391.465088 6519.000000
1393.122681 6918.000000
1394.779053 6531.000000
1396.434570 7029.000000
1398.088867 6388.000000
1399.742310 5918.000000
1401.394653 6172.000000
1403.046265 6491.000000
1404.696655 7191.000000
1406.345947 6284.000000
1407.994507 7569.000000
1409.641968 7953.000000
1411.288452 6214.000000
1412.934082 6318.000000
1414.578735 6053.000000
1416.222168 7046.000000
1417.864746 7158.000000
1419.506226 6929.000000
1421.146851 6529.000000
1422.786499 6542.000000
1424.425049 6029.000000
1426.062744 6597.000000
1427.699341 6414.000000
1429.334961 6018.000000
1430.969849 6452.000000
1432.603638 5914.000000
1434.236328 6223.000000
1435.868042 5760.000000
1437.498901 6188.000000
1439.128662 6100.000000
1440.757324 7809.000000
1442.385376 6051.000000
1444.012329 6312.000000
1445.638062 6241.000000
1447.263184 6200.000000
1448.887207 6610.000000
1450.510254 6027.000000
1452.132324 6013.000000
1453.753296 7383.000000
1455.373291 6333.000000
1456.992554 6952.000000
1458.610474 5726.000000
1460.227783 5646.000000
1461.844116 5566.000000
1463.459229 7311.000000
1465.073486 6313.000000
1466.686890 5220.000000
1468.299194 5606.000000
1469.910645 6328.000000
1471.521240 6379.000000
1473.130615 6051.000000
1474.739014 6040.000000
1476.346558 6280.000000
1477.953125 6664.000000
1479.558960 5271.000000
1481.163574 6318.000000
1482.767334 5528.000000
1484.369873 6844.000000
1485.971802 5548.000000
1487.572510 5563.000000
1489.172485 5649.000000
1490.771362 6212.000000
1492.369385 6513.000000
1493.966309 6701.000000
1495.562378 6350.000000
1497.157471 6046.000000
1498.751587 5520.000000
1500.344971 6626.000000
1501.937256 5571.000000
1503.528320 6260.000000
1505.118896 6820.000000
1506.708130 6540.000000
1508.296753 6197.000000
1509.884277 6559.000000
1511.470703 6896.000000
1513.056396 6217.000000
1514.640991 6596.000000
1516.224731 6303.000000
1517.807373 6298.000000
1519.389282 6648.000000
1520.970093 6694.000000
1522.550171 6053.000000
1524.129028 6319.000000
1525.707031 6425.000000
1527.284302 6297.000000
1528.860352 5725.000000
1530.435669 5942.000000
1532.009888 6383.000000
1533.583374 5551.000000
1535.155640 5991.000000
1536.727173 6402.000000
1538.297729 6492.000000
1539.867432 6374.000000
1541.435913 5434.000000
1543.003662 6695.000000
1544.570557 5697.000000
1546.136230 6885.000000
1547.701172 5977.000000
1549.265015 5125.000000
1550.828247 7486.000000
1552.390137 6319.000000
1553.951416 6006.000000
1555.511597 5730.000000
1557.071045 5746.000000
1558.629395 5909.000000
1560.187012 6255.000000
1561.743530 7052.000000
1563.298828 5893.000000
1564.853516 6401.000000
1566.407471 5678.000000
1567.960449 6371.000000
1569.512085 5696.000000
1571.062988 5906.000000
1572.613159 6275.000000
1574.162354 6408.000000
1575.710205 5807.000000
1577.257568 5512.000000
1578.803955 5769.000000
1580.349487 5034.000000
1581.894043 6688.000000
1583.437378 6391.000000
1584.980103 6672.000000
1586.521973 6458.000000
1588.062744 6745.000000
1589.602539 5857.000000
1591.141602 6730.000000
1592.679565 6004.000000
1594.217041 6184.000000
1595.753174 5875.000000
1597.288208 6750.000000
1598.822754 6304.000000
1600.356323 5980.000000
1601.889038 6068.000000
1603.420166 6298.000000
1604.951050 6305.000000
1606.481079 5848.000000
1608.009888 6197.000000
1609.537598 6188.000000
1611.064697 5948.000000
1612.591064 5830.000000
1614.116455 6272.000000
1615.640991 5851.000000
1617.164185 5792.000000
1618.686646 5625.000000
1620.208374 6624.000000
1621.729248 7004.000000
1623.248657 6602.500000
1624.767578 6201.000000
1626.285767 6122.000000
1627.803101 5960.000000
1629.319336 6440.000000
1630.834229 7041.000000
1632.348633 6863.000000
1633.862305 5828.000000
1635.374878 6896.000000
1636.886230 6072.000000
1638.397217 6527.000000
1639.907104 6243.000000
1641.416138 6201.000000
1642.923828 5685.000000
1644.431152 6112.000000
1645.937622 7135.000000
1647.443115 6294.000000
1648.947754 6871.000000
1650.450928 6174.000000
1651.953491 6613.000000
1653.455688 6415.000000
1654.956543 6721.000000
1656.456299 7627.000000
1657.955200 5976.000000
1659.453735 6542.000000
1660.951050 6310.000000
1662.447632 5910.000000
1663.942627 6571.000000
1665.437378 6325.000000
1666.931274 5249.000000
1668.424194 5629.000000
1669.915771 6093.500000
1671.406860 6558.000000
1672.897339 6142.000000
1674.386719 5998.000000
1675.874634 6930.000000
1677.362305 6934.000000
1678.848999 6044.000000
1680.334839 5384.000000
1681.819824 6081.000000
1683.303345 6168.000000
1684.786621 6369.000000
1686.269043 5849.000000
1687.750366 6285.000000
1689.230225 6291.000000
1690.709839 5501.000000
1692.188721 6679.000000
1693.666626 6071.000000
1695.143555 6206.000000
1696.619263 5814.000000
1698.094604 6110.000000
1699.568726 6355.000000
1701.042236 5546.000000
1702.514282 5620.000000
1703.986084 6893.000000
1705.456909 6432.000000
1706.926880 7138.000000
1708.395508 5212.000000
1709.863647 5869.000000
1711.331055 6427.000000
1712.797363 5545.000000
1714.263062 5796.000000
1715.727051 6252.000000
1717.190918 5974.000000
1718.653931 7094.000000
1720.115967 6447.000000
1721.576782 6728.000000
1723.036987 5484.000000
1724.496460 5681.000000
1725.955078 6212.000000
1727.412720 6102.000000
1728.869019 6333.000000
1730.325073 6120.000000
1731.780151 6499.000000
1733.234253 6096.000000
1734.687134 6917.000000
1736.139771 5931.000000
1737.591309 6769.000000
1739.042114 5922.000000
1740.491943 6665.000000
1741.940430 6002.000000
1743.388550 7403.000000
1744.835815 6662.000000
1746.282349 6724.000000
1747.727295 6711.000000
1749.171997 6204.000000
1750.615845 6003.000000
1752.058838 5520.000000
1753.500366 6629.000000
1754.941650 6418.000000
1756.382080 6366.000000
1757.821533 6314.000000
1759.260010 5333.000000
1760.697510 6130.000000
1762.134521 7605.000000
1763.570557 5904.000000
1765.005737 7140.000000
1766.439453 6178.000000
1767.873047 6468.000000
1769.305664 6763.000000
1770.737427 5752.000000
1772.168335 5792.000000
1773.598022 6441.000000
1775.026978 6209.000000
1776.455444 6294.000000
1777.882935 6756.000000
1779.309082 6273.000000
1780.734985 5627.000000
1782.159790 6943.000000
1783.583984 5609.000000
1785.006714 6720.000000
1786.428955 6587.000000
1787.850464 6894.000000
1789.271240 5950.000000
1790.691040 6190.000000
1792.109497 6161.000000
1793.527466 6911.000000
1794.944824 5504.000000
1796.361328 6060.000000
1797.776367 6565.000000
1799.191040 5891.000000
1800.605103 6671.000000
1802.017944 6044.000000
1803.430176 6964.000000
1804.841064 7179.000000
1806.251465 7859.000000
1807.661133 6539.000000
1809.069824 6009.000000
1810.477417 5461.000000
1811.884521 6466.000000
1813.290771 6390.000000
1814.696045 6707.000000
1816.100220 5990.000000
1817.504028 5978.000000
1818.906860 6257.000000
1820.308838 6129.000000
1821.710205 5934.000000
1823.110107 6416.000000
1824.509399 6588.000000
1825.908203 6711.000000
1827.306152 7502.000000
1828.702759 5848.000000
1830.098755 6748.000000
1831.494019 6017.000000
1832.888672 8234.000000
1834.282349 6080.000000
1835.674683 6853.000000
1837.066528 6405.000000
1838.457764 5931.000000
1839.848022 7113.000000
1841.237061 6101.000000
1842.625732 6135.000000
1844.013428 6003.000000
1845.400391 5883.000000
1846.786011 6958.000000
1848.171387 5902.000000
1849.555908 6419.000000
1850.939697 6291.000000
1852.322388 6435.000000
1853.703857 5385.000000
1855.084839 6609.000000
1856.465332 6322.000000
1857.844849 5862.000000
1859.222900 6014.000000
1860.600830 6194.000000
1861.977783 7831.000000
1863.354004 6069.000000
1864.729370 6085.000000
1866.103271 5709.000000
1867.477051 5800.000000
1868.849976 6242.000000
1870.221802 5971.000000
1871.592651 6938.000000
1872.963135 5510.000000
1874.332520 6117.000000
1875.701416 6104.000000
1877.068726 7134.000000
1878.435913 6045.000000
1879.802124 6056.000000
1881.167603 6859.000000
1882.532349 7520.000000
1883.895508 6836.000000
1885.258545 6971.000000
1886.620728 6336.000000
1887.982056 6514.000000
1889.342041 5681.000000
1890.701660 5849.000000
1892.060669 6231.000000
1893.418701 6708.000000
1894.775879 7304.000000
1896.131836 6007.000000
1897.487549 7662.000000
1898.842285 5838.000000
1900.196167 5561.000000
1901.548950 5997.000000
1902.901245 6027.000000
1904.252808 5961.000000
1905.603516 6964.000000
1906.953003 6534.000000
1908.302002 6647.000000
1909.650146 5831.000000
1910.997681 6159.000000
1912.344482 6313.000000
1913.689697 6884.000000
1915.034668 6131.000000
1916.378906 5506.000000
1917.722290 6587.000000
1919.064331 5995.000000
1920.406128 6733.000000
1921.747070 6998.000000
1923.087280 6177.000000
1924.426514 6327.000000
1925.764771 6234.000000
1927.102417 6490.000000
1928.439331 7052.000000
1929.775391 6730.000000
1931.110229 5627.000000
1932.444702 6757.000000
1933.778442 7328.000000
1935.111328 6313.000000
1936.442749 5833.000000
1937.774292 6378.000000
1939.104492 6654.000000
1940.434204 5836.000000
1941.763062 6130.000000
1943.090698 5922.000000
1944.417847 5068.000000
1945.744263 5932.000000
1947.069946 6613.000000
1948.394287 5800.000000
1949.718384 6701.000000
1951.041626 6333.000000
1952.364136 6504.000000
1953.685547 5871.000000
1955.005981 7544.000000
1956.325806 6130.000000
1957.645264 5563.000000
1958.963745 6893.000000
1960.280884 5959.000000
1961.597656 5876.000000
1962.913696 6584.000000
1964.229004 6711.000000
1965.542847 6326.000000
1966.856445 5703.000000
1968.169312 6265.000000
1969.481323 6032.000000
1970.792725 6062.000000
1972.102783 6360.000000
1973.412354 5955.000000
1974.721191 6251.000000
1976.029419 6653.000000
1977.336304 6104.000000
1978.642578 7212.000000
1979.948486 5567.000000
1981.253174 6415.000000
1982.557373 5954.000000
1983.860352 5789.000000
1985.162964 7592.000000
1986.464600 6154.000000
1987.765625 6886.000000
1989.065063 6097.000000
1990.364624 6650.000000
1991.663086 5288.000000
1992.961060 6109.000000
1994.257446 6133.000000
1995.553833 5775.000000
1996.849243 5589.000000
1998.143921 6544.000000
1999.437744 5783.000000
2000.730347 6579.000000
2002.022461 5695.000000
2003.314087 7186.000000
2004.604980 6492.000000
2005.894287 6211.000000
2007.183350 6890.000000
2008.471680 6034.000000
2009.759277 6076.000000
2011.046021 6681.000000
2012.331665 5694.000000
2013.616943 6376.000000
2014.901245 6096.000000
2016.184937 5620.000000
2017.467285 6075.000000
2018.749268 6569.000000
2020.030762 6869.000000
2021.311279 5937.000000
2022.591064 6132.000000
2023.869751 6810.000000
2025.147705 5907.000000
2026.425171 5922.000000
2027.702026 6322.000000
2028.977173 5837.000000
2030.252441 6709.000000
2031.526733 6062.000000
2032.800049 5977.000000
2034.072510 5917.000000
2035.344604 6171.000000
2036.615601 7062.000000
2037.886353 6597.000000
2039.155762 6018.000000
2040.424072 7039.000000
2041.692383 6646.000000
2042.959717 5980.000000
2044.226318 6034.000000
2045.491699 5717.000000
2046.756470 5587.000000
2048.020996 5461.000000
2049.284180 5877.000000
2050.547119 6469.000000
2051.808105 6199.000000
2053.069580 6143.000000
2054.329834 5998.000000
2055.589355 6450.000000
2056.848145 6359.000000
2058.105957 6895.000000
2059.363281 6195.000000
2060.619873 6017.000000
2061.875000 6577.000000
2063.130127 5626.000000
2064.384277 5607.000000
2065.637695 5747.000000
2066.890381 6878.000000
2068.141846 6350.000000
2069.393066 6281.000000
2070.643555 5707.000000
2071.893311 5494.000000
2073.141602 6500.000000
2074.389893 6536.000000
2075.637207 7487.000000
2076.883789 5634.000000
2078.129639 6084.000000
2079.374268 7105.000000
2080.618408 7668.000000
2081.862061 5538.000000
2083.104736 6025.000000
2084.346191 6992.000000
2085.587402 6043.000000
2086.828125 6412.000000
2088.067871 6836.000000
2089.306396 7067.000000
2090.544434 6196.000000
2091.781738 5866.000000
2093.018799 6653.000000
2094.254395 6177.000000
2095.489258 6270.000000
2096.723877 6125.000000
2097.957520 5648.000000
2099.190186 6111.000000
2100.422119 6923.000000
2101.653564 6412.000000
2102.884033 6854.000000
2104.113770 6028.000000
2105.343262 6067.000000
2106.570801 6054.000000
2107.798584 6033.000000
2109.025635 6332.000000
2110.251709 5572.000000
2111.476318 6470.000000
2112.701172 6997.000000
2113.924805 7106.000000
2115.147949 6273.000000
2116.369873 7629.000000
2117.591553 6065.000000
2118.812256 6878.000000
2120.032227 6081.000000
2121.251709 6218.000000
2122.469727 6599.000000
2123.687744 7067.000000
2124.904785 5744.000000
2126.121338 5866.000000
2127.336182 6609.000000
2128.551270 6323.000000
2129.765381 7018.000000
2130.978760 5749.000000
2132.191406 6116.000000
2133.402588 5895.000000
2134.614014 6630.000000
2135.824219 6700.000000
2137.033936 5970.000000
2138.242188 6212.000000
2139.450439 5651.000000
2140.657959 5917.000000
2141.864258 7785.000000
2143.069824 5949.000000
2144.275146 5696.000000
2145.479492 5559.000000
2146.683105 6299.000000
2147.886230 6250.000000
2149.087891 6614.000000
2150.289307 5349.000000
2151.489990 6383.000000
2152.689941 6154.000000
2153.888672 5949.000000
2155.087158 7012.000000
2156.285156 6255.000000
2157.482178 6079.000000
2158.678467 5228.000000
2159.873535 5298.000000
2161.068359 6177.000000
2162.262451 5691.000000
2163.455566 6078.000000
2164.647705 6984.000000
2165.839600 5996.000000
2167.030762 6375.000000
2168.220947 6335.000000
2169.410400 6508.000000
2170.599365 6757.000000
2171.787354 6285.000000
2172.975098 5778.000000
2174.161377 5962.000000
2175.346924 6665.000000
2176.532227 6070.000000
2177.717041 5867.000000
2178.900635 6376.000000
2180.083496 7572.000000
2181.265381 6347.000000
2182.447021 6053.000000
2183.628174 6602.000000
2184.808105 5740.000000
2185.987061 5557.000000
2187.165527 6422.000000
2188.343750 6895.000000
2189.520752 7304.000000
2190.696777 6856.000000
2191.872559 6103.000000
2193.047852 5601.000000
2194.221680 6731.000000
2195.395020 6196.000000
2196.568115 6201.000000
2197.739990 6495.000000
2198.911377 7127.000000
2200.082275 6371.000000
2201.251465 6945.000000
2202.420654 7594.000000
2203.589355 6322.000000
2204.757080 5931.000000
2205.923828 5703.000000
2207.089844 7126.000000
2208.255371 6704.000000
2209.420654 6016.000000
2210.584473 6794.000000
2211.747803 5478.000000
2212.909912 6213.000000
2214.072266 6189.000000
2215.233398 6752.000000
2216.393555 6708.000000
2217.553223 6357.000000
2218.712646 6599.000000
2219.870850 6411.000000
2221.028076 6457.000000
2222.185059 6801.000000
2223.341309 6523.000000
2224.496826 6774.000000
2225.651611 6275.000000
2226.805420 6475.000000
2227.958252 6030.000000
2229.111572 6935.000000
2230.262939 6273.000000
2231.414063 6239.000000
2232.564453 6546.000000
2233.714355 7761.000000
2234.863281 6299.000000
2236.011719 5279.000000
2237.158691 6818.000000
2238.305908 7120.000000
2239.451904 6090.000000
2240.597656 7299.000000
2241.741699 7318.000000
2242.885986 6828.000000
2244.029297 6288.000000
2245.171875 6061.000000
2246.313477 5878.000000
2247.454834 5860.000000
2248.595215 6473.000000
2249.734863 6460.000000
2250.874023 5850.000000
2252.011963 5821.000000
2253.149902 6285.000000
2254.286865 5338.000000
2255.423096 6365.000000
2256.558350 6232.000000
2257.692871 7314.000000
2258.827148 6375.000000
2259.960938 5448.000000
2261.093262 6151.000000
2262.225098 6853.000000
2263.356445 6328.000000
2264.486816 6503.000000
2265.616943 8132.000000
2266.745850 6671.000000
2267.874268 6202.000000
2269.002197 5608.000000
2270.129150 6170.000000
2271.255371 5997.000000
2272.380615 6779.000000
2273.505859 6520.000000
2274.630371 6484.000000
2275.753662 6028.000000
2276.876221 6362.000000
2277.998291 5991.000000
2279.119873 7397.000000
2280.240723 6416.000000
2281.360352 6465.000000
2282.479492 7172.000000
2283.598389 7734.000000
2284.716553 7214.000000
2285.833740 5933.000000
2286.949951 6422.000000
2288.065918 7053.000000
2289.181152 6913.000000
2290.295654 7452.000000
2291.408936 5834.000000
2292.522217 6393.000000
2293.634766 6059.000000
2294.746582 5406.000000
2295.857666 6840.000000
2296.967529 6480.000000
2298.076904 6215.000000
2299.186035 6774.000000
2300.294189 6384.000000
2301.401367 6804.000000
2302.508301 5945.000000
2303.614502 6227.000000
2304.720215 6649.000000
2305.824463 6545.000000
2306.928467 5461.000000
2308.031982 5794.000000
2309.135010 6563.000000
2310.236816 7434.000000
2311.337891 7375.000000
2312.438477 6650.000000
2313.538574 5548.000000
2314.637939 6398.000000
2315.735840 6600.000000
2316.834229 7074.000000
2317.931152 8301.000000
2319.027832 6909.000000
2320.124023 5860.000000
2321.218506 6945.000000
2322.312988 7608.000000
2323.406738 5855.000000
2324.500244 6086.000000
2325.592041 6512.000000
2326.683838 7042.000000
2327.774902 6177.000000
2328.865234 6267.000000
2329.954590 6948.000000
2331.043945 6037.000000
2332.132080 6357.000000
2333.219727 6874.000000
2334.307129 6547.000000
2335.392822 6692.000000
2336.478271 7830.000000
2337.563477 6370.000000
2338.647705 6780.000000
2339.730957 5975.000000
2340.813965 6493.000000
2341.895996 7081.000000
2342.977783 6044.000000
2344.058838 7444.000000
2345.138672 6723.000000
2346.218018 5778.000000
2347.296875 6819.000000
2348.375244 6589.000000
2349.452148 6365.000000
2350.528809 6991.000000
2351.605225 6108.000000
2352.680664 6462.000000
2353.755127 5930.000000
2354.829346 6306.000000
2355.902832 6806.000000
2356.975830 6253.000000
2358.047607 7016.000000
2359.119141 6328.000000
2360.189697 6892.000000
2361.260010 7532.000000
2362.329346 7583.000000
2363.397705 6881.000000
2364.465820 6805.000000
2365.533203 7096.000000
2366.600098 7189.000000
2367.666260 6103.000000
2368.731201 6978.000000
2369.796143 7034.000000
2370.860352 6396.000000
2371.923828 6958.000000
2372.986084 5831.000000
2374.048340 6292.000000
2375.109619 6388.000000
2376.170654 5941.000000
2377.230469 6340.000000
2378.289551 7903.000000
2379.348633 6560.000000
2380.406738 7581.000000
2381.464111 6946.000000
2382.520508 8137.000000
2383.576660 7799.000000
2384.632324 6317.000000
2385.687256 7042.000000
2386.740723 6784.000000
2387.794434 6590.000000
2388.847168 6374.000000
2389.899414 6838.000000
2390.950928 6192.000000
2392.001465 6709.000000
2393.051758 6584.000000
2394.101074 6232.000000
2395.150391 6236.000000
2396.198242 6953.000000
2397.245605 7039.000000
2398.292725 6345.000000
2399.338867 6777.000000
2400.384277 6188.000000
2401.428955 6846.000000
2402.473633 7763.000000
2403.516846 7519.000000
2404.560059 6614.000000
2405.601807 5788.000000
2406.643799 6709.000000
2407.685059 7179.000000
2408.725342 6114.000000
2409.764893 6441.000000
2410.803467 6365.000000
2411.842285 6151.000000
2412.879883 6530.000000
2413.917236 6896.000000
2414.953369 7410.000000
2415.989258 6275.000000
2417.024414 6235.000000
2418.059082 6936.000000
2419.092285 7284.000000
2420.125732 6500.000000
2421.158203 6691.000000
2422.190430 6846.000000
2423.221191 7108.000000
2424.251953 6409.000000
2425.282227 6888.000000
2426.311279 6907.000000
2427.340332 6668.000000
2428.367676 7468.000000
2429.395508 6711.000000
2430.422119 7313.000000
2431.448486 6975.000000
2432.473389 7817.000000
2433.498535 6625.000000
2434.522705 7202.000000
2435.546631 6747.000000
2436.569336 5887.000000
2437.591309 6386.000000
2438.613037 6690.000000
2439.634033 6732.000000
2440.654541 6079.000000
2441.673828 6586.000000
2442.693115 6628.000000
2443.711426 8572.000000
2444.729492 6305.000000
2445.746094 6539.000000
2446.762695 6660.000000
2447.778564 6032.000000
2448.794434 6976.000000
2449.808838 6894.000000
2450.822510 5603.000000
2451.835693 7272.000000
2452.848633 6033.000000
2453.860840 7240.000000
2454.872070 6736.000000
2455.883057 7739.000000
2456.893311 6372.000000
2457.903076 7618.000000
2458.911865 5957.000000
2459.919922 5977.000000
2460.927979 6362.000000
2461.934814 7361.000000
2462.941406 5460.000000
2463.946777 7487.000000
2464.951904 6974.000000
2465.956787 5928.000000
2466.960449 6578.000000
2467.963867 6381.000000
2468.966309 7639.000000
2469.968506 7304.000000
2470.970215 6901.000000
2471.970947 6576.000000
2472.970703 7091.000000
2473.970459 6786.000000
2474.969238 5721.000000
2475.967529 6679.000000
2476.964844 7089.000000
2477.961914 6203.000000
2478.958984 6984.000000
2479.954590 5866.000000
2480.950195 7195.000000
2481.944092 6759.000000
2482.937988 8155.000000
2483.931396 6913.000000
2484.924316 6881.000000
2485.916260 7562.000000
2486.907471 7267.000000
2487.898438 6770.000000
2488.888916 5918.000000
2489.878418 6622.000000
2490.867188 6505.000000
2491.855957 5671.000000
2492.843750 6828.000000
2493.830322 6661.000000
2494.816895 8100.000000
2495.802979 6774.000000
2496.788330 7090.000000
2497.772705 8448.000000
2498.756836 6123.000000
2499.740967 6928.000000
2500.723633 5860.000000
2501.705811 7009.000000
2502.687500 6920.000000
2503.668457 7335.000000
2504.648926 6548.000000
2505.629150 5748.000000
2506.607910 6363.000000
2507.586426 7644.000000
2508.564453 6798.000000
2509.541992 7245.000000
2510.518555 6125.000000
2511.494873 5966.000000
2512.470459 6508.000000
2513.445557 6248.000000
2514.420166 6467.000000
2515.393555 7530.000000
2516.366699 6800.000000
2517.339600 6880.000000
2518.311523 6096.000000
2519.282715 6883.000000
2520.253418 6985.000000
2521.223877 7817.000000
2522.193604 8140.000000
2523.162354 6169.000000
2524.130371 6206.000000
2525.098389 7835.000000
2526.065430 6375.000000
2527.032227 5533.000000
2527.997803 7331.000000
2528.963379 7112.000000
2529.928223 7746.000000
2530.892578 6339.000000
2531.855713 6367.000000
2532.819092 5867.000000
2533.781494 6001.000000
2534.743652 6773.000000
2535.704590 6470.000000
2536.664795 6166.000000
2537.625244 6174.000000
2538.584717 6870.000000
2539.543457 6847.000000
2540.501221 6665.000000
2541.459229 6221.000000
2542.416504 6852.000000
2543.372803 6173.000000
2544.328857 7151.000000
2545.283691 6246.000000
2546.238770 7918.000000
2547.193115 7033.000000
2548.146729 6603.000000
2549.099365 7314.000000
2550.051758 6741.000000
2551.003662 7049.000000
2551.954834 6474.000000
2552.905273 7802.000000
2553.855225 7304.000000
2554.804932 7454.000000
2555.753906 6666.000000
2556.702393 6288.000000
2557.649658 7160.000000
2558.596924 6300.000000
2559.543457 6677.000000
2560.489502 6785.000000
2561.434570 7461.000000
2562.379395 6704.000000
2563.323730 7241.000000
2564.267578 6903.000000
2565.210938 6710.000000
2566.152832 6622.000000
2567.094971 6661.000000
2568.036377 6258.000000
2568.977051 7143.000000
2569.916992 7364.000000
2570.856934 5792.000000
2571.795898 6191.000000
2572.734619 7589.000000
2573.672363 7194.000000
2574.609863 5437.000000
2575.546631 7008.000000
2576.482666 6879.000000
2577.418213 7558.000000
2578.353027 6437.000000
2579.287842 5938.000000
2580.221680 7041.000000
2581.155029 7154.000000
2582.087646 5893.000000
2583.020020 6891.000000
2583.951660 5504.000000
2584.882813 7111.000000
2585.813477 6988.000000
2586.742920 6926.000000
2587.672363 7283.000000
2588.601318 6461.000000
2589.530029 7443.000000
2590.457031 7397.000000
2591.384277 5932.000000
2592.311035 6811.000000
2593.237061 6306.000000
2594.162842 5655.000000
2595.087402 7647.000000
2596.011719 7596.000000
2596.935547 5334.000000
2597.858887 7277.000000
2598.781250 6331.000000
2599.703369 6870.000000
2600.625000 8376.000000
2601.545898 6433.000000
2602.466064 5991.000000
2603.385986 6346.000000
2604.305420 6436.000000
2605.224609 6501.000000
2606.142822 5842.000000
2607.059814 6003.000000
2607.977051 7297.000000
2608.894043 5949.000000
2609.810059 7654.000000
2610.724854 6681.000000
2611.640137 6687.000000
2612.554688 6610.000000
2613.468262 6559.000000
2614.381836 6116.000000
2615.294189 7698.000000
2616.206543 7038.000000
2617.117920 6832.000000
2618.029053 5726.000000
2618.939453 7309.000000
2619.849609 6661.000000
2620.759033 6208.000000
2621.667969 6701.000000
2622.575928 6300.000000
2623.484131 6863.000000
2624.391357 6679.000000
2625.298096 7092.000000
2626.204102 6090.000000
2627.109863 6680.000000
2628.014893 6562.000000
2628.919678 7799.000000
2629.823730 6496.000000
2630.726807 6424.000000
2631.629883 6533.000000
2632.531982 5681.000000
2633.434082 6750.000000
2634.335938 7037.000000
2635.236084 6788.000000
2636.136475 6490.000000
2637.036133 6422.000000
2637.935547 6093.000000
2638.833496 6979.000000
2639.731934 6765.000000
2640.629883 6476.000000
2641.527100 6173.000000
2642.423096 6255.000000
2643.319092 6943.000000
2644.214844 6139.000000
2645.109863 6504.000000
2646.004639 6631.000000
2646.897949 7115.000000
2647.791260 6315.000000
2648.684326 6790.000000
2649.577148 6492.000000
2650.468262 7514.000000
2651.359619 6462.000000
2652.250488 7671.000000
2653.140625 7413.000000
2654.030518 6628.000000
2654.919189 7289.000000
2655.808105 6636.000000
2656.696533 6654.000000
2657.583984 7394.000000
2658.470459 6565.000000
2659.357422 7167.000000
2660.243652 6920.000000
2661.129395 6873.000000
2662.013916 6541.000000
2662.898438 6471.000000
2663.782715 6231.000000
2664.666260 7065.000000
2665.549316 7835.000000
2666.431641 7371.000000
2667.313477 6202.000000
2668.194580 6615.000000
2669.075928 6103.000000
2669.955811 6590.000000
2670.835938 7378.000000
2671.715332 7224.000000
2672.594727 6239.000000
2673.473389 6195.000000
2674.350342 6396.000000
2675.228027 6821.000000
2676.104980 6400.000000
2676.981201 8162.000000
2677.856934 7214.000000
2678.731934 6309.000000
2679.607178 7839.000000
2680.481445 7040.000000
2681.355225 7493.000000
2682.228271 7064.000000
2683.101074 6214.000000
2683.973633 6195.000000
2684.845459 7012.000000
2685.716553 6642.000000
2686.587402 6901.000000
2687.457764 7144.000000
2688.327881 6742.000000
2689.196289 6360.000000
2690.065430 7344.000000
2690.933838 7110.000000
2691.802002 6693.000000
2692.669434 7021.000000
2693.535645 5857.000000
2694.402344 7213.000000
2695.268066 7489.000000
2696.133789 7238.000000
2696.998047 8019.000000
2697.863037 6634.000000
2698.726563 7347.000000
2699.590332 5838.000000
2700.452637 7448.000000
2701.315430 6827.000000
2702.177246 5989.000000
2703.038574 6966.000000
2703.899902 6800.000000
2704.760010 7440.000000
2705.620117 7350.000000
2706.479736 6555.000000
2707.339111 6857.000000
2708.196777 7104.000000
2709.054688 6940.000000
2709.913086 7308.000000
2710.770264 6767.000000
2711.626709 5995.000000
2712.482666 6905.000000
2713.338623 6201.000000
2714.193848 7001.000000
2715.048340 6167.000000
2715.902344 6947.000000
2716.756348 7351.000000
2717.609375 6362.000000
2718.462646 6459.000000
2719.314209 7690.000000
2720.166260 6754.000000
2721.018066 6326.000000
2721.868652 6509.000000
2722.719238 6498.000000
2723.569336 7144.000000
2724.418701 7056.000000
2725.268066 7053.000000
2726.116211 6763.000000
2726.963867 6573.000000
2727.812012 7013.000000
2728.658936 6861.000000
2729.506348 5610.000000
2730.352295 7542.000000
2731.197510 7034.000000
2732.043213 6514.000000
2732.887939 7038.000000
2733.732666 7388.000000
2734.576172 6916.000000
2735.419922 7856.000000
2736.262939 7144.000000
2737.105469 6088.000000
2737.947021 6296.000000
2738.789063 6909.000000
2739.630127 6944.000000
2740.470947 5825.000000
2741.311523 5884.000000
2742.150879 7781.000000
2742.990234 6855.000000
2743.829590 6965.000000
2744.667725 6826.000000
2745.505371 7804.000000
2746.343018 6379.000000
2747.180176 7162.000000
2748.017090 6186.000000
2748.853516 6077.000000
2749.688721 6732.000000
2750.524170 6327.000000
2751.359131 6380.000000
2752.193359 6265.000000
2753.027344 6942.000000
2753.860840 6917.000000
2754.694336 8058.000000
2755.526855 6817.000000
2756.358887 7278.000000
2757.190430 6805.000000
2758.021973 7138.000000
2758.852539 7249.000000
2759.683350 7283.000000
2760.512939 7325.000000
2761.342529 6739.000000
2762.171875 7284.000000
2763.000488 6871.000000
2763.828613 6791.000000
2764.656250 6946.000000
2765.483887 6714.000000
2766.311035 7952.000000
2767.137451 5818.000000
2767.963379 7527.000000
2768.788818 6889.000000
2769.614014 7848.000000
2770.439209 7192.000000
2771.263184 6829.000000
2772.087158 6599.000000
2772.911133 7738.000000
2773.733887 6680.000000
2774.556885 6849.000000
2775.378662 6911.000000
2776.200439 6938.000000
2777.022217 6532.000000
2777.843018 7981.000000
2778.663086 6583.000000
2779.483398 7022.000000
2780.303223 7313.000000
2781.123047 6481.000000
2781.940918 6042.000000
2782.760010 8094.000000
2783.577881 6541.000000
2784.395508 6830.000000
2785.212646 7255.000000
2786.029297 7364.000000
2786.845703 7265.000000
2787.661621 6334.000000
2788.477295 5988.000000
2789.291992 6447.000000
2790.107178 7029.000000
2790.921631 7175.000000
2791.735596 6609.000000
2792.549316 7445.000000
2793.361816 8850.000000
2794.174561 7042.000000
2794.986816 7547.000000
2795.798584 7238.000000
2796.609619 7475.000000
2797.421387 6568.000000
2798.231934 7280.000000
2799.042480 7111.000000
2799.851563 7441.000000
2800.661377 8298.000000
2801.470459 7837.000000
2802.279297 6760.000000
2803.087646 7239.000000
2803.895020 6191.000000
2804.702881 6461.000000
2805.510010 6923.000000
2806.316895 7032.000000
2807.122559 7115.000000
2807.928711 6686.000000
2808.734131 6543.000000
2809.539551 7387.000000
2810.344238 6244.000000
2811.147949 7691.000000
2811.952148 7525.000000
2812.755859 6398.000000
2813.559326 6166.000000
2814.361328 6404.000000
2815.164063 7386.000000
2815.966064 7867.000000
2816.767822 6152.000000
2817.569092 6649.000000
2818.369873 7356.000000
2819.170166 6572.000000
2819.970703 6747.000000
2820.770264 8057.000000
2821.569336 7166.000000
2822.368408 6568.000000
2823.167236 7033.000000
2823.965576 6414.000000
2824.762939 7074.000000
2825.560547 7077.000000
2826.357422 6693.000000
2827.154541 7402.000000
2827.950928 8068.000000
2828.746582 7045.000000
2829.542236 7346.000000
2830.337646 7787.000000
2831.132568 7457.000000
2831.926758 6720.000000
2832.720947 6898.000000
2833.514893 5728.000000
2834.308350 6919.000000
2835.101074 7207.000000
2835.893555 8220.000000
2836.686035 7620.000000
2837.478271 7581.000000
2838.270020 6419.000000
2839.060791 6839.000000
2839.851563 8921.000000
2840.642578 7513.000000
2841.432617 6334.000000
2842.222168 7674.000000
2843.011963 7171.000000
2843.800781 7403.000000
2844.589600 7827.000000
2845.378418 7789.000000
2846.166260 7545.000000
2846.953613 7246.000000
2847.741211 7566.000000
2848.528320 7343.000000
2849.314697 6675.000000
2850.101074 7462.000000
2850.887207 7261.000000
2851.672852 7600.000000
2852.457520 7299.000000
2853.242676 6946.000000
2854.027588 7508.000000
2854.811768 7175.000000
2855.595947 6937.000000
2856.378906 8363.000000
2857.162109 6873.000000
2857.945068 6845.000000
2858.727539 7859.000000
2859.509766 6303.000000
2860.291504 6631.000000
2861.072998 7650.000000
2861.854736 7446.000000
2862.635742 7663.000000
2863.416016 6610.000000
2864.196045 6790.000000
2864.976074 8169.000000
2865.755859 7520.000000
2866.534668 8067.000000
2867.313721 7772.000000
2868.092285 6852.000000
2868.870605 7047.000000
2869.648438 7233.000000
2870.426025 7018.000000
2871.203369 7560.000000
2871.980469 6969.000000
2872.757080 6471.000000
2873.533203 7495.000000
2874.309326 7245.000000
2875.084961 8313.000000
2875.860352 7223.000000
2876.635254 6683.000000
2877.409912 8023.000000
2878.184570 6611.000000
2878.958984 7863.000000
2879.732666 6779.000000
2880.505615 7226.000000
2881.279297 6730.000000
2882.052002 7699.000000
2882.824707 7791.000000
2883.596680 8255.000000
2884.368408 6197.000000
2885.140625 6856.000000
2885.911621 6879.000000
2886.682129 6150.000000
2887.453125 8303.000000
2888.224121 7371.000000
2888.994385 8076.000000
2889.763672 7618.000000
2890.533203 7024.000000
2891.302734 7202.000000
2892.071777 7390.000000
2892.840332 7880.000000
2893.608887 7780.000000
2894.376465 7020.000000
2895.144531 6572.000000
2895.912109 7484.000000
2896.679688 8440.000000
2897.446045 7496.000000
2898.213379 6548.000000
2898.979492 7216.000000
2899.745850 7125.000000
2900.510742 8393.000000
2901.276123 7052.000000
2902.041992 6533.000000
2902.806396 7805.000000
2903.570801 7770.000000
2904.335449 8462.000000
2905.099121 6689.000000
2905.863525 8563.000000
2906.627197 6706.000000
2907.390137 8453.000000
2908.152832 6568.000000
2908.916016 9051.000000
2909.678711 7046.000000
2910.440186 6793.000000
2911.202148 6793.000000
