scanname Analyse099
timestamp 2017-02-10 22:32:17
ccdbias 954.806641
ccdgain 3.473401
sigmaread 8.960639
laserwavenum -0.455188
wavenumcorrection 0.067776
scancount 1
totalexposurems 10000
singleexposurems 10000
measurementstate Unknown
scanmode Manual
snr 13.034655 0.642123 0.274952
replacelist 0
peaks 7
399.019104 0.038035 0.000000 0.263873 0.000044
810.836487 0.032047 0.000000 0.918121 0.000107
841.794800 0.028148 0.000000 0.131627 0.000037
973.410645 0.021343 0.000000 0.379213 0.000038
1154.589111 0.023609 0.000000 0.123194 0.000050
1329.836304 0.029488 0.000000 0.311543 0.000047
1459.596924 0.032950 0.000000 0.539138 0.000143
finalresult GLS_Multiple 88
A13180	Polypropylene (lot B)	5.384569e-001
A11883	Polypropylene (Isotactic)	5.289574e-001
A13500	Poly(propylene-co-ethylene)	5.255374e-001
A0115	Polypropylene	5.110423e-001
A1676	Trifluoroacetic acid	2.484871e-001
A7387	4-Hydroxypiperidine	2.456063e-001
A1531	Ethyl formate	2.450503e-001
A9321	Methyl 2-hydroxyisobutyrate	2.446711e-001
A2839	5-Azacytidine	2.441536e-001
A2703	Acetaldehyde dimethyl acetal	2.420657e-001
A9546	4-Methoxy-alpha-methylbenzyl alcohol	2.374466e-001
A9092	p-Tolyl ether	2.288228e-001
A10529	1-Formylpiperazine	2.285867e-001
A10674	Dibutyl succinate	2.276274e-001
A14007	1,2-Dichlorotetramethyldisilane	2.253559e-001
A4269	2,4-Dibromoanisole	2.195688e-001
A6290	Bis(2,2,2-trifluoroethyl) phosphite	2.191723e-001
A1584	Pentane	2.182071e-001
A3868	N-formylmorpholine	2.176525e-001
A4881	2-(2-Chloroethoxy)tetrahydro-2H-pyran	2.172264e-001
A14069	(R)-(-)-1,2-Propanediol	2.164276e-001
A3222	Potassium nitrite	2.159172e-001
A14792	N-Guanylurea sulfate salt hydrate	2.156196e-001
A11885	Poly(methyl methacrylate-co-butyl methacrylate)	2.149104e-001
A13507	Poly(methyl methacrylate-co-ethyl acrylate)	2.138269e-001
A0518	Propylene glycol	2.138008e-001
A8920	Perrhenic acid solution	2.133009e-001
A0400	Potassium permanganate	2.122591e-001
A1928	Ammonium sulfate	2.118093e-001
A1270	Methyl DL-lactate	2.114473e-001
A1754	N,N-Dimethylhydrazine	2.104680e-001
A2313	Barium peroxide	2.094998e-001
A0408	Chromium(VI) oxide	2.094426e-001
A7225	Dibutyl adipate	2.089253e-001
A10745	Neomycin sulfate salt	2.087133e-001
A13820	(-)-Methyl L-lactate	2.082136e-001
A0369	2,4,6-Tribromophenol	2.080378e-001
A0524	Propionic acid	2.074918e-001
A7848	Butyl glycolate	2.065879e-001
A2098	Diethylene glycol dibutyl ether	2.063673e-001
A9660	3-(4-Methoxybenzoyl)propionic acid	2.059392e-001
A0098	Roundup (weed and grass killer)	2.051696e-001
A0793	Tris(2-methoxyethoxy)(vinyl)silane	2.045767e-001
A11872	Poly(methyl methacrylate)	2.042152e-001
A2017	Isopropylamine	2.039109e-001
A9370	1,2-(Methylenedioxy)-4-nitrobenzene	2.038600e-001
A0365	Tris(2-butoxyethyl) phosphate	2.029797e-001
A2423	Hydroxyurea	2.025528e-001
A5382	3-Methoxypropionic acid	2.023472e-001
A8248	5-Hydroxy-2-nitrobenzaldehyde	2.015487e-001
A2225	Diethylene glycol butyl ether	2.010950e-001
A15973	Silver azide	2.006635e-001
A2863	Streptomycin sulfate salt	2.002057e-001
A12448	Tribromofluoromethane	2.001972e-001
A6025	2-Nitrothiophene	2.001328e-001
A0673	Hexachlorocyclopentadiene	1.999324e-001
A2210	Calcium peroxide hydrate	1.996835e-001
A0761	N,N,N',N'-Tetrakis(2-Hydroxypropyl)ethylenediamine	1.986102e-001
A2727	Acrolein diethyl acetal	1.983402e-001
A11482	Methyl 5-methoxysalicylate	1.981015e-001
A7024	Hydrazine monohydrobromide	1.975073e-001
A2322	Silver sulfate	1.973769e-001
A5042	2,4,6-Trichloropyrimidine	1.973685e-001
A12725	Cerium(III) fluoride	1.972274e-001
A2721	Formaldehyde diethyl acetal	1.962534e-001
A7885	beta-Carotene	1.943574e-001
A10301	2-Methoxytetrahydropyran	1.943495e-001
A1644	Ethyl isobutyrate	1.943495e-001
A3653	(R)-(+)-3-Methylcyclopentanone	1.943175e-001
A0629	Cyanuric chloride	1.938942e-001
A6700	4'-Methoxypropiophenone	1.933367e-001
A10581	Piperidine	1.924472e-001
A2147	Hydrazine sulfate salt	1.922394e-001
A6278	6-Methylnicotinamide	1.913601e-001
A14340	Titanium(IV) fluoride	1.911480e-001
A6746	4,6-Dichloro-2-(methylthio)pyrimidine	1.910073e-001
A3574	Sodium hexanitrocobaltate(III)	1.908201e-001
A14252	2-Methyl-5-nitrophenol	1.902170e-001
A3625	1-Dimethylamino-2-propanol	1.899919e-001
A8663	4-Methyl-3,5-dinitrobenzoic acid	1.897010e-001
A0544	1,4-Dioxane	1.884324e-001
A10860	Ethyleneimine polymer soln.	1.878775e-001
A14724	Ammonium metatungstate hydrate	1.874750e-001
A2413	Sodium selenate	1.872671e-001
A5377	4-Methyl-2-nitroanisole	1.855302e-001
A1547	Isovaleric acid	1.849414e-001
A8610	5-Methyl-2-pyrrolidinone	1.843372e-001
A0419	Sodium chlorite	1.830763e-001
spectrum 2048
-97.146271 45103.000000
-94.519394 45103.000000
-91.894409 45687.000000
-89.271301 45676.000000
-86.650070 46672.000000
-84.030746 46299.000000
-81.413269 46550.000000
-78.797684 46342.000000
-76.183960 46688.000000
-73.572128 47029.000000
-70.962143 46845.000000
-68.354050 47064.000000
-65.747803 47152.000000
-63.143436 47155.000000
-60.540928 47017.000000
-57.940273 47506.000000
-55.341480 46916.000000
-52.744545 46201.000000
-50.149464 46698.000000
-47.556236 46645.000000
-44.964859 46825.000000
-42.375328 46328.000000
-39.787640 47219.000000
-37.201801 47009.000000
-34.617805 46554.000000
-32.035645 47295.000000
-29.455334 46708.000000
-26.876848 47265.000000
-24.300205 46857.000000
-21.725388 46716.000000
-19.152411 46510.000000
-16.581253 46453.000000
-14.011930 46070.000000
-11.444431 45038.000000
-8.878752 46528.000000
-6.314898 46175.000000
-3.752857 46554.000000
-1.192641 46632.000000
1.365767 46068.000000
3.922354 45105.000000
6.477136 44994.000000
9.030101 45064.000000
11.581265 43480.000000
14.130617 42640.000000
16.678173 41209.000000
19.223917 40425.000000
21.767868 38904.000000
24.310015 35732.000000
26.850365 32448.000000
29.388929 29442.000000
31.925697 24033.000000
34.460663 17024.000000
36.993851 10727.000000
39.525257 7604.000000
42.054871 6932.000000
44.582687 6933.000000
47.108746 6337.000000
49.633015 5518.000000
52.155514 4729.000000
54.676216 4433.000000
57.195164 4523.000000
59.712337 5441.000000
62.227734 6875.000000
64.741348 8259.000000
67.253220 8382.000000
69.763336 6133.000000
72.271652 4031.000000
74.778229 3006.000000
77.283051 2397.000000
79.786118 2048.000000
82.287399 1845.000000
84.786957 1733.000000
87.284744 1760.000000
89.780807 1781.000000
92.275101 2087.000000
94.767639 2421.000000
97.258469 2563.000000
99.747528 2048.000000
102.234848 1589.000000
104.720428 1277.000000
107.204285 1209.000000
109.686386 1134.000000
112.166763 1105.000000
114.645416 986.000000
117.122345 813.000000
119.597519 902.000000
122.070984 921.000000
124.542709 830.000000
127.012741 881.000000
129.481003 997.000000
131.947601 879.000000
134.412445 942.000000
136.875595 889.000000
139.337006 930.000000
141.796722 1078.000000
144.254715 1126.000000
146.711014 1223.000000
149.165604 1362.000000
151.618469 1601.000000
154.069656 1788.000000
156.519150 1909.000000
158.966919 2166.000000
161.412979 2456.000000
163.857361 2678.000000
166.300064 2935.000000
168.741074 3233.000000
171.180374 3240.000000
173.617966 3308.000000
176.053925 3345.000000
178.488144 3353.000000
180.920685 3274.000000
183.351578 3296.000000
185.780746 3255.000000
188.208267 3241.000000
190.634109 3145.000000
193.058273 3168.000000
195.480774 3035.000000
197.901581 3082.000000
200.320724 3194.000000
202.738205 3067.000000
205.153992 3188.000000
207.568130 3281.000000
209.980637 3159.000000
212.391464 3341.000000
214.800613 3445.000000
217.208130 3664.000000
219.613937 3735.000000
222.018158 3961.000000
224.420670 4034.000000
226.821564 4046.000000
229.220810 4044.000000
231.618393 4034.000000
234.014313 3950.000000
236.408615 3909.000000
238.801254 3823.000000
241.192276 3944.000000
243.581635 3817.000000
245.969376 3784.000000
248.355469 3619.000000
250.739929 3674.000000
253.122742 3504.000000
255.503983 3454.000000
257.883514 3456.000000
260.261475 3426.000000
262.637756 3247.000000
265.012482 3348.000000
267.385559 3103.000000
269.756989 3136.000000
272.126770 3137.000000
274.494995 3038.000000
276.861572 2988.000000
279.226563 2914.000000
281.589935 2895.000000
283.951660 2714.000000
286.311798 2784.000000
288.670319 2695.000000
291.027252 2704.000000
293.382568 2674.000000
295.736298 2616.000000
298.088379 2613.000000
300.438904 2542.000000
302.787842 2499.000000
305.135132 2349.000000
307.480896 2457.000000
309.824982 2471.000000
312.167542 2469.000000
314.508484 2401.000000
316.847809 2347.000000
319.185577 2295.000000
321.521790 2378.000000
323.856354 2483.000000
326.189362 2386.000000
328.520813 2314.000000
330.850677 2294.000000
333.178955 2336.000000
335.505615 2310.000000
337.830780 2252.000000
340.154327 2297.000000
342.476318 2268.000000
344.796753 2104.000000
347.115570 2140.000000
349.432831 2144.000000
351.748566 2166.000000
354.062714 2028.000000
356.375275 1983.000000
358.686279 1960.000000
360.995758 2087.000000
363.303711 2144.000000
365.610046 2173.000000
367.914795 2190.000000
370.218079 2051.000000
372.519745 2130.000000
374.819916 2195.000000
377.118530 2046.000000
379.415588 2076.000000
381.711090 2102.000000
384.005066 2128.000000
386.297455 2114.000000
388.588348 2188.000000
390.877716 2272.000000
393.165497 2324.000000
395.451752 2408.000000
397.736511 2415.000000
400.019653 2536.000000
402.301361 2468.000000
404.581543 2357.000000
406.860138 2288.000000
409.137207 2186.000000
411.412750 2213.000000
413.686768 2097.000000
415.959351 2110.000000
418.230316 2188.000000
420.499786 2151.000000
422.767761 2011.000000
425.034180 2046.000000
427.299103 2060.000000
429.562561 1963.000000
431.824432 1985.000000
434.084839 2010.000000
436.343689 1977.000000
438.601074 2009.000000
440.856964 2054.000000
443.111359 1985.000000
445.364227 1899.000000
447.615540 1998.000000
449.865448 1993.000000
452.113770 1953.000000
454.360657 2065.000000
456.606079 1981.000000
458.849945 1977.000000
461.092316 2014.000000
463.333191 1911.000000
465.572662 1971.000000
467.810547 1885.000000
470.046997 1874.000000
472.281921 1873.000000
474.515381 1791.000000
476.747406 1829.000000
478.977905 1906.000000
481.206909 1845.000000
483.434448 1801.000000
485.660492 1821.000000
487.885101 1754.000000
490.108246 1857.000000
492.329926 1782.000000
494.550049 1773.000000
496.768768 1841.000000
498.985992 1797.000000
501.201843 1830.000000
503.416077 1783.000000
505.628998 1830.000000
507.840332 1831.000000
510.050232 1762.000000
512.258728 1825.000000
514.465820 1814.000000
516.671326 1792.000000
518.875427 1774.000000
521.078003 1781.000000
523.279175 1863.000000
525.479004 1808.000000
527.677307 1780.000000
529.874084 1844.000000
532.069519 1785.000000
534.263428 1794.000000
536.455994 1713.000000
538.647034 1780.000000
540.836670 1763.000000
543.024902 1769.000000
545.211609 1689.000000
547.396851 1775.000000
549.580811 1660.000000
551.763184 1658.000000
553.944214 1586.000000
556.123718 1598.000000
558.301941 1643.000000
560.478638 1520.000000
562.653931 1585.000000
564.827820 1581.000000
567.000244 1595.000000
569.171265 1611.000000
571.340820 1575.000000
573.509094 1513.000000
575.675842 1586.000000
577.841125 1522.000000
580.005005 1521.000000
582.167603 1506.000000
584.328674 1518.000000
586.488342 1532.000000
588.646667 1560.000000
590.803467 1597.000000
592.958923 1452.000000
595.112976 1547.000000
597.265686 1560.000000
599.416870 1493.000000
601.566711 1546.000000
603.715210 1592.000000
605.862122 1549.000000
608.007813 1616.000000
610.152100 1550.000000
612.294922 1420.000000
614.436279 1516.000000
616.576416 1395.000000
618.715027 1531.000000
620.852356 1467.000000
622.988220 1476.000000
625.122681 1512.000000
627.255676 1514.000000
629.387512 1446.000000
631.517883 1378.000000
633.646851 1551.000000
635.774353 1448.000000
637.900574 1428.000000
640.025269 1403.000000
642.148743 1408.000000
644.270874 1321.000000
646.391541 1387.000000
648.510864 1359.000000
650.628784 1389.000000
652.745361 1432.000000
654.860535 1443.000000
656.974365 1385.000000
659.086731 1387.000000
661.197876 1425.000000
663.307617 1355.000000
665.415894 1293.000000
667.523010 1377.000000
669.628662 1466.000000
671.732849 1366.000000
673.835815 1366.000000
675.937378 1378.000000
678.037598 1362.000000
680.136414 1340.000000
682.233887 1476.000000
684.330078 1356.000000
686.424805 1431.000000
688.518311 1424.000000
690.610474 1360.000000
692.701111 1336.000000
694.790527 1384.000000
696.878662 1487.000000
698.965332 1423.000000
701.050781 1361.000000
703.134705 1460.000000
705.217407 1461.000000
707.298828 1342.000000
709.378784 1403.000000
711.457520 1402.000000
713.534790 1391.000000
715.610779 1338.000000
717.685486 1335.000000
719.758911 1406.000000
721.830811 1380.000000
723.901550 1289.000000
725.970947 1264.000000
728.038940 1254.000000
730.105591 1235.000000
732.171021 1328.000000
734.235107 1362.000000
736.297852 1281.000000
738.359253 1259.000000
740.419373 1306.000000
742.478088 1243.000000
744.535583 1311.000000
746.591797 1302.000000
748.646606 1294.000000
750.700134 1272.000000
752.752258 1271.000000
754.803162 1294.000000
756.852844 1257.000000
758.901062 1241.000000
760.948059 1285.000000
762.993774 1167.000000
765.038086 1204.000000
767.081116 1269.000000
769.122925 1234.000000
771.163391 1222.000000
773.202454 1297.000000
775.240356 1209.000000
777.276917 1246.000000
779.312256 1257.000000
781.346252 1288.000000
783.378845 1162.000000
785.410278 1275.000000
787.440308 827.000000
789.469055 1363.000000
791.496643 1379.000000
793.522888 1352.000000
795.547729 1338.000000
797.571472 1213.000000
799.593811 1326.000000
801.614929 1406.000000
803.634705 1392.000000
805.653198 1664.000000
807.670471 1741.000000
809.686340 1831.000000
811.701050 1739.000000
813.714417 1664.000000
815.726563 1477.000000
817.737488 1534.000000
819.747070 1286.000000
821.755432 1309.000000
823.762390 1323.000000
825.768127 1371.000000
827.772644 1301.000000
829.775879 1216.000000
831.777832 1337.000000
833.778503 1281.000000
835.777954 1413.000000
837.776062 1338.000000
839.773071 1420.000000
841.768677 1510.000000
843.763123 1462.000000
845.756226 1450.000000
847.748108 1375.000000
849.738647 1284.000000
851.727905 1220.000000
853.716125 1289.000000
855.702942 1204.000000
857.688538 1179.000000
859.672852 1160.000000
861.656067 1215.000000
863.637878 1145.000000
865.618469 1143.000000
867.597778 1081.000000
869.575928 1059.000000
871.552734 1086.000000
873.528259 1138.000000
875.502747 1046.000000
877.475769 1071.000000
879.447754 1106.000000
881.418396 1081.000000
883.387878 1024.000000
885.356018 1049.000000
887.322998 1079.000000
889.288635 1124.000000
891.253113 1127.000000
893.216370 1025.000000
895.178406 1138.000000
897.139160 1122.000000
899.098694 1123.000000
901.056946 1170.000000
903.014099 1125.000000
904.970093 1127.000000
906.924683 995.000000
908.878052 1007.000000
910.830261 1016.000000
912.781250 958.000000
914.730957 998.000000
916.679504 1025.000000
918.626831 1021.000000
920.572876 992.000000
922.517639 935.000000
924.461365 929.000000
926.403931 921.000000
928.345215 947.000000
930.285156 972.000000
932.223999 747.000000
934.161560 922.000000
936.097900 963.000000
938.033081 875.000000
939.966980 1017.000000
941.899780 982.000000
943.831360 845.000000
945.761780 973.000000
947.690979 873.000000
949.618835 937.000000
951.545654 864.000000
953.471191 790.000000
955.395447 874.000000
957.318604 795.000000
959.240601 898.000000
961.161316 924.000000
963.080872 907.000000
964.999268 879.000000
966.916626 965.000000
968.832520 973.000000
970.747314 1048.000000
972.660889 1050.000000
974.573303 1062.000000
976.484497 1103.000000
978.394531 982.000000
980.303284 951.000000
982.210999 969.000000
984.117493 847.000000
986.022766 718.000000
987.926941 868.000000
989.829895 905.000000
991.731628 849.000000
993.632202 873.000000
995.531616 980.000000
997.429810 940.000000
999.326843 945.000000
1001.222656 962.000000
1003.117310 914.000000
1005.010864 856.000000
1006.903137 864.000000
1008.794495 830.000000
1010.684509 821.000000
1012.573303 759.000000
1014.460938 883.000000
1016.347412 764.000000
1018.232727 819.000000
1020.116882 871.000000
1021.999817 790.000000
1023.881714 746.000000
1025.762329 747.000000
1027.641846 807.000000
1029.520386 841.000000
1031.397583 820.000000
1033.273438 895.000000
1035.148315 857.000000
1037.022217 841.000000
1038.894653 930.000000
1040.766113 928.000000
1042.636230 861.000000
1044.505371 818.000000
1046.373291 853.000000
1048.240112 835.000000
1050.105835 804.000000
1051.970337 755.000000
1053.833740 831.000000
1055.695801 774.000000
1057.556885 802.000000
1059.416870 864.000000
1061.275513 721.000000
1063.133057 738.000000
1064.989502 787.000000
1066.844849 748.000000
1068.698975 672.000000
1070.552246 795.000000
1072.404053 773.000000
1074.254883 813.000000
1076.104492 688.000000
1077.952881 789.000000
1079.800415 774.000000
1081.646606 703.000000
1083.491577 778.000000
1085.335693 684.000000
1087.178467 747.000000
1089.020020 833.000000
1090.860840 790.000000
1092.700073 732.000000
1094.538574 760.000000
1096.375732 690.000000
1098.211670 729.000000
1100.046631 693.000000
1101.880371 784.000000
1103.713135 703.000000
1105.544556 721.000000
1107.375122 717.000000
1109.204346 729.000000
1111.032593 744.000000
1112.859619 743.000000
1114.685669 647.000000
1116.510498 745.000000
1118.334229 702.000000
1120.156738 600.000000
1121.978149 731.000000
1123.798706 635.000000
1125.617798 678.000000
1127.436035 752.000000
1129.252930 695.000000
1131.068970 694.000000
1132.883789 719.000000
1134.697510 712.000000
1136.510132 756.000000
1138.321533 749.000000
1140.131958 784.000000
1141.941284 854.000000
1143.749268 932.000000
1145.556519 881.000000
1147.362305 902.000000
1149.167236 1011.000000
1150.971069 1052.000000
1152.773682 1089.000000
1154.575439 1122.000000
1156.375732 996.000000
1158.175049 994.000000
1159.973389 933.000000
1161.770386 963.000000
1163.566650 904.000000
1165.361572 919.000000
1167.155396 948.000000
1168.948364 819.000000
1170.739990 947.000000
1172.530640 884.000000
1174.320313 854.000000
1176.108521 823.000000
1177.895874 739.000000
1179.682129 710.000000
1181.467285 745.000000
1183.251343 780.000000
1185.034302 762.000000
1186.816284 661.000000
1188.597046 756.000000
1190.376831 743.000000
1192.155518 557.000000
1193.933228 761.000000
1195.709717 655.000000
1197.485107 716.000000
1199.259399 655.000000
1201.032593 733.000000
1202.804932 802.000000
1204.575928 698.000000
1206.346069 744.000000
1208.114990 694.000000
1209.882813 749.000000
1211.649780 652.000000
1213.415405 729.000000
1215.180054 864.000000
1216.943604 860.000000
1218.706055 821.000000
1220.467651 837.000000
1222.228027 837.000000
1223.987305 743.000000
1225.745728 724.000000
1227.502930 735.000000
1229.259033 837.000000
1231.014038 797.000000
1232.768188 725.000000
1234.520996 696.000000
1236.272827 742.000000
1238.023804 734.000000
1239.773438 713.000000
1241.522217 810.000000
1243.269653 815.000000
1245.016357 768.000000
1246.761841 808.000000
1248.506470 769.000000
1250.249756 756.000000
1251.992065 674.000000
1253.733276 876.000000
1255.473633 716.000000
1257.212891 797.000000
1258.950928 688.000000
1260.688110 744.000000
1262.424072 728.000000
1264.159058 715.000000
1265.893066 715.000000
1267.626099 747.000000
1269.357910 743.000000
1271.088745 872.000000
1272.818359 830.000000
1274.547119 886.000000
1276.274780 689.000000
1278.001343 790.000000
1279.727051 844.000000
1281.451416 885.000000
1283.174927 853.000000
1284.897461 826.000000
1286.619019 772.000000
1288.339355 713.000000
1290.058716 874.000000
1291.776978 775.000000
1293.494263 767.000000
1295.210571 928.000000
1296.925659 895.000000
1298.639771 839.000000
1300.352905 765.000000
1302.065186 777.000000
1303.776245 873.000000
1305.486328 809.000000
1307.195313 850.000000
1308.903076 866.000000
1310.610229 846.000000
1312.315918 741.000000
1314.020874 806.000000
1315.724854 904.000000
1317.427612 831.000000
1319.129395 987.000000
1320.830322 886.000000
1322.529907 1617.000000
1324.228638 464.000000
1325.926636 1045.000000
1327.623291 1083.000000
1329.318848 1144.000000
1331.013550 1102.000000
1332.707031 1083.000000
1334.399658 1019.000000
1336.091431 1127.000000
1337.781860 915.000000
1339.471558 872.000000
1341.160156 858.000000
1342.847656 890.000000
1344.534180 909.000000
1346.219604 873.000000
1347.904053 899.000000
1349.587646 911.000000
1351.270020 859.000000
1352.951416 917.000000
1354.631958 934.000000
1356.311279 889.000000
1357.989990 989.000000
1359.667358 933.000000
1361.343628 1018.000000
1363.018921 985.000000
1364.693481 966.000000
1366.366821 994.000000
1368.039185 958.000000
1369.710571 915.000000
1371.380981 886.000000
1373.050293 924.000000
1374.718628 888.000000
1376.386108 895.000000
1378.052490 819.000000
1379.717896 887.000000
1381.382324 851.000000
1383.045532 903.000000
1384.708130 841.000000
1386.369385 754.000000
1388.029785 786.000000
1389.689087 818.000000
1391.347412 817.000000
1393.005005 741.000000
1394.661377 783.000000
1396.316895 859.000000
1397.971191 804.000000
1399.624634 798.000000
1401.276978 910.000000
1402.928589 794.000000
1404.578979 811.000000
1406.228271 832.000000
1407.876831 756.000000
1409.524292 823.000000
1411.170776 705.000000
1412.816406 754.000000
1414.461060 755.000000
1416.104492 713.000000
1417.747070 781.000000
1419.388550 786.000000
1421.029175 756.000000
1422.668823 838.000000
1424.307373 719.000000
1425.945068 647.000000
1427.581665 724.000000
1429.217285 721.000000
1430.852173 765.000000
1432.485962 765.000000
1434.118652 790.000000
1435.750366 828.000000
1437.381226 954.000000
1439.010986 774.000000
1440.639648 874.000000
1442.267700 772.000000
1443.894653 888.000000
1445.520386 747.000000
1447.145508 856.000000
1448.769531 840.000000
1450.392578 908.000000
1452.014648 831.000000
1453.635620 914.000000
1455.255615 1083.000000
1456.874878 1048.000000
1458.492798 1115.000000
1460.110107 1207.000000
1461.726440 984.000000
1463.341553 1045.000000
1464.955811 936.000000
1466.569214 915.000000
1468.181519 781.000000
1469.792969 817.000000
1471.403564 810.000000
1473.012939 840.000000
1474.621338 817.000000
1476.228882 762.000000
1477.835449 818.000000
1479.441284 809.000000
1481.045898 776.000000
1482.649658 682.000000
1484.252197 691.000000
1485.854126 639.000000
1487.454834 690.000000
1489.054810 675.000000
1490.653687 527.000000
1492.251709 659.000000
1493.848633 629.000000
1495.444702 680.000000
1497.039795 685.000000
1498.633911 666.000000
1500.227295 647.000000
1501.819580 745.000000
1503.410645 707.000000
1505.001221 671.000000
1506.590454 720.000000
1508.179077 706.000000
1509.766602 758.000000
1511.353027 750.000000
1512.938721 722.000000
1514.523315 755.000000
1516.107056 644.000000
1517.689697 740.000000
1519.271606 608.000000
1520.852417 680.000000
1522.432495 602.000000
1524.011353 693.000000
1525.589355 679.000000
1527.166626 580.000000
1528.742676 684.000000
1530.317993 716.000000
1531.892212 625.000000
1533.465698 579.000000
1535.037964 672.000000
1536.609497 596.000000
1538.180054 677.000000
1539.749756 635.000000
1541.318237 653.000000
1542.885986 624.000000
1544.452881 632.000000
1546.018555 627.000000
1547.583496 650.000000
1549.147339 686.000000
1550.710571 639.000000
1552.272461 668.000000
1553.833740 813.000000
1555.393921 663.000000
1556.953369 760.000000
1558.511719 839.000000
1560.069336 631.000000
1561.625854 606.000000
1563.181152 646.000000
1564.735840 572.000000
1566.289795 634.000000
1567.842773 682.000000
1569.394409 584.000000
1570.945313 587.000000
1572.495483 651.000000
1574.044678 624.000000
1575.592529 651.000000
1577.139893 648.000000
1578.686279 643.000000
1580.231812 602.000000
1581.776367 684.000000
1583.319702 675.000000
1584.862427 693.000000
1586.404297 710.000000
1587.945068 741.000000
1589.484863 736.000000
1591.023926 770.000000
1592.561890 658.000000
1594.099365 685.000000
1595.635498 658.000000
1597.170532 723.000000
1598.705078 664.000000
1600.238647 628.000000
1601.771362 649.000000
1603.302490 696.000000
1604.833374 702.000000
1606.363403 805.000000
1607.892212 744.000000
1609.419922 641.000000
1610.947021 708.000000
1612.473389 696.000000
1613.998779 702.000000
1615.523315 696.000000
1617.046509 845.000000
1618.568970 676.000000
1620.090698 768.000000
1621.611572 788.000000
1623.130981 693.000000
1624.649902 758.000000
1626.168091 811.000000
1627.685425 827.000000
1629.201660 776.000000
1630.716553 699.000000
1632.230957 784.000000
1633.744629 706.000000
1635.257202 758.000000
1636.768555 712.000000
1638.279541 770.000000
1639.789429 745.000000
1641.298462 788.000000
1642.806152 716.000000
1644.313477 720.000000
1645.819946 756.000000
1647.325439 649.000000
1648.830078 672.000000
1650.333252 740.000000
1651.835815 735.000000
1653.338013 620.000000
1654.838867 783.000000
1656.338623 683.000000
1657.837524 704.000000
1659.336060 625.000000
1660.833374 712.000000
1662.329956 590.000000
1663.824951 710.000000
1665.319702 581.000000
1666.813599 558.000000
1668.306519 725.000000
1669.798096 1055.000000
1671.289185 640.000000
1672.779663 637.000000
1674.269043 583.000000
1675.756958 626.000000
1677.244629 622.000000
1678.731323 649.000000
1680.217163 602.000000
1681.702148 514.000000
1683.185669 705.000000
1684.668945 541.000000
1686.151367 522.000000
1687.632690 627.000000
1689.112549 644.000000
1690.592163 658.000000
1692.071045 598.000000
1693.548950 537.000000
1695.025879 618.000000
1696.501587 641.000000
1697.976929 475.000000
1699.451050 500.000000
1700.924561 511.000000
1702.396606 444.000000
1703.868408 534.000000
1705.339233 514.000000
1706.809204 609.000000
1708.277832 490.000000
1709.745972 487.000000
1711.213379 512.000000
1712.679688 532.000000
1714.145386 579.000000
1715.609375 443.000000
1717.073242 454.000000
1718.536255 475.000000
1719.998291 652.000000
1721.459106 431.000000
1722.919312 497.000000
1724.378784 569.000000
1725.837402 413.000000
1727.295044 545.000000
1728.751343 481.000000
1730.207397 578.000000
1731.662476 431.000000
1733.116577 450.000000
1734.569458 575.000000
1736.022095 471.000000
1737.473633 535.000000
1738.924438 421.000000
1740.374268 447.000000
1741.822754 405.000000
1743.270874 362.000000
1744.718140 413.000000
1746.164673 486.000000
1747.609619 422.000000
1749.054321 379.000000
1750.498169 441.000000
1751.941162 241.000000
1753.382690 321.000000
1754.823975 364.000000
1756.264404 535.000000
1757.703857 390.000000
1759.142334 387.000000
1760.579834 402.000000
1762.016846 431.000000
1763.452881 386.000000
1764.888062 411.000000
1766.321777 455.000000
1767.755371 397.000000
1769.187988 323.000000
1770.619751 308.000000
1772.050659 402.000000
1773.480347 366.000000
1774.909302 453.000000
1776.337769 377.000000
1777.765259 345.000000
1779.191406 289.000000
1780.617310 376.000000
1782.042114 363.000000
1783.466309 391.000000
1784.889038 239.000000
1786.311279 354.000000
1787.732788 324.000000
1789.153564 258.000000
1790.573364 350.000000
1791.991821 345.000000
1793.409790 360.000000
1794.827148 355.000000
1796.243652 255.000000
1797.658691 271.000000
1799.073364 293.000000
1800.487427 344.000000
1801.900269 234.000000
1803.312500 374.000000
1804.723389 371.000000
1806.133789 334.000000
1807.543457 312.000000
1808.952148 319.000000
1810.359741 301.000000
1811.766846 351.000000
1813.173096 440.000000
1814.578369 352.000000
1815.982544 327.000000
1817.386353 357.000000
1818.789185 287.000000
1820.191162 316.000000
1821.592529 355.000000
1822.992432 301.000000
1824.391724 274.000000
1825.790527 299.000000
1827.188477 232.000000
1828.585083 294.000000
1829.981079 326.000000
1831.376343 323.000000
1832.770996 369.000000
1834.164673 345.000000
1835.557007 319.000000
1836.948853 389.000000
1838.340088 301.000000
1839.730347 310.000000
1841.119385 409.000000
1842.508057 347.000000
1843.895752 351.000000
1845.282715 318.000000
1846.668335 296.000000
1848.053711 317.000000
1849.438232 366.000000
1850.822021 359.000000
1852.204712 224.000000
1853.586182 331.000000
1854.967163 151.000000
1856.347656 247.000000
1857.727173 258.000000
1859.105225 309.000000
1860.483154 266.000000
1861.860107 358.000000
1863.236328 339.000000
1864.611694 292.000000
1865.985596 269.000000
1867.359375 268.000000
1868.732300 237.000000
1870.104126 234.000000
1871.474976 407.000000
1872.845459 250.000000
1874.214844 248.000000
1875.583740 354.000000
1876.951050 311.000000
1878.318237 245.000000
1879.684448 228.000000
1881.049927 271.000000
1882.414673 252.000000
1883.777832 226.000000
1885.140869 286.000000
1886.503052 292.000000
1887.864380 381.000000
1889.224365 227.000000
1890.583984 295.000000
1891.942993 247.000000
1893.301025 296.000000
1894.658203 235.000000
1896.014160 241.000000
1897.369873 225.000000
1898.724609 295.000000
1900.078491 260.000000
1901.431274 283.000000
1902.783569 274.000000
1904.135132 286.000000
1905.485840 214.000000
1906.835327 216.000000
1908.184326 258.000000
1909.532471 192.000000
1910.880005 225.000000
1912.226807 329.000000
1913.572021 284.000000
1914.916992 220.000000
1916.261230 245.000000
1917.604614 246.000000
1918.946655 246.000000
1920.288452 229.000000
1921.629395 283.000000
1922.969604 241.000000
1924.308838 212.000000
1925.647095 224.000000
1926.984741 291.000000
1928.321655 229.000000
1929.657715 281.000000
1930.992554 304.000000
1932.327026 188.000000
1933.660767 257.000000
1934.993652 253.000000
1936.325073 254.000000
1937.656616 267.000000
1938.986816 217.000000
1940.316528 234.000000
1941.645386 239.000000
1942.973022 251.000000
1944.300171 279.000000
1945.626587 322.000000
1946.952271 283.000000
1948.276611 201.000000
1949.600708 235.000000
1950.923950 185.000000
1952.246460 203.000000
1953.567871 178.000000
1954.888306 262.000000
1956.208130 258.000000
1957.527588 178.000000
1958.846069 222.000000
1960.163208 245.000000
1961.479980 185.000000
1962.796021 315.000000
1964.111328 287.000000
1965.425171 183.000000
1966.738770 230.000000
1968.051636 162.000000
1969.363647 211.000000
1970.675049 237.000000
1971.985107 179.000000
1973.294678 197.000000
1974.603516 272.000000
1975.911743 342.000000
1977.218628 262.000000
1978.524902 146.000000
1979.830811 299.000000
1981.135498 215.000000
1982.439697 231.000000
1983.742676 220.000000
1985.045288 208.000000
1986.346924 189.000000
1987.647949 118.000000
1988.947388 202.000000
1990.246948 221.000000
1991.545410 168.000000
1992.843384 235.000000
1994.139771 224.000000
1995.436157 189.000000
1996.731567 278.000000
1998.026245 227.000000
1999.320068 235.000000
2000.612671 168.000000
2001.904785 226.000000
2003.196411 268.000000
2004.487305 197.000000
2005.776611 201.000000
2007.065674 236.000000
2008.354004 129.000000
2009.641602 267.000000
2010.928345 286.000000
2012.213989 178.000000
2013.499268 200.000000
2014.783569 179.000000
2016.067261 202.000000
2017.349609 192.000000
2018.631592 168.000000
2019.913086 248.000000
2021.193604 134.000000
2022.473389 159.000000
2023.752075 220.000000
2025.030029 229.000000
2026.307495 147.000000
2027.584351 123.000000
2028.859497 117.000000
2030.134766 264.000000
2031.409058 186.000000
2032.682373 159.000000
2033.954834 254.000000
2035.226929 150.000000
2036.497925 240.000000
2037.768677 217.000000
2039.038086 230.000000
2040.306396 207.000000
2041.574707 256.000000
2042.842041 244.000000
2044.108643 145.000000
2045.374023 132.000000
2046.638794 161.000000
2047.903320 137.000000
2049.166504 324.000000
2050.429443 243.000000
2051.690430 105.000000
2052.951904 202.000000
2054.212158 206.000000
2055.471680 239.000000
2056.730469 141.000000
2057.988281 167.000000
2059.245605 280.000000
2060.502197 224.000000
2061.757324 123.000000
2063.012451 142.000000
2064.266602 191.000000
2065.520020 191.000000
2066.772705 212.000000
2068.024170 149.000000
2069.275391 72.000000
2070.525879 250.000000
2071.775635 102.000000
2073.023926 -108.000000
2074.272217 182.000000
2075.519531 199.000000
2076.766113 192.000000
2078.011963 163.000000
2079.256592 188.000000
2080.500732 120.000000
2081.744385 238.000000
2082.987061 191.000000
2084.228516 234.000000
2085.469727 160.000000
2086.710449 164.000000
2087.950195 181.000000
2089.188721 251.000000
2090.426758 236.000000
2091.664063 237.000000
2092.901123 144.000000
2094.136719 190.000000
2095.371582 246.000000
2096.606201 187.000000
2097.839844 142.000000
2099.072510 239.000000
2100.304443 97.000000
2101.535889 308.000000
2102.766357 161.000000
2103.996094 201.000000
2105.225586 82.000000
2106.453125 162.000000
2107.680908 275.000000
2108.907959 171.000000
2110.134033 226.000000
2111.358643 259.000000
2112.583496 231.000000
2113.807129 179.000000
2115.030273 187.000000
2116.252197 227.000000
2117.473877 243.000000
2118.694580 186.000000
2119.914551 182.000000
2121.134033 171.000000
2122.352051 179.000000
2123.570068 170.000000
2124.787109 147.000000
2126.003662 197.000000
2127.218506 147.000000
2128.433594 141.000000
2129.647705 284.000000
2130.861084 166.000000
2132.073730 259.000000
2133.284912 135.000000
2134.496338 375.000000
2135.706543 191.000000
2136.916260 169.000000
2138.124512 146.000000
2139.332764 146.000000
2140.540283 229.000000
2141.746582 -9.000000
2142.952148 199.000000
2144.157471 240.000000
2145.361816 208.000000
2146.565430 170.000000
2147.768555 113.000000
2148.970215 30.000000
2150.171631 156.000000
2151.372314 156.000000
2152.572266 149.000000
2153.770996 58.000000
2154.969482 177.000000
2156.167480 132.000000
2157.364502 187.000000
2158.560791 214.000000
2159.755859 112.000000
2160.950684 141.000000
2162.144775 179.000000
2163.337891 157.000000
2164.530029 220.000000
2165.721924 256.000000
2166.913086 118.000000
2168.103271 114.000000
2169.292725 182.000000
2170.481689 109.000000
2171.669678 265.000000
2172.857422 171.000000
2174.043701 143.000000
2175.229248 141.000000
2176.414551 151.000000
2177.599365 102.000000
2178.782959 91.000000
2179.965820 119.000000
2181.147705 218.000000
2182.329346 210.000000
2183.510498 211.000000
2184.690430 117.000000
2185.869385 142.000000
2187.047852 140.000000
2188.226074 197.000000
2189.403076 74.000000
2190.579102 69.000000
2191.754883 212.000000
2192.930176 185.000000
2194.104004 131.000000
2195.277344 104.000000
2196.450439 169.000000
2197.622314 57.000000
2198.793701 186.000000
2199.964600 190.000000
2201.133789 232.000000
2202.302979 73.000000
2203.471680 67.000000
2204.639404 165.000000
2205.806152 116.000000
2206.972168 129.000000
2208.137695 106.000000
2209.302979 193.000000
2210.466797 137.000000
2211.630127 128.000000
2212.792236 210.000000
2213.954590 160.000000
2215.115723 174.000000
2216.275879 174.000000
2217.435547 133.000000
2218.594971 168.000000
2219.753174 203.000000
2220.910400 115.000000
2222.067383 175.000000
2223.223633 106.000000
2224.379150 89.000000
2225.533936 142.000000
2226.687744 149.000000
2227.840576 183.000000
2228.993896 72.000000
2230.145264 133.000000
2231.296387 68.000000
2232.446777 65.000000
2233.596680 54.000000
2234.745605 144.000000
2235.894043 158.000000
2237.041016 120.000000
2238.188232 185.000000
2239.334229 125.000000
2240.479980 100.000000
2241.624023 103.000000
2242.768311 81.000000
2243.911621 158.000000
2245.054199 49.000000
2246.195801 80.000000
2247.337158 178.000000
2248.477539 98.000000
2249.617188 171.000000
2250.756348 157.000000
2251.894287 156.000000
2253.032227 84.000000
2254.169189 39.000000
2255.305420 143.000000
2256.440674 157.000000
2257.575195 121.000000
2258.709473 136.000000
2259.843262 167.000000
2260.975586 74.000000
2262.107422 190.000000
2263.238770 115.000000
2264.369141 144.000000
2265.499268 78.000000
2266.628174 60.000000
2267.756592 153.000000
2268.884521 82.000000
2270.011475 105.000000
2271.137695 112.000000
2272.262939 180.000000
2273.388184 98.000000
2274.512695 48.000000
2275.635986 54.000000
2276.758545 128.000000
2277.880615 43.000000
2279.002197 225.000000
2280.123047 188.000000
2281.242676 209.000000
2282.361816 116.000000
2283.480713 75.000000
2284.598877 114.000000
2285.716064 67.000000
2286.832275 173.000000
2287.948242 135.000000
2289.063477 27.000000
2290.177979 39.000000
2291.291260 78.000000
2292.404541 71.000000
2293.517090 127.000000
2294.628906 134.000000
2295.739990 38.000000
2296.849854 45.000000
2297.959229 147.000000
2299.068359 174.000000
2300.176514 115.000000
2301.283691 103.000000
2302.390625 98.000000
2303.496826 71.000000
2304.602539 169.000000
2305.706787 -11.000000
2306.810791 110.000000
2307.914307 121.000000
2309.017334 138.000000
2310.119141 38.000000
2311.220215 158.000000
2312.320801 108.000000
2313.420898 87.000000
2314.520264 95.000000
2315.618164 39.000000
2316.716553 52.000000
2317.813477 44.000000
2318.910156 67.000000
2320.006348 75.000000
2321.100830 171.000000
2322.195313 305.000000
2323.289063 73.000000
2324.382568 26.000000
2325.474365 90.000000
2326.566162 335.000000
2327.657227 165.000000
2328.747559 177.000000
2329.836914 173.000000
2330.926270 244.000000
2332.014404 214.000000
2333.102051 118.000000
2334.189453 150.000000
2335.275146 165.000000
2336.360596 108.000000
2337.445801 60.000000
2338.530029 147.000000
2339.613281 180.000000
2340.696289 43.000000
2341.778320 552.000000
2342.860107 103.000000
2343.941162 35.000000
2345.020996 64.000000
2346.100342 18.000000
2347.179199 108.000000
2348.257568 147.000000
2349.334473 -11.000000
2350.411133 149.000000
2351.487549 69.000000
2352.562988 -1.000000
2353.637451 70.000000
2354.711670 122.000000
2355.785156 90.000000
2356.858154 95.000000
2357.929932 106.000000
2359.001465 60.000000
2360.072021 51.000000
2361.142334 84.000000
2362.211670 3.000000
2363.280029 51.000000
2364.348145 60.000000
2365.415527 -2.000000
2366.482422 47.000000
2367.548584 69.000000
2368.613525 102.000000
2369.678467 80.000000
2370.742676 64.000000
2371.806152 42.000000
2372.868408 114.000000
2373.930664 172.000000
2374.991943 115.000000
2376.052979 1.000000
2377.112793 -49.000000
2378.171875 72.000000
2379.230957 112.000000
2380.289063 45.000000
2381.346436 30.000000
2382.402832 62.000000
2383.458984 116.000000
2384.514648 76.000000
2385.569580 150.000000
2386.623047 61.000000
2387.676758 60.000000
2388.729492 49.000000
2389.781738 276.000000
2390.833252 108.000000
2391.883789 9.000000
2392.934082 5.000000
2393.983398 117.000000
2395.032715 97.000000
2396.080566 129.000000
2397.127930 35.000000
2398.175049 49.000000
2399.221191 117.000000
2400.266602 89.000000
2401.311279 14.000000
2402.355957 174.000000
2403.399170 182.000000
2404.442383 110.000000
2405.484131 62.000000
2406.526123 75.000000
2407.567383 92.000000
2408.607666 32.000000
2409.647217 121.000000
2410.685791 40.000000
2411.724609 190.000000
2412.762207 160.000000
2413.799561 116.000000
2414.835693 85.000000
2415.871582 28.000000
2416.906738 -20.000000
2417.941406 84.000000
2418.974609 87.000000
2420.008057 157.000000
2421.040527 69.000000
2422.072754 0.000000
2423.103516 40.000000
2424.134277 42.000000
2425.164551 99.000000
2426.193604 83.000000
2427.222656 92.000000
2428.250000 115.000000
2429.277832 85.000000
2430.304443 -2.000000
2431.330811 9.000000
2432.355713 0.000000
2433.380859 26.000000
2434.405029 91.000000
2435.428955 -5.000000
2436.451660 114.000000
2437.473633 31.000000
2438.495361 123.000000
2439.516357 62.000000
2440.536865 26.000000
2441.556152 73.000000
2442.575439 18.000000
2443.593750 110.000000
2444.611816 20.000000
2445.628418 115.000000
2446.645020 67.000000
2447.660889 0.000000
2448.676758 69.000000
2449.691162 95.000000
2450.704834 -29.000000
2451.718018 78.000000
2452.730957 41.000000
2453.743164 14.000000
2454.754395 79.000000
2455.765381 67.000000
2456.775635 53.000000
2457.785400 109.000000
2458.794189 51.000000
2459.802246 58.000000
2460.810303 26.000000
2461.817139 93.000000
2462.823730 -15.000000
2463.829102 13.000000
2464.834229 83.000000
2465.839111 71.000000
2466.842773 -18.000000
2467.846191 -31.000000
2468.848633 53.000000
2469.850830 102.000000
2470.852539 26.000000
2471.853271 64.000000
2472.853027 -18.000000
2473.852783 19.000000
2474.851563 45.000000
2475.849854 -7.000000
2476.847168 1.000000
2477.844238 16.000000
2478.841309 -63.000000
2479.836914 22.000000
2480.832520 75.000000
2481.826416 94.000000
2482.820313 83.000000
2483.813721 134.000000
2484.806641 60.000000
2485.798584 85.000000
2486.789795 69.000000
2487.780762 15.000000
2488.771240 120.000000
2489.760742 128.000000
2490.749512 -22.000000
2491.738281 66.000000
2492.726074 -17.000000
2493.712646 65.000000
2494.699219 124.000000
2495.685303 89.000000
2496.670654 19.000000
2497.655029 -34.000000
2498.639160 58.000000
2499.623291 32.000000
2500.605957 65.000000
2501.588135 71.000000
2502.569824 192.000000
2503.550781 92.000000
2504.531250 89.000000
2505.511475 193.000000
2506.490234 50.000000
2507.468750 72.000000
2508.446777 109.000000
2509.424316 138.000000
2510.400879 131.000000
2511.377197 68.000000
2512.352783 153.000000
2513.327881 19.000000
2514.302490 100.000000
2515.275879 201.000000
2516.249023 59.000000
2517.221924 9.000000
2518.193848 -50.000000
2519.165039 37.000000
2520.135742 114.000000
2521.106201 -21.000000
2522.075928 -3.000000
2523.044678 72.000000
2524.012695 53.000000
2524.980713 52.000000
2525.947754 65.000000
2526.914551 47.000000
2527.880127 24.000000
2528.845703 -34.000000
2529.810547 4.000000
2530.774902 -34.000000
2531.738037 -2.000000
2532.701416 43.000000
2533.663818 76.000000
2534.625977 -11.000000
2535.586914 11.000000
2536.547119 -1.000000
2537.507568 -50.000000
2538.467041 77.000000
2539.425781 62.000000
2540.383545 29.000000
2541.341553 10.000000
2542.298828 -28.000000
2543.255127 -30.000000
2544.211182 44.000000
2545.166016 149.000000
2546.121094 97.000000
2547.075439 20.000000
2548.029053 -260.000000
2548.981689 17.000000
2549.934082 11.000000
2550.885986 55.000000
2551.837158 69.000000
2552.787598 -9.000000
2553.737549 57.000000
2554.687256 9.000000
2555.636230 53.000000
2556.584717 58.000000
2557.531982 67.000000
2558.479248 2.000000
2559.425781 129.000000
2560.371826 114.000000
2561.316895 56.000000
2562.261719 66.000000
2563.206055 44.000000
2564.149902 -37.000000
2565.093262 84.000000
2566.035156 72.000000
2566.977295 59.000000
2567.918701 24.000000
2568.859375 -7.000000
2569.799316 64.000000
2570.739258 12.000000
2571.678223 9.000000
2572.616943 47.000000
2573.554688 21.000000
2574.492188 20.000000
2575.428955 20.000000
2576.364990 134.000000
2577.300537 59.000000
2578.235352 51.000000
2579.170166 -17.000000
2580.104004 49.000000
2581.037354 -40.000000
2581.969971 -13.000000
2582.902344 -50.000000
2583.833984 6.000000
2584.765137 -35.000000
2585.695801 92.000000
2586.625244 -18.000000
2587.554688 60.000000
2588.483643 4.000000
2589.412354 14.000000
2590.339355 153.000000
2591.266602 -40.000000
2592.193359 15.000000
2593.119385 15.000000
2594.045166 -16.000000
2594.969727 58.000000
2595.894043 4.000000
2596.817871 71.000000
2597.741211 54.000000
2598.663574 28.000000
2599.585693 17.000000
2600.507324 -53.000000
2601.428223 -19.000000
2602.348389 -40.000000
2603.268311 -4.000000
2604.187744 13.000000
2605.106934 -19.000000
2606.025146 -42.000000
2606.942139 21.000000
2607.859375 68.000000
2608.776367 38.000000
2609.692383 11.000000
2610.607178 24.000000
2611.522461 -106.000000
2612.437012 97.000000
2613.350586 99.000000
2614.264160 -38.000000
2615.176514 -16.000000
2616.088867 88.000000
2617.000244 38.000000
2617.911377 -70.000000
2618.821777 -4.000000
2619.731934 67.000000
2620.641357 0.000000
2621.550293 16.000000
2622.458252 -108.000000
2623.366455 -29.000000
2624.273682 -29.000000
2625.180420 96.000000
2626.086426 97.000000
2626.992188 -4.000000
2627.897217 -23.000000
2628.802002 -13.000000
2629.706055 -29.000000
2630.609131 61.000000
2631.512207 89.000000
2632.414307 -6.000000
2633.316406 95.000000
2634.218262 83.000000
2635.118408 -31.000000
2636.018799 50.000000
2636.918457 13.000000
2637.817871 23.000000
2638.715820 94.000000
2639.614258 13.000000
2640.512207 79.000000
2641.409424 62.000000
2642.305420 186.000000
2643.201416 3.000000
2644.097168 14.000000
2644.992188 98.000000
2645.886963 20.000000
2646.780273 65.000000
2647.673584 -54.000000
2648.566650 9.000000
2649.459473 11.000000
2650.350586 -23.000000
2651.241943 -10.000000
2652.132813 24.000000
2653.022949 90.000000
2653.912842 3.000000
2654.801514 50.000000
2655.690430 -17.000000
2656.578857 56.000000
2657.466309 1.000000
2658.352783 19.000000
2659.239746 45.000000
2660.125977 62.000000
2661.011719 -33.000000
2661.896240 -14.000000
2662.780762 85.000000
2663.665039 -49.000000
2664.548584 4.000000
2665.431641 -110.000000
2666.313965 -31.000000
2667.195801 14.000000
2668.076904 -38.000000
2668.958252 28.000000
2669.838135 52.000000
2670.718262 -17.000000
2671.597656 -21.000000
2672.477051 3.000000
2673.355713 73.000000
2674.232666 55.000000
2675.110352 23.000000
2675.987305 -2.000000
2676.863525 11.000000
2677.739258 102.000000
2678.614258 34.000000
2679.489502 34.000000
2680.363770 15.000000
2681.237549 71.000000
2682.110596 -48.000000
2682.983398 24.000000
2683.855957 35.000000
2684.727783 -11.000000
2685.598877 91.000000
2686.469727 13.000000
2687.340088 -1.000000
2688.210205 -50.000000
2689.078613 43.000000
2689.947754 53.000000
2690.816162 446.000000
2691.684326 41.000000
2692.551758 88.000000
2693.417969 -7.000000
2694.284668 54.000000
2695.150391 -9.000000
2696.016113 30.000000
2696.880371 181.000000
2697.745361 -67.000000
2698.608887 21.000000
2699.472656 1.000000
2700.334961 127.000000
2701.197754 -29.000000
2702.059570 -14.000000
2702.920898 -2.000000
2703.782227 151.000000
2704.642334 46.000000
2705.502441 83.000000
2706.362061 -16.000000
2707.221436 -23.000000
2708.079102 -58.000000
2708.937012 17.000000
2709.795410 43.000000
2710.652588 -19.000000
2711.509033 38.000000
2712.364990 57.000000
2713.220947 38.000000
2714.076172 -22.000000
2714.930664 70.000000
2715.784668 -96.000000
2716.638672 -27.000000
2717.491699 8.000000
2718.344971 75.000000
2719.196533 80.000000
2720.048584 -53.000000
2720.900391 58.000000
2721.750977 79.000000
2722.601563 -6.000000
2723.451660 52.000000
2724.301025 15.000000
2725.150391 7.000000
2725.998535 -34.000000
2726.846191 88.000000
2727.694336 -35.000000
2728.541260 35.000000
2729.388672 -50.000000
2730.234619 -36.000000
2731.079834 8.000000
2731.925537 -21.000000
2732.770264 54.000000
2733.614990 -7.000000
2734.458496 -5.000000
2735.302246 20.000000
2736.145264 -99.000000
2736.987793 17.000000
2737.829346 15.000000
2738.671387 83.000000
2739.512451 24.000000
2740.353271 39.000000
2741.193848 -10.000000
2742.033203 -126.000000
2742.872559 -26.000000
2743.711914 -36.000000
2744.550049 -38.000000
2745.387695 47.000000
2746.225342 35.000000
2747.062500 40.000000
2747.899414 19.000000
2748.735840 -76.000000
2749.571045 -67.000000
2750.406494 -35.000000
2751.241455 -36.000000
2752.075684 -27.000000
2752.909668 -24.000000
2753.743164 -50.000000
2754.576660 -34.000000
2755.409180 -11.000000
2756.241211 -10.000000
2757.072754 -27.000000
2757.904297 44.000000
2758.734863 -29.000000
2759.565674 -10.000000
2760.395264 20.000000
2761.224854 -14.000000
2762.054199 -12.000000
2762.882813 -14.000000
2763.710938 -52.000000
2764.538574 88.000000
2765.366211 52.000000
2766.193359 -61.000000
2767.019775 -23.000000
2767.845703 -44.000000
2768.671143 -52.000000
2769.496338 -49.000000
2770.321533 -3.000000
2771.145508 77.000000
2771.969482 93.000000
2772.793457 24.000000
2773.616211 -29.000000
2774.439209 47.000000
2775.260986 -6.000000
2776.082764 -46.000000
2776.904541 115.000000
2777.725342 -47.000000
2778.545410 46.000000
2779.365723 -48.000000
2780.185547 15.000000
2781.005371 -58.000000
2781.823242 2.000000
2782.642334 -135.000000
2783.460205 40.000000
2784.277832 34.000000
2785.094971 23.000000
2785.911621 -72.000000
2786.728027 31.000000
2787.543945 20.000000
2788.359619 -60.000000
2789.174316 91.000000
2789.989502 93.000000
2790.803955 61.000000
2791.617920 48.000000
2792.431641 76.000000
2793.244141 13.000000
2794.056885 -79.000000
2794.869141 -21.000000
2795.680908 53.000000
2796.491943 11.000000
2797.303711 -18.000000
2798.114258 -82.000000
2798.924805 -79.000000
2799.733887 46.000000
2800.543701 -13.000000
2801.352783 -43.000000
2802.161621 56.000000
2802.969971 30.000000
2803.777344 -53.000000
2804.585205 46.000000
2805.392334 45.000000
2806.199219 95.000000
2807.004883 -73.000000
2807.811035 -45.000000
2808.616455 95.000000
2809.421875 -34.000000
2810.226563 -14.000000
2811.030273 82.000000
2811.834473 30.000000
2812.638184 54.000000
2813.441650 3.000000
2814.243652 -37.000000
2815.046387 25.000000
2815.848389 -20.000000
2816.650146 -32.000000
2817.451416 -63.000000
2818.252197 -94.000000
2819.052490 37.000000
2819.853027 41.000000
2820.652588 -119.000000
2821.451660 46.000000
2822.250732 1.000000
2823.049561 -45.000000
2823.847900 3.000000
2824.645264 -27.000000
2825.442871 64.000000
2826.239746 -6.000000
2827.036865 -78.000000
2827.833252 213.000000
2828.628906 11.000000
2829.424561 -32.000000
2830.219971 115.000000
2831.014893 49.000000
2831.809082 38.000000
2832.603271 -35.000000
2833.397217 92.000000
2834.190674 -61.000000
2834.983398 82.000000
2835.775879 112.000000
2836.568359 71.000000
2837.360596 5.000000
2838.152344 -18.000000
2838.943115 84.000000
2839.733887 -16.000000
2840.524902 19.000000
2841.314941 114.000000
2842.104492 81.000000
2842.894287 -20.000000
2843.683105 -19.000000
2844.471924 58.000000
2845.260742 44.000000
2846.048584 33.000000
2846.835938 48.000000
2847.623535 -25.000000
2848.410645 52.000000
2849.197021 56.000000
2849.983398 -14.000000
2850.769531 3.000000
2851.555176 22.000000
2852.339844 -15.000000
2853.125000 -31.000000
2853.909912 63.000000
2854.694092 -83.000000
2855.478271 -51.000000
2856.261230 6.000000
2857.044434 26.000000
2857.827393 3.000000
2858.609863 -2.000000
2859.392090 18.000000
2860.173828 52.000000
2860.955322 28.000000
2861.737061 -15.000000
2862.518066 76.000000
2863.298340 5.000000
2864.078369 -55.000000
2864.858398 32.000000
2865.638184 -30.000000
2866.416992 27.000000
2867.196045 25.000000
2867.974609 74.000000
2868.752930 27.000000
2869.530762 1.000000
2870.308350 77.000000
2871.085693 23.000000
2871.862793 72.000000
2872.639404 58.000000
2873.415527 38.000000
2874.191650 61.000000
2874.967285 -7.000000
2875.742676 -4.000000
2876.517578 53.000000
2877.292236 64.000000
2878.066895 6.000000
2878.841309 -7.000000
2879.614990 -12.000000
2880.387939 26.000000
2881.161621 64.000000
2881.934326 -28.000000
2882.707031 95.000000
2883.479004 -7.000000
2884.250732 40.000000
2885.022949 39.000000
2885.793945 -32.000000
2886.564453 33.000000
2887.335449 -39.000000
2888.106445 49.000000
2888.876709 14.000000
2889.645996 88.000000
2890.415527 90.000000
2891.185059 14.000000
2891.954102 98.000000
2892.722656 68.000000
2893.491211 1.000000
2894.258789 -11.000000
2895.026855 184.000000
2895.794434 36.000000
2896.562012 91.000000
2897.328369 -2.000000
2898.095703 21.000000
2898.861816 101.000000
2899.628174 40.000000
2900.393066 57.000000
2901.158447 59.000000
2901.924316 57.000000
2902.688721 2.000000
2903.453125 67.000000
2904.217773 62.000000
2904.981445 74.000000
2905.745850 -22.000000
2906.509521 67.000000
2907.272461 163.000000
2908.035156 12.000000
2908.798340 -21.000000
2909.561035 13.000000
2910.322510 -10.000000
2911.084473 -10.000000
spectrumdark 2048
-97.146271 6195.000000
-94.519394 6195.000000
-91.894409 6093.000000
-89.271301 6462.000000
-86.650070 5774.000000
-84.030746 6323.000000
-81.413269 6134.000000
-78.797684 6467.000000
-76.183960 6196.000000
-73.572128 5916.000000
-70.962143 6143.000000
-68.354050 5961.000000
-65.747803 5954.000000
-63.143436 5961.000000
-60.540928 6109.000000
-57.940273 5650.000000
-55.341480 6239.000000
-52.744545 6932.000000
-50.149464 6455.000000
-47.556236 6523.000000
-44.964859 6284.000000
-42.375328 6787.000000
-39.787640 5892.000000
-37.201801 6086.000000
-34.617805 6479.000000
-32.035645 5740.000000
-29.455334 6330.000000
-26.876848 5761.000000
-24.300205 6137.000000
-21.725388 6255.000000
-19.152411 6457.000000
-16.581253 6468.000000
-14.011930 6787.000000
-11.444431 7798.000000
-8.878752 6239.000000
-6.314898 6463.000000
-3.752857 6024.000000
-1.192641 5802.000000
1.365767 6209.000000
3.922354 6938.000000
6.477136 6671.000000
9.030101 6009.000000
11.581265 6765.000000
14.130617 6527.000000
16.678173 6577.000000
19.223917 6038.000000
21.767868 5747.000000
24.310015 6702.000000
26.850365 6843.000000
29.388929 6827.000000
31.925697 6209.000000
34.460663 5762.000000
36.993851 7205.000000
39.525257 6327.000000
42.054871 7174.000000
44.582687 6463.000000
47.108746 7748.000000
49.633015 5650.000000
52.155514 6274.000000
54.676216 6772.000000
57.195164 6342.000000
59.712337 6417.000000
62.227734 6653.000000
64.741348 5640.000000
67.253220 5720.000000
69.763336 6589.000000
72.271652 6538.000000
74.778229 5954.000000
77.283051 6345.000000
79.786118 6464.000000
82.287399 6283.000000
84.786957 6133.000000
87.284744 6317.000000
89.780807 5767.000000
92.275101 7181.000000
94.767639 5859.000000
97.258469 6886.000000
99.747528 7179.000000
102.234848 6407.000000
104.720428 6231.000000
107.204285 6411.000000
109.686386 5784.000000
112.166763 6530.000000
114.645416 6258.000000
117.122345 6567.000000
119.597519 7219.000000
122.070984 6832.000000
124.542709 5929.000000
127.012741 6784.000000
129.481003 6247.000000
131.947601 6299.000000
134.412445 5677.000000
136.875595 6218.000000
139.337006 7317.000000
141.796722 6782.000000
144.254715 6394.000000
146.711014 6043.000000
149.165604 5876.000000
151.618469 6818.000000
154.069656 6385.000000
156.519150 6620.000000
158.966919 6103.000000
161.412979 6609.000000
163.857361 8728.000000
166.300064 6503.000000
168.741074 6785.000000
171.180374 6247.000000
173.617966 7270.000000
176.053925 6640.000000
178.488144 6995.000000
180.920685 7154.000000
183.351578 6703.000000
185.780746 6785.000000
188.208267 6653.000000
190.634109 6367.000000
193.058273 6657.000000
195.480774 7251.000000
197.901581 7330.000000
200.320724 6483.000000
202.738205 6062.000000
205.153992 7599.000000
207.568130 6975.000000
209.980637 6421.000000
212.391464 6082.000000
214.800613 6253.000000
217.208130 7402.000000
219.613937 6134.000000
222.018158 6515.000000
224.420670 6725.000000
226.821564 6942.000000
229.220810 6513.000000
231.618393 6849.000000
234.014313 7299.000000
236.408615 6562.000000
238.801254 5909.000000
241.192276 6762.000000
243.581635 6534.000000
245.969376 6359.000000
248.355469 7048.000000
250.739929 6058.000000
253.122742 7881.000000
255.503983 6612.000000
257.883514 6679.000000
260.261475 6429.000000
262.637756 7565.000000
265.012482 7583.000000
267.385559 7869.000000
269.756989 6175.000000
272.126770 6418.000000
274.494995 5879.000000
276.861572 6310.000000
279.226563 6759.000000
281.589935 5995.000000
283.951660 6304.000000
286.311798 7094.000000
288.670319 5929.000000
291.027252 6518.000000
293.382568 6398.000000
295.736298 6024.000000
298.088379 5964.000000
300.438904 6367.000000
302.787842 6413.000000
305.135132 6872.000000
307.480896 6416.000000
309.824982 6496.000000
312.167542 7358.000000
314.508484 7511.000000
316.847809 7160.000000
319.185577 7024.000000
321.521790 8077.000000
323.856354 6228.000000
326.189362 6458.000000
328.520813 5969.000000
330.850677 6765.000000
333.178955 6362.000000
335.505615 7208.000000
337.830780 6341.000000
340.154327 6182.000000
342.476318 5947.000000
344.796753 7568.000000
347.115570 7740.000000
349.432831 6030.000000
351.748566 5817.000000
354.062714 6991.000000
356.375275 6405.000000
358.686279 6437.000000
360.995758 7057.000000
363.303711 6390.000000
365.610046 5670.000000
367.914795 6366.000000
370.218079 6483.000000
372.519745 6230.000000
374.819916 6321.000000
377.118530 6292.000000
379.415588 5724.000000
381.711090 6142.000000
384.005066 5885.000000
386.297455 5226.000000
388.588348 5584.000000
390.877716 6172.000000
393.165497 6213.000000
395.451752 6506.000000
397.736511 7001.000000
400.019653 6017.000000
402.301361 6405.000000
404.581543 6126.000000
406.860138 7216.000000
409.137207 6463.000000
411.412750 6730.000000
413.686768 6578.000000
415.959351 6425.000000
418.230316 6268.000000
420.499786 6415.000000
422.767761 7152.000000
425.034180 7221.000000
427.299103 6295.000000
429.562561 6273.000000
431.824432 6535.000000
434.084839 5992.000000
436.343689 6598.000000
438.601074 6146.000000
440.856964 5630.000000
443.111359 5795.000000
445.364227 5509.000000
447.615540 6893.000000
449.865448 6081.000000
452.113770 6252.000000
454.360657 5607.000000
456.606079 6475.000000
458.849945 6514.000000
461.092316 6770.000000
463.333191 5644.000000
465.572662 6734.000000
467.810547 5495.000000
470.046997 5925.000000
472.281921 6076.000000
474.515381 7396.000000
476.747406 6661.000000
478.977905 5599.000000
481.206909 6430.000000
483.434448 6321.000000
485.660492 5953.000000
487.885101 6570.000000
490.108246 5802.000000
492.329926 6412.000000
494.550049 6699.000000
496.768768 5635.000000
498.985992 6244.000000
501.201843 5529.000000
503.416077 6181.000000
505.628998 6418.000000
507.840332 6394.000000
510.050232 6889.000000
512.258728 6558.000000
514.465820 6595.000000
516.671326 6416.000000
518.875427 6625.000000
521.078003 6170.000000
523.279175 6552.000000
525.479004 6687.000000
527.677307 6949.000000
529.874084 5339.000000
532.069519 5833.000000
534.263428 5533.000000
536.455994 7546.000000
538.647034 6647.000000
540.836670 5999.000000
543.024902 6919.000000
545.211609 7106.000000
547.396851 6736.000000
549.580811 6267.000000
551.763184 6406.000000
553.944214 6275.000000
556.123718 6013.000000
558.301941 5844.000000
560.478638 6030.000000
562.653931 6380.000000
564.827820 6414.000000
567.000244 5871.000000
569.171265 6044.000000
571.340820 6281.000000
573.509094 5317.000000
575.675842 6369.000000
577.841125 6318.000000
580.005005 6133.000000
582.167603 5759.000000
584.328674 6006.000000
586.488342 5611.000000
588.646667 5769.000000
590.803467 6127.000000
592.958923 6591.000000
595.112976 5765.000000
597.265686 6235.000000
599.416870 7250.000000
601.566711 6770.000000
603.715210 6627.000000
605.862122 6139.000000
608.007813 6402.000000
610.152100 6417.000000
612.294922 7056.000000
614.436279 6163.000000
616.576416 6470.000000
618.715027 7561.000000
620.852356 5751.000000
622.988220 6561.000000
625.122681 6895.000000
627.255676 7129.000000
629.387512 6695.000000
631.517883 6630.000000
633.646851 6755.000000
635.774353 6503.000000
637.900574 6143.000000
640.025269 7379.000000
642.148743 6397.000000
644.270874 6851.000000
646.391541 6799.000000
648.510864 6619.000000
650.628784 5743.000000
652.745361 5650.000000
654.860535 6442.000000
656.974365 6455.000000
659.086731 5814.000000
661.197876 6079.000000
663.307617 5401.000000
665.415894 6061.000000
667.523010 6259.000000
669.628662 6736.000000
671.732849 5659.000000
673.835815 5759.000000
675.937378 6986.000000
678.037598 5359.000000
680.136414 6757.000000
682.233887 6190.000000
684.330078 6962.000000
686.424805 6209.000000
688.518311 7058.000000
690.610474 6638.000000
692.701111 7909.000000
694.790527 6620.000000
696.878662 6402.000000
698.965332 6021.000000
701.050781 6716.000000
703.134705 5130.000000
705.217407 5908.000000
707.298828 5977.000000
709.378784 7546.000000
711.457520 6149.000000
713.534790 5553.000000
715.610779 6572.000000
717.685486 6075.000000
719.758911 6877.000000
721.830811 6235.000000
723.901550 7335.000000
725.970947 5825.000000
728.038940 6470.000000
730.105591 6371.000000
732.171021 7051.000000
734.235107 5755.000000
736.297852 6186.000000
738.359253 6561.000000
740.419373 6570.000000
742.478088 6031.000000
744.535583 6615.000000
746.591797 6501.000000
748.646606 6682.000000
750.700134 6373.000000
752.752258 7434.000000
754.803162 5791.000000
756.852844 6654.000000
758.901062 6340.000000
760.948059 6106.000000
762.993774 7012.000000
765.038086 5334.000000
767.081116 5717.000000
769.122925 14956.000000
771.163391 6996.000000
773.202454 6353.000000
775.240356 6108.000000
777.276917 5994.000000
779.312256 5372.000000
781.346252 5780.000000
783.378845 6914.000000
785.410278 5536.000000
787.440308 12173.000000
789.469055 5964.000000
791.496643 6265.000000
793.522888 6325.000000
795.547729 5788.000000
797.571472 5643.000000
799.593811 6380.000000
801.614929 5854.000000
803.634705 6738.000000
805.653198 4868.000000
807.670471 6679.000000
809.686340 6805.000000
811.701050 5745.000000
813.714417 6444.000000
815.726563 6280.000000
817.737488 6047.000000
819.747070 6591.000000
821.755432 5343.000000
823.762390 5705.000000
825.768127 6024.000000
827.772644 5778.000000
829.775879 5686.000000
831.777832 6443.000000
833.778503 5991.000000
835.777954 5889.000000
837.776062 6333.000000
839.773071 6988.000000
841.768677 6259.000000
843.763123 6047.000000
845.756226 6171.000000
847.748108 6823.000000
849.738647 5604.000000
851.727905 6814.000000
853.716125 5942.000000
855.702942 5763.000000
857.688538 6434.000000
859.672852 7248.000000
861.656067 6265.000000
863.637878 6389.000000
865.618469 5851.000000
867.597778 7705.000000
869.575928 7105.000000
871.552734 6267.000000
873.528259 6015.000000
875.502747 6174.000000
877.475769 6006.000000
879.447754 5406.000000
881.418396 6414.000000
883.387878 6114.000000
885.356018 5544.000000
887.322998 5260.000000
889.288635 6117.000000
891.253113 5828.000000
893.216370 5988.000000
895.178406 6481.000000
897.139160 5852.000000
899.098694 6403.000000
901.056946 6692.000000
903.014099 6305.000000
904.970093 6019.000000
906.924683 6897.000000
908.878052 6498.000000
910.830261 6461.000000
912.781250 6419.000000
914.730957 7090.000000
916.679504 6295.000000
918.626831 6133.000000
920.572876 6110.000000
922.517639 6091.000000
924.461365 6288.000000
926.403931 5995.000000
928.345215 5614.000000
930.285156 6397.000000
932.223999 5806.000000
934.161560 5501.000000
936.097900 5942.000000
938.033081 5884.000000
939.966980 6042.000000
941.899780 5877.000000
943.831360 6798.000000
945.761780 5157.000000
947.690979 6425.000000
949.618835 7001.000000
951.545654 6599.000000
953.471191 5993.000000
955.395447 5387.000000
957.318604 6026.000000
959.240601 6703.000000
961.161316 7331.000000
963.080872 6463.000000
964.999268 5339.000000
966.916626 6417.000000
968.832520 6398.000000
970.747314 6111.000000
972.660889 5918.000000
974.573303 6350.000000
976.484497 6458.000000
978.394531 5484.000000
980.303284 6219.000000
982.210999 6084.000000
984.117493 6389.000000
986.022766 5800.000000
987.926941 6789.000000
989.829895 6183.000000
991.731628 6849.000000
993.632202 6551.000000
995.531616 6513.000000
997.429810 5311.000000
999.326843 6519.000000
1001.222656 6495.000000
1003.117310 7583.000000
1005.010864 5582.000000
1006.903137 7087.000000
1008.794495 6043.000000
1010.684509 5354.000000
1012.573303 6639.000000
1014.460938 6353.000000
1016.347412 6927.000000
1018.232727 6707.000000
1020.116882 5928.000000
1021.999817 5810.000000
1023.881714 6194.000000
1025.762329 5235.000000
1027.641846 5838.000000
1029.520386 6069.000000
1031.397583 5417.000000
1033.273438 6145.000000
1035.148315 5923.000000
1037.022217 6617.000000
1038.894653 6999.000000
1040.766113 6699.000000
1042.636230 5539.000000
1044.505371 5555.000000
1046.373291 5755.000000
1048.240112 6999.000000
1050.105835 6719.000000
1051.970337 6422.000000
1053.833740 6459.000000
1055.695801 6483.000000
1057.556885 5871.000000
1059.416870 6447.000000
1061.275513 6645.000000
1063.133057 5803.000000
1064.989502 6703.000000
1066.844849 5930.000000
1068.698975 5858.000000
1070.552246 6226.000000
1072.404053 6342.000000
1074.254883 6131.000000
1076.104492 6180.000000
1077.952881 5740.000000
1079.800415 7913.000000
1081.646606 5620.000000
1083.491577 6242.000000
1085.335693 5425.000000
1087.178467 5564.000000
1089.020020 6526.000000
1090.860840 5497.000000
1092.700073 5772.000000
1094.538574 6062.000000
1096.375732 6061.000000
1098.211670 6837.000000
1100.046631 6622.000000
1101.880371 5429.000000
1103.713135 5489.000000
1105.544556 6178.000000
1107.375122 7243.000000
1109.204346 6541.000000
1111.032593 6442.000000
1112.859619 7066.000000
1114.685669 5444.000000
1116.510498 6243.000000
1118.334229 7111.000000
1120.156738 6148.000000
1121.978149 5828.000000
1123.798706 5932.000000
1125.617798 6546.000000
1127.436035 7043.000000
1129.252930 6845.000000
1131.068970 6696.000000
1132.883789 6500.000000
1134.697510 5604.000000
1136.510132 5786.000000
1138.321533 5619.000000
1140.131958 6125.000000
1141.941284 6692.000000
1143.749268 6905.000000
1145.556519 5924.000000
1147.362305 5918.000000
1149.167236 5363.000000
1150.971069 5409.000000
1152.773682 6150.000000
1154.575439 6049.000000
1156.375732 6056.000000
1158.175049 6075.000000
1159.973389 5866.000000
1161.770386 5460.000000
1163.566650 5923.000000
1165.361572 6093.000000
1167.155396 6307.000000
1168.948364 7748.000000
1170.739990 5724.000000
1172.530640 6455.000000
1174.320313 5962.000000
1176.108521 5819.000000
1177.895874 7460.000000
1179.682129 6869.000000
1181.467285 5758.000000
1183.251343 5944.000000
1185.034302 7695.000000
1186.816284 5917.000000
1188.597046 5894.000000
1190.376831 6284.000000
1192.155518 7000.000000
1193.933228 6710.000000
1195.709717 7198.000000
1197.485107 6577.000000
1199.259399 6524.000000
1201.032593 6657.000000
1202.804932 6509.000000
1204.575928 6705.000000
1206.346069 5706.000000
1208.114990 6101.000000
1209.882813 6323.000000
1211.649780 5850.000000
1213.415405 5910.000000
1215.180054 6912.000000
1216.943604 6510.000000
1218.706055 5919.000000
1220.467651 6648.000000
1222.228027 5881.000000
1223.987305 6301.000000
1225.745728 6093.000000
1227.502930 7102.000000
1229.259033 6421.000000
1231.014038 5515.000000
1232.768188 5999.000000
1234.520996 5830.000000
1236.272827 6056.000000
1238.023804 5994.000000
1239.773438 4971.000000
1241.522217 6946.000000
1243.269653 6461.000000
1245.016357 6573.000000
1246.761841 6504.000000
1248.506470 6415.000000
1250.249756 6764.000000
1251.992065 6702.000000
1253.733276 5323.000000
1255.473633 5097.000000
1257.212891 5767.000000
1258.950928 6580.000000
1260.688110 7076.000000
1262.424072 6123.000000
1264.159058 6431.000000
1265.893066 7290.000000
1267.626099 5977.000000
1269.357910 6237.000000
1271.088745 6407.000000
1272.818359 7211.000000
1274.547119 5889.000000
1276.274780 5755.000000
1278.001343 5482.000000
1279.727051 5550.000000
1281.451416 6402.000000
1283.174927 5170.000000
1284.897461 6887.000000
1286.619019 6584.000000
1288.339355 6196.000000
1290.058716 6644.000000
1291.776978 7300.000000
1293.494263 6479.000000
1295.210571 5705.000000
1296.925659 6332.000000
1298.639771 6141.000000
1300.352905 5785.000000
1302.065186 6475.000000
1303.776245 8294.000000
1305.486328 5273.000000
1307.195313 6231.000000
1308.903076 6647.000000
1310.610229 7003.000000
1312.315918 5857.000000
1314.020874 6895.000000
1315.724854 6147.000000
1317.427612 6023.000000
1319.129395 6491.000000
1320.830322 6090.000000
1322.529907 8758.000000
1324.228638 30606.000000
1325.926636 5559.000000
1327.623291 6474.000000
1329.318848 7181.000000
1331.013550 6776.000000
1332.707031 5717.000000
1334.399658 5426.000000
1336.091431 7084.000000
1337.781860 6239.000000
1339.471558 6589.000000
1341.160156 6126.000000
1342.847656 7565.000000
1344.534180 5645.000000
1346.219604 6751.000000
1347.904053 5947.000000
1349.587646 7201.000000
1351.270020 6411.000000
1352.951416 5875.000000
1354.631958 6535.000000
1356.311279 6719.000000
1357.989990 5851.000000
1359.667358 6531.000000
1361.343628 5799.000000
1363.018921 5578.000000
1364.693481 6586.000000
1366.366821 6494.000000
1368.039185 6790.000000
1369.710571 5175.000000
1371.380981 6728.000000
1373.050293 6165.000000
1374.718628 5725.000000
1376.386108 5981.000000
1378.052490 6498.000000
1379.717896 6001.000000
1381.382324 5839.000000
1383.045532 5907.000000
1384.708130 5715.000000
1386.369385 6449.000000
1388.029785 6615.000000
1389.689087 6443.000000
1391.347412 6475.000000
1393.005005 6839.000000
1394.661377 6535.000000
1396.316895 7011.000000
1397.971191 6343.000000
1399.624634 5843.000000
1401.276978 6079.000000
1402.928589 6467.000000
1404.578979 7158.000000
1406.228271 6182.000000
1407.876831 7438.000000
1409.524292 7883.000000
1411.170776 6170.000000
1412.816406 6209.000000
1414.461060 5993.000000
1416.104492 7036.000000
1417.747070 7135.000000
1419.388550 6852.000000
1421.029175 6470.000000
1422.668823 6491.000000
1424.307373 6028.000000
1425.945068 6634.000000
1427.581665 6313.000000
1429.217285 6048.000000
1430.852173 6394.000000
1432.485962 5893.000000
1434.118652 6124.000000
1435.750366 5694.000000
1437.381226 6041.000000
1439.010986 6088.000000
1440.639648 7686.000000
1442.267700 5965.000000
1443.894653 6152.000000
1445.520386 6187.000000
1447.145508 6132.000000
1448.769531 6521.000000
1450.392578 6091.000000
1452.014648 6089.000000
1453.635620 7375.000000
1455.255615 6229.000000
1456.874878 6886.000000
1458.492798 5639.000000
1460.110107 19110.000000
1461.726440 5591.000000
1463.341553 7235.000000
1464.955811 6221.000000
1466.569214 5218.000000
1468.181519 5677.000000
1469.792969 6278.000000
1471.403564 6331.000000
1473.012939 5915.000000
1474.621338 5945.000000
1476.228882 6194.000000
1477.835449 6649.000000
1479.441284 5286.000000
1481.045898 6251.000000
1482.649658 5507.000000
1484.252197 6701.000000
1485.854126 5559.000000
1487.454834 5504.000000
1489.054810 5615.000000
1490.653687 6323.000000
1492.251709 6522.000000
1493.848633 6647.000000
1495.444702 6337.000000
1497.039795 6027.000000
1498.633911 5491.000000
1500.227295 6588.000000
1501.819580 5471.000000
1503.410645 5963.000000
1505.001221 6770.000000
1506.590454 6426.000000
1508.179077 6145.000000
1509.766602 6543.000000
1511.353027 6814.000000
1512.938721 6157.000000
1514.523315 6613.000000
1516.107056 6219.000000
1517.689697 6091.000000
1519.271606 6568.000000
1520.852417 6647.000000
1522.432495 6083.000000
1524.011353 6186.000000
1525.589355 6343.000000
1527.166626 6308.000000
1528.742676 5618.000000
1530.317993 5899.000000
1531.892212 6321.000000
1533.465698 5450.000000
1535.037964 5917.000000
1536.609497 6409.000000
1538.180054 6402.000000
1539.749756 6310.000000
1541.318237 5445.000000
1542.885986 6566.000000
1544.452881 5575.000000
1546.018555 6792.000000
1547.583496 5936.000000
1549.147339 5047.000000
1550.710571 7473.000000
1552.272461 6322.000000
1553.833740 5933.000000
1555.393921 5757.000000
1556.953369 5714.000000
1558.511719 5894.000000
1560.069336 6285.000000
1561.625854 6990.000000
1563.181152 5855.000000
1564.735840 6369.000000
1566.289795 5613.000000
1567.842773 6314.000000
1569.394409 5673.000000
1570.945313 5899.000000
1572.495483 6251.000000
1574.044678 6339.000000
1575.592529 5789.000000
1577.139893 5542.000000
1578.686279 5710.000000
1580.231812 5123.000000
1581.776367 6663.000000
1583.319702 6382.000000
1584.862427 6636.000000
1586.404297 6420.000000
1587.945068 6646.000000
1589.484863 5762.000000
1591.023926 6649.000000
1592.561890 5908.000000
1594.099365 6152.000000
1595.635498 5900.000000
1597.170532 6625.000000
1598.705078 6298.000000
1600.238647 5969.000000
1601.771362 6037.000000
1603.302490 6240.000000
1604.833374 6259.000000
1606.363403 5732.000000
1607.892212 6114.000000
1609.419922 6227.000000
1610.947021 6004.000000
1612.473389 5846.000000
1613.998779 6245.000000
1615.523315 5833.000000
1617.046509 5707.000000
1618.568970 5629.000000
1620.090698 6597.000000
1621.611572 6914.000000
1623.130981 15578.000000
1624.649902 6122.000000
1626.168091 6027.000000
1627.685425 5875.000000
1629.201660 6372.000000
1630.716553 7024.000000
1632.230957 6660.000000
1633.744629 5767.000000
1635.257202 6862.000000
1636.768555 5993.000000
1638.279541 6441.000000
1639.789429 6204.000000
1641.298462 6122.000000
1642.806152 5657.000000
1644.313477 6103.000000
1645.819946 7071.000000
1647.325439 6297.000000
1648.830078 6868.000000
1650.333252 6178.000000
1651.835815 6547.000000
1653.338013 6386.000000
1654.838867 6622.000000
1656.338623 7581.000000
1657.837524 5976.000000
1659.336060 6499.000000
1660.833374 6220.000000
1662.329956 5969.000000
1663.824951 6511.000000
1665.319702 6352.000000
1666.813599 5258.000000
1668.306519 5560.000000
1669.798096 20351.000000
1671.289185 6470.000000
1672.779663 6113.000000
1674.269043 5973.000000
1675.756958 6976.000000
1677.244629 6842.000000
1678.731323 6064.000000
1680.217163 5350.000000
1681.702148 6102.000000
1683.185669 6128.000000
1684.668945 6240.000000
1686.151367 5921.000000
1687.632690 6181.000000
1689.112549 6116.000000
1690.592163 5552.000000
1692.071045 6496.000000
1693.548950 6050.000000
1695.025879 6079.000000
1696.501587 5736.000000
1697.976929 6033.000000
1699.451050 6325.000000
1700.924561 5476.000000
1702.396606 5602.000000
1703.868408 6888.000000
1705.339233 6363.000000
1706.809204 7046.000000
1708.277832 5149.000000
1709.745972 5857.000000
1711.213379 6356.000000
1712.679688 5478.000000
1714.145386 5728.000000
1715.609375 6231.000000
1717.073242 5991.000000
1718.536255 6913.000000
1719.998291 6264.000000
1721.459106 6576.000000
1722.919312 5431.000000
1724.378784 5602.000000
1725.837402 6151.000000
1727.295044 5988.000000
1728.751343 6249.000000
1730.207397 6030.000000
1731.662476 6416.000000
1733.116577 6038.000000
1734.569458 6744.000000
1736.022095 6010.000000
1737.473633 6645.000000
1738.924438 5989.000000
1740.374268 6553.000000
1741.822754 5905.000000
1743.270874 7396.000000
1744.718140 6555.000000
1746.164673 6655.000000
1747.609619 6707.000000
1749.054321 6214.000000
1750.498169 5784.000000
1751.941162 5663.000000
1753.382690 6610.000000
1754.823975 6386.000000
1756.264404 19300.000000
1757.703857 6301.000000
1759.142334 5262.000000
1760.579834 6009.000000
1762.016846 7509.000000
1763.452881 5837.000000
1764.888062 7111.000000
1766.321777 6092.000000
1767.755371 6406.000000
1769.187988 6674.000000
1770.619751 5811.000000
1772.050659 5707.000000
1773.480347 6336.000000
1774.909302 6157.000000
1776.337769 6261.000000
1777.765259 6686.000000
1779.191406 6282.000000
1780.617310 5549.000000
1782.042114 6878.000000
1783.466309 5566.000000
1784.889038 6696.000000
1786.311279 6557.000000
1787.732788 6890.000000
1789.153564 5925.000000
1790.573364 6124.000000
1791.991821 6197.000000
1793.409790 6787.000000
1794.827148 5509.000000
1796.243652 6047.000000
1797.658691 6609.000000
1799.073364 5891.000000
1800.487427 6583.000000
1801.900269 6054.000000
1803.312500 6946.000000
1804.723389 7098.000000
1806.133789 7762.000000
1807.543457 6502.000000
1808.952148 5973.000000
1810.359741 5456.000000
1811.766846 6444.000000
1813.173096 6312.000000
1814.578369 6717.000000
1815.982544 5934.000000
1817.386353 5945.000000
1818.789185 6284.000000
1820.191162 6045.000000
1821.592529 5855.000000
1822.992432 6337.000000
1824.391724 6439.000000
1825.790527 6592.000000
1827.188477 7475.000000
1828.585083 5771.000000
1829.981079 6734.000000
1831.376343 5879.000000
1832.770996 8081.000000
1834.164673 5998.000000
1835.557007 6831.000000
1836.948853 6364.000000
1838.340088 5899.000000
1839.730347 7090.000000
1841.119385 6005.000000
1842.508057 6022.000000
1843.895752 5960.000000
1845.282715 5818.000000
1846.668335 6897.000000
1848.053711 5851.000000
1849.438232 6316.000000
1850.822021 6284.000000
1852.204712 6429.000000
1853.586182 5387.000000
1854.967163 6590.000000
1856.347656 6405.000000
1857.727173 5777.000000
1859.105225 5970.000000
1860.483154 6286.000000
1861.860107 7865.000000
1863.236328 6106.000000
1864.611694 6035.000000
1865.985596 5693.000000
1867.359375 5732.000000
1868.732300 6274.000000
1870.104126 6013.000000
1871.474976 6827.000000
1872.845459 5442.000000
1874.214844 6080.000000
1875.583740 6029.000000
1876.951050 7127.000000
1878.318237 6135.000000
1879.684448 6032.000000
1881.049927 6765.000000
1882.414673 7479.000000
1883.777832 6771.000000
1885.140869 6898.000000
1886.503052 6297.000000
1887.864380 6403.000000
1889.224365 5683.000000
1890.583984 5795.000000
1891.942993 6153.000000
1893.301025 6618.000000
1894.658203 7314.000000
1896.014160 5907.000000
1897.369873 7631.000000
1898.724609 5842.000000
1900.078491 5521.000000
1901.431274 5928.000000
1902.783569 5979.000000
1904.135132 5951.000000
1905.485840 6872.000000
1906.835327 6554.000000
1908.184326 6664.000000
1909.532471 5806.000000
1910.880005 6170.000000
1912.226807 6284.000000
1913.572021 6785.000000
1914.916992 6116.000000
1916.261230 5452.000000
1917.604614 6517.000000
1918.946655 6005.000000
1920.288452 6718.000000
1921.629395 6965.000000
1922.969604 6189.000000
1924.308838 6326.000000
1925.647095 6239.000000
1926.984741 6476.000000
1928.321655 7011.000000
1929.657715 6771.000000
1930.992554 5536.000000
1932.327026 6690.000000
1933.660767 7229.000000
1934.993652 6215.000000
1936.325073 5774.000000
1937.656616 6325.000000
1938.986816 6656.000000
1940.316528 5815.000000
1941.645386 6126.000000
1942.973022 5825.000000
1944.300171 4982.000000
1945.626587 5785.000000
1946.952271 6495.000000
1948.276611 5789.000000
1949.600708 6662.000000
1950.923950 6365.000000
1952.246460 6403.000000
1953.567871 5843.000000
1954.888306 7435.000000
1956.208130 5989.000000
1957.527588 5606.000000
1958.846069 6851.000000
1960.163208 5958.000000
1961.479980 5870.000000
1962.796021 6547.000000
1964.111328 6573.000000
1965.425171 6283.000000
1966.738770 5657.000000
1968.051636 6257.000000
1969.363647 5954.000000
1970.675049 6059.000000
1971.985107 6342.000000
1973.294678 5862.000000
1974.603516 6142.000000
1975.911743 6500.000000
1977.218628 6075.000000
1978.524902 7260.000000
1979.830811 5528.000000
1981.135498 6401.000000
1982.439697 5949.000000
1983.742676 5698.000000
1985.045288 7589.000000
1986.346924 6145.000000
1987.647949 6874.000000
1988.947388 6079.000000
1990.246948 6648.000000
1991.545410 5266.000000
1992.843384 6078.000000
1994.139771 6097.000000
1995.436157 5826.000000
1996.731567 5532.000000
1998.026245 6497.000000
1999.320068 5704.000000
2000.612671 6498.000000
2001.904785 5676.000000
2003.196411 7192.000000
2004.487305 6443.000000
2005.776611 6273.000000
2007.065674 6805.000000
2008.354004 6016.000000
2009.641602 5985.000000
2010.928345 6610.000000
2012.213989 5643.000000
2013.499268 6407.000000
2014.783569 6036.000000
2016.067261 5606.000000
2017.349609 6033.000000
2018.631592 6478.000000
2019.913086 6751.000000
2021.193604 5917.000000
2022.473389 6085.000000
2023.752075 6782.000000
2025.030029 5832.000000
2026.307495 5927.000000
2027.584351 6315.000000
2028.859497 5755.000000
2030.134766 6573.000000
2031.409058 6072.000000
2032.682373 5882.000000
2033.954834 5918.000000
2035.226929 6163.000000
2036.497925 6894.000000
2037.768677 6584.000000
2039.038086 5997.000000
2040.306396 6929.000000
2041.574707 6566.000000
2042.842041 5924.000000
2044.108643 6037.000000
2045.374023 5670.000000
2046.638794 5891.000000
2047.903320 5456.000000
2049.166504 5840.000000
2050.429443 6378.000000
2051.690430 6156.000000
2052.951904 6066.000000
2054.212158 5888.000000
2055.471680 6425.000000
2056.730469 6285.000000
2057.988281 6952.000000
2059.245605 6149.000000
2060.502197 6005.000000
2061.757324 6594.000000
2063.012451 5698.000000
2064.266602 5600.000000
2065.520020 5667.000000
2066.772705 6834.000000
2068.024170 6249.000000
2069.275391 6340.000000
2070.525879 5576.000000
2071.775635 5499.000000
2073.023926 6481.000000
2074.272217 6471.000000
2075.519531 7489.000000
2076.766113 5604.000000
2078.011963 6039.000000
2079.256592 6962.000000
2080.500732 7631.000000
2081.744385 5450.000000
2082.987061 6033.000000
2084.228516 6914.000000
2085.469727 5973.000000
2086.710449 6335.000000
2087.950195 6788.000000
2089.188721 6990.000000
2090.426758 6149.000000
2091.664063 5794.000000
2092.901123 6603.000000
2094.136719 6076.000000
2095.371582 6189.000000
2096.606201 6075.000000
2097.839844 5665.000000
2099.072510 6055.000000
2100.304443 6868.000000
2101.535889 6342.000000
2102.766357 6767.000000
2103.996094 6026.000000
2105.225586 5982.000000
2106.453125 6005.000000
2107.680908 5913.000000
2108.907959 6250.000000
2110.134033 5456.000000
2111.358643 6337.000000
2112.583496 6987.000000
2113.807129 7046.000000
2115.030273 6204.000000
2116.252197 7541.000000
2117.473877 5958.000000
2118.694580 6819.000000
2119.914551 6036.000000
2121.134033 6144.000000
2122.352051 6590.000000
2123.570068 7040.000000
2124.787109 5799.000000
2126.003662 5760.000000
2127.218506 6608.000000
2128.433594 6377.000000
2129.647705 6728.000000
2130.861084 5707.000000
2132.073730 6056.000000
2133.284912 5824.000000
2134.496338 6414.000000
2135.706543 6629.000000
2136.916260 5918.000000
2138.124512 6228.000000
2139.332764 5644.000000
2140.540283 5849.000000
2141.746582 7590.000000
2142.952148 5896.000000
2144.157471 5676.000000
2145.361816 5513.000000
2146.565430 6318.000000
2147.768555 6241.000000
2148.970215 6657.000000
2150.171631 5325.000000
2151.372314 6314.000000
2152.572266 6020.000000
2153.770996 6074.000000
2154.969482 6902.000000
2156.167480 6175.000000
2157.364502 5937.000000
2158.560791 5156.000000
2159.755859 5316.000000
2160.950684 6145.000000
2162.144775 5543.000000
2163.337891 6011.000000
2164.530029 6884.000000
2165.721924 5897.000000
2166.913086 6314.000000
2168.103271 6315.000000
2169.292725 6498.000000
2170.481689 6788.000000
2171.669678 5950.000000
2172.857422 5741.000000
2174.043701 5959.000000
2175.229248 6512.000000
2176.414551 5984.000000
2177.599365 5877.000000
2178.782959 6418.000000
2179.965820 7530.000000
2181.147705 6272.000000
2182.329346 6101.000000
2183.510498 6543.000000
2184.690430 5745.000000
2185.869385 5537.000000
2187.047852 6345.000000
2188.226074 6846.000000
2189.403076 7230.000000
2190.579102 6703.000000
2191.754883 6094.000000
2192.930176 5570.000000
2194.104004 6680.000000
2195.277344 6184.000000
2196.450439 6123.000000
2197.622314 6432.000000
2198.793701 7069.000000
2199.964600 6304.000000
2201.133789 6865.000000
2202.302979 7579.000000
2203.471680 6356.000000
2204.639404 5834.000000
2205.806152 5648.000000
2206.972168 7106.000000
2208.137695 6711.000000
2209.302979 5949.000000
2210.466797 6713.000000
2211.630127 5457.000000
2212.792236 6173.000000
2213.954590 6203.000000
2215.115723 6643.000000
2216.275879 6655.000000
2217.435547 6294.000000
2218.594971 6586.000000
2219.753174 6323.000000
2220.910400 6323.000000
2222.067383 6831.000000
2223.223633 6596.000000
2224.379150 6788.000000
2225.533936 6263.000000
2226.687744 6463.000000
2227.840576 6034.000000
2228.993896 6904.000000
2230.145264 6189.000000
2231.296387 6206.000000
2232.446777 6519.000000
2233.596680 7736.000000
2234.745605 6273.000000
2235.894043 5194.000000
2237.041016 6796.000000
2238.188232 7199.000000
2239.334229 6068.000000
2240.479980 7274.000000
2241.624023 7289.000000
2242.768311 6724.000000
2243.911621 6162.000000
2245.054199 6061.000000
2246.195801 5797.000000
2247.337158 5795.000000
2248.477539 6417.000000
2249.617188 6445.000000
2250.756348 5819.000000
2251.894287 5806.000000
2253.032227 6226.000000
2254.169189 5371.000000
2255.305420 6270.000000
2256.440674 6091.000000
2257.575195 7244.000000
2258.709473 6388.000000
2259.843262 5418.000000
2260.975586 6176.000000
2262.107422 6767.000000
2263.238770 6244.000000
2264.369141 6469.000000
2265.499268 8076.000000
2266.628174 6696.000000
2267.756592 6066.000000
2268.884521 5593.000000
2270.011475 6122.000000
2271.137695 5941.000000
2272.262939 6704.000000
2273.388184 6520.000000
2274.512695 6447.000000
2275.635986 5988.000000
2276.758545 6358.000000
2277.880615 6041.000000
2279.002197 7336.000000
2280.123047 6343.000000
2281.242676 6384.000000
2282.361816 7068.000000
2283.480713 7654.000000
2284.598877 7240.000000
2285.716064 5927.000000
2286.832275 6393.000000
2287.948242 6985.000000
2289.063477 6928.000000
2290.177979 7389.000000
2291.291260 5822.000000
2292.404541 6350.000000
2293.517090 5994.000000
2294.628906 5373.000000
2295.739990 6799.000000
2296.849854 6456.000000
2297.959229 6148.000000
2299.068359 6653.000000
2300.176514 6327.000000
2301.283691 6723.000000
2302.390625 5905.000000
2303.496826 6288.000000
2304.602539 6566.000000
2305.706787 6623.000000
2306.810791 5491.000000
2307.914307 5718.000000
2309.017334 6516.000000
2310.119141 7408.000000
2311.220215 7335.000000
2312.320801 6595.000000
2313.420898 5528.000000
2314.520264 6397.000000
2315.618164 6617.000000
2316.716553 7031.000000
2317.813477 8235.000000
2318.910156 6848.000000
2320.006348 5798.000000
2321.100830 6850.000000
2322.195313 7418.000000
2323.289063 5898.000000
2324.382568 6105.000000
2325.474365 6477.000000
2326.566162 6860.000000
2327.657227 6089.000000
2328.747559 6305.000000
2329.836914 6942.000000
2330.926270 6006.000000
2332.014404 6276.000000
2333.102051 6846.000000
2334.189453 6510.000000
2335.275146 6685.000000
2336.360596 7705.000000
2337.445801 6301.000000
2338.530029 6725.000000
2339.613281 5849.000000
2340.696289 6442.000000
2341.778320 7455.000000
2342.860107 6015.000000
2343.941162 7434.000000
2345.020996 6603.000000
2346.100342 5740.000000
2347.179199 6775.000000
2348.257568 6510.000000
2349.334473 6361.000000
2350.411133 6958.000000
2351.487549 6020.000000
2352.562988 6507.000000
2353.637451 5969.000000
2354.711670 6278.000000
2355.785156 6737.000000
2356.858154 6180.000000
2357.929932 7087.000000
2359.001465 6270.000000
2360.072021 6797.000000
2361.142334 7502.000000
2362.211670 7588.000000
2363.280029 6831.000000
2364.348145 6788.000000
2365.415527 7142.000000
2366.482422 7145.000000
2367.548584 6085.000000
2368.613525 6818.000000
2369.678467 6965.000000
2370.742676 6356.000000
2371.806152 6934.000000
2372.868408 5766.000000
2373.930664 6236.000000
2374.991943 6335.000000
2376.052979 5972.000000
2377.112793 6357.000000
2378.171875 7876.000000
2379.230957 6444.000000
2380.289063 7591.000000
2381.346436 6945.000000
2382.402832 8014.000000
2383.458984 7808.000000
2384.514648 6245.000000
2385.569580 6943.000000
2386.623047 6766.000000
2387.676758 6600.000000
2388.729492 6300.000000
2389.781738 6582.000000
2390.833252 6111.000000
2391.883789 6705.000000
2392.934082 6560.000000
2393.983398 6149.000000
2395.032715 6220.000000
2396.080566 6870.000000
2397.127930 6986.000000
2398.175049 6321.000000
2399.221191 6675.000000
2400.266602 6145.000000
2401.311279 6741.000000
2402.355957 7660.000000
2403.399170 7431.000000
2404.442383 6582.000000
2405.484131 5775.000000
2406.526123 6679.000000
2407.567383 7108.000000
2408.607666 6138.000000
2409.647217 6368.000000
2410.685791 6358.000000
2411.724609 5918.000000
2412.762207 6529.000000
2413.799561 6845.000000
2414.835693 7209.000000
2415.871582 6232.000000
2416.906738 6257.000000
2417.941406 6639.000000
2418.974609 7219.000000
2420.008057 6383.000000
2421.040527 6652.000000
2422.072754 6878.000000
2423.103516 7066.000000
2424.134277 6390.000000
2425.164551 6818.000000
2426.193604 6840.000000
2427.222656 6612.000000
2428.250000 7357.000000
2429.277832 6680.000000
2430.304443 7313.000000
2431.330811 6977.000000
2432.355713 7728.000000
2433.380859 6610.000000
2434.405029 7160.000000
2435.428955 6719.000000
2436.451660 5803.000000
2437.473633 6321.000000
2438.495361 6597.000000
2439.516357 6629.000000
2440.536865 5999.000000
2441.556152 6498.000000
2442.575439 6591.000000
2443.593750 8403.000000
2444.611816 6266.000000
2445.628418 6471.000000
2446.645020 6608.000000
2447.660889 6079.000000
2448.676758 6970.000000
2449.691162 6801.000000
2450.704834 5614.000000
2451.718018 7237.000000
2452.730957 5966.000000
2453.743164 7224.000000
2454.754395 6666.000000
2455.765381 7696.000000
2456.775635 6398.000000
2457.785400 7589.000000
2458.794189 5937.000000
2459.802246 5997.000000
2460.810303 6333.000000
2461.817139 7289.000000
2462.823730 5443.000000
2463.829102 7443.000000
2464.834229 6915.000000
2465.839111 5891.000000
2466.842773 6590.000000
2467.846191 6427.000000
2468.848633 7587.000000
2469.850830 7295.000000
2470.852539 6863.000000
2471.853271 6592.000000
2472.853027 7075.000000
2473.852783 6750.000000
2474.851563 5710.000000
2475.849854 6614.000000
2476.847168 7084.000000
2477.844238 6123.000000
2478.841309 6885.000000
2479.836914 5841.000000
2480.832520 7100.000000
2481.826416 6644.000000
2482.820313 8063.000000
2483.813721 6786.000000
2484.806641 6714.000000
2485.798584 7541.000000
2486.789795 7216.000000
2487.780762 6738.000000
2488.771240 5837.000000
2489.760742 6524.000000
2490.749512 6542.000000
2491.738281 5672.000000
2492.726074 6824.000000
2493.712646 6554.000000
2494.699219 7944.000000
2495.685303 6732.000000
2496.670654 7085.000000
2497.655029 8368.000000
2498.639160 6033.000000
2499.623291 6908.000000
2500.605957 5721.000000
2501.588135 6962.000000
2502.569824 6740.000000
2503.550781 7227.000000
2504.531250 6488.000000
2505.511475 5699.000000
2506.490234 6340.000000
2507.468750 7560.000000
2508.446777 6754.000000
2509.424316 7045.000000
2510.400879 6058.000000
2511.377197 5985.000000
2512.352783 6396.000000
2513.327881 6256.000000
2514.302490 6442.000000
2515.275879 7417.000000
2516.249023 6763.000000
2517.221924 6901.000000
2518.193848 6120.000000
2519.165039 6840.000000
2520.135742 6906.000000
2521.106201 7798.000000
2522.075928 8039.000000
2523.044678 6108.000000
2524.012695 6137.000000
2524.980713 7749.000000
2525.947754 6281.000000
2526.914551 5534.000000
2527.880127 7249.000000
2528.845703 7062.000000
2529.810547 7742.000000
2530.774902 6350.000000
2531.738037 6377.000000
2532.701416 5887.000000
2533.663818 5944.000000
2534.625977 6676.000000
2535.586914 6389.000000
2536.547119 6163.000000
2537.507568 6179.000000
2538.467041 6828.000000
2539.425781 6865.000000
2540.383545 6691.000000
2541.341553 6270.000000
2542.298828 6802.000000
2543.255127 6108.000000
2544.211182 7059.000000
2545.166016 6195.000000
2546.121094 7688.000000
2547.075439 7044.000000
2548.029053 6665.000000
2548.981689 7226.000000
2549.934082 6742.000000
2550.885986 6936.000000
2551.837158 6368.000000
2552.787598 7787.000000
2553.737549 7345.000000
2554.687256 7373.000000
2555.636230 6609.000000
2556.584717 6293.000000
2557.531982 7062.000000
2558.479248 6294.000000
2559.425781 6507.000000
2560.371826 6686.000000
2561.316895 7342.000000
2562.261719 6688.000000
2563.206055 7164.000000
2564.149902 6802.000000
2565.093262 6625.000000
2566.035156 6569.000000
2566.977295 6549.000000
2567.918701 6121.000000
2568.859375 7141.000000
2569.799316 7266.000000
2570.739258 5718.000000
2571.678223 6199.000000
2572.616943 7503.000000
2573.554688 7195.000000
2574.492188 5460.000000
2575.428955 6976.000000
2576.364990 6763.000000
2577.300537 7542.000000
2578.235352 6258.000000
2579.170166 5997.000000
2580.104004 7092.000000
2581.037354 7159.000000
2581.969971 5888.000000
2582.902344 6940.000000
2583.833984 5470.000000
2584.765137 7049.000000
2585.695801 6919.000000
2586.625244 6921.000000
2587.554688 7344.000000
2588.483643 6485.000000
2589.412354 7603.000000
2590.339355 7254.000000
2591.266602 5959.000000
2592.193359 6809.000000
2593.119385 6335.000000
2594.045166 5650.000000
2594.969727 7565.000000
2595.894043 7611.000000
2596.817871 5302.000000
2597.741211 7282.000000
2598.663574 6264.000000
2599.585693 6822.000000
2600.507324 8367.000000
2601.428223 6449.000000
2602.348389 5816.000000
2603.268311 6352.000000
2604.187744 6385.000000
2605.106934 6487.000000
2606.025146 5859.000000
2606.942139 6016.000000
2607.859375 7265.000000
2608.776367 5899.000000
2609.692383 7574.000000
2610.607178 6666.000000
2611.522461 6693.000000
2612.437012 6498.000000
2613.350586 6587.000000
2614.264160 6149.000000
2615.176514 7644.000000
2616.088867 7011.000000
2617.000244 6808.000000
2617.911377 5686.000000
2618.821777 7191.000000
2619.731934 6617.000000
2620.641357 6199.000000
2621.550293 6632.000000
2622.458252 6316.000000
2623.366455 6871.000000
2624.273682 6634.000000
2625.180420 7003.000000
2626.086426 5972.000000
2626.992188 6668.000000
2627.897217 6547.000000
2628.802002 7812.000000
2629.706055 6471.000000
2630.609131 6341.000000
2631.512207 6412.000000
2632.414307 5642.000000
2633.316406 6692.000000
2634.218262 6994.000000
2635.118408 6739.000000
2636.018799 6348.000000
2636.918457 6412.000000
2637.817871 6024.000000
2638.715820 6872.000000
2639.614258 6771.000000
2640.512207 6345.000000
2641.409424 6104.000000
2642.305420 6113.000000
2643.201416 6861.000000
2644.097168 6115.000000
2644.992188 6450.000000
2645.886963 6617.000000
2646.780273 7062.000000
2647.673584 6310.000000
2648.566650 6742.000000
2649.459473 6445.000000
2650.350586 7474.000000
2651.241943 6433.000000
2652.132813 7621.000000
2653.022949 7304.000000
2653.912842 6562.000000
2654.801514 7300.000000
2655.690430 6643.000000
2656.578857 6587.000000
2657.466309 7356.000000
2658.352783 6480.000000
2659.239746 7076.000000
2660.125977 6815.000000
2661.011719 6835.000000
2661.896240 6540.000000
2662.780762 6369.000000
2663.665039 6268.000000
2664.548584 7082.000000
2665.431641 7899.000000
2666.313965 7348.000000
2667.195801 6191.000000
2668.076904 6653.000000
2668.958252 6085.000000
2669.838135 6590.000000
2670.718262 7392.000000
2671.597656 7219.000000
2672.477051 6215.000000
2673.355713 6138.000000
2674.232666 6393.000000
2675.110352 6796.000000
2675.987305 6363.000000
2676.863525 8138.000000
2677.739258 7140.000000
2678.614258 6279.000000
2679.489502 7701.000000
2680.363770 6999.000000
2681.237549 7312.000000
2682.110596 7045.000000
2682.983398 6207.000000
2683.855957 6083.000000
2684.727783 6967.000000
2685.598877 6520.000000
2686.469727 6894.000000
2687.340088 7091.000000
2688.210205 6747.000000
2689.078613 6306.000000
2689.947754 7341.000000
2690.816162 7137.000000
2691.684326 6647.000000
2692.551758 6878.000000
2693.417969 5893.000000
2694.284668 7143.000000
2695.150391 7415.000000
2696.016113 7215.000000
2696.880371 7908.000000
2697.745361 6651.000000
2698.608887 7206.000000
2699.472656 5895.000000
2700.334961 7367.000000
2701.197754 6792.000000
2702.059570 5963.000000
2702.920898 6920.000000
2703.782227 6678.000000
2704.642334 7403.000000
2705.502441 7288.000000
2706.362061 6614.000000
2707.221436 6848.000000
2708.079102 7201.000000
2708.937012 6822.000000
2709.795410 7324.000000
2710.652588 6764.000000
2711.509033 5968.000000
2712.364990 6862.000000
2713.220947 6124.000000
2714.076172 6977.000000
2714.930664 6124.000000
2715.784668 6872.000000
2716.638672 7285.000000
2717.491699 6276.000000
2718.344971 6435.000000
2719.196533 7709.000000
2720.048584 6773.000000
2720.900391 6275.000000
2721.750977 6421.000000
2722.601563 6470.000000
2723.451660 7103.000000
2724.301025 7014.000000
2725.150391 7031.000000
2725.998535 6723.000000
2726.846191 6517.000000
2727.694336 7038.000000
2728.541260 6828.000000
2729.388672 5583.000000
2730.234619 7519.000000
2731.079834 7015.000000
2731.925537 6424.000000
2732.770264 6940.000000
2733.614990 7358.000000
2734.458496 6883.000000
2735.302246 7802.000000
2736.145264 7229.000000
2736.987793 6056.000000
2737.829346 6236.000000
2738.671387 6762.000000
2739.512451 6912.000000
2740.353271 5818.000000
2741.193848 5940.000000
2742.033203 7864.000000
2742.872559 6872.000000
2743.711914 6953.000000
2744.550049 6800.000000
2745.387695 7809.000000
2746.225342 6349.000000
2747.062500 7120.000000
2747.899414 6247.000000
2748.735840 6072.000000
2749.571045 6711.000000
2750.406494 6323.000000
2751.241455 6368.000000
2752.075684 6239.000000
2752.909668 6880.000000
2753.743164 6843.000000
2754.576660 7970.000000
2755.409180 6780.000000
2756.241211 7314.000000
2757.072754 6820.000000
2757.904297 7083.000000
2758.734863 7241.000000
2759.565674 7225.000000
2760.395264 7240.000000
2761.224854 6672.000000
2762.054199 7310.000000
2762.882813 6811.000000
2763.710938 6831.000000
2764.538574 6900.000000
2765.366211 6692.000000
2766.193359 7937.000000
2767.019775 5830.000000
2767.845703 7499.000000
2768.671143 6917.000000
2769.496338 7817.000000
2770.321533 7139.000000
2771.145508 6769.000000
2771.969482 6462.000000
2772.793457 7675.000000
2773.616211 6442.000000
2774.439209 6938.000000
2775.260986 6902.000000
2776.082764 6969.000000
2776.904541 6507.000000
2777.725342 8017.000000
2778.545410 6529.000000
2779.365723 6989.000000
2780.185547 7263.000000
2781.005371 6514.000000
2781.823242 5970.000000
2782.642334 8106.000000
2783.460205 6518.000000
2784.277832 6754.000000
2785.094971 7117.000000
2785.911621 7281.000000
2786.728027 7240.000000
2787.543945 6292.000000
2788.359619 6017.000000
2789.174316 6378.000000
2789.989502 6962.000000
2790.803955 7117.000000
2791.617920 6556.000000
2792.431641 7411.000000
2793.244141 8837.000000
2794.056885 7029.000000
2794.869141 7458.000000
2795.680908 7184.000000
2796.491943 7399.000000
2797.303711 6566.000000
2798.114258 7262.000000
2798.924805 7069.000000
2799.733887 7420.000000
2800.543701 8206.000000
2801.352783 7812.000000
2802.161621 6677.000000
2802.969971 7159.000000
2803.777344 6273.000000
2804.585205 6484.000000
2805.392334 6893.000000
2806.199219 6795.000000
2807.004883 7187.000000
2807.811035 6714.000000
2808.616455 6449.000000
2809.421875 7398.000000
2810.226563 6223.000000
2811.030273 7567.000000
2811.834473 7441.000000
2812.638184 6303.000000
2813.441650 6113.000000
2814.243652 6359.000000
2815.046387 7306.000000
2815.848389 7822.000000
2816.650146 6195.000000
2817.451416 6547.000000
2818.252197 7319.000000
2819.052490 6517.000000
2819.853027 6696.000000
2820.652588 8082.000000
2821.451660 7166.000000
2822.250732 6474.000000
2823.049561 6974.000000
2823.847900 6356.000000
2824.645264 7089.000000
2825.442871 7336.000000
2826.239746 6696.000000
2827.036865 7389.000000
2827.833252 7905.000000
2828.628906 6994.000000
2829.424561 7388.000000
2830.219971 7513.000000
2831.014893 7418.000000
2831.809082 6626.000000
2832.603271 6853.000000
2833.397217 5608.000000
2834.190674 6894.000000
2834.983398 7084.000000
2835.775879 8129.000000
2836.568359 7618.000000
2837.360596 7520.000000
2838.152344 6457.000000
2838.943115 6800.000000
2839.733887 8859.000000
2840.524902 7476.000000
2841.314941 6185.000000
2842.104492 7634.000000
2842.894287 7169.000000
2843.683105 7370.000000
2844.471924 7816.000000
2845.260742 7722.000000
2846.048584 7481.000000
2846.835938 7214.000000
2847.623535 7504.000000
2848.410645 7324.000000
2849.197021 6637.000000
2849.983398 7466.000000
2850.769531 7257.000000
2851.555176 7588.000000
2852.339844 7200.000000
2853.125000 6966.000000
2853.909912 7445.000000
2854.694092 7227.000000
2855.478271 6956.000000
2856.261230 8292.000000
2857.044434 6836.000000
2857.827393 6774.000000
2858.609863 7835.000000
2859.392090 6276.000000
2860.173828 6613.000000
2860.955322 7573.000000
2861.737061 7553.000000
2862.518066 7631.000000
2863.298340 6628.000000
2864.078369 6738.000000
2864.858398 8202.000000
2865.638184 7558.000000
2866.416992 8123.000000
2867.196045 7657.000000
2867.974609 6809.000000
2868.752930 7013.000000
2869.530762 7236.000000
2870.308350 6939.000000
2871.085693 7498.000000
2871.862793 6983.000000
2872.639404 6446.000000
2873.415527 7456.000000
2874.191650 7171.000000
2874.967285 8305.000000
2875.742676 7207.000000
2876.517578 6584.000000
2877.292236 7964.000000
2878.066895 6667.000000
2878.841309 7795.000000
2879.614990 6806.000000
2880.387939 7209.000000
2881.161621 6777.000000
2881.934326 7606.000000
2882.707031 7806.000000
2883.479004 8316.000000
2884.250732 6211.000000
2885.022949 6787.000000
2885.793945 6956.000000
2886.564453 6173.000000
2887.335449 8377.000000
2888.106445 7354.000000
2888.876709 7966.000000
2889.645996 7601.000000
2890.415527 6975.000000
2891.185059 7230.000000
2891.954102 7352.000000
2892.722656 7908.000000
2893.491211 7750.000000
2894.258789 7002.000000
2895.026855 6540.000000
2895.794434 7449.000000
2896.562012 8313.000000
2897.328369 7412.000000
2898.095703 6585.000000
2898.861816 7212.000000
2899.628174 7042.000000
2900.393066 8311.000000
2901.158447 6941.000000
2901.924316 6495.000000
2902.688721 7720.000000
2903.453125 7721.000000
2904.217773 8459.000000
2904.981445 6635.000000
2905.745850 8515.000000
2906.509521 6697.000000
2907.272461 8362.000000
2908.035156 6530.000000
2908.798340 8947.000000
2909.561035 7002.000000
2910.322510 6851.000000
2911.084473 6851.000000
