scanname Analyse028
timestamp 2017-02-10 20:34:46
ccdbias 902.581543
ccdgain 3.473401
sigmaread 8.960639
laserwavenum -0.689750
wavenumcorrection -0.166786
scancount 1
totalexposurems 10000
singleexposurems 10000
measurementstate Unknown
scanmode Manual
snr 147.020065 2.284476 1.697184
replacelist 1
671 27249.000000 10103.000000
peaks 15
277.807861 0.414700 0.000000 0.884144 0.000075
291.721375 0.415997 0.000000 0.293599 0.000016
301.015137 0.417953 0.000000 0.642158 0.000045
334.111938 0.418370 0.000000 0.501085 0.000090
344.013458 0.416817 0.000000 0.215446 0.000015
387.609161 0.420502 0.000000 1.008758 0.000130
750.244019 0.378668 0.000000 0.433497 0.000038
760.123108 0.383123 0.000000 2.469867 0.000338
810.261658 0.370923 0.000000 0.176474 0.000057
878.762573 0.359394 0.000000 0.319598 0.000050
1152.298218 0.308679 0.000000 0.099299 0.000024
1315.426392 0.311417 0.000000 11.674150 0.002405
1334.901855 0.311004 0.000000 8.511150 0.001317
1669.693848 0.239000 0.000000 0.803876 0.000747
2328.986084 0.120943 0.000000 0.426451 0.000219
finalresult GLS_NoMatch 0
spectrum 2048
-96.911705 46340.000000
-94.284836 46340.000000
-91.659843 46719.000000
-89.036743 46572.000000
-86.415512 47295.000000
-83.796181 46953.000000
-81.178711 47172.000000
-78.563118 46990.000000
-75.949402 47241.000000
-73.337563 47410.000000
-70.727585 47282.000000
-68.119492 47457.000000
-65.513245 47476.000000
-62.908875 47558.000000
-60.306366 47461.000000
-57.705711 47884.000000
-55.106918 47237.000000
-52.509983 46675.000000
-49.914902 47008.000000
-47.321674 46926.000000
-44.730297 47216.000000
-42.140766 46682.000000
-39.553078 47601.000000
-36.967239 47368.000000
-34.383244 46916.000000
-31.801085 47771.000000
-29.220772 47152.000000
-26.642286 47701.000000
-24.065643 47221.000000
-21.490826 47107.000000
-18.917849 46870.000000
-16.346691 46871.000000
-13.777368 46509.000000
-11.209869 45441.000000
-8.644190 47025.000000
-6.080336 46773.000000
-3.518295 47210.000000
-0.958079 47295.000000
1.600329 46803.000000
4.156916 46033.000000
6.711698 46295.000000
9.264663 46736.000000
11.815827 45926.000000
14.365179 46041.000000
16.912735 45638.000000
19.458479 45702.000000
22.002430 45223.000000
24.544577 43081.000000
27.084927 40994.000000
29.623491 37365.000000
32.160259 32948.000000
34.695225 28006.000000
37.228413 16522.000000
39.759819 10139.000000
42.289433 9325.000000
44.817249 8524.000000
47.343307 7412.000000
49.867577 6476.000000
52.390076 5869.000000
54.910778 5453.000000
57.429726 5701.000000
59.946899 7117.000000
62.462296 8696.000000
64.975914 9598.000000
67.487778 9570.000000
69.997894 7385.000000
72.506218 5342.000000
75.012787 4880.000000
77.517609 3852.000000
80.020676 2884.000000
82.521965 2570.000000
85.021515 2359.000000
87.519310 2253.000000
90.015373 2396.000000
92.509659 2780.000000
95.002205 3051.000000
97.493034 3454.000000
99.982094 3494.000000
102.469406 2756.000000
104.954994 1959.000000
107.438843 1694.000000
109.920944 1632.000000
112.401321 1535.000000
114.879974 1387.000000
117.356903 1309.000000
119.832077 1388.000000
122.305542 1308.000000
124.777275 1351.000000
127.247299 1286.000000
129.715576 1358.000000
132.182175 1492.000000
134.647018 1600.000000
137.110168 1770.000000
139.571579 1816.000000
142.031296 2260.000000
144.489288 2696.000000
146.945587 3157.000000
149.400177 3893.000000
151.853043 4520.000000
154.304230 5399.000000
156.753723 6448.000000
159.201492 7626.000000
161.647552 8821.000000
164.091934 10036.000000
166.534637 11107.000000
168.975647 12123.000000
171.414948 12736.000000
173.852539 13242.000000
176.288498 13872.000000
178.722717 14035.000000
181.155258 14034.000000
183.586151 14168.000000
186.015320 14096.000000
188.442841 14392.000000
190.868683 14430.000000
193.292847 14532.000000
195.715347 14712.000000
198.136154 14728.000000
200.555298 15236.000000
202.972778 15544.000000
205.388565 15952.000000
207.802704 16893.000000
210.215210 17587.000000
212.626038 18640.000000
215.035187 19880.000000
217.442703 20897.000000
219.848511 23182.000000
222.252731 24407.000000
224.655243 25347.000000
227.056137 25731.000000
229.455383 26642.000000
231.852966 26497.000000
234.248886 26287.000000
236.643188 27046.000000
239.035828 27546.000000
241.426849 26981.000000
243.816208 27334.000000
246.203949 27558.000000
248.590042 27023.000000
250.974503 27996.000000
253.357315 26322.000000
255.738556 27477.000000
258.118073 27364.000000
260.496033 27634.000000
262.872314 26639.000000
265.247040 26532.000000
267.620117 26141.000000
269.991547 27448.000000
272.361328 27084.000000
274.729553 27563.000000
277.096130 27213.000000
279.461121 26874.000000
281.824493 27524.000000
284.186218 27368.000000
286.546356 26451.000000
288.904877 27414.000000
291.261810 26915.000000
293.617126 27032.000000
295.970856 27444.000000
298.322937 27449.000000
300.673462 27093.000000
303.022400 27198.000000
305.369690 26671.000000
307.715454 27192.000000
310.059540 27098.000000
312.402100 26379.000000
314.743042 26103.000000
317.082367 26382.000000
319.420135 26503.000000
321.756348 25220.000000
324.090912 26706.000000
326.423920 26262.000000
328.755371 26792.000000
331.085236 26298.000000
333.413513 26457.000000
335.740173 25677.000000
338.065338 26448.000000
340.388885 26541.000000
342.710876 26839.000000
345.031311 25469.000000
347.350128 25125.000000
349.667389 26380.000000
351.983124 26525.000000
354.297272 25633.000000
356.609833 26241.000000
358.920837 26058.000000
361.230316 25439.000000
363.538269 26030.000000
365.844604 26546.000000
368.149353 25943.000000
370.452637 25921.000000
372.754303 26057.000000
375.054474 25989.000000
377.353088 25904.000000
379.650146 26369.000000
381.945648 26139.000000
384.239624 26374.000000
386.532013 27021.000000
388.822906 26981.000000
391.112274 26701.000000
393.400055 26778.000000
395.686310 26699.000000
397.971069 26258.000000
400.254211 27107.000000
402.535919 26738.000000
404.816101 27077.000000
407.094696 25975.000000
409.371765 26775.000000
411.647308 26334.000000
413.921326 26408.000000
416.193909 26375.000000
418.464874 26595.000000
420.734344 26474.000000
423.002319 25861.000000
425.268738 25612.000000
427.533661 26249.000000
429.797119 25946.000000
432.058990 25725.000000
434.319397 26111.000000
436.578247 25429.000000
438.835632 25618.000000
441.091522 25839.000000
443.345917 25670.000000
445.598785 26095.000000
447.850098 24906.000000
450.100006 25416.000000
452.348328 25070.000000
454.595215 25604.000000
456.840637 24927.000000
459.084503 24984.000000
461.326874 24619.000000
463.567749 25404.000000
465.807220 24577.000000
468.045105 25439.000000
470.281555 25192.000000
472.516479 25218.000000
474.749939 24360.000000
476.981964 24406.000000
479.212463 25027.000000
481.441467 24404.000000
483.669006 24635.000000
485.895050 24851.000000
488.119659 24361.000000
490.342804 24798.000000
492.564484 24484.000000
494.784607 24327.000000
497.003326 25027.000000
499.220551 24694.000000
501.436401 25140.000000
503.650635 24917.000000
505.863556 24830.000000
508.074890 24998.000000
510.284790 24631.000000
512.493286 25093.000000
514.700378 24934.000000
516.905884 24952.000000
519.109985 24741.000000
521.312561 25015.000000
523.513733 24711.000000
525.713562 24543.000000
527.911865 24205.000000
530.108643 24967.000000
532.304077 24637.000000
534.497986 25258.000000
536.690552 23723.000000
538.881592 24366.000000
541.071228 24693.000000
543.259460 24162.000000
545.446167 23892.000000
547.631409 23687.000000
549.815369 23729.000000
551.997742 23485.000000
554.178772 23553.000000
556.358276 23365.000000
558.536499 23350.000000
560.713196 23367.000000
562.888489 23101.000000
565.062378 22943.000000
567.234802 23062.000000
569.405823 23207.000000
571.575378 22831.000000
573.743652 23399.000000
575.910400 23046.000000
578.075684 23124.000000
580.239563 23142.000000
582.402161 23453.000000
584.563232 23187.000000
586.722900 23353.000000
588.881226 23467.000000
591.038025 23484.000000
593.193481 23071.000000
595.347534 23658.000000
597.500244 23774.000000
599.651428 23197.000000
601.801270 23405.000000
603.949768 23239.000000
606.096680 23408.000000
608.242371 23328.000000
610.386658 23326.000000
612.529480 23134.000000
614.670837 23555.000000
616.810974 23591.000000
618.949585 22763.000000
621.086914 23617.000000
623.222778 23240.000000
625.357239 23046.000000
627.490234 22710.000000
629.622070 22750.000000
631.752441 22862.000000
633.881409 22680.000000
636.008911 22657.000000
638.135132 22631.000000
640.259827 22087.000000
642.383301 22352.000000
644.505432 22231.000000
646.626099 21914.000000
648.745422 21754.000000
650.863342 21993.000000
652.979919 21921.000000
655.095093 21921.000000
657.208923 21496.000000
659.321289 21613.000000
661.432434 21577.000000
663.542175 21846.000000
665.650452 21649.000000
667.757568 21712.000000
669.863220 21407.000000
671.967407 21602.000000
674.070374 21615.000000
676.171936 21451.000000
678.272156 21836.000000
680.370972 21709.000000
682.468445 22031.000000
684.564636 21714.000000
686.659363 21959.000000
688.752869 21648.000000
690.845032 21817.000000
692.935669 21594.000000
695.025085 22176.000000
697.113220 21970.000000
699.199890 22244.000000
701.285339 21886.000000
703.369263 22263.000000
705.451965 21953.000000
707.533386 21961.000000
709.613342 21137.000000
711.692078 20780.000000
713.769348 20746.000000
715.845337 20845.000000
717.920044 20921.000000
719.993469 20658.000000
722.065369 21564.000000
724.136108 20967.000000
726.205505 20873.000000
728.273499 20793.000000
730.340149 20637.000000
732.405579 20352.000000
734.469666 20474.000000
736.532410 20335.000000
738.593811 20475.000000
740.653931 20378.000000
742.712646 20332.000000
744.770142 20147.000000
746.826355 20058.000000
748.881165 19874.000000
750.934692 19883.000000
752.986816 19800.000000
755.037720 19935.000000
757.087402 19796.000000
759.135620 19853.000000
761.182617 19762.000000
763.228333 19496.000000
765.272644 20065.000000
767.315674 22143.000000
769.357483 16691.000000
771.397949 19671.000000
773.437012 19661.000000
775.474915 19722.000000
777.511475 19554.000000
779.546814 19806.000000
781.580811 19845.000000
783.613403 19826.000000
785.644836 20960.000000
787.674866 18692.000000
789.703613 19873.000000
791.731201 20086.000000
793.757446 20060.000000
795.782288 20084.000000
797.806030 20324.000000
799.828369 20370.000000
801.849487 20301.000000
803.869263 20056.000000
805.887756 20715.000000
807.905029 20431.000000
809.920898 20287.000000
811.935608 20433.000000
813.948975 20377.000000
815.961121 19970.000000
817.972046 19846.000000
819.981628 19550.000000
821.989990 19497.000000
823.996948 19367.000000
826.002686 19364.000000
828.007202 19163.000000
830.010437 19227.000000
832.012390 18831.000000
834.013062 18949.000000
836.012512 18725.000000
838.010620 18761.000000
840.007629 18754.000000
842.003235 18803.000000
843.997681 18777.000000
845.990784 18598.000000
847.982666 18413.000000
849.973206 18321.000000
851.962463 18063.000000
853.950684 18015.000000
855.937500 17868.000000
857.923096 18026.000000
859.907410 17822.000000
861.890625 17975.000000
863.872437 18037.000000
865.853027 18000.000000
867.832336 17681.000000
869.810486 17739.000000
871.787292 17947.000000
873.762817 18022.000000
875.737305 18265.000000
877.710327 18578.000000
879.682312 18649.000000
881.652954 18702.000000
883.622437 18649.000000
885.590576 18862.000000
887.557556 18699.000000
889.523193 18529.000000
891.487671 18467.000000
893.450928 18478.000000
895.412964 18215.000000
897.373718 18258.000000
899.333252 18211.000000
901.291504 18194.000000
903.248657 18017.000000
905.204651 18157.000000
907.159241 18028.000000
909.112610 17945.000000
911.064819 17988.000000
913.015808 17833.000000
914.965515 17455.000000
916.914063 17439.000000
918.861389 17490.000000
920.807434 17476.000000
922.752197 16997.000000
924.695923 16983.000000
926.638489 16726.000000
928.579773 16548.000000
930.519714 16249.000000
932.458557 16233.000000
934.396118 16110.000000
936.332458 16220.000000
938.267639 16148.000000
940.201538 16219.000000
942.134338 16054.000000
944.065918 16115.000000
945.996338 16205.000000
947.925537 16079.000000
949.853394 16207.000000
951.780212 16248.000000
953.705750 16286.000000
955.630005 16307.000000
957.553162 16361.000000
959.475159 16366.000000
961.395874 16396.000000
963.315430 16556.000000
965.233826 16647.000000
967.151184 16614.000000
969.067078 16680.000000
970.981873 16672.000000
972.895447 16711.000000
974.807861 16770.000000
976.719055 16692.000000
978.629089 16768.000000
980.537842 16663.000000
982.445557 16730.000000
984.352051 16604.000000
986.257324 16375.000000
988.161499 16333.000000
990.064453 16378.000000
991.966187 16388.000000
993.866760 16528.000000
995.766174 16295.000000
997.664368 16295.000000
999.561401 15992.000000
1001.457214 15797.000000
1003.351868 15568.000000
1005.245422 15509.000000
1007.137695 15277.000000
1009.029053 15292.000000
1010.919067 15203.000000
1012.807861 15060.000000
1014.695496 14946.000000
1016.581970 14849.000000
1018.467285 14864.000000
1020.351440 14861.000000
1022.234375 14863.000000
1024.116211 14764.000000
1025.996826 14903.000000
1027.876343 14892.000000
1029.754883 14842.000000
1031.632080 14979.000000
1033.507935 14731.000000
1035.382813 14861.000000
1037.256714 14939.000000
1039.129150 14819.000000
1041.000610 14905.000000
1042.870728 14974.000000
1044.739868 14838.000000
1046.607788 14757.000000
1048.474609 15025.000000
1050.340332 14938.000000
1052.204834 15064.000000
1054.068237 15196.000000
1055.930298 15118.000000
1057.791382 15007.000000
1059.651367 14992.000000
1061.510010 14984.000000
1063.367554 15172.000000
1065.223999 15144.000000
1067.079346 15149.000000
1068.933472 15337.000000
1070.786743 15080.000000
1072.638550 15096.000000
1074.489380 14957.000000
1076.338989 14910.000000
1078.187378 14973.000000
1080.034912 14880.000000
1081.881104 14941.000000
1083.726074 14778.000000
1085.570190 14877.000000
1087.412964 14714.000000
1089.254517 14976.000000
1091.095337 14741.000000
1092.934570 14513.000000
1094.773071 14671.000000
1096.610229 14421.000000
1098.446167 14373.000000
1100.281128 14211.000000
1102.114868 13803.000000
1103.947632 13722.000000
1105.779053 13665.000000
1107.609619 14051.000000
1109.438843 13754.000000
1111.267090 13327.000000
1113.094116 13320.000000
1114.920166 13161.000000
1116.744995 13259.000000
1118.568726 13296.000000
1120.391235 13302.000000
1122.212646 13299.000000
1124.033203 13165.000000
1125.852295 13194.000000
1127.670532 13296.000000
1129.487427 13407.000000
1131.303467 13435.000000
1133.118286 13438.000000
1134.932007 13445.000000
1136.744629 13448.000000
1138.556030 13599.000000
1140.366455 13666.000000
1142.175781 13851.000000
1143.983765 13846.000000
1145.791016 13765.000000
1147.596802 13914.000000
1149.401733 13836.000000
1151.205566 13918.000000
1153.008179 13891.000000
1154.809937 13710.000000
1156.610229 13943.000000
1158.409546 13749.000000
1160.207886 13725.000000
1162.004883 13658.000000
1163.801147 13621.000000
1165.596069 13381.000000
1167.389893 13327.000000
1169.182861 13070.000000
1170.974487 12967.000000
1172.765137 13057.000000
1174.554810 12915.000000
1176.343018 12922.000000
1178.130371 12835.000000
1179.916626 12510.000000
1181.701782 12946.000000
1183.485840 12706.000000
1185.268799 12644.000000
1187.050781 12849.000000
1188.831543 12588.000000
1190.611328 12645.000000
1192.390015 12521.000000
1194.167725 12588.000000
1195.944214 12437.000000
1197.719604 12328.000000
1199.493896 12138.000000
1201.267090 12058.000000
1203.039429 12127.000000
1204.810425 11895.000000
1206.580566 12032.000000
1208.349487 11892.000000
1210.117310 11844.000000
1211.884277 12057.000000
1213.649902 11914.000000
1215.414551 11837.000000
1217.178101 11656.000000
1218.940552 11805.000000
1220.702148 11817.000000
1222.462524 11783.000000
1224.221802 11659.000000
1225.980225 11779.000000
1227.737427 11631.000000
1229.493530 11943.000000
1231.248535 11878.000000
1233.002686 11845.000000
1234.755493 12010.000000
1236.507324 12079.000000
1238.258301 12047.000000
1240.007935 12051.000000
1241.756714 12021.000000
1243.504150 12129.000000
1245.250854 12037.000000
1246.996338 12086.000000
1248.740967 12114.000000
1250.484253 11967.000000
1252.226563 11978.000000
1253.967773 11966.000000
1255.708130 11812.000000
1257.447388 11692.000000
1259.185425 11201.000000
1260.922607 11116.000000
1262.658569 11179.000000
1264.393555 11496.000000
1266.127563 11537.000000
1267.860596 11818.000000
1269.592407 11787.000000
1271.323242 11754.000000
1273.052856 11967.000000
1274.781616 11941.000000
1276.509277 11883.000000
1278.235840 12061.000000
1279.961548 11976.000000
1281.685913 11910.000000
1283.409424 11818.000000
1285.131958 11739.000000
1286.853516 11785.000000
1288.573853 11671.000000
1290.293213 11637.000000
1292.011475 11627.000000
1293.728760 11634.000000
1295.445068 11601.000000
1297.160156 11739.000000
1298.874268 11594.000000
1300.587402 11451.000000
1302.299683 11220.000000
1304.010742 11126.000000
1305.720825 11230.000000
1307.429810 11148.000000
1309.137573 11097.000000
1310.844727 10980.000000
1312.550415 11061.000000
1314.255371 10987.000000
1315.959351 11031.000000
1317.662109 11094.000000
1319.363892 11284.000000
1321.064819 11426.000000
1322.764404 7198.000000
1324.463135 2970.000000
1326.161133 10668.000000
1327.857788 10625.000000
1329.553345 10805.000000
1331.248047 10451.000000
1332.941528 10644.000000
1334.634155 10532.000000
1336.325928 10415.000000
1338.016357 10253.000000
1339.706055 10361.000000
1341.394653 10321.000000
1343.082153 10288.000000
1344.768677 10095.000000
1346.454102 10105.000000
1348.138550 10278.000000
1349.822144 10189.000000
1351.504517 10280.000000
1353.185913 10390.000000
1354.866455 10486.000000
1356.545776 10479.000000
1358.224487 10625.000000
1359.901855 10664.000000
1361.578125 10759.000000
1363.253418 10759.000000
1364.927979 10842.000000
1366.601318 10807.000000
1368.273682 10695.000000
1369.945068 10643.000000
1371.615479 10634.000000
1373.284790 10676.000000
1374.953125 10643.000000
1376.620605 10570.000000
1378.286987 10539.000000
1379.952393 10516.000000
1381.616821 10541.000000
1383.280029 10322.000000
1384.942627 10320.000000
1386.603882 10334.000000
1388.264282 10051.000000
1389.923584 10054.000000
1391.581909 10067.000000
1393.239502 9963.000000
1394.895874 10052.000000
1396.551392 10123.000000
1398.205688 10212.000000
1399.859131 9953.000000
1401.511475 10175.000000
1403.163086 10051.000000
1404.813477 9902.000000
1406.462769 9769.000000
1408.111328 9646.000000
1409.758789 9469.000000
1411.405273 9266.000000
1413.050903 9296.000000
1414.695557 9185.000000
1416.338989 9217.000000
1417.981567 9326.000000
1419.623047 9088.000000
1421.263672 9095.000000
1422.903320 9195.000000
1424.541870 9202.000000
1426.179565 8935.000000
1427.816162 8957.000000
1429.451782 9147.000000
1431.086670 8921.000000
1432.720459 9020.000000
1434.353149 8882.000000
1435.984863 8905.000000
1437.615723 9013.000000
1439.245483 8970.000000
1440.874146 8836.000000
1442.502197 8968.000000
1444.129150 8959.000000
1445.754883 8754.000000
1447.380005 8855.000000
1449.004028 8979.000000
1450.627075 9231.000000
1452.249146 9137.000000
1453.870117 9137.000000
1455.490112 9218.000000
1457.109375 9142.000000
1458.727295 9479.000000
1460.344604 8110.000000
1461.960938 9087.000000
1463.576050 8984.000000
1465.190308 9080.000000
1466.803711 9130.000000
1468.416016 9313.000000
1470.027466 9051.000000
1471.638062 9093.000000
1473.247437 9103.000000
1474.855835 9035.000000
1476.463379 8970.000000
1478.069946 9018.000000
1479.675781 9087.000000
1481.280396 8990.000000
1482.884155 8806.000000
1484.486694 8760.000000
1486.088623 8400.000000
1487.689331 8383.000000
1489.289307 8383.000000
1490.888184 8157.000000
1492.486206 8428.000000
1494.083130 8160.000000
1495.679199 8535.000000
1497.274292 8858.000000
1498.868408 8877.000000
1500.461792 8799.000000
1502.054077 8837.000000
1503.645142 8681.000000
1505.235718 8683.000000
1506.824951 8601.000000
1508.413574 8502.000000
1510.001099 8466.000000
1511.587524 8318.000000
1513.173218 8335.000000
1514.757813 8267.000000
1516.341553 8436.000000
1517.924194 8329.000000
1519.506104 8168.000000
1521.086914 8346.000000
1522.666992 8153.000000
1524.245850 8108.000000
1525.823853 7906.000000
1527.401123 7964.000000
1528.977173 8007.000000
1530.552490 8067.000000
1532.126709 7856.000000
1533.700195 7765.000000
1535.272461 7848.000000
1536.843994 7842.000000
1538.414551 7826.000000
1539.984253 7675.000000
1541.552734 7735.000000
1543.120483 7693.000000
1544.687378 7660.000000
1546.253052 7612.000000
1547.817993 7821.000000
1549.381836 7658.000000
1550.945068 7562.000000
1552.506958 7600.000000
1554.068237 7631.000000
1555.628418 7614.000000
1557.187866 7583.000000
1558.746216 7403.000000
1560.303833 7376.000000
1561.860352 7478.000000
1563.415649 7399.000000
1564.970337 7354.000000
1566.524292 7390.000000
1568.077271 7440.000000
1569.628906 7523.000000
1571.179810 7454.000000
1572.729980 7465.000000
1574.279175 7519.000000
1575.827026 7452.000000
1577.374390 7413.000000
1578.920776 7548.000000
1580.466309 7509.000000
1582.010864 7590.000000
1583.554199 7384.000000
1585.096924 7423.000000
1586.638794 7421.000000
1588.179565 7362.000000
1589.719360 7405.000000
1591.258423 7487.000000
1592.796387 7415.000000
1594.333862 7295.000000
1595.869995 7400.000000
1597.405029 7442.000000
1598.939575 7161.000000
1600.473145 7174.000000
1602.005859 7267.000000
1603.536987 7337.000000
1605.067871 7312.000000
1606.597900 7263.000000
1608.126709 7112.000000
1609.654419 7250.000000
1611.181519 7270.000000
1612.707886 7349.000000
1614.233276 7286.000000
1615.757813 7167.000000
1617.281006 7125.000000
1618.803467 7201.000000
1620.325195 7159.000000
1621.846069 7121.000000
1623.365479 6802.000000
1624.884399 6982.000000
1626.402588 6949.000000
1627.919922 7047.000000
1629.436157 6933.000000
1630.951050 6860.000000
1632.465454 6952.000000
1633.979126 6893.000000
1635.491699 6862.000000
1637.003052 6781.000000
1638.514038 6799.000000
1640.023926 6773.000000
1641.532959 6814.000000
1643.040649 6733.000000
1644.547974 6750.000000
1646.054443 6686.000000
1647.559937 6699.000000
1649.064575 6628.000000
1650.567749 6639.000000
1652.070313 6651.000000
1653.572510 6615.000000
1655.073364 6538.000000
1656.573120 6592.000000
1658.072021 6474.000000
1659.570557 6511.000000
1661.067871 6454.000000
1662.564453 6388.000000
1664.059448 6456.000000
1665.554199 6311.000000
1667.048096 6271.000000
1668.541016 6464.000000
1670.032593 6791.000000
1671.523682 6208.000000
1673.014160 6186.000000
1674.503540 6026.000000
1675.991455 5989.000000
1677.479126 6143.000000
1678.965820 6192.000000
1680.451660 6224.000000
1681.936646 6109.000000
1683.420166 5982.000000
1684.903442 5971.000000
1686.385864 5849.000000
1687.867188 6091.000000
1689.347046 5946.000000
1690.826660 6004.000000
1692.305542 5881.000000
1693.783447 5930.000000
1695.260376 5962.000000
1696.736084 5952.000000
1698.211426 5696.000000
1699.685547 5906.000000
1701.159058 5824.000000
1702.631104 5821.000000
1704.102905 5895.000000
1705.573730 5884.000000
1707.043701 5884.000000
1708.512329 5893.000000
1709.980469 5922.000000
1711.447876 5986.000000
1712.914185 5864.000000
1714.379883 5909.000000
1715.843872 5822.000000
1717.307739 5864.000000
1718.770752 5932.000000
1720.232788 5884.000000
1721.693604 5771.000000
1723.153809 5841.000000
1724.613281 5909.000000
1726.071899 5883.000000
1727.529541 5823.000000
1728.985840 5890.000000
1730.441895 5833.000000
1731.896973 5925.000000
1733.351074 5898.000000
1734.803955 5687.000000
1736.256592 5777.000000
1737.708130 5842.000000
1739.158936 5678.000000
1740.608765 5680.000000
1742.057251 5790.000000
1743.505371 5610.000000
1744.952637 5623.000000
1746.399170 5564.000000
1747.844116 5516.000000
1749.288818 5547.000000
1750.732666 5617.000000
1752.175659 5514.000000
1753.617188 5551.000000
1755.058472 5625.000000
1756.498901 5178.000000
1757.938354 5466.000000
1759.376831 5424.000000
1760.814331 5489.000000
1762.251343 5355.000000
1763.687378 5331.000000
1765.122559 5373.000000
1766.556274 5320.000000
1767.989868 5534.000000
1769.422485 5387.000000
1770.854248 5441.000000
1772.285156 5515.000000
1773.714844 5369.000000
1775.143799 5171.000000
1776.572266 5181.000000
1777.999756 5075.000000
1779.425903 4695.000000
1780.851807 5102.000000
1782.276611 5067.000000
1783.700806 5091.000000
1785.123535 5057.000000
1786.545776 5002.000000
1787.967285 4969.000000
1789.388062 4806.000000
1790.807861 4919.000000
1792.226318 4965.000000
1793.644287 4908.000000
1795.061646 4871.000000
1796.478149 4920.000000
1797.893188 4885.000000
1799.307861 4922.000000
1800.721924 4873.000000
1802.134766 4783.000000
1803.546997 4876.000000
1804.957886 4782.000000
1806.368286 4764.000000
1807.777954 4729.000000
1809.186646 4743.000000
1810.594238 4809.000000
1812.001343 4904.000000
1813.407593 4832.000000
1814.812866 4846.000000
1816.217041 4810.000000
1817.620850 4815.000000
1819.023682 4789.000000
1820.425659 4779.000000
1821.827026 4829.000000
1823.226929 4688.000000
1824.626221 4761.000000
1826.025024 4774.000000
1827.422974 4753.000000
1828.819580 4811.000000
1830.215576 4705.000000
1831.610840 4713.000000
1833.005493 4708.000000
1834.399170 4701.000000
1835.791504 4818.000000
1837.183350 4669.000000
1838.574585 4735.000000
1839.964844 4640.000000
1841.353882 4631.000000
1842.742554 4628.000000
1844.130249 4637.000000
1845.517212 4646.000000
1846.902832 4548.000000
1848.288208 4653.000000
1849.672729 4588.000000
1851.056519 4550.000000
1852.439209 4604.000000
1853.820679 4457.000000
1855.201660 4479.000000
1856.582153 4483.000000
1857.961670 4433.000000
1859.339722 4500.000000
1860.717651 4529.000000
1862.094604 4322.000000
1863.470825 4425.000000
1864.846191 4302.000000
1866.220093 4265.000000
1867.593872 4299.000000
1868.966797 4261.000000
1870.338623 4213.000000
1871.709473 4232.000000
1873.079956 4282.000000
1874.449341 4135.000000
1875.818237 4233.000000
1877.185547 4090.000000
1878.552734 4112.000000
1879.918945 4087.000000
1881.284424 4166.000000
1882.649170 4095.000000
1884.012329 4127.000000
1885.375366 4032.000000
1886.737549 4021.000000
1888.098877 3988.000000
1889.458862 3889.000000
1890.818481 3974.000000
1892.177490 3919.000000
1893.535522 3987.000000
1894.892700 3887.000000
1896.248657 3907.000000
1897.604370 4008.000000
1898.959106 3883.000000
1900.312988 4194.000000
1901.665771 4001.000000
1903.018066 3966.000000
1904.369629 3867.000000
1905.720337 3887.000000
1907.069824 3976.000000
1908.418823 3982.000000
1909.766968 4012.000000
1911.114502 3950.000000
1912.461304 3886.000000
1913.806519 3925.000000
1915.151489 3868.000000
1916.495728 3977.000000
1917.839111 3988.000000
1919.181152 3808.000000
1920.522949 3858.000000
1921.863892 3956.000000
1923.204102 3917.000000
1924.543335 3828.000000
1925.881592 3987.000000
1927.219238 3984.000000
1928.556152 4021.000000
1929.892212 3982.000000
1931.227051 3860.000000
1932.561523 3846.000000
1933.895264 3824.000000
1935.228149 3837.000000
1936.559570 3756.000000
1937.891113 3797.000000
1939.221313 3596.000000
1940.551025 3712.000000
1941.879883 3773.000000
1943.207520 3860.000000
1944.534668 3742.000000
1945.861084 3791.000000
1947.186768 3753.000000
1948.511108 3710.000000
1949.835205 3632.000000
1951.158447 3695.000000
1952.480957 3630.000000
1953.802368 3718.000000
1955.122803 3655.000000
1956.442627 3667.000000
1957.762085 3554.000000
1959.080566 3644.000000
1960.397705 3633.000000
1961.714478 3577.000000
1963.030518 3554.000000
1964.345825 3613.000000
1965.659668 3643.000000
1966.973267 3542.000000
1968.286133 3514.000000
1969.598145 3543.000000
1970.909546 3527.000000
1972.219604 3518.000000
1973.529175 3319.000000
1974.838013 3396.000000
1976.146240 3390.000000
1977.453125 3335.000000
1978.759399 3429.000000
1980.065308 3411.000000
1981.369995 3433.000000
1982.674194 3435.000000
1983.977173 3450.000000
1985.279785 3307.000000
1986.581421 3317.000000
1987.882446 3231.000000
1989.181885 3210.000000
1990.481445 3241.000000
1991.779907 3267.000000
1993.077881 3193.000000
1994.374268 3162.000000
1995.670654 3271.000000
1996.966064 3190.000000
1998.260742 3107.000000
1999.554565 3105.000000
2000.847168 3052.000000
2002.139282 3094.000000
2003.430908 2980.000000
2004.721802 3026.000000
2006.011108 3039.000000
2007.300171 3132.000000
2008.588501 3152.000000
2009.876099 3192.000000
2011.162842 3165.000000
2012.448486 3103.000000
2013.733765 2973.000000
2015.018066 3016.000000
2016.301758 3107.000000
2017.584106 2974.000000
2018.866089 3007.000000
2020.147583 3006.000000
2021.428101 3060.000000
2022.707886 2906.000000
2023.986572 3015.000000
2025.264526 2927.000000
2026.541992 3008.000000
2027.818848 3004.000000
2029.093994 3087.000000
2030.369263 2953.000000
2031.643555 3077.000000
2032.916870 2931.000000
2034.189331 2937.000000
2035.461426 3127.000000
2036.732422 3013.000000
2038.003174 3058.000000
2039.272583 2963.000000
2040.540894 2965.000000
2041.809204 2994.000000
2043.076538 3010.000000
2044.343140 3000.000000
2045.608521 2959.000000
2046.873291 3086.000000
2048.137939 2917.000000
2049.401123 2941.000000
2050.664063 3035.000000
2051.925049 2881.000000
2053.186523 2879.000000
2054.446777 2829.000000
2055.706299 2854.000000
2056.965088 2878.000000
2058.222900 2787.000000
2059.480225 2878.000000
2060.736816 2751.000000
2061.991943 2860.000000
2063.247070 2843.000000
2064.501221 2870.000000
2065.754639 2799.000000
2067.007324 2726.000000
2068.258789 2761.000000
2069.510010 2757.000000
2070.760498 2819.000000
2072.010254 2766.000000
2073.258545 3131.000000
2074.506836 2757.000000
2075.754150 2830.000000
2077.000732 2678.000000
2078.246582 2705.000000
2079.491211 2731.000000
2080.735352 2633.000000
2081.979004 2640.000000
2083.221680 2720.000000
2084.463135 2538.000000
2085.704346 2703.000000
2086.945068 2562.000000
2088.184814 2612.000000
2089.423340 2664.000000
2090.661377 2664.000000
2091.898682 2553.000000
2093.135742 2540.000000
2094.371338 2605.000000
2095.606201 2601.000000
2096.840820 2545.000000
2098.074463 2629.000000
2099.307129 2612.000000
2100.539063 2490.000000
2101.770508 2638.000000
2103.000977 2566.000000
2104.230713 2659.000000
2105.460205 2403.000000
2106.687744 2516.000000
2107.915527 2391.000000
2109.142578 2360.000000
2110.368652 2453.000000
2111.593262 2462.000000
2112.818115 2396.000000
2114.041748 2307.000000
2115.264893 2396.000000
2116.486816 2411.000000
2117.708496 2499.000000
2118.929199 2392.000000
2120.149170 2391.000000
2121.368652 2449.000000
2122.586670 2395.000000
2123.804688 2441.000000
2125.021729 2504.000000
2126.238281 2458.000000
2127.453125 2490.000000
2128.668213 2457.000000
2129.882324 2506.000000
2131.095703 2392.000000
2132.308350 2299.000000
2133.519531 2460.000000
2134.730957 2443.000000
2135.941162 2476.000000
2137.150879 2364.000000
2138.359131 2426.000000
2139.567383 2464.000000
2140.774902 2385.000000
2141.981201 2044.000000
2143.186768 2432.000000
2144.392090 2344.000000
2145.596436 2356.000000
2146.800049 2293.000000
2148.003174 2365.000000
2149.204834 2396.000000
2150.406250 2324.000000
2151.606934 2200.000000
2152.806885 2231.000000
2154.005615 2199.000000
2155.204102 2224.000000
2156.402100 2329.000000
2157.599121 2431.000000
2158.795410 2177.000000
2159.990479 2147.000000
2161.185303 2231.000000
2162.379395 2090.000000
2163.572510 2177.000000
2164.764648 2110.000000
2165.956543 2142.000000
2167.147705 2229.000000
2168.337891 2132.000000
2169.527344 2106.000000
2170.716309 2072.000000
2171.904297 2124.000000
2173.092041 2066.000000
2174.278320 2004.000000
2175.463867 1980.000000
2176.649170 2031.000000
2177.833984 1943.000000
2179.017578 2008.000000
2180.200439 2049.000000
2181.382324 1939.000000
2182.563965 1971.000000
2183.745117 2026.000000
2184.925049 2023.000000
2186.104004 2002.000000
2187.282471 1897.000000
2188.460693 1934.000000
2189.637695 1957.000000
2190.813721 1914.000000
2191.989502 2008.000000
2193.164795 1966.000000
2194.338623 2000.000000
2195.511963 2018.000000
2196.685059 1993.000000
2197.856934 1912.000000
2199.028320 1960.000000
2200.199219 2021.000000
2201.368408 2004.000000
2202.537598 1910.000000
2203.706299 1915.000000
2204.874023 1884.000000
2206.040771 2011.000000
2207.206787 2016.000000
2208.372314 1960.000000
2209.537598 1978.000000
2210.701416 1943.000000
2211.864746 1979.000000
2213.026855 1904.000000
2214.189209 1920.000000
2215.350342 1921.000000
2216.510498 1857.000000
2217.670166 1846.000000
2218.829590 1932.000000
2219.987793 1843.000000
2221.145020 1870.000000
2222.302002 1886.000000
2223.458252 1845.000000
2224.613770 1856.000000
2225.768555 1829.000000
2226.922363 1871.000000
2228.075195 1844.000000
2229.228516 1758.000000
2230.379883 1751.000000
2231.531006 1830.000000
2232.681396 1755.000000
2233.831299 1679.000000
2234.980225 1869.000000
2236.128662 1763.000000
2237.275635 1815.000000
2238.422852 1771.000000
2239.568848 1682.000000
2240.714600 1658.000000
2241.858643 1771.000000
2243.002930 1698.000000
2244.146240 1709.000000
2245.288818 1704.000000
2246.430420 1612.000000
2247.571777 1577.000000
2248.712158 1657.000000
2249.851807 1622.000000
2250.990967 1605.000000
2252.128906 1568.000000
2253.266846 1626.000000
2254.403809 1514.000000
2255.540039 1583.000000
2256.675293 1578.000000
2257.809814 1620.000000
2258.944092 1736.000000
2260.077881 1604.000000
2261.210205 1555.000000
2262.342041 1591.000000
2263.473389 1529.000000
2264.603760 1560.000000
2265.733887 1520.000000
2266.862793 1486.000000
2267.991211 1494.000000
2269.119141 1554.000000
2270.246094 1517.000000
2271.372314 1528.000000
2272.497559 1493.000000
2273.622803 1503.000000
2274.747314 1492.000000
2275.870605 1518.000000
2276.993164 1468.000000
2278.115234 1458.000000
2279.236816 1421.000000
2280.357666 1460.000000
2281.477295 1556.000000
2282.596436 1553.000000
2283.715332 1409.000000
2284.833496 1414.000000
2285.950684 1421.000000
2287.066895 1533.000000
2288.182861 1442.000000
2289.298096 1346.000000
2290.412598 1472.000000
2291.525879 1445.000000
2292.639160 1486.000000
2293.751709 1472.000000
2294.863525 1439.000000
2295.974609 1416.000000
2297.084473 1522.000000
2298.193848 1400.000000
2299.302979 1404.000000
2300.411133 1443.000000
2301.518311 1525.000000
2302.625244 1480.000000
2303.731445 1467.000000
2304.837158 1419.000000
2305.941406 1494.000000
2307.045410 1506.000000
2308.148926 1377.000000
2309.251953 1382.000000
2310.353760 1447.000000
2311.454834 1380.000000
2312.555420 1540.000000
2313.655518 1506.000000
2314.754883 1397.000000
2315.852783 1418.000000
2316.951172 1400.000000
2318.048096 1395.000000
2319.144775 1409.000000
2320.240967 1354.000000
2321.335449 1281.000000
2322.429932 1596.000000
2323.523682 1442.000000
2324.617188 1347.000000
2325.708984 1332.000000
2326.800781 1366.000000
2327.891846 1400.000000
2328.982178 1465.000000
2330.071533 1510.000000
2331.160889 1427.000000
2332.249023 1468.000000
2333.336670 1480.000000
2334.424072 1317.000000
2335.509766 1319.000000
2336.595215 1410.000000
2337.680420 1316.000000
2338.764648 1203.000000
2339.847900 1298.000000
2340.930908 1362.000000
2342.012939 528.000000
2343.094727 1276.000000
2344.175781 1234.000000
2345.255615 1257.000000
2346.334961 1201.000000
2347.413818 1244.000000
2348.492188 1232.000000
2349.569092 1203.000000
2350.645752 1214.000000
2351.722168 1267.000000
2352.797607 1243.000000
2353.872070 1244.000000
2354.946289 1147.000000
2356.019775 1172.000000
2357.092773 1138.000000
2358.164551 1234.000000
2359.236084 1112.000000
2360.306641 1130.000000
2361.376953 1041.000000
2362.446289 1179.000000
2363.514648 1060.000000
2364.582764 1171.000000
2365.650146 1072.000000
2366.717041 1142.000000
2367.783203 1047.000000
2368.848145 1112.000000
2369.913086 1118.000000
2370.977295 1079.000000
2372.040771 1155.000000
2373.103027 1023.000000
2374.165283 1129.000000
2375.226563 987.000000
2376.287598 1130.000000
2377.347412 1111.000000
2378.406494 1022.000000
2379.465576 1071.000000
2380.523682 1099.000000
2381.581055 1087.000000
2382.637451 953.000000
2383.693604 1001.000000
2384.749268 1115.000000
2385.804199 1057.000000
2386.857666 1107.000000
2387.911377 1014.000000
2388.964111 1046.000000
2390.016357 1085.000000
2391.067871 1077.000000
2392.118408 1074.000000
2393.168701 1063.000000
2394.218018 1072.000000
2395.267334 1182.000000
2396.315186 1029.000000
2397.362549 981.000000
2398.409668 1067.000000
2399.455811 1052.000000
2400.501221 1044.000000
2401.545898 1070.000000
2402.590576 1010.000000
2403.633789 1079.000000
2404.677002 972.000000
2405.718750 1029.000000
2406.760742 960.000000
2407.802002 1079.000000
2408.842285 1042.000000
2409.881836 1061.000000
2410.920410 1082.000000
2411.959229 1101.000000
2412.996826 1018.000000
2414.034180 1028.000000
2415.070313 959.000000
2416.106201 1003.000000
2417.141357 1055.000000
2418.176025 1033.000000
2419.209229 936.000000
2420.242676 1041.000000
2421.275146 969.000000
2422.307373 1005.000000
2423.338135 1022.000000
2424.368896 1016.000000
2425.399170 983.000000
2426.428223 1010.000000
2427.457275 1010.000000
2428.484619 1053.000000
2429.512451 991.000000
2430.539063 878.000000
2431.565430 896.000000
2432.590332 987.000000
2433.615479 921.000000
2434.639648 958.000000
2435.663574 992.000000
2436.686279 901.000000
2437.708252 965.000000
2438.729980 966.000000
2439.750977 919.000000
2440.771484 964.000000
2441.790771 907.000000
2442.810059 922.000000
2443.828369 907.000000
2444.846436 751.000000
2445.863037 889.000000
2446.879639 854.000000
2447.895508 948.000000
2448.911377 825.000000
2449.925781 914.000000
2450.939453 821.000000
2451.952637 929.000000
2452.965576 824.000000
2453.977783 874.000000
2454.989014 788.000000
2456.000000 898.000000
2457.010254 930.000000
2458.020020 909.000000
2459.028809 837.000000
2460.036865 816.000000
2461.044922 839.000000
2462.051758 772.000000
2463.058350 853.000000
2464.063721 763.000000
2465.068848 783.000000
2466.073730 747.000000
2467.077393 832.000000
2468.080811 747.000000
2469.083252 774.000000
2470.085449 859.000000
2471.087158 922.000000
2472.087891 848.000000
2473.087646 833.000000
2474.087402 835.000000
2475.086182 798.000000
2476.084473 888.000000
2477.081787 860.000000
2478.078857 790.000000
2479.075928 850.000000
2480.071533 824.000000
2481.067139 808.000000
2482.061035 692.000000
2483.054932 729.000000
2484.048340 701.000000
2485.041260 820.000000
2486.033203 764.000000
2487.024414 853.000000
2488.015381 741.000000
2489.005859 805.000000
2489.995361 756.000000
2490.984131 816.000000
2491.972900 881.000000
2492.960693 685.000000
2493.947266 754.000000
2494.933838 796.000000
2495.919922 791.000000
2496.905273 730.000000
2497.889648 831.000000
2498.873779 752.000000
2499.857910 788.000000
2500.840576 859.000000
2501.822754 728.000000
2502.804443 670.000000
2503.785400 799.000000
2504.765869 764.000000
2505.746094 786.000000
2506.724854 915.000000
2507.703369 731.000000
2508.681396 727.000000
2509.658936 723.000000
2510.635498 769.000000
2511.611816 790.000000
2512.587402 762.000000
2513.562500 726.000000
2514.537109 674.000000
2515.510498 594.000000
2516.483643 769.000000
2517.456543 749.000000
2518.428467 772.000000
2519.399658 723.000000
2520.370361 760.000000
2521.340820 814.000000
2522.310547 666.000000
2523.279297 652.000000
2524.247314 706.000000
2525.215332 655.000000
2526.182373 572.000000
2527.149170 648.000000
2528.114746 616.000000
2529.080322 724.000000
2530.045166 750.000000
2531.009521 699.000000
2531.972656 657.000000
2532.936035 623.000000
2533.898438 676.000000
2534.860596 644.000000
2535.821533 721.000000
2536.781738 734.000000
2537.742188 622.000000
2538.701660 597.000000
2539.660400 768.000000
2540.618164 681.000000
2541.576172 652.000000
2542.533447 796.000000
2543.489746 610.000000
2544.445801 676.000000
2545.400635 742.000000
2546.355713 616.000000
2547.310059 724.000000
2548.263672 580.000000
2549.216309 593.000000
2550.168701 568.000000
2551.120605 672.000000
2552.071777 649.000000
2553.022217 704.000000
2553.972168 678.000000
2554.921875 580.000000
2555.870850 647.000000
2556.819336 599.000000
2557.766602 652.000000
2558.713867 623.000000
2559.660400 584.000000
2560.606445 582.000000
2561.551514 583.000000
2562.496338 539.000000
2563.440674 538.000000
2564.384521 648.000000
2565.327881 567.000000
2566.269775 622.000000
2567.211914 582.000000
2568.153320 605.000000
2569.093994 596.000000
2570.033936 694.000000
2570.973877 573.000000
2571.912842 644.000000
2572.851563 607.000000
2573.789307 553.000000
2574.726807 612.000000
2575.663574 510.000000
2576.599609 575.000000
2577.535156 630.000000
2578.469971 650.000000
2579.404785 612.000000
2580.338623 557.000000
2581.271973 406.000000
2582.204590 579.000000
2583.136963 591.000000
2584.068604 532.000000
2584.999756 650.000000
2585.930420 540.000000
2586.859863 562.000000
2587.789307 634.000000
2588.718262 555.000000
2589.646973 728.000000
2590.573975 580.000000
2591.501221 572.000000
2592.427979 604.000000
2593.354004 574.000000
2594.279785 555.000000
2595.204346 504.000000
2596.128662 503.000000
2597.052490 552.000000
2597.975830 564.000000
2598.898193 589.000000
2599.820313 633.000000
2600.741943 598.000000
2601.662842 573.000000
2602.583008 481.000000
2603.502930 537.000000
2604.422363 627.000000
2605.341553 584.000000
2606.259766 562.000000
2607.176758 533.000000
2608.093994 498.000000
2609.010986 526.000000
2609.927002 461.000000
2610.841797 468.000000
2611.757080 537.000000
2612.671631 579.000000
2613.585205 596.000000
2614.498779 487.000000
2615.411133 665.000000
2616.323486 534.000000
2617.234863 498.000000
2618.145996 549.000000
2619.056396 573.000000
2619.966553 450.000000
2620.875977 615.000000
2621.784912 476.000000
2622.692871 539.000000
2623.601074 535.000000
2624.508301 477.000000
2625.415039 466.000000
2626.321045 428.000000
2627.226807 582.000000
2628.131836 390.000000
2629.036621 438.000000
2629.940674 495.000000
2630.843750 560.000000
2631.746826 528.000000
2632.648926 444.000000
2633.551025 524.000000
2634.452881 563.000000
2635.353027 473.000000
2636.253418 512.000000
2637.153076 548.000000
2638.052490 452.000000
2638.950439 506.000000
2639.848877 554.000000
2640.746826 537.000000
2641.644043 519.000000
2642.540039 540.000000
2643.436035 528.000000
2644.331787 487.000000
2645.226807 453.000000
2646.121582 497.000000
2647.014893 512.000000
2647.908203 487.000000
2648.801270 367.000000
2649.694092 466.000000
2650.585205 411.000000
2651.476563 375.000000
2652.367432 451.000000
2653.257568 373.000000
2654.147461 409.000000
2655.036133 405.000000
2655.925049 459.000000
2656.813477 538.000000
2657.700928 378.000000
2658.587402 439.000000
2659.474365 470.000000
2660.360596 462.000000
2661.246338 397.000000
2662.130859 400.000000
2663.015381 365.000000
2663.899658 448.000000
2664.783203 456.000000
2665.666260 407.000000
2666.548584 433.000000
2667.430420 461.000000
2668.311523 484.000000
2669.192871 487.000000
2670.072754 482.000000
2670.952881 381.000000
2671.832275 383.000000
2672.711670 357.000000
2673.590332 474.000000
2674.467285 400.000000
2675.344971 510.000000
2676.221924 487.000000
2677.098145 437.000000
2677.973877 367.000000
2678.848877 425.000000
2679.724121 393.000000
2680.598389 406.000000
2681.472168 455.000000
2682.345215 377.000000
2683.218018 349.000000
2684.090576 521.000000
2684.962402 440.000000
2685.833496 407.000000
2686.704346 393.000000
2687.574707 455.000000
2688.444824 398.000000
2689.313232 352.000000
2690.182373 385.000000
2691.050781 385.000000
2691.918945 314.000000
2692.786377 324.000000
2693.652588 412.000000
2694.519287 367.000000
2695.385010 358.000000
2696.250732 360.000000
2697.114990 399.000000
2697.979980 413.000000
2698.843506 331.000000
2699.707275 384.000000
2700.569580 440.000000
2701.432373 398.000000
2702.294189 390.000000
2703.155518 355.000000
2704.016846 367.000000
2704.876953 357.000000
2705.737061 324.000000
2706.596680 411.000000
2707.456055 374.000000
2708.313721 323.000000
2709.171631 418.000000
2710.030029 368.000000
2710.887207 359.000000
2711.743652 393.000000
2712.599609 285.000000
2713.455566 397.000000
2714.310791 385.000000
2715.165283 311.000000
2716.019287 314.000000
2716.873291 283.000000
2717.726318 345.000000
2718.579590 397.000000
2719.431152 350.000000
2720.283203 444.000000
2721.135010 325.000000
2721.985596 382.000000
2722.836182 418.000000
2723.686279 329.000000
2724.535645 381.000000
2725.385010 223.000000
2726.233154 364.000000
2727.080811 391.000000
2727.928955 306.000000
2728.775879 402.000000
2729.623291 406.000000
2730.469238 412.000000
2731.314453 334.000000
2732.160156 379.000000
2733.004883 305.000000
2733.849609 339.000000
2734.693115 364.000000
2735.536865 296.000000
2736.379883 334.000000
2737.222412 222.000000
2738.063965 243.000000
2738.906006 313.000000
2739.747070 421.000000
2740.587891 361.000000
2741.428467 283.000000
2742.267822 230.000000
2743.107178 235.000000
2743.946533 299.000000
2744.784668 329.000000
2745.622314 422.000000
2746.459961 316.000000
2747.297119 261.000000
2748.134033 321.000000
2748.970459 298.000000
2749.805664 359.000000
2750.641113 397.000000
2751.476074 362.000000
2752.310303 365.000000
2753.144287 304.000000
2753.977783 353.000000
2754.811279 326.000000
2755.643799 376.000000
2756.475830 353.000000
2757.307373 304.000000
2758.138916 390.000000
2758.969482 236.000000
2759.800293 287.000000
2760.629883 469.000000
2761.459473 319.000000
2762.288818 300.000000
2763.117432 229.000000
2763.945557 310.000000
2764.773193 147.000000
2765.600830 314.000000
2766.427979 260.000000
2767.254395 303.000000
2768.080322 285.000000
2768.905762 331.000000
2769.730957 255.000000
2770.556152 284.000000
2771.380127 350.000000
2772.204102 275.000000
2773.028076 335.000000
2773.850830 282.000000
2774.673828 256.000000
2775.495605 265.000000
2776.317383 330.000000
2777.139160 287.000000
2777.959961 303.000000
2778.780029 272.000000
2779.600342 353.000000
2780.420166 248.000000
2781.239990 321.000000
2782.057861 314.000000
2782.876953 244.000000
2783.694824 270.000000
2784.512451 276.000000
2785.329590 331.000000
2786.146240 248.000000
2786.962646 324.000000
2787.778564 288.000000
2788.594238 309.000000
2789.408936 227.000000
2790.224121 239.000000
2791.038574 275.000000
2791.852539 193.000000
2792.666260 258.000000
2793.478760 246.000000
2794.291504 197.000000
2795.103760 234.000000
2795.915527 229.000000
2796.726563 305.000000
2797.538330 253.000000
2798.348877 222.000000
2799.159424 321.000000
2799.968506 286.000000
2800.778320 282.000000
2801.587402 278.000000
2802.396240 256.000000
2803.204590 218.000000
2804.011963 288.000000
2804.819824 260.000000
2805.626953 253.000000
2806.433838 216.000000
2807.239502 224.000000
2808.045654 317.000000
2808.851074 301.000000
2809.656494 179.000000
2810.461182 240.000000
2811.264893 228.000000
2812.069092 318.000000
2812.872803 266.000000
2813.676270 314.000000
2814.478271 279.000000
2815.281006 296.000000
2816.083008 219.000000
2816.884766 300.000000
2817.686035 233.000000
2818.486816 217.000000
2819.287109 335.000000
2820.087646 217.000000
2820.887207 307.000000
2821.686279 143.000000
2822.485352 235.000000
2823.284180 217.000000
2824.082520 263.000000
2824.879883 175.000000
2825.677490 670.000000
2826.474365 171.000000
2827.271484 267.000000
2828.067871 293.000000
2828.863525 254.000000
2829.659180 236.000000
2830.454590 -41.000000
2831.249512 282.000000
2832.043701 170.000000
2832.837891 333.000000
2833.631836 288.000000
2834.425293 217.000000
2835.218018 229.000000
2836.010498 225.000000
2836.802979 275.000000
2837.595215 172.000000
2838.386963 246.000000
2839.177734 374.000000
2839.968506 269.000000
2840.759521 227.000000
2841.549561 267.000000
2842.339111 204.000000
2843.128906 204.000000
2843.917725 214.000000
2844.706543 161.000000
2845.495361 290.000000
2846.283203 211.000000
2847.070557 148.000000
2847.858154 243.000000
2848.645264 249.000000
2849.431641 204.000000
2850.218018 234.000000
2851.004150 205.000000
2851.789795 174.000000
2852.574463 213.000000
2853.359619 179.000000
2854.144531 209.000000
2854.928711 230.000000
2855.712891 164.000000
2856.495850 118.000000
2857.279053 282.000000
2858.062012 242.000000
2858.844482 196.000000
2859.626709 141.000000
2860.408447 277.000000
2861.189941 145.000000
2861.971680 183.000000
2862.752686 251.000000
2863.532959 181.000000
2864.312988 214.000000
2865.093018 293.000000
2865.872803 202.000000
2866.651611 262.000000
2867.430664 274.000000
2868.209229 215.000000
2868.987549 182.000000
2869.765381 180.000000
2870.542969 168.000000
2871.320313 252.000000
2872.097412 219.000000
2872.874023 241.000000
2873.650146 239.000000
2874.426270 127.000000
2875.201904 167.000000
2875.977295 181.000000
2876.752197 283.000000
2877.526855 181.000000
2878.301514 239.000000
2879.075928 298.000000
2879.849609 242.000000
2880.622559 142.000000
2881.396240 77.000000
2882.168945 215.000000
2882.941650 195.000000
2883.713623 223.000000
2884.485352 264.000000
2885.257568 245.000000
2886.028564 255.000000
2886.799072 222.000000
2887.570068 238.000000
2888.341064 293.000000
2889.111328 186.000000
2889.880615 298.000000
2890.650146 187.000000
2891.419678 261.000000
2892.188721 249.000000
2892.957275 160.000000
2893.725830 248.000000
2894.493408 226.000000
2895.261475 153.000000
2896.029053 221.000000
2896.796631 207.000000
2897.562988 200.000000
2898.330322 211.000000
2899.096436 255.000000
2899.862793 138.000000
2900.627686 138.000000
2901.393066 208.000000
2902.158936 207.000000
2902.923340 177.000000
2903.687744 204.000000
2904.452393 324.000000
2905.216064 248.000000
2905.980469 254.000000
2906.744141 274.000000
2907.507080 315.000000
2908.269775 216.000000
2909.032959 316.000000
2909.795654 100.000000
2910.557129 229.000000
2911.319092 229.000000
spectrumdark 2048
-96.911705 6200.000000
-94.284836 6200.000000
-91.659843 6034.000000
-89.036743 6398.000000
-86.415512 5781.000000
-83.796181 6242.000000
-81.178711 6128.000000
-78.563118 6373.000000
-75.949402 6164.000000
-73.337563 5963.000000
-70.727585 6124.000000
-68.119492 5996.000000
-65.513245 6002.000000
-62.908875 5969.000000
-60.306366 6086.000000
-57.705711 5653.000000
-55.106918 6281.000000
-52.509983 6849.000000
-49.914902 6478.000000
-47.321674 6541.000000
-44.730297 6230.000000
-42.140766 6767.000000
-39.553078 5879.000000
-36.967239 6088.000000
-34.383244 6474.000000
-31.801085 5705.000000
-29.220772 6279.000000
-26.642286 5691.000000
-24.065643 6136.000000
-21.490826 6261.000000
-18.917849 6474.000000
-16.346691 6443.000000
-13.777368 6775.000000
-11.209869 7833.000000
-8.644190 6219.000000
-6.080336 6428.000000
-3.518295 5986.000000
-0.958079 5810.000000
1.600329 6302.000000
4.156916 6959.000000
6.711698 6620.000000
9.264663 6048.000000
11.815827 6765.000000
14.365179 6513.000000
16.912735 6630.000000
19.458479 6048.000000
22.002430 5753.000000
24.544577 6682.000000
27.084927 6755.000000
29.623491 6836.000000
32.160259 6208.000000
34.695225 5803.000000
37.228413 7240.000000
39.759819 6339.000000
42.289433 7077.000000
44.817249 6505.000000
47.343307 7911.000000
49.867577 5641.000000
52.390076 6211.000000
54.910778 6703.000000
57.429726 6362.000000
59.946899 6422.000000
62.462296 6634.000000
64.975914 5603.000000
67.487778 5750.000000
69.997894 6597.000000
72.506218 6560.000000
75.012787 5912.000000
77.517609 6335.000000
80.020676 6389.000000
82.521965 6251.000000
85.021515 6093.000000
87.519310 6352.000000
90.015373 5767.000000
92.509659 7198.000000
95.002205 5807.000000
97.493034 6867.000000
99.982094 7213.000000
102.469406 6391.000000
104.954994 6205.000000
107.438843 6419.000000
109.920944 5739.000000
112.401321 6731.000000
114.879974 6175.000000
117.356903 6451.000000
119.832077 7138.000000
122.305542 6798.000000
124.777275 5834.000000
127.247299 6774.000000
129.715576 6271.000000
132.182175 6280.000000
134.647018 5717.000000
137.110168 6196.000000
139.571579 7324.000000
142.031296 6899.000000
144.489288 6336.000000
146.945587 6018.000000
149.400177 5824.000000
151.853043 6828.000000
154.304230 6359.000000
156.753723 6576.000000
159.201492 6096.000000
161.647552 6737.000000
164.091934 8668.000000
166.534637 6466.000000
168.975647 6741.000000
171.414948 6224.000000
173.852539 7218.000000
176.288498 6549.000000
178.722717 6936.000000
181.155258 7219.000000
183.586151 6676.000000
186.015320 7157.000000
188.442841 6682.000000
190.868683 6308.000000
193.292847 6662.000000
195.715347 7144.000000
198.136154 7415.000000
200.555298 6485.000000
202.972778 6060.000000
205.388565 7576.000000
207.802704 7072.000000
210.215210 6355.000000
212.626038 6071.000000
215.035187 6304.000000
217.442703 7400.000000
219.848511 6124.000000
222.252731 6566.000000
224.655243 6695.000000
227.056137 6957.000000
229.455383 6452.000000
231.852966 6872.000000
234.248886 7276.000000
236.643188 6522.000000
239.035828 6063.000000
241.426849 6800.000000
243.816208 6569.000000
246.203949 6369.000000
248.590042 7001.000000
250.974503 6086.000000
253.357315 7868.000000
255.738556 6662.000000
258.118073 6702.000000
260.496033 6446.000000
262.872314 7553.000000
265.247040 7661.000000
267.620117 7821.000000
269.991547 6225.000000
272.361328 6405.000000
274.729553 5918.000000
277.096130 6350.000000
279.461121 6718.000000
281.824493 6015.000000
284.186218 6202.000000
286.546356 7108.000000
288.904877 6044.000000
291.261810 6529.000000
293.617126 6399.000000
295.970856 5961.000000
298.322937 5941.000000
300.673462 6380.000000
303.022400 6367.000000
305.369690 6915.000000
307.715454 6402.000000
310.059540 6486.000000
312.402100 7320.000000
314.743042 7603.000000
317.082367 7191.000000
319.420135 6957.000000
321.756348 8137.000000
324.090912 6273.000000
326.423920 6483.000000
328.755371 5995.000000
331.085236 6583.000000
333.413513 6450.000000
335.740173 7266.000000
338.065338 6362.000000
340.388885 6194.000000
342.710876 5951.000000
345.031311 7473.000000
347.350128 7737.000000
349.667389 6017.000000
351.983124 5817.000000
354.297272 6951.000000
356.609833 6291.000000
358.920837 6426.000000
361.230316 7103.000000
363.538269 6359.000000
365.844604 5703.000000
368.149353 6470.000000
370.452637 6500.000000
372.754303 6267.000000
375.054474 6354.000000
377.353088 6330.000000
379.650146 5753.000000
381.945648 6124.000000
384.239624 5858.000000
386.532013 5257.000000
388.822906 5588.000000
391.112274 6183.000000
393.400055 6288.000000
395.686310 6533.000000
397.971069 7070.000000
400.254211 6068.000000
402.535919 6435.000000
404.816101 6080.000000
407.094696 7302.000000
409.371765 6453.000000
411.647308 6804.000000
413.921326 6626.000000
416.193909 6592.000000
418.464874 6368.000000
420.734344 6434.000000
423.002319 7104.000000
425.268738 7189.000000
427.533661 6229.000000
429.797119 6364.000000
432.058990 6512.000000
434.319397 5968.000000
436.578247 6650.000000
438.835632 6171.000000
441.091522 5701.000000
443.345917 5780.000000
445.598785 5436.000000
447.850098 6885.000000
450.100006 6079.000000
452.348328 6278.000000
454.595215 5612.000000
456.840637 6524.000000
459.084503 6490.000000
461.326874 6791.000000
463.567749 5681.000000
465.807220 6728.000000
468.045105 5432.000000
470.281555 5884.000000
472.516479 6055.000000
474.749939 7211.000000
476.981964 6729.000000
479.212463 5656.000000
481.441467 6513.000000
483.669006 6319.000000
485.895050 5971.000000
488.119659 6558.000000
490.342804 5892.000000
492.564484 6438.000000
494.784607 6706.000000
497.003326 5674.000000
499.220551 6241.000000
501.436401 5545.000000
503.650635 6144.000000
505.863556 6465.000000
508.074890 6404.000000
510.284790 6931.000000
512.493286 6446.000000
514.700378 6581.000000
516.905884 6403.000000
519.109985 6588.000000
521.312561 6178.000000
523.513733 6568.000000
525.713562 6699.000000
527.911865 6910.000000
530.108643 5332.000000
532.304077 5893.000000
534.497986 5525.000000
536.690552 7618.000000
538.881592 6677.000000
541.071228 6057.000000
543.259460 6919.000000
545.446167 7102.000000
547.631409 6860.000000
549.815369 6218.000000
551.997742 6415.000000
554.178772 6170.000000
556.358276 6048.000000
558.536499 5904.000000
560.713196 5984.000000
562.888489 6415.000000
565.062378 6436.000000
567.234802 5901.000000
569.405823 5917.000000
571.575378 6344.000000
573.743652 5274.000000
575.910400 6352.000000
578.075684 6311.000000
580.239563 6118.000000
582.402161 5721.000000
584.563232 6032.000000
586.722900 5636.000000
588.881226 5835.000000
591.038025 6189.000000
593.193481 6634.000000
595.347534 5797.000000
597.500244 6129.000000
599.651428 7239.000000
601.801270 6818.000000
603.949768 6672.000000
606.096680 6107.000000
608.242371 6455.000000
610.386658 6399.000000
612.529480 7008.000000
614.670837 6156.000000
616.810974 6415.000000
618.949585 7635.000000
621.086914 5670.000000
623.222778 6629.000000
625.357239 6896.000000
627.490234 7183.000000
629.622070 6682.000000
631.752441 6532.000000
633.881409 6902.000000
636.008911 6504.000000
638.135132 6199.000000
640.259827 7381.000000
642.383301 6432.000000
644.505432 6769.000000
646.626099 6840.000000
648.745422 6578.000000
650.863342 5671.000000
652.979919 5716.000000
655.095093 6431.000000
657.208923 6524.000000
659.321289 5868.000000
661.432434 6111.000000
663.542175 5352.000000
665.650452 6035.000000
667.757568 6268.000000
669.863220 6836.000000
671.967407 5859.000000
674.070374 5745.000000
676.171936 7010.000000
678.272156 5320.000000
680.370972 6769.000000
682.468445 6267.000000
684.564636 6967.000000
686.659363 6332.000000
688.752869 7036.000000
690.845032 6643.000000
692.935669 7986.000000
695.025085 6627.000000
697.113220 6465.000000
699.199890 6021.000000
701.285339 6742.000000
703.369263 5117.000000
705.451965 5894.000000
707.533386 5934.000000
709.613342 7574.000000
711.692078 6109.000000
713.769348 5526.000000
715.845337 6577.000000
717.920044 6101.000000
719.993469 7065.000000
722.065369 6246.000000
724.136108 7413.000000
726.205505 5755.000000
728.273499 6495.000000
730.340149 6378.000000
732.405579 7073.000000
734.469666 5835.000000
736.532410 6250.000000
738.593811 6394.000000
740.653931 6568.000000
742.712646 6026.000000
744.770142 6615.000000
746.826355 6576.000000
748.881165 6680.000000
750.934692 6397.000000
752.986816 7477.000000
755.037720 5802.000000
757.087402 6732.000000
759.135620 6356.000000
761.182617 6183.000000
763.228333 7070.000000
765.272644 5365.000000
767.315674 5741.000000
769.357483 14920.000000
771.397949 7211.000000
773.437012 6364.000000
775.474915 6122.000000
777.511475 6063.000000
779.546814 5360.000000
781.580811 5759.000000
783.613403 6965.000000
785.644836 5500.000000
787.674866 11466.000000
789.703613 6060.000000
791.731201 6303.000000
793.757446 6411.000000
795.782288 5812.000000
797.806030 5528.000000
799.828369 6328.000000
801.849487 5878.000000
803.869263 6654.000000
805.887756 4909.000000
807.905029 6701.000000
809.920898 6829.000000
811.935608 5713.000000
813.948975 6408.000000
815.961121 6207.000000
817.972046 6079.000000
819.981628 6599.000000
821.989990 5315.000000
823.996948 5704.000000
826.002686 6062.000000
828.007202 5739.000000
830.010437 5607.000000
832.012390 6494.000000
834.013062 6029.000000
836.012512 5984.000000
838.010620 6263.000000
840.007629 7002.000000
842.003235 6268.000000
843.997681 5991.000000
845.990784 6201.000000
847.982666 6819.000000
849.973206 5640.000000
851.962463 6864.000000
853.950684 5982.000000
855.937500 5754.000000
857.923096 6450.000000
859.907410 7308.000000
861.890625 6268.000000
863.872437 6385.000000
865.853027 5884.000000
867.832336 7768.000000
869.810486 7109.000000
871.787292 6260.000000
873.762817 6195.000000
875.737305 6204.000000
877.710327 6048.000000
879.682312 5455.000000
881.652954 6385.000000
883.622437 6122.000000
885.590576 5532.000000
887.557556 5257.000000
889.523193 6103.000000
891.487671 5839.000000
893.450928 5937.000000
895.412964 6565.000000
897.373718 5955.000000
899.333252 6378.000000
901.291504 6682.000000
903.248657 6362.000000
905.204651 6003.000000
907.159241 6879.000000
909.112610 6529.000000
911.064819 6392.000000
913.015808 6441.000000
914.965515 7154.000000
916.914063 6335.000000
918.861389 6191.000000
920.807434 6057.000000
922.752197 6091.000000
924.695923 6240.000000
926.638489 5938.000000
928.579773 5587.000000
930.519714 6446.000000
932.458557 5739.000000
934.396118 5536.000000
936.332458 5960.000000
938.267639 5815.000000
940.201538 6108.000000
942.134338 5906.000000
944.065918 6793.000000
945.996338 5216.000000
947.925537 6403.000000
949.853394 6988.000000
951.780212 6665.000000
953.705750 5927.000000
955.630005 5404.000000
957.553162 6023.000000
959.475159 6784.000000
961.395874 7298.000000
963.315430 6538.000000
965.233826 5324.000000
967.151184 6446.000000
969.067078 6400.000000
970.981873 6120.000000
972.895447 5941.000000
974.807861 6385.000000
976.719055 6440.000000
978.629089 5480.000000
980.537842 6225.000000
982.445557 6039.000000
984.352051 6423.000000
986.257324 5709.000000
988.161499 6860.000000
990.064453 6182.000000
991.966187 6863.000000
993.866760 6487.000000
995.766174 6542.000000
997.664368 5236.000000
999.561401 6557.000000
1001.457214 6498.000000
1003.351868 7631.000000
1005.245422 5525.000000
1007.137695 7201.000000
1009.029053 6098.000000
1010.919067 5372.000000
1012.807861 6606.000000
1014.695496 6367.000000
1016.581970 6887.000000
1018.467285 6733.000000
1020.351440 5957.000000
1022.234375 5861.000000
1024.116211 6294.000000
1025.996826 5238.000000
1027.876343 5875.000000
1029.754883 6090.000000
1031.632080 5370.000000
1033.507935 6249.000000
1035.382813 5917.000000
1037.256714 6559.000000
1039.129150 7061.000000
1041.000610 6649.000000
1042.870728 5458.000000
1044.739868 5506.000000
1046.607788 5763.000000
1048.474609 7043.000000
1050.340332 6674.000000
1052.204834 6373.000000
1054.068237 6457.000000
1055.930298 6455.000000
1057.791382 5914.000000
1059.651367 6572.000000
1061.510010 6667.000000
1063.367554 5738.000000
1065.223999 6718.000000
1067.079346 5965.000000
1068.933472 5776.000000
1070.786743 6295.000000
1072.638550 6360.000000
1074.489380 6212.000000
1076.338989 6162.000000
1078.187378 5789.000000
1080.034912 7982.000000
1081.881104 5572.000000
1083.726074 6277.000000
1085.570190 5448.000000
1087.412964 5558.000000
1089.254517 6528.000000
1091.095337 5453.000000
1092.934570 5770.000000
1094.773071 6024.000000
1096.610229 6044.000000
1098.446167 6808.000000
1100.281128 6570.000000
1102.114868 5440.000000
1103.947632 5697.000000
1105.779053 6189.000000
1107.609619 7256.000000
1109.438843 6484.000000
1111.267090 6440.000000
1113.094116 7102.000000
1114.920166 5419.000000
1116.744995 6296.000000
1118.568726 7193.000000
1120.391235 6072.000000
1122.212646 5897.000000
1124.033203 5935.000000
1125.852295 6609.000000
1127.670532 7022.000000
1129.487427 6861.000000
1131.303467 6614.000000
1133.118286 6459.000000
1134.932007 5662.000000
1136.744629 5828.000000
1138.556030 5702.000000
1140.366455 6133.000000
1142.175781 6695.000000
1143.983765 6957.000000
1145.791016 5956.000000
1147.596802 5912.000000
1149.401733 5395.000000
1151.205566 5410.000000
1153.008179 6043.000000
1154.809937 6132.000000
1156.610229 6049.000000
1158.409546 6130.000000
1160.207886 5852.000000
1162.004883 5506.000000
1163.801147 5948.000000
1165.596069 6099.000000
1167.389893 6336.000000
1169.182861 7732.000000
1170.974487 5693.000000
1172.765137 6509.000000
1174.554810 5946.000000
1176.343018 5892.000000
1178.130371 7481.000000
1179.916626 6943.000000
1181.701782 5747.000000
1183.485840 5972.000000
1185.268799 7669.000000
1187.050781 5851.000000
1188.831543 5954.000000
1190.611328 6358.000000
1192.390015 6940.000000
1194.167725 6638.000000
1195.944214 7187.000000
1197.719604 6548.000000
1199.493896 6521.000000
1201.267090 6653.000000
1203.039429 6529.000000
1204.810425 6734.000000
1206.580566 5676.000000
1208.349487 6138.000000
1210.117310 6362.000000
1211.884277 5739.000000
1213.649902 5909.000000
1215.414551 6964.000000
1217.178101 6593.000000
1218.940552 6024.000000
1220.702148 6755.000000
1222.462524 5863.000000
1224.221802 6336.000000
1225.980225 6075.000000
1227.737427 7200.000000
1229.493530 6402.000000
1231.248535 5531.000000
1233.002686 5985.000000
1234.755493 5767.000000
1236.507324 5960.000000
1238.258301 5976.000000
1240.007935 4991.000000
1241.756714 7023.000000
1243.504150 6474.000000
1245.250854 6569.000000
1246.996338 6493.000000
1248.740967 6407.000000
1250.484253 6810.000000
1252.226563 6696.000000
1253.967773 5390.000000
1255.708130 5110.000000
1257.447388 5750.000000
1259.185425 6629.000000
1260.922607 7104.000000
1262.658569 6105.000000
1264.393555 6453.000000
1266.127563 7272.000000
1267.860596 6014.000000
1269.592407 6177.000000
1271.323242 6423.000000
1273.052856 7227.000000
1274.781616 5941.000000
1276.509277 5733.000000
1278.235840 5499.000000
1279.961548 5606.000000
1281.685913 6450.000000
1283.409424 5215.000000
1285.131958 6882.000000
1286.853516 6575.000000
1288.573853 6397.000000
1290.293213 6712.000000
1292.011475 7211.000000
1293.728760 6412.000000
1295.445068 5679.000000
1297.160156 6394.000000
1298.874268 6189.000000
1300.587402 5802.000000
1302.299683 6444.000000
1304.010742 8374.000000
1305.720825 5220.000000
1307.429810 6314.000000
1309.137573 6681.000000
1310.844727 7057.000000
1312.550415 5772.000000
1314.255371 6837.000000
1315.959351 6173.000000
1317.662109 6050.000000
1319.363892 6571.000000
1321.064819 6109.000000
1322.764404 18761.500000
1324.463135 31414.000000
1326.161133 5601.000000
1327.857788 6490.000000
1329.553345 7070.000000
1331.248047 6923.000000
1332.941528 5693.000000
1334.634155 5394.000000
1336.325928 7360.000000
1338.016357 6321.000000
1339.706055 6587.000000
1341.394653 6046.000000
1343.082153 7608.000000
1344.768677 5732.000000
1346.454102 6887.000000
1348.138550 5939.000000
1349.822144 7301.000000
1351.504517 6389.000000
1353.185913 6013.000000
1354.866455 6570.000000
1356.545776 6715.000000
1358.224487 5895.000000
1359.901855 6515.000000
1361.578125 5767.000000
1363.253418 5593.000000
1364.927979 6643.000000
1366.601318 6426.000000
1368.273682 6771.000000
1369.945068 5206.000000
1371.615479 6815.000000
1373.284790 6191.000000
1374.953125 5700.000000
1376.620605 5982.000000
1378.286987 6316.000000
1379.952393 6202.000000
1381.616821 5846.000000
1383.280029 5993.000000
1384.942627 5697.000000
1386.603882 6349.000000
1388.264282 6637.000000
1389.923584 6449.000000
1391.581909 6499.000000
1393.239502 6847.000000
1394.895874 6447.000000
1396.551392 6978.000000
1398.205688 6311.000000
1399.859131 5887.000000
1401.511475 6086.000000
1403.163086 6443.000000
1404.813477 7193.000000
1406.462769 6270.000000
1408.111328 7458.000000
1409.758789 7881.000000
1411.405273 6271.000000
1413.050903 6262.000000
1414.695557 5969.000000
1416.338989 7000.000000
1417.981567 7103.000000
1419.623047 6910.000000
1421.263672 6473.000000
1422.903320 6466.000000
1424.541870 5984.000000
1426.179565 6671.000000
1427.816162 6372.000000
1429.451782 5966.000000
1431.086670 6409.000000
1432.720459 5916.000000
1434.353149 6126.000000
1435.984863 5633.000000
1437.615723 6097.000000
1439.245483 6066.000000
1440.874146 7833.000000
1442.502197 6016.000000
1444.129150 6238.000000
1445.754883 6207.000000
1447.380005 6189.000000
1449.004028 6563.000000
1450.627075 6009.000000
1452.249146 6033.000000
1453.870117 7422.000000
1455.490112 6339.000000
1457.109375 6978.000000
1458.727295 5746.000000
1460.344604 19370.000000
1461.960938 5548.000000
1463.576050 7251.000000
1465.190308 6321.000000
1466.803711 5180.000000
1468.416016 5592.000000
1470.027466 6252.000000
1471.638062 6274.000000
1473.247437 5991.000000
1474.855835 5949.000000
1476.463379 6224.000000
1478.069946 6729.000000
1479.675781 5308.000000
1481.280396 6302.000000
1482.884155 5542.000000
1484.486694 6833.000000
1486.088623 5614.000000
1487.689331 5560.000000
1489.289307 5613.000000
1490.888184 6304.000000
1492.486206 6450.000000
1494.083130 6648.000000
1495.679199 6360.000000
1497.274292 5959.000000
1498.868408 5469.000000
1500.461792 6521.000000
1502.054077 5532.000000
1503.645142 6177.000000
1505.235718 6771.000000
1506.824951 6471.000000
1508.413574 6114.000000
1510.001099 6520.000000
1511.587524 6950.000000
1513.173218 6130.000000
1514.757813 6658.000000
1516.341553 6337.000000
1517.924194 6256.000000
1519.506104 6637.000000
1521.086914 6676.000000
1522.666992 6089.000000
1524.245850 6263.000000
1525.823853 6425.000000
1527.401123 6262.000000
1528.977173 5649.000000
1530.552490 5818.000000
1532.126709 6343.000000
1533.700195 5450.000000
1535.272461 5949.000000
1536.843994 6387.000000
1538.414551 6472.000000
1539.984253 6383.000000
1541.552734 5496.000000
1543.120483 6602.000000
1544.687378 5651.000000
1546.253052 6804.000000
1547.817993 5967.000000
1549.381836 4996.000000
1550.945068 7497.000000
1552.506958 6342.000000
1554.068237 6021.000000
1555.628418 5679.000000
1557.187866 5765.000000
1558.746216 6115.000000
1560.303833 6312.000000
1561.860352 7079.000000
1563.415649 5907.000000
1564.970337 6438.000000
1566.524292 5666.000000
1568.077271 6289.000000
1569.628906 5627.000000
1571.179810 5930.000000
1572.729980 6196.000000
1574.279175 6325.000000
1575.827026 5810.000000
1577.374390 5535.000000
1578.920776 5653.000000
1580.466309 5089.000000
1582.010864 6666.000000
1583.554199 6397.000000
1585.096924 6586.000000
1586.638794 6430.000000
1588.179565 6698.000000
1589.719360 5840.000000
1591.258423 6667.000000
1592.796387 5920.000000
1594.333862 6112.000000
1595.869995 5905.000000
1597.405029 6660.000000
1598.939575 6299.000000
1600.473145 5953.000000
1602.005859 6128.000000
1603.536987 6286.000000
1605.067871 6276.000000
1606.597900 5770.000000
1608.126709 6186.000000
1609.654419 6109.000000
1611.181519 5981.000000
1612.707886 5928.000000
1614.233276 6272.000000
1615.757813 5825.000000
1617.281006 5794.000000
1618.803467 5642.000000
1620.325195 6584.000000
1621.846069 6988.000000
1623.365479 15639.000000
1624.884399 6273.000000
1626.402588 6129.000000
1627.919922 5928.000000
1629.436157 6405.000000
1630.951050 7090.000000
1632.465454 6823.000000
1633.979126 5811.000000
1635.491699 6909.000000
1637.003052 5959.000000
1638.514038 6361.000000
1640.023926 6318.000000
1641.532959 6206.000000
1643.040649 5578.000000
1644.547974 6131.000000
1646.054443 7171.000000
1647.559937 6280.000000
1649.064575 6869.000000
1650.567749 6184.000000
1652.070313 6603.000000
1653.572510 6343.000000
1655.073364 6633.000000
1656.573120 7534.000000
1658.072021 6156.000000
1659.570557 6506.000000
1661.067871 6266.000000
1662.564453 5958.000000
1664.059448 6524.000000
1665.554199 6329.000000
1667.048096 5248.000000
1668.541016 5613.000000
1670.032593 19821.000000
1671.523682 6440.000000
1673.014160 6103.000000
1674.503540 6021.000000
1675.991455 7030.000000
1677.479126 6866.000000
1678.965820 6056.000000
1680.451660 5435.000000
1681.936646 6066.000000
1683.420166 6196.000000
1684.903442 6224.000000
1686.385864 5880.000000
1687.867188 6203.000000
1689.347046 6220.000000
1690.826660 5484.000000
1692.305542 6609.000000
1693.783447 6001.000000
1695.260376 6107.000000
1696.736084 5764.000000
1698.211426 6068.000000
1699.685547 6294.000000
1701.159058 5499.000000
1702.631104 5618.000000
1704.102905 6885.000000
1705.573730 6441.000000
1707.043701 7112.000000
1708.512329 5134.000000
1709.980469 5821.000000
1711.447876 6302.000000
1712.914185 5459.000000
1714.379883 5752.000000
1715.843872 6169.000000
1717.307739 6007.000000
1718.770752 6973.000000
1720.232788 6378.000000
1721.693604 6620.000000
1723.153809 5502.000000
1724.613281 6350.000000
1726.071899 6171.000000
1727.529541 6025.000000
1728.985840 6240.000000
1730.441895 6085.000000
1731.896973 6441.000000
1733.351074 5987.000000
1734.803955 6878.000000
1736.256592 5988.000000
1737.708130 6667.000000
1739.158936 5975.000000
1740.608765 6582.000000
1742.057251 5901.000000
1743.505371 7636.000000
1744.952637 6607.000000
1746.399170 6715.000000
1747.844116 6709.000000
1749.288818 6199.000000
1750.732666 5820.000000
1752.175659 5459.000000
1753.617188 6539.000000
1755.058472 6306.000000
1756.498901 19438.000000
1757.938354 6232.000000
1759.376831 5259.000000
1760.814331 6063.000000
1762.251343 7572.000000
1763.687378 5925.000000
1765.122559 7112.000000
1766.556274 6210.000000
1767.989868 6431.000000
1769.422485 6636.000000
1770.854248 5763.000000
1772.285156 5824.000000
1773.714844 6364.000000
1775.143799 6107.000000
1776.572266 6241.000000
1777.999756 6690.000000
1779.425903 6248.000000
1780.851807 5577.000000
1782.276611 6946.000000
1783.700806 5530.000000
1785.123535 6713.000000
1786.545776 6533.000000
1787.967285 6882.000000
1789.388062 5949.000000
1790.807861 6184.000000
1792.226318 6187.000000
1793.644287 6854.000000
1795.061646 5484.000000
1796.478149 6039.000000
1797.893188 6593.000000
1799.307861 5782.000000
1800.721924 6604.000000
1802.134766 6012.000000
1803.546997 6950.000000
1804.957886 7235.000000
1806.368286 7804.000000
1807.777954 6477.000000
1809.186646 5948.000000
1810.594238 5460.000000
1812.001343 6459.000000
1813.407593 6349.000000
1814.812866 6679.000000
1816.217041 5969.000000
1817.620850 5936.000000
1819.023682 6254.000000
1820.425659 6015.000000
1821.827026 5838.000000
1823.226929 6439.000000
1824.626221 6525.000000
1826.025024 6581.000000
1827.422974 7427.000000
1828.819580 5804.000000
1830.215576 6750.000000
1831.610840 5895.000000
1833.005493 8118.000000
1834.399170 6043.000000
1835.791504 6820.000000
1837.183350 6357.000000
1838.574585 5866.000000
1839.964844 7132.000000
1841.353882 6026.000000
1842.742554 6140.000000
1844.130249 5991.000000
1845.517212 5837.000000
1846.902832 6916.000000
1848.288208 5817.000000
1849.672729 6409.000000
1851.056519 6294.000000
1852.439209 6342.000000
1853.820679 5352.000000
1855.201660 6494.000000
1856.582153 6299.000000
1857.961670 5704.000000
1859.339722 5924.000000
1860.717651 6185.000000
1862.094604 7856.000000
1863.470825 6055.000000
1864.846191 6080.000000
1866.220093 5684.000000
1867.593872 5710.000000
1868.966797 6248.000000
1870.338623 5987.000000
1871.709473 6936.000000
1873.079956 5409.000000
1874.449341 6068.000000
1875.818237 6081.000000
1877.185547 7202.000000
1878.552734 6084.000000
1879.918945 6027.000000
1881.284424 6805.000000
1882.649170 7462.000000
1884.012329 6777.000000
1885.375366 6948.000000
1886.737549 6371.000000
1888.098877 6514.000000
1889.458862 5709.000000
1890.818481 5807.000000
1892.177490 6153.000000
1893.535522 6610.000000
1894.892700 7325.000000
1896.248657 5994.000000
1897.604370 7650.000000
1898.959106 5958.000000
1900.312988 5429.000000
1901.665771 5887.000000
1903.018066 5913.000000
1904.369629 5937.000000
1905.720337 6932.000000
1907.069824 6559.000000
1908.418823 6658.000000
1909.766968 5830.000000
1911.114502 6082.000000
1912.461304 6365.000000
1913.806519 6846.000000
1915.151489 6120.000000
1916.495728 5476.000000
1917.839111 6476.000000
1919.181152 5983.000000
1920.522949 6764.000000
1921.863892 6949.000000
1923.204102 6177.000000
1924.543335 6336.000000
1925.881592 6311.000000
1927.219238 6444.000000
1928.556152 6950.000000
1929.892212 6722.000000
1931.227051 5637.000000
1932.561523 6687.000000
1933.895264 7288.000000
1935.228149 6301.000000
1936.559570 5721.000000
1937.891113 6358.000000
1939.221313 6710.000000
1940.551025 5865.000000
1941.879883 6091.000000
1943.207520 5819.000000
1944.534668 5032.000000
1945.861084 5833.000000
1947.186768 6546.000000
1948.511108 5763.000000
1949.835205 6726.000000
1951.158447 6389.000000
1952.480957 6451.000000
1953.802368 5809.000000
1955.122803 7451.000000
1956.442627 6085.000000
1957.762085 5602.000000
1959.080566 6827.000000
1960.397705 5926.000000
1961.714478 5871.000000
1963.030518 6586.000000
1964.345825 6600.000000
1965.659668 6239.000000
1966.973267 5673.000000
1968.286133 6266.000000
1969.598145 6009.000000
1970.909546 5992.000000
1972.219604 6307.000000
1973.529175 5891.000000
1974.838013 6156.000000
1976.146240 6635.000000
1977.453125 6172.000000
1978.759399 7218.000000
1980.065308 5506.000000
1981.369995 6376.000000
1982.674194 5911.000000
1983.977173 5684.000000
1985.279785 7608.000000
1986.581421 6153.000000
1987.882446 6820.000000
1989.181885 6046.000000
1990.481445 6636.000000
1991.779907 5308.000000
1993.077881 6091.000000
1994.374268 6144.000000
1995.670654 5809.000000
1996.966064 5588.000000
1998.260742 6540.000000
1999.554565 5751.000000
2000.847168 6605.000000
2002.139282 5770.000000
2003.430908 7236.000000
2004.721802 6497.000000
2006.011108 6294.000000
2007.300171 6791.000000
2008.588501 5873.000000
2009.876099 6005.000000
2011.162842 6766.000000
2012.448486 5628.000000
2013.733765 6366.000000
2015.018066 5966.000000
2016.301758 5559.000000
2017.584106 6077.000000
2018.866089 6468.000000
2020.147583 6820.000000
2021.428101 5888.000000
2022.707886 6143.000000
2023.986572 6743.000000
2025.264526 5900.000000
2026.541992 5912.000000
2027.818848 6341.000000
2029.093994 5699.000000
2030.369263 6643.000000
2031.643555 6013.000000
2032.916870 5965.000000
2034.189331 6006.000000
2035.461426 6150.000000
2036.732422 6951.000000
2038.003174 6607.000000
2039.272583 6014.000000
2040.540894 6761.000000
2041.809204 6621.000000
2043.076538 5923.000000
2044.343140 5950.000000
2045.608521 5588.000000
2046.873291 5818.000000
2048.137939 5454.000000
2049.401123 5886.000000
2050.664063 6425.000000
2051.925049 6185.000000
2053.186523 6137.000000
2054.446777 5865.000000
2055.706299 6625.000000
2056.965088 6258.000000
2058.222900 6970.000000
2059.480225 6179.000000
2060.736816 6006.000000
2061.991943 6482.000000
2063.247070 5637.000000
2064.501221 5600.000000
2065.754639 5687.000000
2067.007324 6864.000000
2068.258789 6300.000000
2069.510010 6367.000000
2070.760498 5601.000000
2072.010254 5454.000000
2073.258545 6129.000000
2074.506836 6489.000000
2075.754150 7395.000000
2077.000732 5614.000000
2078.246582 6036.000000
2079.491211 7034.000000
2080.735352 7615.000000
2081.979004 5578.000000
2083.221680 6052.000000
2084.463135 6969.000000
2085.704346 5960.000000
2086.945068 6358.000000
2088.184814 6748.000000
2089.423340 7033.000000
2090.661377 6178.000000
2091.898682 5797.000000
2093.135742 6664.000000
2094.371338 6108.000000
2095.606201 6218.000000
2096.840820 6136.000000
2098.074463 5587.000000
2099.307129 6121.000000
2100.539063 6892.000000
2101.770508 6369.000000
2103.000977 6836.000000
2104.230713 6002.000000
2105.460205 6031.000000
2106.687744 6052.000000
2107.915527 6083.000000
2109.142578 6432.000000
2110.368652 5489.000000
2111.593262 6399.000000
2112.818115 6981.000000
2114.041748 7118.000000
2115.264893 6241.000000
2116.486816 7546.000000
2117.708496 5959.000000
2118.929199 6842.000000
2120.149170 6064.000000
2121.368652 6226.000000
2122.586670 6612.000000
2123.804688 7055.000000
2125.021729 5701.000000
2126.238281 5817.000000
2127.453125 6556.000000
2128.668213 6321.000000
2129.882324 6915.000000
2131.095703 5691.000000
2132.308350 6151.000000
2133.519531 5780.000000
2134.730957 6498.000000
2135.941162 6639.000000
2137.150879 5911.000000
2138.359131 6170.000000
2139.567383 5644.000000
2140.774902 5853.000000
2141.981201 7706.000000
2143.186768 5866.000000
2144.392090 5692.000000
2145.596436 5488.000000
2146.800049 6371.000000
2148.003174 6204.000000
2149.204834 6401.000000
2150.406250 5336.000000
2151.606934 6389.000000
2152.806885 6154.000000
2154.005615 6008.000000
2155.204102 6955.000000
2156.402100 6180.000000
2157.599121 5963.000000
2158.795410 5205.000000
2159.990479 5324.000000
2161.185303 6139.000000
2162.379395 5601.000000
2163.572510 6055.000000
2164.764648 6990.000000
2165.956543 5925.000000
2167.147705 6267.000000
2168.337891 6247.000000
2169.527344 6534.000000
2170.716309 6821.000000
2171.904297 5982.000000
2173.092041 5723.000000
2174.278320 5938.000000
2175.463867 6641.000000
2176.649170 5991.000000
2177.833984 5853.000000
2179.017578 6379.000000
2180.200439 7516.000000
2181.382324 6315.000000
2182.563965 5982.000000
2183.745117 6551.000000
2184.925049 5687.000000
2186.104004 5549.000000
2187.282471 6399.000000
2188.460693 6901.000000
2189.637695 7162.000000
2190.813721 6771.000000
2191.989502 6079.000000
2193.164795 5602.000000
2194.338623 6642.000000
2195.511963 6181.000000
2196.685059 6094.000000
2197.856934 6578.000000
2199.028320 7076.000000
2200.199219 6304.000000
2201.368408 6887.000000
2202.537598 7580.000000
2203.706299 6273.000000
2204.874023 5989.000000
2206.040771 5624.000000
2207.206787 7135.000000
2208.372314 6681.000000
2209.537598 5971.000000
2210.701416 6771.000000
2211.864746 5424.000000
2213.026855 6223.000000
2214.189209 6131.000000
2215.350342 6706.000000
2216.510498 6675.000000
2217.670166 6313.000000
2218.829590 6575.000000
2219.987793 6427.000000
2221.145020 6333.000000
2222.302002 6762.000000
2223.458252 6590.000000
2224.613770 6747.000000
2225.768555 6275.000000
2226.922363 6463.000000
2228.075195 6060.000000
2229.228516 6896.000000
2230.379883 6251.000000
2231.531006 6163.000000
2232.681396 6546.000000
2233.831299 7733.000000
2234.980225 6272.000000
2236.128662 5222.000000
2237.275635 6767.000000
2238.422852 7040.000000
2239.568848 6078.000000
2240.714600 7272.000000
2241.858643 7304.000000
2243.002930 6718.000000
2244.146240 6185.000000
2245.288818 6008.000000
2246.430420 5832.000000
2247.571777 5865.000000
2248.712158 6408.000000
2249.851807 6426.000000
2250.990967 5812.000000
2252.128906 5885.000000
2253.266846 6230.000000
2254.403809 5324.000000
2255.540039 6333.000000
2256.675293 6137.000000
2257.809814 7271.000000
2258.944092 6317.000000
2260.077881 5445.000000
2261.210205 6182.000000
2262.342041 6831.000000
2263.473389 6334.000000
2264.603760 6507.000000
2265.733887 8095.000000
2266.862793 6721.000000
2267.991211 6102.000000
2269.119141 5504.000000
2270.246094 6102.000000
2271.372314 5963.000000
2272.497559 6778.000000
2273.622803 6537.000000
2274.747314 6436.000000
2275.870605 5932.000000
2276.993164 6362.000000
2278.115234 6093.000000
2279.236816 7431.000000
2280.357666 6412.000000
2281.477295 6428.000000
2282.596436 7096.000000
2283.715332 7690.000000
2284.833496 7238.000000
2285.950684 5956.000000
2287.066895 6464.000000
2288.182861 7032.000000
2289.298096 6941.000000
2290.412598 7372.000000
2291.525879 5877.000000
2292.639160 6357.000000
2293.751709 6020.000000
2294.863525 5415.000000
2295.974609 6812.000000
2297.084473 6391.000000
2298.193848 6210.000000
2299.302979 6692.000000
2300.411133 6354.000000
2301.518311 6748.000000
2302.625244 5899.000000
2303.731445 6245.000000
2304.837158 6625.000000
2305.941406 6609.000000
2307.045410 5445.000000
2308.148926 5774.000000
2309.251953 6522.000000
2310.353760 7454.000000
2311.454834 7391.000000
2312.555420 6591.000000
2313.655518 5453.000000
2314.754883 6360.000000
2315.852783 6604.000000
2316.951172 7011.000000
2318.048096 8203.000000
2319.144775 6882.000000
2320.240967 5801.000000
2321.335449 6840.000000
2322.429932 7458.000000
2323.523682 5794.000000
2324.617188 6072.000000
2325.708984 6531.000000
2326.800781 6985.000000
2327.891846 6137.000000
2328.982178 6284.000000
2330.071533 6933.000000
2331.160889 6043.000000
2332.249023 6334.000000
2333.336670 6783.000000
2334.424072 6533.000000
2335.509766 6671.000000
2336.595215 7686.000000
2337.680420 6260.000000
2338.764648 6767.000000
2339.847900 5878.000000
2340.930908 6390.000000
2342.012939 7820.000000
2343.094727 6021.000000
2344.175781 7490.000000
2345.255615 6664.000000
2346.334961 5668.000000
2347.413818 6752.000000
2348.492188 6563.000000
2349.569092 6317.000000
2350.645752 7009.000000
2351.722168 6076.000000
2352.797607 6429.000000
2353.872070 5951.000000
2354.946289 6342.000000
2356.019775 6770.000000
2357.092773 6297.000000
2358.164551 6982.000000
2359.236084 6331.000000
2360.306641 6769.000000
2361.376953 7540.000000
2362.446289 7515.000000
2363.514648 6848.000000
2364.582764 6715.000000
2365.650146 7131.000000
2366.717041 7089.000000
2367.783203 6106.000000
2368.848145 6892.000000
2369.913086 6979.000000
2370.977295 6359.000000
2372.040771 6919.000000
2373.103027 5876.000000
2374.165283 6328.000000
2375.226563 6359.000000
2376.287598 5958.000000
2377.347412 6318.000000
2378.406494 7932.000000
2379.465576 6508.000000
2380.523682 7566.000000
2381.581055 6865.000000
2382.637451 8125.000000
2383.693604 7836.000000
2384.749268 6240.000000
2385.804199 7077.000000
2386.857666 6738.000000
2387.911377 6587.000000
2388.964111 6293.000000
2390.016357 6769.000000
2391.067871 6167.000000
2392.118408 6689.000000
2393.168701 6543.000000
2394.218018 6302.000000
2395.267334 6150.000000
2396.315186 6871.000000
2397.362549 6982.000000
2398.409668 6322.000000
2399.455811 6708.000000
2400.501221 6157.000000
2401.545898 6766.000000
2402.590576 7725.000000
2403.633789 7408.000000
2404.677002 6637.000000
2405.718750 5738.000000
2406.760742 6733.000000
2407.802002 7115.000000
2408.842285 6100.000000
2409.881836 6390.000000
2410.920410 6304.000000
2411.959229 6046.000000
2412.996826 6595.000000
2414.034180 6936.000000
2415.070313 7404.000000
2416.106201 6269.000000
2417.141357 6312.000000
2418.176025 6638.000000
2419.209229 7249.000000
2420.242676 6445.000000
2421.275146 6711.000000
2422.307373 6821.000000
2423.338135 7064.000000
2424.368896 6394.000000
2425.399170 6850.000000
2426.428223 6902.000000
2427.457275 6675.000000
2428.484619 7356.000000
2429.512451 6709.000000
2430.539063 7353.000000
2431.565430 6985.000000
2432.590332 7755.000000
2433.615479 6605.000000
2434.639648 7122.000000
2435.663574 6706.000000
2436.686279 5882.000000
2437.708252 6351.000000
2438.729980 6614.000000
2439.750977 6669.000000
2440.771484 6000.000000
2441.790771 6576.000000
2442.810059 6554.000000
2443.828369 8445.000000
2444.846436 6338.000000
2445.863037 6464.000000
2446.879639 6597.000000
2447.895508 6000.000000
2448.911377 7015.000000
2449.925781 6824.000000
2450.939453 5597.000000
2451.952637 7254.000000
2452.965576 6028.000000
2453.977783 7186.000000
2454.989014 6688.000000
2456.000000 7694.000000
2457.010254 6380.000000
2458.020020 7604.000000
2459.028809 5936.000000
2460.036865 5969.000000
2461.044922 6329.000000
2462.051758 7361.000000
2463.058350 5453.000000
2464.063721 7444.000000
2465.068848 6959.000000
2466.073730 5898.000000
2467.077393 6535.000000
2468.080811 6442.000000
2469.083252 7676.000000
2470.085449 7374.000000
2471.087158 6849.000000
2472.087891 6578.000000
2473.087646 6901.000000
2474.087402 6733.000000
2475.086182 5665.000000
2476.084473 6551.000000
2477.081787 7032.000000
2478.078857 6138.000000
2479.075928 7006.000000
2480.071533 5807.000000
2481.067139 7123.000000
2482.061035 6745.000000
2483.054932 8152.000000
2484.048340 6984.000000
2485.041260 6727.000000
2486.033203 7538.000000
2487.024414 7214.000000
2488.015381 6797.000000
2489.005859 5821.000000
2489.995361 6642.000000
2490.984131 6448.000000
2491.972900 5649.000000
2492.960693 6839.000000
2493.947266 6615.000000
2494.933838 8080.000000
2495.919922 6745.000000
2496.905273 7114.000000
2497.889648 8210.000000
2498.873779 6067.000000
2499.857910 6856.000000
2500.840576 5710.000000
2501.822754 7024.000000
2502.804443 6909.000000
2503.785400 7271.000000
2504.765869 6552.000000
2505.746094 5769.000000
2506.724854 6313.000000
2507.703369 7583.000000
2508.681396 6766.000000
2509.658936 7089.000000
2510.635498 6062.000000
2511.611816 5971.000000
2512.587402 6443.000000
2513.562500 6228.000000
2514.537109 6470.000000
2515.510498 7676.000000
2516.483643 6794.000000
2517.456543 6958.000000
2518.428467 6048.000000
2519.399658 6905.000000
2520.370361 6908.000000
2521.340820 7745.000000
2522.310547 8064.000000
2523.279297 6192.000000
2524.247314 6170.000000
2525.215332 7709.000000
2526.182373 6367.000000
2527.149170 5568.000000
2528.114746 7257.000000
2529.080322 6988.000000
2530.045166 7762.000000
2531.009521 6359.000000
2531.972656 6360.000000
2532.936035 5875.000000
2533.898438 5953.000000
2534.860596 6713.000000
2535.821533 6363.000000
2536.781738 6061.000000
2537.742188 6178.000000
2538.701660 7042.000000
2539.660400 6810.000000
2540.618164 6695.000000
2541.576172 6243.000000
2542.533447 6673.000000
2543.489746 6109.000000
2544.445801 7076.000000
2545.400635 6183.000000
2546.355713 7766.000000
2547.310059 6963.000000
2548.263672 6966.000000
2549.216309 7284.000000
2550.168701 6771.000000
2551.120605 6909.000000
2552.071777 6398.000000
2553.022217 7676.000000
2553.972168 7252.000000
2554.921875 7374.000000
2555.870850 6615.000000
2556.819336 6280.000000
2557.766602 7120.000000
2558.713867 6313.000000
2559.660400 6540.000000
2560.606445 6790.000000
2561.551514 7400.000000
2562.496338 6757.000000
2563.440674 7199.000000
2564.384521 6820.000000
2565.327881 6661.000000
2566.269775 6597.000000
2567.211914 6582.000000
2568.153320 6178.000000
2569.093994 7169.000000
2570.033936 7243.000000
2570.973877 5718.000000
2571.912842 6128.000000
2572.851563 7500.000000
2573.789307 7198.000000
2574.726807 5438.000000
2575.663574 7033.000000
2576.599609 6769.000000
2577.535156 7517.000000
2578.469971 6356.000000
2579.404785 6001.000000
2580.338623 7074.000000
2581.271973 7235.000000
2582.204590 5835.000000
2583.136963 6965.000000
2584.068604 5450.000000
2584.999756 7044.000000
2585.930420 7051.000000
2586.859863 6914.000000
2587.789307 7187.000000
2588.718262 6513.000000
2589.646973 7468.000000
2590.573975 7394.000000
2591.501221 5904.000000
2592.427979 6798.000000
2593.354004 6274.000000
2594.279785 5617.000000
2595.204346 7649.000000
2596.128662 7637.000000
2597.052490 5368.000000
2597.975830 7364.000000
2598.898193 6287.000000
2599.820313 6830.000000
2600.741943 8302.000000
2601.662842 6404.000000
2602.583008 5804.000000
2603.502930 6343.000000
2604.422363 6424.000000
2605.341553 6472.000000
2606.259766 5865.000000
2607.176758 6021.000000
2608.093994 7327.000000
2609.010986 5937.000000
2609.927002 7592.000000
2610.841797 6683.000000
2611.757080 6627.000000
2612.671631 6507.000000
2613.585205 6530.000000
2614.498779 6088.000000
2615.411133 7554.000000
2616.323486 7071.000000
2617.234863 6822.000000
2618.145996 5696.000000
2619.056396 7161.000000
2619.966553 6697.000000
2620.875977 6151.000000
2621.784912 6645.000000
2622.692871 6244.000000
2623.601074 6894.000000
2624.508301 6638.000000
2625.415039 7071.000000
2626.321045 6102.000000
2627.226807 6509.000000
2628.131836 6556.000000
2629.036621 7868.000000
2629.940674 6463.000000
2630.843750 6400.000000
2631.746826 6466.000000
2632.648926 5656.000000
2633.551025 6736.000000
2634.452881 6906.000000
2635.353027 6724.000000
2636.253418 6425.000000
2637.153076 6409.000000
2638.052490 6017.000000
2638.950439 6885.000000
2639.848877 6744.000000
2640.746826 6358.000000
2641.644043 6087.000000
2642.540039 6090.000000
2643.436035 6802.000000
2644.331787 6061.000000
2645.226807 6449.000000
2646.121582 6635.000000
2647.014893 7196.000000
2647.908203 6277.000000
2648.801270 6842.000000
2649.694092 6422.000000
2650.585205 7462.000000
2651.476563 6473.000000
2652.367432 7614.000000
2653.257568 7353.000000
2654.147461 6608.000000
2655.036133 7289.000000
2655.925049 6646.000000
2656.813477 6569.000000
2657.700928 7338.000000
2658.587402 6432.000000
2659.474365 7091.000000
2660.360596 6824.000000
2661.246338 6854.000000
2662.130859 6556.000000
2663.015381 6389.000000
2663.899658 6158.000000
2664.783203 7101.000000
2665.666260 7808.000000
2666.548584 7256.000000
2667.430420 6211.000000
2668.311523 6620.000000
2669.192871 6055.000000
2670.072754 6529.000000
2670.952881 7421.000000
2671.832275 7198.000000
2672.711670 6404.000000
2673.590332 6151.000000
2674.467285 6443.000000
2675.344971 6750.000000
2676.221924 6352.000000
2677.098145 8109.000000
2677.973877 7199.000000
2678.848877 6262.000000
2679.724121 7764.000000
2680.598389 6988.000000
2681.472168 7334.000000
2682.345215 7063.000000
2683.218018 6237.000000
2684.090576 6049.000000
2684.962402 6961.000000
2685.833496 6560.000000
2686.704346 6887.000000
2687.574707 7066.000000
2688.444824 6715.000000
2689.313232 6343.000000
2690.182373 7361.000000
2691.050781 7119.000000
2691.918945 6777.000000
2692.786377 6971.000000
2693.652588 5870.000000
2694.519287 7134.000000
2695.385010 7419.000000
2696.250732 7202.000000
2697.114990 7919.000000
2697.979980 6588.000000
2698.843506 7280.000000
2699.707275 5831.000000
2700.569580 7413.000000
2701.432373 6759.000000
2702.294189 5972.000000
2703.155518 6908.000000
2704.016846 6739.000000
2704.876953 7474.000000
2705.737061 7346.000000
2706.596680 6601.000000
2707.456055 6873.000000
2708.313721 7174.000000
2709.171631 6884.000000
2710.030029 7321.000000
2710.887207 6762.000000
2711.743652 5934.000000
2712.599609 6941.000000
2713.455566 6096.000000
2714.310791 6918.000000
2715.165283 6152.000000
2716.019287 6881.000000
2716.873291 7322.000000
2717.726318 6305.000000
2718.579590 6613.000000
2719.431152 7757.000000
2720.283203 6714.000000
2721.135010 6293.000000
2721.985596 6527.000000
2722.836182 6722.000000
2723.686279 7150.000000
2724.535645 7016.000000
2725.385010 7038.000000
2726.233154 6687.000000
2727.080811 6549.000000
2727.928955 7028.000000
2728.775879 6845.000000
2729.623291 5520.000000
2730.469238 7443.000000
2731.314453 7031.000000
2732.160156 6425.000000
2733.004883 7006.000000
2733.849609 7381.000000
2734.693115 6866.000000
2735.536865 7811.000000
2736.379883 7162.000000
2737.222412 6088.000000
2738.063965 6254.000000
2738.906006 6848.000000
2739.747070 7470.000000
2740.587891 5804.000000
2741.428467 5933.000000
2742.267822 7752.000000
2743.107178 6888.000000
2743.946533 6976.000000
2744.784668 6781.000000
2745.622314 7791.000000
2746.459961 6357.000000
2747.297119 7185.000000
2748.134033 6221.000000
2748.970459 6018.000000
2749.805664 6623.000000
2750.641113 6270.000000
2751.476074 6314.000000
2752.310303 6211.000000
2753.144287 6872.000000
2753.977783 6791.000000
2754.811279 7973.000000
2755.643799 6821.000000
2756.475830 7259.000000
2757.307373 6820.000000
2758.138916 7022.000000
2758.969482 7278.000000
2759.800293 7251.000000
2760.629883 7239.000000
2761.459473 6681.000000
2762.288818 7317.000000
2763.117432 6928.000000
2763.945557 6810.000000
2764.773193 6962.000000
2765.600830 6614.000000
2766.427979 7910.000000
2767.254395 5764.000000
2768.080322 7452.000000
2768.905762 6828.000000
2769.730957 7793.000000
2770.556152 7080.000000
2771.380127 6769.000000
2772.204102 6524.000000
2773.028076 7604.000000
2773.850830 6630.000000
2774.673828 6976.000000
2775.495605 7030.000000
2776.317383 6980.000000
2777.139160 6516.000000
2777.959961 7989.000000
2778.780029 6569.000000
2779.600342 6997.000000
2780.420166 7297.000000
2781.239990 6417.000000
2782.057861 5967.000000
2782.876953 8051.000000
2783.694824 6502.000000
2784.512451 6786.000000
2785.329590 7102.000000
2786.146240 7279.000000
2786.962646 7203.000000
2787.778564 6261.000000
2788.594238 5920.000000
2789.408936 6392.000000
2790.224121 7023.000000
2791.038574 7195.000000
2791.852539 6602.000000
2792.666260 7452.000000
2793.478760 8856.000000
2794.291504 6991.000000
2795.103760 7439.000000
2795.915527 7245.000000
2796.726563 7344.000000
2797.538330 6516.000000
2798.348877 7215.000000
2799.159424 7038.000000
2799.968506 7390.000000
2800.778320 8153.000000
2801.587402 7788.000000
2802.396240 6650.000000
2803.204590 7201.000000
2804.011963 6125.000000
2804.819824 6523.000000
2805.626953 6768.000000
2806.433838 7025.000000
2807.239502 7103.000000
2808.045654 6674.000000
2808.851074 6486.000000
2809.656494 7344.000000
2810.461182 6182.000000
2811.264893 7674.000000
2812.069092 7457.000000
2812.872803 6285.000000
2813.676270 6085.000000
2814.478271 6337.000000
2815.281006 7289.000000
2816.083008 7811.000000
2816.884766 6126.000000
2817.686035 6550.000000
2818.486816 7263.000000
2819.287109 6515.000000
2820.087646 6655.000000
2820.887207 7993.000000
2821.686279 7228.000000
2822.485352 6450.000000
2823.284180 6875.000000
2824.082520 6338.000000
2824.879883 7078.000000
2825.677490 6984.000000
2826.474365 6744.000000
2827.271484 7354.000000
2828.067871 7997.000000
2828.863525 7021.000000
2829.659180 7337.000000
2830.454590 7844.000000
2831.249512 7472.000000
2832.043701 6703.000000
2832.837891 6782.000000
2833.631836 5726.000000
2834.425293 6885.000000
2835.218018 7160.000000
2836.010498 8174.000000
2836.802979 7640.000000
2837.595215 7537.000000
2838.386963 6454.000000
2839.177734 6696.000000
2839.968506 8841.000000
2840.759521 7544.000000
2841.549561 6231.000000
2842.339111 7716.000000
2843.128906 7188.000000
2843.917725 7310.000000
2844.706543 7833.000000
2845.495361 7687.000000
2846.283203 7561.000000
2847.070557 7232.000000
2847.858154 7501.000000
2848.645264 7327.000000
2849.431641 6702.000000
2850.218018 7446.000000
2851.004150 7228.000000
2851.789795 7542.000000
2852.574463 7175.000000
2853.359619 6921.000000
2854.144531 7512.000000
2854.928711 7096.000000
2855.712891 6976.000000
2856.495850 8323.000000
2857.279053 6790.000000
2858.062012 6785.000000
2858.844482 7804.000000
2859.626709 6360.000000
2860.408447 6598.000000
2861.189941 7644.000000
2861.971680 7507.000000
2862.752686 7669.000000
2863.532959 6593.000000
2864.312988 6749.000000
2865.093018 8197.000000
2865.872803 7491.000000
2866.651611 8058.000000
2867.430664 7635.000000
2868.209229 6791.000000
2868.987549 6895.000000
2869.765381 7230.000000
2870.542969 7028.000000
2871.320313 7506.000000
2872.097412 6978.000000
2872.874023 6426.000000
2873.650146 7525.000000
2874.426270 7265.000000
2875.201904 8353.000000
2875.977295 7345.000000
2876.752197 6688.000000
2877.526855 8195.000000
2878.301514 6774.000000
2879.075928 7927.000000
2879.849609 6870.000000
2880.622559 7345.000000
2881.396240 6903.000000
2882.168945 7644.000000
2882.941650 7887.000000
2883.713623 8285.000000
2884.485352 6206.000000
2885.257568 6803.000000
2886.028564 6920.000000
2886.799072 6158.000000
2887.570068 8371.000000
2888.341064 7356.000000
2889.111328 8031.000000
2889.880615 7616.000000
2890.650146 6953.000000
2891.419678 7202.000000
2892.188721 7357.000000
2892.957275 7903.000000
2893.725830 7696.000000
2894.493408 6943.000000
2895.261475 6593.000000
2896.029053 7475.000000
2896.796631 8391.000000
2897.562988 7384.000000
2898.330322 6539.000000
2899.096436 7202.000000
2899.862793 7042.000000
2900.627686 8351.000000
2901.393066 6949.000000
2902.158936 6482.000000
2902.923340 7817.000000
2903.687744 7712.000000
2904.452393 8394.000000
2905.216064 6578.000000
2905.980469 8465.000000
2906.744141 6678.000000
2907.507080 8369.000000
2908.269775 6529.000000
2909.032959 9041.000000
2909.795654 7031.000000
2910.557129 6836.000000
2911.319092 6836.000000
