scanname Analyse114
timestamp 2017-02-10 23:01:06
ccdbias 953.356445
ccdgain 3.473401
sigmaread 8.960639
laserwavenum -0.541585
wavenumcorrection -0.018621
scancount 1
totalexposurems 10000
singleexposurems 10000
measurementstate Unknown
scanmode Manual
snr 251.941025 7.047789 6.132044
replacelist 5
374 48970.000000 15020.000000
672 38236.000000 30679.000000
673 35127.000000 5621.000000
753 33048.000000 5631.000000
754 34204.000000 18905.000000
peaks 53
278.410339 0.686253 0.000000 1.340605 0.000173
285.205444 0.686417 0.000000 0.743825 0.000057
293.607971 0.688585 0.000000 0.642734 0.000029
303.005981 0.689674 0.000000 0.137989 0.000021
331.848175 0.706257 0.000000 0.777692 0.000134
342.419006 0.707351 0.000000 0.645173 0.000030
352.017822 0.711168 0.000000 0.450269 0.000019
361.486908 0.713344 0.000000 0.394835 0.000018
386.339752 0.718159 0.000000 1.439576 0.000303
417.469299 0.698171 0.000000 1.090139 0.000262
463.639771 0.730694 0.000000 0.571317 0.000031
487.882111 0.741629 0.000000 0.776317 0.000102
534.278503 0.741638 0.000000 0.691248 0.000149
559.552307 0.775342 0.000000 1.207622 0.000213
574.411560 0.781787 0.000000 0.287013 0.000049
583.704285 0.778163 0.000000 0.815211 0.000117
660.686462 0.794127 0.000000 1.153749 0.000110
673.358887 0.793531 0.000000 1.411310 0.000264
715.643982 0.796589 0.000000 5.194037 0.001064
721.104675 0.777762 0.000000 1.072613 0.000046
742.172852 0.795461 0.000000 0.916997 0.000102
752.421448 0.798739 0.000000 0.834535 0.000041
764.983582 0.814673 0.000000 1.483784 0.000457
773.653564 0.815217 0.000000 3.711311 0.000429
802.358459 0.775726 0.000000 2.307332 0.000153
829.919678 0.780292 0.000000 0.847182 0.000103
853.075439 0.793851 0.000000 0.831714 0.000227
869.707947 0.792964 0.000000 0.749746 0.000144
937.033325 0.799251 0.000000 0.986020 0.000271
954.676575 0.792973 0.000000 3.613581 0.001003
1011.514465 0.760183 0.000000 0.950072 0.000189
1028.374756 0.772848 0.000000 0.870669 0.000184
1034.978516 0.770176 0.000000 0.269449 0.000039
1044.783081 0.782971 0.000000 3.914720 0.001159
1060.669678 0.758853 0.000000 0.712060 0.000062
1085.915894 0.747152 0.000000 0.667244 0.000113
1102.286621 0.746261 0.000000 1.133320 0.000339
1121.590820 0.757681 0.000000 0.702422 0.000178
1135.881104 0.759880 0.000000 1.746064 0.000699
1149.896484 0.751113 0.000000 1.909297 0.000732
1172.616455 0.741247 0.000000 0.688414 0.000274
1178.983154 0.739177 0.000000 0.602403 0.000086
1211.411743 0.739319 0.000000 0.669160 0.000096
1229.254028 0.744165 0.000000 0.851641 0.000085
1235.319092 0.745426 0.000000 1.416025 0.000310
1259.768066 0.747100 0.000000 2.053267 0.000604
1277.376709 0.727646 0.000000 0.486128 0.000428
1317.696167 0.802868 0.000000 12.947769 0.003327
1354.459717 0.724172 0.000000 0.696228 0.000114
1454.538452 0.714668 0.000000 0.433540 0.000142
1614.146362 0.679002 0.000000 2.362062 0.000717
1664.852417 0.690695 0.000000 9.408664 0.005264
1749.748901 0.643458 0.000000 3.730090 0.001829
finalresult GLS_NoMatch 0
spectrum 2048
-97.059868 44662.000000
-94.432999 44662.000000
-91.808006 45411.000000
-89.184906 45586.000000
-86.563675 46490.000000
-83.944344 46288.000000
-81.326874 46632.000000
-78.711281 46502.000000
-76.097565 46668.000000
-73.485725 47165.000000
-70.875748 47016.000000
-68.267654 47197.000000
-65.661407 47232.000000
-63.057041 47252.000000
-60.454533 47066.000000
-57.853878 47604.000000
-55.255085 46945.000000
-52.658150 46396.000000
-50.063068 46744.000000
-47.469841 46671.000000
-44.878464 46913.000000
-42.288933 46413.000000
-39.701244 47259.000000
-37.115406 47172.000000
-34.531410 46774.000000
-31.949249 47447.000000
-29.368937 46766.000000
-26.790451 47445.000000
-24.213808 46951.000000
-21.638990 46772.000000
-19.066013 46541.000000
-16.494856 46511.000000
-13.925533 46222.000000
-11.358035 45189.000000
-8.792356 46548.000000
-6.228501 46238.000000
-3.666461 46646.000000
-1.106245 46684.000000
1.452163 46170.000000
4.008750 45188.000000
6.563532 44952.000000
9.116497 44905.000000
11.667662 43420.000000
14.217013 42340.000000
16.764570 40828.000000
19.310314 40525.000000
21.854265 39677.000000
24.396412 37713.000000
26.936762 35987.000000
29.475327 32759.000000
32.012093 29466.000000
34.547058 23525.000000
37.080246 13614.000000
39.611652 7829.000000
42.141266 7451.000000
44.669083 7895.000000
47.195141 6918.000000
49.719410 5751.000000
52.241909 4570.000000
54.762611 4334.000000
57.281559 4533.000000
59.798733 5212.000000
62.314129 7102.000000
64.827751 8297.000000
67.339615 8996.000000
69.849731 6434.000000
72.358055 3688.000000
74.864624 3004.000000
77.369446 2594.000000
79.872513 2036.000000
82.373802 1913.000000
84.873352 1855.000000
87.371147 1763.000000
89.867210 1812.000000
92.361496 2092.000000
94.854042 2245.000000
97.344872 2415.000000
99.833931 2138.000000
102.321243 1868.000000
104.806831 1408.000000
107.290680 1261.000000
109.772781 1250.000000
112.253159 1259.000000
114.731812 1219.000000
117.208740 1224.000000
119.683914 1238.000000
122.157379 1253.000000
124.629112 1194.000000
127.099136 1323.000000
129.567398 1469.000000
132.033997 1652.000000
134.498840 1799.000000
136.961990 2093.000000
139.423401 2450.000000
141.883118 3001.000000
144.341110 3764.000000
146.797409 4759.000000
149.251999 5974.000000
151.704865 7272.000000
154.156052 8915.000000
156.605545 10823.000000
159.053314 12713.000000
161.499374 15097.000000
163.943756 16915.000000
166.386459 19065.000000
168.827469 20686.000000
171.266769 22813.000000
173.704361 23782.000000
176.140320 25571.000000
178.574539 26311.000000
181.007080 27056.000000
183.437973 28478.000000
185.867142 29931.000000
188.294662 32203.000000
190.720505 34795.000000
193.144669 35589.000000
195.567169 36240.000000
197.987976 37086.000000
200.407120 38685.000000
202.824600 40277.000000
205.240387 39898.000000
207.654526 41484.000000
210.067032 42643.000000
212.477859 43418.000000
214.887009 43637.000000
217.294525 42800.000000
219.700333 44357.000000
222.104553 44118.000000
224.507065 44155.000000
226.907959 43938.000000
229.307205 44544.000000
231.704788 44154.000000
234.100708 43812.000000
236.495010 44623.000000
238.887650 45273.000000
241.278671 44284.000000
243.668030 44625.000000
246.055771 44812.000000
248.441864 44241.000000
250.826324 45166.000000
253.209137 43431.000000
255.590378 44589.000000
257.969910 44540.000000
260.347870 44794.000000
262.724152 43680.000000
265.098877 43758.000000
267.471954 43438.000000
269.843384 45043.000000
272.213165 44768.000000
274.581390 45389.000000
276.947968 44863.000000
279.312958 44483.000000
281.676331 45169.000000
284.038055 45004.000000
286.398193 44159.000000
288.756714 45309.000000
291.113647 44742.000000
293.468964 44841.000000
295.822693 45328.000000
298.174774 45283.000000
300.525299 44871.000000
302.874237 44883.000000
305.221527 44421.000000
307.567291 44872.000000
309.911377 44857.000000
312.253937 43882.000000
314.594879 43735.000000
316.934204 44121.000000
319.271973 44324.000000
321.608185 43111.000000
323.942749 44891.000000
326.275757 44654.000000
328.607208 45210.000000
330.937073 44493.000000
333.265350 44761.000000
335.592010 43895.000000
337.917175 44700.000000
340.240723 44972.000000
342.562714 45199.000000
344.883148 43645.000000
347.201965 43393.000000
349.519226 45133.000000
351.834961 45368.000000
354.149109 44295.000000
356.461670 44850.000000
358.772675 44811.000000
361.082153 44238.000000
363.390106 44847.000000
365.696442 45593.000000
368.001190 44853.000000
370.304474 44865.000000
372.606140 44924.000000
374.906311 44874.000000
377.204926 44945.000000
379.501984 45561.000000
381.797485 45211.000000
384.091461 45493.000000
386.383850 46165.000000
388.674744 45766.000000
390.964111 45178.000000
393.251892 45094.000000
395.538147 44922.000000
397.822906 44486.000000
400.106049 45405.000000
402.387756 44997.000000
404.667938 45221.000000
406.946533 44100.000000
409.223602 44973.000000
411.499146 44654.000000
413.773163 44978.000000
416.045746 45030.000000
418.316711 45108.000000
420.586182 44837.000000
422.854156 44163.000000
425.120575 44007.000000
427.385498 44916.000000
429.648956 44933.000000
431.910828 44719.000000
434.171234 45149.000000
436.430084 44614.000000
438.687469 45012.000000
440.943359 45410.000000
443.197754 45277.000000
445.450623 45650.000000
447.701935 44172.000000
449.951843 45119.000000
452.200165 44856.000000
454.447052 45450.000000
456.692474 44604.000000
458.936340 44559.000000
461.178711 44253.000000
463.419586 45512.000000
465.659058 44380.000000
467.896942 45583.000000
470.133392 45210.000000
472.368317 45050.000000
474.601776 43737.000000
476.833801 44333.000000
479.064301 45411.000000
481.293304 44596.000000
483.520844 44749.000000
485.746887 45146.000000
487.971497 44517.000000
490.194641 45246.000000
492.416321 44700.000000
494.636444 44429.000000
496.855164 45500.000000
499.072388 44807.000000
501.288239 45563.000000
503.502472 44956.000000
505.715393 44574.000000
507.926727 44669.000000
510.136627 44222.000000
512.345093 44614.000000
514.552185 44512.000000
516.757690 44609.000000
518.961792 44490.000000
521.164368 44852.000000
523.365540 44436.000000
525.565369 44324.000000
527.763672 44058.000000
529.960449 45635.000000
532.155884 45117.000000
534.349792 45371.000000
536.542358 43361.000000
538.733398 44228.000000
540.923035 44853.000000
543.111267 43898.000000
545.297974 43730.000000
547.483215 43907.000000
549.667175 44473.000000
551.849548 44382.000000
554.030579 44448.000000
556.210083 44700.000000
558.388306 44786.000000
560.565002 44730.000000
562.740295 44263.000000
564.914185 44312.000000
567.086609 44764.000000
569.257629 44677.000000
571.427185 44333.000000
573.595459 45494.000000
575.762207 44413.000000
577.927490 44423.000000
580.091370 44658.000000
582.253967 45049.000000
584.415039 44792.000000
586.574707 45179.000000
588.733032 45030.000000
590.889832 44701.000000
593.045288 44251.000000
595.199341 45091.000000
597.352051 44605.000000
599.503235 43519.000000
601.653076 44074.000000
603.801575 44106.000000
605.948486 44687.000000
608.094177 44226.000000
610.238464 44270.000000
612.381287 43667.000000
614.522644 44548.000000
616.662781 44217.000000
618.801392 43011.000000
620.938721 44828.000000
623.074585 43958.000000
625.209045 43568.000000
627.342041 43230.000000
629.473877 43777.000000
631.604248 43733.000000
633.733215 43608.000000
635.860718 43724.000000
637.986938 44053.000000
640.111633 42873.000000
642.235107 43766.000000
644.357239 43208.000000
646.477905 43284.000000
648.597229 43521.000000
650.715149 44277.000000
652.831726 44313.000000
654.946899 43493.000000
657.060730 43517.000000
659.173096 44166.000000
661.284241 43885.000000
663.393982 44595.000000
665.502258 43957.000000
667.609375 43745.000000
669.715027 43240.000000
671.819214 44406.000000
673.922180 44327.000000
676.023743 43078.000000
678.123962 44710.000000
680.222778 43323.000000
682.320251 43839.000000
684.416443 43093.000000
686.511169 43833.000000
688.604675 42967.000000
690.696838 43330.000000
692.787476 41918.000000
694.876892 43213.000000
696.965027 43318.000000
699.051697 43690.000000
701.137146 42896.000000
703.221069 44249.000000
705.303772 43567.000000
707.385193 43509.000000
709.465149 41856.000000
711.543884 43005.000000
713.621155 43642.000000
715.697144 42639.000000
717.771851 43106.000000
719.845276 42293.000000
721.917175 42841.000000
723.987915 41728.000000
726.057312 43258.000000
728.125305 42507.000000
730.191956 42586.000000
732.257385 41877.000000
734.321472 43164.000000
736.384216 42751.000000
738.445618 42290.000000
740.505737 42271.000000
742.564453 42807.000000
744.621948 42248.000000
746.678162 42370.000000
748.732971 42107.000000
750.786499 42430.000000
752.838623 41394.000000
754.889526 43076.000000
756.939209 42145.000000
758.987427 42431.000000
761.034424 42668.000000
763.080139 41852.000000
765.124451 43563.000000
767.167480 43169.000000
769.209290 42584.500000
771.249756 42000.000000
773.288818 42388.000000
775.326721 42666.000000
777.363281 42810.000000
779.398621 43495.000000
781.432617 43076.000000
783.465210 42009.000000
785.496643 43363.000000
787.526672 37247.000000
789.555420 42837.000000
791.583008 42364.000000
793.609253 42338.000000
795.634094 42781.000000
797.657837 42946.000000
799.680176 42167.000000
801.701294 42591.000000
803.721069 41768.000000
805.739563 43457.000000
807.756836 41528.000000
809.772705 41367.000000
811.787415 42287.000000
813.800781 41348.000000
815.812927 41486.000000
817.823853 41452.000000
819.833435 40738.000000
821.841797 41910.000000
823.848755 41328.000000
825.854492 40928.000000
827.859009 41104.000000
829.862244 41081.000000
831.864197 40216.000000
833.864868 40543.000000
835.864319 40640.000000
837.862427 40131.000000
839.859436 39558.000000
841.855042 40200.000000
843.849487 40223.000000
845.842590 39983.000000
847.834473 39350.000000
849.825012 40532.000000
851.814270 39248.000000
853.802490 40070.000000
855.789307 40433.000000
857.774902 39724.000000
859.759216 38951.000000
861.742432 39920.000000
863.724243 39824.000000
865.704834 40387.000000
867.684143 38536.000000
869.662292 39158.000000
871.639099 40125.000000
873.614624 40380.000000
875.589111 40110.000000
877.562134 40339.000000
879.534119 40855.000000
881.504761 39882.000000
883.474243 40132.000000
885.442383 40701.000000
887.409363 40825.000000
889.375000 39858.000000
891.339478 40099.000000
893.302734 39824.000000
895.264771 39229.000000
897.225525 39815.000000
899.185059 39132.000000
901.143311 38741.000000
903.100464 39003.000000
905.056458 39063.000000
907.011047 38151.000000
908.964417 38344.000000
910.916626 38145.000000
912.867615 38099.000000
914.817322 37243.000000
916.765869 37829.000000
918.713196 37749.000000
920.659241 37690.000000
922.604004 37603.000000
924.547729 37223.000000
926.490295 37513.000000
928.431580 37866.000000
930.371521 36921.000000
932.310364 37621.000000
934.247925 37849.000000
936.184265 37494.000000
938.119446 37655.000000
940.053345 37570.000000
941.986145 37762.000000
943.917725 36946.000000
945.848145 38477.000000
947.777344 37406.000000
949.705200 36811.000000
951.632019 37228.000000
953.557556 37927.000000
955.481812 38538.000000
957.404968 37988.000000
959.326965 37370.000000
961.247681 36855.000000
963.167236 37545.000000
965.085632 38719.000000
967.002991 37540.000000
968.918884 37571.000000
970.833679 37718.000000
972.747253 37845.000000
974.659668 37382.000000
976.570862 37240.000000
978.480896 38154.000000
980.389648 37399.000000
982.297363 37429.000000
984.203857 37108.000000
986.109131 37740.000000
988.013306 36539.000000
989.916260 37002.000000
991.817993 36266.000000
993.718567 36700.000000
995.617981 36120.000000
997.516174 37213.000000
999.413208 35580.000000
1001.309021 35573.000000
1003.203674 34053.000000
1005.097229 36064.000000
1006.989502 34315.000000
1008.880859 35148.000000
1010.770874 35691.000000
1012.659668 34454.000000
1014.547302 34836.000000
1016.433777 34110.000000
1018.319092 34200.000000
1020.203247 34793.000000
1022.086182 34900.000000
1023.968079 34496.000000
1025.848755 35509.000000
1027.728271 34945.000000
1029.606812 34797.000000
1031.484009 35577.000000
1033.359863 34869.000000
1035.234741 35266.000000
1037.108643 34731.000000
1038.981079 34231.000000
1040.852539 34650.000000
1042.722656 35741.000000
1044.591797 35880.000000
1046.459717 35838.000000
1048.326538 34738.000000
1050.192261 35139.000000
1052.056763 35454.000000
1053.920166 35411.000000
1055.782227 35397.000000
1057.643311 36025.000000
1059.503296 35451.000000
1061.361938 35285.000000
1063.219482 36037.000000
1065.075928 35187.000000
1066.931274 35890.000000
1068.785400 35979.000000
1070.638672 35499.000000
1072.490479 35317.000000
1074.341309 35474.000000
1076.190918 35380.000000
1078.039307 35666.000000
1079.886841 33447.000000
1081.733032 35602.000000
1083.578003 34731.000000
1085.422119 35376.000000
1087.264893 35128.000000
1089.106445 34146.000000
1090.947266 34972.000000
1092.786499 34478.000000
1094.625000 34156.000000
1096.462158 34005.000000
1098.298096 32972.000000
1100.133057 32773.000000
1101.966797 33636.000000
1103.799561 33507.000000
1105.630981 33014.000000
1107.461548 31997.000000
1109.290771 32394.000000
1111.119019 32065.000000
1112.946045 31353.000000
1114.772095 32877.000000
1116.596924 32154.000000
1118.420654 31432.000000
1120.243164 32391.000000
1122.064575 32546.000000
1123.885132 32746.000000
1125.704224 32300.000000
1127.522461 32020.000000
1129.339355 32191.000000
1131.155396 32432.000000
1132.970215 32544.000000
1134.783936 33385.000000
1136.596558 33376.000000
1138.407959 33738.000000
1140.218384 33443.000000
1142.027710 32967.000000
1143.835693 32718.000000
1145.642944 33480.000000
1147.448730 33307.000000
1149.253662 33749.000000
1151.057495 33814.000000
1152.860107 33112.000000
1154.661865 33095.000000
1156.462158 33021.000000
1158.261475 32879.000000
1160.059814 32976.000000
1161.856812 33283.000000
1163.653076 32719.000000
1165.447998 32513.000000
1167.241821 32139.000000
1169.034790 30679.000000
1170.826416 32569.000000
1172.617065 31435.000000
1174.406738 31922.000000
1176.194946 32013.000000
1177.982300 30655.000000
1179.768555 31117.000000
1181.553711 31931.000000
1183.337769 31719.000000
1185.120728 30070.000000
1186.902710 31710.000000
1188.683472 31481.000000
1190.463257 30978.000000
1192.241943 30395.000000
1194.019653 30420.000000
1195.796143 29676.000000
1197.571533 29961.000000
1199.345825 29771.000000
1201.119019 29553.000000
1202.891357 29524.000000
1204.662354 29153.000000
1206.432495 30070.000000
1208.201416 29585.000000
1209.969238 29294.000000
1211.736206 29761.000000
1213.501831 29662.000000
1215.266479 28813.000000
1217.030029 29062.000000
1218.792480 29676.000000
1220.554077 28926.000000
1222.314453 29621.000000
1224.073730 29239.000000
1225.832153 29579.000000
1227.589355 28728.000000
1229.345459 29341.000000
1231.100464 30215.000000
1232.854614 29927.000000
1234.607422 30105.000000
1236.359253 30024.000000
1238.110229 30127.000000
1239.859863 31249.000000
1241.608643 29453.000000
1243.356079 29950.000000
1245.102783 29812.000000
1246.848267 29799.000000
1248.592896 29753.000000
1250.336182 29206.000000
1252.078491 28992.000000
1253.819702 30001.000000
1255.560059 30019.000000
1257.299316 29302.000000
1259.037354 28636.000000
1260.774536 28197.000000
1262.510498 29262.000000
1264.245483 29138.000000
1265.979492 28560.000000
1267.712524 29949.000000
1269.444336 29815.000000
1271.175171 29624.000000
1272.904785 28840.000000
1274.633545 30004.000000
1276.361206 30189.000000
1278.087769 30265.000000
1279.813477 30240.000000
1281.537842 29380.000000
1283.261353 30656.000000
1284.983887 28981.000000
1286.705444 29354.000000
1288.425781 29688.000000
1290.145142 29036.000000
1291.863403 28399.000000
1293.580688 29034.000000
1295.296997 29576.000000
1297.012085 28856.000000
1298.726196 29053.000000
1300.439331 29350.000000
1302.151611 28472.000000
1303.862671 26656.000000
1305.572754 29216.000000
1307.281738 28378.000000
1308.989502 28180.000000
1310.696655 27915.000000
1312.402344 29169.000000
1314.107300 28388.000000
1315.811279 29411.000000
1317.514038 29953.000000
1319.215820 29839.000000
1320.916748 30870.000000
1322.616333 28729.000000
1324.315063 29117.500000
1326.013062 17027.500000
1327.709717 26498.000000
1329.405273 25751.000000
1331.099976 25850.000000
1332.793457 26622.000000
1334.486084 26948.000000
1336.177856 25580.000000
1337.868286 26290.000000
1339.557983 25972.000000
1341.246582 26361.000000
1342.934082 25044.000000
1344.620605 26684.000000
1346.306030 25773.000000
1347.990479 26548.000000
1349.674072 25650.000000
1351.356445 26469.000000
1353.037842 27055.000000
1354.718384 26751.000000
1356.397705 26695.000000
1358.076416 27628.000000
1359.753784 27030.000000
1361.430054 27786.000000
1363.105347 27910.000000
1364.779907 27015.000000
1366.453247 27201.000000
1368.125610 26820.000000
1369.796997 28239.000000
1371.467407 26608.000000
1373.136719 27094.000000
1374.805054 27389.000000
1376.472534 27224.000000
1378.138916 26630.000000
1379.804321 26855.000000
1381.468750 26868.000000
1383.131958 26647.000000
1384.794556 26861.000000
1386.455811 26276.000000
1388.116211 26014.000000
1389.775513 26105.000000
1391.433838 26034.000000
1393.091431 25779.000000
1394.747803 26120.000000
1396.403320 25653.000000
1398.057617 26234.000000
1399.711060 26572.000000
1401.363403 26467.000000
1403.015015 26148.000000
1404.665405 25310.000000
1406.314697 25764.000000
1407.963257 24561.000000
1409.610718 23934.000000
1411.257202 24639.000000
1412.902832 24447.000000
1414.547485 24680.000000
1416.190918 24026.000000
1417.833496 23925.000000
1419.474976 23834.000000
1421.115601 23985.000000
1422.755249 23917.000000
1424.393799 24107.000000
1426.031494 23614.000000
1427.668091 23557.000000
1429.303711 23645.000000
1430.938599 23361.000000
1432.572388 23355.000000
1434.205078 23296.000000
1435.836792 23499.000000
1437.467651 23422.000000
1439.097412 23850.000000
1440.726074 22825.000000
1442.354126 23553.000000
1443.981079 23486.000000
1445.606812 23509.000000
1447.231934 23585.000000
1448.855957 23491.000000
1450.479004 23817.000000
1452.101074 24340.000000
1453.722046 23858.000000
1455.342041 25151.000000
1456.961304 25486.000000
1458.579224 20392.500000
1460.196533 25807.000000
1461.812866 24197.000000
1463.427979 23190.000000
1465.042236 23400.000000
1466.655640 24157.000000
1468.267944 24209.000000
1469.879395 24057.000000
1471.489990 23912.000000
1473.099365 24056.000000
1474.707764 24163.000000
1476.315308 24203.000000
1477.921875 23838.000000
1479.527710 24445.000000
1481.132324 23900.000000
1482.736084 23961.000000
1484.338623 22975.000000
1485.940552 22683.000000
1487.541260 22578.000000
1489.141235 22328.000000
1490.740112 22162.000000
1492.338135 22282.000000
1493.935059 22318.000000
1495.531128 23073.000000
1497.126221 23644.000000
1498.720337 23853.000000
1500.313721 23308.000000
1501.906006 23571.000000
1503.497070 23349.000000
1505.087646 22936.000000
1506.676880 22958.000000
1508.265503 22916.000000
1509.853027 22543.000000
1511.439453 22322.000000
1513.025146 22756.000000
1514.609741 22296.000000
1516.193481 22457.000000
1517.776123 22462.000000
1519.358032 22373.000000
1520.938843 22339.000000
1522.518921 22095.000000
1524.097778 21854.000000
1525.675781 21640.000000
1527.253052 21423.000000
1528.829102 21422.000000
1530.404419 21470.000000
1531.978638 21381.000000
1533.552124 21300.000000
1535.124390 21367.000000
1536.695923 21167.000000
1538.266479 21123.000000
1539.836182 21017.000000
1541.404663 21352.000000
1542.972412 21006.000000
1544.539307 20951.000000
1546.104980 20810.000000
1547.669922 20862.000000
1549.233765 20732.000000
1550.796997 20384.000000
1552.358887 20682.000000
1553.920166 20688.000000
1555.480347 20717.000000
1557.039795 20608.000000
1558.598145 20561.000000
1560.155762 20320.000000
1561.712280 20265.000000
1563.267578 20347.000000
1564.822266 20448.000000
1566.376221 20502.000000
1567.929199 20417.000000
1569.480835 20450.000000
1571.031738 20591.000000
1572.581909 20663.000000
1574.131104 20471.000000
1575.678955 20678.000000
1577.226318 20572.000000
1578.772705 20758.000000
1580.318237 20662.000000
1581.862793 20682.000000
1583.406128 20493.000000
1584.948853 20728.000000
1586.490723 20440.000000
1588.031494 20497.000000
1589.571289 20720.000000
1591.110352 20598.000000
1592.648315 20349.000000
1594.185791 20303.000000
1595.721924 20582.000000
1597.256958 20408.000000
1598.791504 20057.000000
1600.325073 20027.000000
1601.857788 20211.000000
1603.388916 20331.000000
1604.919800 20237.000000
1606.449829 20370.000000
1607.978638 19891.000000
1609.506348 20182.000000
1611.033447 20233.000000
1612.559814 20298.000000
1614.085205 20196.000000
1615.609741 20149.000000
1617.132935 20044.000000
1618.655396 20046.000000
1620.177124 20263.000000
1621.697998 22263.000000
1623.217407 16374.000000
1624.736328 19683.000000
1626.254517 19732.000000
1627.771851 19794.000000
1629.288086 19747.000000
1630.802979 19483.000000
1632.317383 19341.000000
1633.831055 19441.000000
1635.343628 19263.000000
1636.854980 19322.000000
1638.365967 19098.000000
1639.875854 19218.000000
1641.384888 19219.000000
1642.892578 19075.000000
1644.399902 18948.000000
1645.906372 18820.000000
1647.411865 18753.000000
1648.916504 18815.000000
1650.419678 18618.000000
1651.922241 18659.000000
1653.424438 18484.000000
1654.925293 18386.000000
1656.425049 18165.000000
1657.923950 18141.000000
1659.422485 18217.000000
1660.919800 18093.000000
1662.416382 18008.000000
1663.911377 17975.000000
1665.406128 17955.000000
1666.900024 17929.000000
1668.392944 21830.000000
1669.884521 12408.000000
1671.375610 17430.000000
1672.866089 17323.000000
1674.355469 17210.000000
1675.843384 17176.000000
1677.331055 17211.000000
1678.817749 17453.000000
1680.303589 17605.000000
1681.788574 17329.000000
1683.272095 16901.000000
1684.755371 16826.000000
1686.237793 16878.000000
1687.719116 17093.000000
1689.198975 16907.000000
1690.678589 16910.000000
1692.157471 16803.000000
1693.635376 17300.000000
1695.112305 16805.000000
1696.588013 16962.000000
1698.063354 16831.000000
1699.537476 16751.000000
1701.010986 16829.000000
1702.483032 16874.000000
1703.954834 16756.000000
1705.425659 16797.000000
1706.895630 16918.000000
1708.364258 17082.000000
1709.832397 17056.000000
1711.299805 17036.000000
1712.766113 16858.000000
1714.231812 16837.000000
1715.695801 17037.000000
1717.159668 16945.000000
1718.622681 16892.000000
1720.084717 16900.000000
1721.545532 16973.000000
1723.005737 17074.000000
1724.465210 17185.000000
1725.923828 16816.000000
1727.381470 16860.000000
1728.837769 16802.000000
1730.293823 16980.000000
1731.748901 16851.000000
1733.203003 16912.000000
1734.655884 16779.000000
1736.108521 16688.000000
1737.560059 16669.000000
1739.010864 16547.000000
1740.460693 16492.000000
1741.909180 16506.000000
1743.357300 16441.000000
1744.804565 16290.000000
1746.251099 16302.000000
1747.696045 16261.000000
1749.140747 16284.000000
1750.584595 16415.000000
1752.027588 16368.000000
1753.469116 16133.000000
1754.910400 18979.000000
1756.350830 12320.000000
1757.790283 15998.000000
1759.228760 15873.000000
1760.666260 15717.000000
1762.103271 15494.000000
1763.539307 15451.000000
1764.974487 15671.000000
1766.408203 15606.000000
1767.841797 15782.000000
1769.274414 15571.000000
1770.706177 15833.000000
1772.137085 15722.000000
1773.566772 15652.000000
1774.995728 15088.000000
1776.424194 15022.000000
1777.851685 14410.000000
1779.277832 13935.000000
1780.703735 14832.000000
1782.128540 14788.000000
1783.552734 14784.000000
1784.975464 14688.000000
1786.397705 14531.000000
1787.819214 14756.000000
1789.239990 14591.000000
1790.659790 14428.000000
1792.078247 14592.000000
1793.496216 14411.000000
1794.913574 14373.000000
1796.330078 14403.000000
1797.745117 14393.000000
1799.159790 14364.000000
1800.573853 14166.000000
1801.986694 14391.000000
1803.398926 14206.000000
1804.809814 14183.000000
1806.220215 14044.000000
1807.629883 14132.000000
1809.038574 14181.000000
1810.446167 14204.000000
1811.853271 14270.000000
1813.259521 14239.000000
1814.664795 14415.000000
1816.068970 14230.000000
1817.472778 14251.000000
1818.875610 14429.000000
1820.277588 14302.000000
1821.678955 14246.000000
1823.078857 14263.000000
1824.478149 14235.000000
1825.876953 14238.000000
1827.274902 14157.000000
1828.671509 14156.000000
1830.067505 14225.000000
1831.462769 14202.000000
1832.857422 14065.000000
1834.251099 14139.000000
1835.643433 14112.000000
1837.035278 14006.000000
1838.426514 14001.000000
1839.816772 13945.000000
1841.205811 13974.000000
1842.594482 13995.000000
1843.982178 13904.000000
1845.369141 13898.000000
1846.754761 13855.000000
1848.140137 13887.000000
1849.524658 13691.000000
1850.908447 13757.000000
1852.291138 13584.000000
1853.672607 13578.000000
1855.053589 13377.000000
1856.434082 13318.000000
1857.813599 13361.000000
1859.191650 13380.000000
1860.569580 13352.000000
1861.946533 13250.000000
1863.322754 13036.000000
1864.698120 13017.000000
1866.072021 13044.000000
1867.445801 12859.000000
1868.818726 12860.000000
1870.190552 12796.000000
1871.561401 12541.000000
1872.931885 12679.000000
1874.301270 12577.000000
1875.670166 12569.000000
1877.037476 12468.000000
1878.404663 12473.000000
1879.770874 12453.000000
1881.136353 12467.000000
1882.501099 12246.000000
1883.864258 12264.000000
1885.227295 12354.000000
1886.589478 12266.000000
1887.950806 12246.000000
1889.310791 12239.000000
1890.670410 12160.000000
1892.029419 12085.000000
1893.387451 12169.000000
1894.744629 11976.000000
1896.100586 12109.000000
1897.456299 12003.000000
1898.811035 12047.000000
1900.164917 12143.000000
1901.517700 12160.000000
1902.869995 12117.000000
1904.221558 12091.000000
1905.572266 12169.000000
1906.921753 12074.000000
1908.270752 12120.000000
1909.618896 12146.000000
1910.966431 12022.000000
1912.313232 11963.000000
1913.658447 12077.000000
1915.003418 12093.000000
1916.347656 12193.000000
1917.691040 12155.000000
1919.033081 12075.000000
1920.374878 12159.000000
1921.715820 12023.000000
1923.056030 12050.000000
1924.395264 11989.000000
1925.733521 11918.000000
1927.071167 12045.000000
1928.408081 12091.000000
1929.744141 11959.000000
1931.078979 11974.000000
1932.413452 11972.000000
1933.747192 11714.000000
1935.080078 11738.000000
1936.411499 11657.000000
1937.743042 11663.000000
1939.073242 11615.000000
1940.402954 11755.000000
1941.731812 11685.000000
1943.059448 11883.000000
1944.386597 11609.000000
1945.713013 11730.000000
1947.038696 11574.000000
1948.363037 11722.000000
1949.687134 11571.000000
1951.010376 11513.000000
1952.332886 11511.000000
1953.654297 11348.000000
1954.974731 11260.000000
1956.294556 11495.000000
1957.614014 11329.000000
1958.932495 11306.000000
1960.249634 11412.000000
1961.566406 10952.000000
1962.882446 10991.000000
1964.197754 11166.000000
1965.511597 11088.000000
1966.825195 11027.000000
1968.138062 10860.000000
1969.450073 11027.000000
1970.761475 11020.000000
1972.071533 10881.000000
1973.381104 10706.000000
1974.689941 10513.000000
1975.998169 10562.000000
1977.305054 10625.000000
1978.611328 10547.000000
1979.917236 10632.000000
1981.221924 10765.000000
1982.526123 10544.000000
1983.829102 10465.000000
1985.131714 10538.000000
1986.433350 10356.000000
1987.734375 10207.000000
1989.033813 10137.000000
1990.333374 10093.000000
1991.631836 10007.000000
1992.929810 9931.000000
1994.226196 9999.000000
1995.522583 9978.000000
1996.817993 9987.000000
1998.112671 9821.000000
1999.406494 9799.000000
2000.699097 9681.000000
2001.991211 9712.000000
2003.282837 9599.000000
2004.573730 9658.000000
2005.863037 9542.000000
2007.152100 9546.000000
2008.440430 9656.000000
2009.728027 9699.000000
2011.014771 9885.000000
2012.300415 9560.000000
2013.585693 9540.000000
2014.869995 9541.000000
2016.153687 9603.000000
2017.436035 9502.000000
2018.718018 9505.000000
2019.999512 9544.000000
2021.280029 9469.000000
2022.559814 9318.000000
2023.838501 9391.000000
2025.116455 9382.000000
2026.393921 9491.000000
2027.670776 9387.000000
2028.945923 9525.000000
2030.221191 9502.000000
2031.495483 9588.000000
2032.768799 9582.000000
2034.041260 9538.000000
2035.313354 9499.000000
2036.584351 9520.000000
2037.855103 9496.000000
2039.124512 9557.000000
2040.392822 9556.000000
2041.661133 9549.000000
2042.928467 9452.000000
2044.195068 9460.000000
2045.460449 9615.000000
2046.725220 9433.000000
2047.989746 9319.000000
2049.252930 9199.000000
2050.515869 9416.000000
2051.776855 9315.000000
2053.038330 9174.000000
2054.298584 9162.000000
2055.558105 9098.000000
2056.816895 9104.000000
2058.074707 9019.000000
2059.332031 9051.000000
2060.588623 9005.000000
2061.843750 9037.000000
2063.098877 9071.000000
2064.353027 8961.000000
2065.606445 8885.000000
2066.859131 8822.000000
2068.110596 8865.000000
2069.361816 8907.000000
2070.612305 8933.000000
2071.862061 8947.000000
2073.110352 8924.000000
2074.358643 8685.000000
2075.605957 8691.000000
2076.852539 8605.000000
2078.098389 8686.000000
2079.343018 8684.000000
2080.587158 8534.000000
2081.830811 8530.000000
2083.073486 8451.000000
2084.314941 8384.000000
2085.556152 8440.000000
2086.796875 8475.000000
2088.036621 8308.000000
2089.275146 8351.000000
2090.513184 8248.000000
2091.750488 8361.000000
2092.987549 8298.000000
2094.223145 8219.000000
2095.458008 8126.000000
2096.692627 8283.000000
2097.926270 8359.000000
2099.158936 8197.000000
2100.390869 8110.000000
2101.622314 8188.000000
2102.852783 8082.000000
2104.082520 8018.000000
2105.312012 8071.000000
2106.539551 7897.000000
2107.767334 7891.000000
2108.994385 7847.000000
2110.220459 7825.000000
2111.445068 7873.000000
2112.669922 7671.000000
2113.893555 7614.000000
2115.116699 7889.000000
2116.338623 7799.000000
2117.560303 7897.000000
2118.781006 7849.000000
2120.000977 7892.000000
2121.220459 7873.000000
2122.438477 7858.000000
2123.656494 7842.000000
2124.873535 7926.000000
2126.090088 7948.000000
2127.304932 7945.000000
2128.520020 7785.000000
2129.734131 7893.000000
2130.947510 7661.000000
2132.160156 7483.000000
2133.371338 7735.000000
2134.582764 7703.000000
2135.792969 7698.000000
2137.002686 7574.000000
2138.210938 7730.000000
2139.419189 7755.000000
2140.626709 7623.000000
2141.833008 7689.000000
2143.038574 7728.000000
2144.243896 7445.000000
2145.448242 7610.000000
2146.651855 7563.000000
2147.854980 7526.000000
2149.056641 7557.000000
2150.258057 7615.000000
2151.458740 7601.000000
2152.658691 7417.000000
2153.857422 7537.000000
2155.055908 7531.000000
2156.253906 7449.000000
2157.450928 7326.000000
2158.647217 7310.000000
2159.842285 7294.000000
2161.037109 7205.000000
2162.231201 7149.000000
2163.424316 7167.000000
2164.616455 7064.000000
2165.808350 7093.000000
2166.999512 7021.000000
2168.189697 6870.000000
2169.379150 6774.000000
2170.568115 6852.000000
2171.756104 6727.000000
2172.943848 6726.000000
2174.130127 6659.000000
2175.315674 6523.000000
2176.500977 6517.000000
2177.685791 6631.000000
2178.869385 6608.000000
2180.052246 6538.000000
2181.234131 6474.000000
2182.415771 6543.000000
2183.596924 6615.000000
2184.776855 6457.000000
2185.955811 6580.000000
2187.134277 6363.000000
2188.312500 6327.000000
2189.489502 6442.000000
2190.665527 6406.000000
2191.841309 6472.000000
2193.016602 6445.000000
2194.190430 6542.000000
2195.363770 6483.000000
2196.536865 6416.000000
2197.708740 6408.000000
2198.880127 6537.000000
2200.051025 6472.000000
2201.220215 6541.000000
2202.389404 6347.000000
2203.558105 6501.000000
2204.725830 6530.000000
2205.892578 6376.000000
2207.058594 6442.000000
2208.224121 6418.000000
2209.389404 6326.000000
2210.553223 6392.000000
2211.716553 6463.000000
2212.878662 6251.000000
2214.041016 6369.000000
2215.202148 6349.000000
2216.362305 6332.000000
2217.521973 6358.000000
2218.681396 6311.000000
2219.839600 6206.000000
2220.996826 6218.000000
2222.153809 6044.000000
2223.310059 6068.000000
2224.465576 6119.000000
2225.620361 6048.000000
2226.774170 6080.000000
2227.927002 6124.000000
2229.080322 6124.000000
2230.231689 6025.000000
2231.382813 5909.000000
2232.533203 6093.000000
2233.683105 6103.000000
2234.832031 5903.000000
2235.980469 6007.000000
2237.127441 5903.000000
2238.274658 5875.000000
2239.420654 5707.000000
2240.566406 5718.000000
2241.710449 5610.000000
2242.854736 5618.000000
2243.998047 5517.000000
2245.140625 5606.000000
2246.282227 5640.000000
2247.423584 5576.000000
2248.563965 5504.000000
2249.703613 5486.000000
2250.842773 5436.000000
2251.980713 5384.000000
2253.118652 5371.000000
2254.255615 5408.000000
2255.391846 5332.000000
2256.527100 5241.000000
2257.661621 5248.000000
2258.795898 5341.000000
2259.929688 5528.000000
2261.062012 5523.000000
2262.193848 5314.000000
2263.325195 5227.000000
2264.455566 5010.000000
2265.585693 5101.000000
2266.714600 5054.000000
2267.843018 5015.000000
2268.970947 5049.000000
2270.097900 5044.000000
2271.224121 5009.000000
2272.349365 5004.000000
2273.474609 5038.000000
2274.599121 4957.000000
2275.722412 5064.000000
2276.844971 5022.000000
2277.967041 5025.000000
2279.088623 4908.000000
2280.209473 4946.000000
2281.329102 5008.000000
2282.448242 4932.000000
2283.567139 5022.000000
2284.685303 4743.000000
2285.802490 4796.000000
2286.918701 4691.000000
2288.034668 4903.000000
2289.149902 4881.000000
2290.264404 4973.000000
2291.377686 4872.000000
2292.490967 4937.000000
2293.603516 4966.000000
2294.715332 4950.000000
2295.826416 4962.000000
2296.936279 4921.000000
2298.045654 4918.000000
2299.154785 4919.000000
2300.262939 4973.000000
2301.370117 5024.000000
2302.477051 4998.000000
2303.583252 4899.000000
2304.688965 4934.000000
2305.793213 4935.000000
2306.897217 4973.000000
2308.000732 4840.000000
2309.103760 4853.000000
2310.205566 4833.000000
2311.306641 4802.000000
2312.407227 4842.000000
2313.507324 4819.000000
2314.606689 4717.000000
2315.704590 4625.000000
2316.802979 4692.000000
2317.899902 4712.000000
2318.996582 4769.000000
2320.092773 4771.000000
2321.187256 4714.000000
2322.281738 4533.000000
2323.375488 4649.000000
2324.468994 4545.000000
2325.560791 4597.000000
2326.652588 4740.000000
2327.743652 4610.000000
2328.833984 4637.000000
2329.923340 4678.000000
2331.012695 4607.000000
2332.100830 4531.000000
2333.188477 4559.000000
2334.275879 4590.000000
2335.361572 4459.000000
2336.447021 4570.000000
2337.532227 4367.000000
2338.616455 4301.000000
2339.699707 4360.000000
2340.782715 4326.000000
2341.864746 4268.000000
2342.946533 4257.000000
2344.027588 4174.000000
2345.107422 4160.000000
2346.186768 4232.000000
2347.265625 4225.000000
2348.343994 4350.000000
2349.420898 4169.000000
2350.497559 4180.000000
2351.573975 4129.000000
2352.649414 4122.000000
2353.723877 4156.000000
2354.798096 4121.000000
2355.871582 4073.000000
2356.944580 4038.000000
2358.016357 4124.000000
2359.087891 4004.000000
2360.158447 4033.000000
2361.228760 4042.000000
2362.298096 3901.000000
2363.366455 3923.000000
2364.434570 3935.000000
2365.501953 3866.000000
2366.568848 3967.000000
2367.635010 3863.000000
2368.699951 3862.000000
2369.764893 3790.000000
2370.829102 3837.000000
2371.892578 3950.000000
2372.954834 3810.000000
2374.017090 3808.000000
2375.078369 3804.000000
2376.139404 3775.000000
2377.199219 3748.000000
2378.258301 3781.000000
2379.317383 3843.000000
2380.375488 3808.000000
2381.432861 3802.000000
2382.489258 3704.000000
2383.545410 3754.000000
2384.601074 3734.000000
2385.656006 3540.000000
2386.709473 3665.000000
2387.763184 3712.000000
2388.815918 3729.000000
2389.868164 3620.000000
2390.919678 3757.000000
2391.970215 3737.000000
2393.020508 3613.000000
2394.069824 3702.000000
2395.119141 3693.000000
2396.166992 3779.000000
2397.214355 3651.000000
2398.261475 3745.000000
2399.307617 3653.000000
2400.353027 3627.000000
2401.397705 3541.000000
2402.442383 3614.000000
2403.485596 3651.000000
2404.528809 3694.000000
2405.570557 3693.000000
2406.612549 3569.000000
2407.653809 3736.000000
2408.694092 3711.000000
2409.733643 3641.000000
2410.772217 3610.000000
2411.811035 3643.000000
2412.848633 3612.000000
2413.885986 3530.000000
2414.922119 3542.000000
2415.958008 3604.000000
2416.993164 3633.000000
2418.027832 3583.000000
2419.061035 3643.000000
2420.094482 3523.000000
2421.126953 3556.000000
2422.159180 3586.000000
2423.189941 3526.000000
2424.220703 3571.000000
2425.250977 3489.000000
2426.280029 3471.000000
2427.309082 3548.000000
2428.336426 3499.000000
2429.364258 3478.000000
2430.390869 3458.000000
2431.417236 3382.000000
2432.442139 3365.000000
2433.467285 3366.000000
2434.491455 3317.000000
2435.515381 3320.000000
2436.538086 3264.000000
2437.560059 3390.000000
2438.581787 3384.000000
2439.602783 3206.000000
2440.623291 3240.000000
2441.642578 3236.000000
2442.661865 3213.000000
2443.680176 3231.000000
2444.698242 3221.000000
2445.714844 3124.000000
2446.731445 3145.000000
2447.747314 3109.000000
2448.763184 3066.000000
2449.777588 3110.000000
2450.791260 3072.000000
2451.804443 3125.000000
2452.817383 3146.000000
2453.829590 3027.000000
2454.840820 3169.000000
2455.851807 3000.000000
2456.862061 3069.000000
2457.871826 3020.000000
2458.880615 3066.000000
2459.888672 3066.000000
2460.896729 2956.000000
2461.903564 2894.000000
2462.910156 2972.000000
2463.915527 3004.000000
2464.920654 2908.000000
2465.925537 2912.000000
2466.929199 2928.000000
2467.932617 2825.000000
2468.935059 3041.000000
2469.937256 2979.000000
2470.938965 2847.000000
2471.939697 2904.000000
2472.939453 2778.000000
2473.939209 2893.000000
2474.937988 2862.000000
2475.936279 2874.000000
2476.933594 2796.000000
2477.930664 2840.000000
2478.927734 2857.000000
2479.923340 2981.000000
2480.918945 2828.000000
2481.912842 2816.000000
2482.906738 2777.000000
2483.900146 2850.000000
2484.893066 2790.000000
2485.885010 2925.000000
2486.876221 2884.000000
2487.867188 2802.000000
2488.857666 2917.000000
2489.847168 2932.000000
2490.835938 2838.000000
2491.824707 2847.000000
2492.812500 2801.000000
2493.799072 2881.000000
2494.785645 2820.000000
2495.771729 2724.000000
2496.757080 2757.000000
2497.741455 2782.000000
2498.725586 2811.000000
2499.709717 2751.000000
2500.692383 2812.000000
2501.674561 2819.000000
2502.656250 2737.000000
2503.637207 2937.000000
2504.617676 2750.000000
2505.597900 2729.000000
2506.576660 2777.000000
2507.555176 2775.000000
2508.533203 2721.000000
2509.510742 2733.000000
2510.487305 2834.000000
2511.463623 2709.000000
2512.439209 2671.000000
2513.414307 2679.000000
2514.388916 2793.000000
2515.362305 2631.000000
2516.335449 2702.000000
2517.308350 2734.000000
2518.280273 2590.000000
2519.251465 2582.000000
2520.222168 2718.000000
2521.192627 2671.000000
2522.162354 2612.000000
2523.131104 2605.000000
2524.099121 2556.000000
2525.067139 2604.000000
2526.034180 2542.000000
2527.000977 2577.000000
2527.966553 2619.000000
2528.932129 2580.000000
2529.896973 2508.000000
2530.861328 2504.000000
2531.824463 2543.000000
2532.787842 2485.000000
2533.750244 2579.000000
2534.712402 2469.000000
2535.673340 2548.000000
2536.633545 2550.000000
2537.593994 2530.000000
2538.553467 2497.000000
2539.512207 2487.000000
2540.469971 2544.000000
2541.427979 2489.000000
2542.385254 2417.000000
2543.341553 2406.000000
2544.297607 2351.000000
2545.252441 2464.000000
2546.207520 2270.000000
2547.161865 2374.000000
2548.115479 2052.000000
2549.068115 2370.000000
2550.020508 2344.000000
2550.972412 2263.000000
2551.923584 2265.000000
2552.874023 2424.000000
2553.823975 2291.000000
2554.773682 2287.000000
2555.722656 2187.000000
2556.671143 2326.000000
2557.618408 2240.000000
2558.565674 2202.000000
2559.512207 2286.000000
2560.458252 2230.000000
2561.403320 2148.000000
2562.348145 2119.000000
2563.292480 2175.000000
2564.236328 2168.000000
2565.179688 2168.000000
2566.121582 2208.000000
2567.063721 2198.000000
2568.005127 2281.000000
2568.945801 2232.000000
2569.885742 2144.000000
2570.825684 2127.000000
2571.764648 2244.000000
2572.703369 2126.000000
2573.641113 2191.000000
2574.578613 2261.000000
2575.515381 2183.000000
2576.451416 2219.000000
2577.386963 2156.000000
2578.321777 2110.000000
2579.256592 2146.000000
2580.190430 2238.000000
2581.123779 2410.000000
2582.056396 2276.000000
2582.988770 2080.000000
2583.920410 2092.000000
2584.851563 2116.000000
2585.782227 2221.000000
2586.711670 2127.000000
2587.641113 2096.000000
2588.570068 2143.000000
2589.498779 1993.000000
2590.425781 2070.000000
2591.353027 2146.000000
2592.279785 2061.000000
2593.205811 2066.000000
2594.131592 2037.000000
2595.056152 2095.000000
2595.980469 2028.000000
2596.904297 2034.000000
2597.827637 2076.000000
2598.750000 2133.000000
2599.672119 2109.000000
2600.593750 2028.000000
2601.514648 2089.000000
2602.434814 2061.000000
2603.354736 2150.000000
2604.274170 2177.000000
2605.193359 2095.000000
2606.111572 2014.000000
2607.028564 2021.000000
2607.945801 2049.000000
2608.862793 2079.000000
2609.778809 1898.000000
2610.693604 1993.000000
2611.608887 1950.000000
2612.523438 1951.000000
2613.437012 1945.000000
2614.350586 2132.000000
2615.262939 2042.000000
2616.175293 2045.000000
2617.086670 2019.000000
2617.997803 1949.000000
2618.908203 1975.000000
2619.818359 1897.000000
2620.727783 1879.000000
2621.636719 2006.000000
2622.544678 1914.000000
2623.452881 1835.000000
2624.360107 1923.000000
2625.266846 1973.000000
2626.172852 2003.000000
2627.078613 1832.000000
2627.983643 1894.000000
2628.888428 1853.000000
2629.792480 1999.000000
2630.695557 1859.000000
2631.598633 1844.000000
2632.500732 1849.000000
2633.402832 1826.000000
2634.304688 1706.000000
2635.204834 1778.000000
2636.105225 1855.000000
2637.004883 1850.000000
2637.904297 1864.000000
2638.802246 1836.000000
2639.700684 1891.000000
2640.598633 1733.000000
2641.495850 1829.000000
2642.391846 1748.000000
2643.287842 1700.000000
2644.183594 1815.000000
2645.078613 1762.000000
2645.973389 1701.000000
2646.866699 1620.000000
2647.760010 1659.000000
2648.653076 1650.000000
2649.545898 1756.000000
2650.437012 1601.000000
2651.328369 1723.000000
2652.219238 1613.000000
2653.109375 1604.000000
2653.999268 1685.000000
2654.887939 1694.000000
2655.776855 1574.000000
2656.665283 1647.000000
2657.552734 1736.000000
2658.439209 1715.000000
2659.326172 1631.000000
2660.212402 1756.000000
2661.098145 1577.000000
2661.982666 1640.000000
2662.867188 1675.000000
2663.751465 1666.000000
2664.635010 1612.000000
2665.518066 1581.000000
2666.400391 1611.000000
2667.282227 1694.000000
2668.163330 1680.000000
2669.044678 1635.000000
2669.924561 1599.000000
2670.804688 1606.000000
2671.684082 1593.000000
2672.563477 1648.000000
2673.442139 1681.000000
2674.319092 1598.000000
2675.196777 1616.000000
2676.073730 1646.000000
2676.949951 1628.000000
2677.825684 1574.000000
2678.700684 1615.000000
2679.575928 1584.000000
2680.450195 1535.000000
2681.323975 1508.000000
2682.197021 1488.000000
2683.069824 1494.000000
2683.942383 1612.000000
2684.814209 1599.000000
2685.685303 1564.000000
2686.556152 1596.000000
2687.426514 1524.000000
2688.296631 1477.000000
2689.165039 1530.000000
2690.034180 1584.000000
2690.902588 1512.000000
2691.770752 1557.000000
2692.638184 1470.000000
2693.504395 1531.000000
2694.371094 1507.000000
2695.236816 1529.000000
2696.102539 1495.000000
2696.966797 1451.000000
2697.831787 1485.000000
2698.695313 1411.000000
2699.559082 1527.000000
2700.421387 1394.000000
2701.284180 1497.000000
2702.145996 1422.000000
2703.007324 1422.000000
2703.868652 1505.000000
2704.728760 1436.000000
2705.588867 1466.000000
2706.448486 1440.000000
2707.307861 1408.000000
2708.165527 1374.000000
2709.023438 1412.000000
2709.881836 1301.000000
2710.739014 1356.000000
2711.595459 1368.000000
2712.451416 1307.000000
2713.307373 1343.000000
2714.162598 1318.000000
2715.017090 1460.000000
2715.871094 1264.000000
2716.725098 1323.000000
2717.578125 1343.000000
2718.431396 1379.000000
2719.282959 1388.000000
2720.135010 1276.000000
2720.986816 1366.000000
2721.837402 1426.000000
2722.687988 1325.000000
2723.538086 1372.000000
2724.387451 1360.000000
2725.236816 1272.000000
2726.084961 1296.000000
2726.932617 1334.000000
2727.780762 1276.000000
2728.627686 1336.000000
2729.475098 1348.000000
2730.321045 1352.000000
2731.166260 1331.000000
2732.011963 1228.000000
2732.856689 1228.000000
2733.701416 1232.000000
2734.544922 1233.000000
2735.388672 1238.000000
2736.231689 1268.000000
2737.074219 1245.000000
2737.915771 1281.000000
2738.757813 1199.000000
2739.598877 1232.000000
2740.439697 1263.000000
2741.280273 1311.000000
2742.119629 1342.000000
2742.958984 1263.000000
2743.798340 1248.000000
2744.636475 1366.000000
2745.474121 1277.000000
2746.311768 1260.000000
2747.148926 1334.000000
2747.985840 1293.000000
2748.822266 1260.000000
2749.657471 1238.000000
2750.492920 1261.000000
2751.327881 1236.000000
2752.162109 1141.000000
2752.996094 1251.000000
2753.829590 1120.000000
2754.663086 1245.000000
2755.495605 1208.000000
2756.327637 1230.000000
2757.159180 1229.000000
2757.990723 1231.000000
2758.821289 1165.000000
2759.652100 1252.000000
2760.481689 1289.000000
2761.311279 1218.000000
2762.140625 1085.000000
2762.969238 1183.000000
2763.797363 1169.000000
2764.625000 1163.000000
2765.452637 1181.000000
2766.279785 1186.000000
2767.106201 1241.000000
2767.932129 1189.000000
2768.757568 1165.000000
2769.582764 1077.000000
2770.407959 1067.000000
2771.231934 1158.000000
2772.055908 1063.000000
2772.879883 1166.000000
2773.702637 1099.000000
2774.525635 1161.000000
2775.347412 1075.000000
2776.169189 1065.000000
2776.990967 1085.000000
2777.811768 1118.000000
2778.631836 1070.000000
2779.452148 1206.000000
2780.271973 1078.000000
2781.091797 1019.000000
2781.909668 1148.000000
2782.728760 901.000000
2783.546631 1156.000000
2784.364258 1083.000000
2785.181396 1170.000000
2785.998047 1021.000000
2786.814453 1047.000000
2787.630371 1047.000000
2788.446045 1038.000000
2789.260742 1036.000000
2790.075928 1006.000000
2790.890381 1027.000000
2791.704346 1074.000000
2792.518066 1089.000000
2793.330566 1021.000000
2794.143311 1061.000000
2794.955566 1038.000000
2795.767334 1016.000000
2796.578369 1022.000000
2797.390137 981.000000
2798.200684 1034.000000
2799.011230 1100.000000
2799.820313 1037.000000
2800.630127 924.000000
2801.439209 1017.000000
2802.248047 983.000000
2803.056396 1001.000000
2803.863770 977.000000
2804.671631 1092.000000
2805.478760 1043.000000
2806.285645 982.000000
2807.091309 967.000000
2807.897461 954.000000
2808.702881 928.000000
2809.508301 977.000000
2810.312988 936.000000
2811.116699 1019.000000
2811.920898 995.000000
2812.724609 987.000000
2813.528076 906.000000
2814.330078 984.000000
2815.132813 963.000000
2815.934814 1070.000000
2816.736572 934.000000
2817.537842 1044.000000
2818.338623 856.000000
2819.138916 922.000000
2819.939453 935.000000
2820.739014 812.000000
2821.538086 993.000000
2822.337158 872.000000
2823.135986 985.000000
2823.934326 918.000000
2824.731689 976.000000
2825.529297 926.000000
2826.326172 916.000000
2827.123291 955.000000
2827.919678 924.000000
2828.715332 880.000000
2829.510986 928.000000
2830.306396 936.000000
2831.101318 887.000000
2831.895508 973.000000
2832.689697 879.000000
2833.483643 989.000000
2834.277100 883.000000
2835.069824 918.000000
2835.862305 977.000000
2836.654785 909.000000
2837.447021 902.000000
2838.238770 885.000000
2839.029541 833.000000
2839.820313 809.000000
2840.611328 889.000000
2841.401367 944.000000
2842.190918 849.000000
2842.980713 962.000000
2843.769531 810.000000
2844.558350 841.000000
2845.347168 824.000000
2846.135010 786.000000
2846.922363 884.000000
2847.709961 832.000000
2848.497070 842.000000
2849.283447 840.000000
2850.069824 852.000000
2850.855957 823.000000
2851.641602 893.000000
2852.426270 811.000000
2853.211426 828.000000
2853.996338 848.000000
2854.780518 791.000000
2855.564697 863.000000
2856.347656 891.000000
2857.130859 753.000000
2857.913818 752.000000
2858.696289 798.000000
2859.478516 854.000000
2860.260254 855.000000
2861.041748 810.000000
2861.823486 909.000000
2862.604492 799.000000
2863.384766 764.000000
2864.164795 794.000000
2864.944824 653.000000
2865.724609 826.000000
2866.503418 758.000000
2867.282471 709.000000
2868.061035 788.000000
2868.839355 778.000000
2869.617188 825.000000
2870.394775 785.000000
2871.172119 811.000000
2871.949219 804.000000
2872.725830 831.000000
2873.501953 785.000000
2874.278076 869.000000
2875.053711 766.000000
2875.829102 816.000000
2876.604004 846.000000
2877.378662 750.000000
2878.153320 818.000000
2878.927734 812.000000
2879.701416 761.000000
2880.474365 768.000000
2881.248047 657.000000
2882.020752 784.000000
2882.793457 780.000000
2883.565430 765.000000
2884.337158 759.000000
2885.109375 746.000000
2885.880371 779.000000
2886.650879 736.000000
2887.421875 726.000000
2888.192871 733.000000
2888.963135 775.000000
2889.732422 769.000000
2890.501953 812.000000
2891.271484 693.000000
2892.040527 814.000000
2892.809082 687.000000
2893.577637 798.000000
2894.345215 712.000000
2895.113281 697.000000
2895.880859 768.000000
2896.648438 822.000000
2897.414795 597.000000
2898.182129 740.000000
2898.948242 697.000000
2899.714600 739.000000
2900.479492 693.000000
2901.244873 595.000000
2902.010742 667.000000
2902.775146 618.000000
2903.539551 750.000000
2904.304199 697.000000
2905.067871 711.000000
2905.832275 758.000000
2906.595947 681.000000
2907.358887 660.000000
2908.121582 733.000000
2908.884766 734.000000
2909.647461 680.000000
2910.408936 670.000000
2911.170898 670.000000
spectrumdark 2048
-97.059868 6206.000000
-94.432999 6206.000000
-91.808006 6091.000000
-89.184906 6398.000000
-86.563675 5810.000000
-83.944344 6245.000000
-81.326874 6141.000000
-78.711281 6355.000000
-76.097565 6301.000000
-73.485725 5884.000000
-70.875748 6090.000000
-68.267654 5946.000000
-65.661407 5943.000000
-63.057041 5926.000000
-60.454533 6157.000000
-57.853878 5640.000000
-55.255085 6329.000000
-52.658150 6878.000000
-50.063068 6525.000000
-47.469841 6555.000000
-44.878464 6296.000000
-42.288933 6799.000000
-39.701244 5921.000000
-37.115406 6018.000000
-34.531410 6443.000000
-31.949249 5752.000000
-29.368937 6399.000000
-26.790451 5659.000000
-24.213808 6157.000000
-21.638990 6278.000000
-19.066013 6501.000000
-16.494856 6491.000000
-13.925533 6770.000000
-11.358035 7751.000000
-8.792356 6316.000000
-6.228501 6527.000000
-3.666461 6006.000000
-1.106245 5836.000000
1.452163 6202.000000
4.008750 6944.000000
6.563532 6735.000000
9.116497 6080.000000
11.667662 6717.000000
14.217013 6505.000000
16.764570 6600.000000
19.310314 5990.000000
21.854265 5789.000000
24.396412 6702.000000
26.936762 6747.000000
29.475327 6793.000000
32.012093 6173.000000
34.547058 5799.000000
37.080246 7229.000000
39.611652 6335.000000
42.141266 7126.000000
44.669083 6467.000000
47.195141 7795.000000
49.719410 5699.000000
52.241909 6251.000000
54.762611 6676.000000
57.281559 6215.000000
59.798733 6430.000000
62.314129 6627.000000
64.827751 5622.000000
67.339615 5721.000000
69.849731 6499.000000
72.358055 6521.000000
74.864624 5935.000000
77.369446 6341.000000
79.872513 6498.000000
82.373802 6250.000000
84.873352 6139.000000
87.371147 6395.000000
89.867210 5750.000000
92.361496 7193.000000
94.854042 5797.000000
97.344872 6894.000000
99.833931 7167.000000
102.321243 6373.000000
104.806831 6211.000000
107.290680 6463.000000
109.772781 5761.000000
112.253159 6551.000000
114.731812 6263.000000
117.208740 6458.000000
119.683914 7135.000000
122.157379 6794.000000
124.629112 5918.000000
127.099136 6758.000000
129.567398 6280.000000
132.033997 6310.000000
134.498840 5740.000000
136.961990 6224.000000
139.423401 7268.000000
141.883118 6913.000000
144.341110 6337.000000
146.797409 6028.000000
149.251999 5813.000000
151.704865 6832.000000
154.156052 6382.000000
156.605545 6543.000000
159.053314 6125.000000
161.499374 6534.000000
163.943756 8673.000000
166.386459 6381.000000
168.827469 6746.000000
171.266769 6239.000000
173.704361 7329.000000
176.140320 6670.000000
178.574539 6918.000000
181.007080 7133.000000
183.437973 6715.000000
185.867142 6819.000000
188.294662 6748.000000
190.720505 6356.000000
193.144669 6666.000000
195.567169 7199.000000
197.987976 7255.000000
200.407120 6545.000000
202.824600 6045.000000
205.240387 7617.000000
207.654526 7054.000000
210.067032 6391.000000
212.477859 6062.000000
214.887009 6251.000000
217.294525 7419.000000
219.700333 6120.000000
222.104553 6558.000000
224.507065 6645.000000
226.907959 6966.000000
229.307205 6459.000000
231.704788 6905.000000
234.100708 7296.000000
236.495010 6514.000000
238.887650 5864.000000
241.278671 6906.000000
243.668030 6594.000000
246.055771 6372.000000
248.441864 6965.000000
250.826324 6105.000000
253.209137 7845.000000
255.590378 6669.000000
257.969910 6705.000000
260.347870 6447.000000
262.724152 7595.000000
265.098877 7547.000000
267.471954 7826.000000
269.843384 6215.000000
272.213165 6466.000000
274.581390 5842.000000
276.947968 6339.000000
279.312958 6777.000000
281.676331 6051.000000
284.038055 6241.000000
286.398193 7100.000000
288.756714 5931.000000
291.113647 6527.000000
293.468964 6407.000000
295.822693 5926.000000
298.174774 5956.000000
300.525299 6374.000000
302.874237 6363.000000
305.221527 6815.000000
307.567291 6376.000000
309.911377 6425.000000
312.253937 7333.000000
314.594879 7478.000000
316.934204 7115.000000
319.271973 6921.000000
321.608185 8094.000000
323.942749 6279.000000
326.275757 6496.000000
328.607208 5970.000000
330.937073 6658.000000
333.265350 6361.000000
335.592010 7262.000000
337.917175 6432.000000
340.240723 6205.000000
342.562714 5992.000000
344.883148 7527.000000
347.201965 7813.000000
349.519226 6056.000000
351.834961 5803.000000
354.149109 6888.000000
356.461670 6347.000000
358.772675 6386.000000
361.082153 6996.000000
363.390106 6383.000000
365.696442 5649.000000
368.001190 6374.000000
370.304474 6397.000000
372.606140 6312.000000
374.906311 6390.000000
377.204926 6351.000000
379.501984 5765.000000
381.797485 6106.000000
384.091461 5836.000000
386.383850 5192.000000
388.674744 5587.000000
390.964111 6198.000000
393.251892 6273.000000
395.538147 6492.000000
397.822906 6904.000000
400.106049 6002.000000
402.387756 6420.000000
404.667938 6138.000000
406.946533 7261.000000
409.223602 6392.000000
411.499146 6705.000000
413.773163 6377.000000
416.045746 6261.000000
418.316711 6154.000000
420.586182 6433.000000
422.854156 7111.000000
425.120575 7255.000000
427.385498 6295.000000
429.648956 6252.000000
431.910828 6466.000000
434.171234 6027.000000
436.430084 6546.000000
438.687469 6115.000000
440.943359 5692.000000
443.197754 5813.000000
445.450623 5447.000000
447.701935 6897.000000
449.951843 6015.000000
452.200165 6252.000000
454.447052 5658.000000
456.692474 6426.000000
458.936340 6531.000000
461.178711 6799.000000
463.419586 5592.000000
465.659058 6708.000000
467.896942 5477.000000
470.133392 5874.000000
472.368317 6038.000000
474.601776 7324.000000
476.833801 6688.000000
479.064301 5642.000000
481.293304 6496.000000
483.520844 6308.000000
485.746887 5889.000000
487.971497 6557.000000
490.194641 5840.000000
492.416321 6380.000000
494.636444 6677.000000
496.855164 5607.000000
499.072388 6310.000000
501.288239 5553.000000
503.502472 6117.000000
505.715393 6518.000000
507.926727 6450.000000
510.136627 6872.000000
512.345093 6467.000000
514.552185 6582.000000
516.757690 6416.000000
518.961792 6544.000000
521.164368 6133.000000
523.365540 6590.000000
525.565369 6645.000000
527.763672 6920.000000
529.960449 5333.000000
532.155884 5834.000000
534.349792 5509.000000
536.542358 7542.000000
538.733398 6701.000000
540.923035 6023.000000
543.111267 6920.000000
545.297974 7098.000000
547.483215 6832.000000
549.667175 6262.000000
551.849548 6370.000000
554.030579 6229.000000
556.210083 6004.000000
558.388306 5876.000000
560.565002 5936.000000
562.740295 6389.000000
564.914185 6395.000000
567.086609 5908.000000
569.257629 6016.000000
571.427185 6360.000000
573.595459 5255.000000
575.762207 6318.000000
577.927490 6345.000000
580.091370 6081.000000
582.253967 5741.000000
584.415039 6019.000000
586.574707 5632.000000
588.733032 5807.000000
590.889832 6130.000000
593.045288 6546.000000
595.199341 5723.000000
597.352051 6229.000000
599.503235 7279.000000
601.653076 6740.000000
603.801575 6636.000000
605.948486 6018.000000
608.094177 6466.000000
610.238464 6435.000000
612.381287 6997.000000
614.522644 6133.000000
616.662781 6453.000000
618.801392 7621.000000
620.938721 5742.000000
623.074585 6602.000000
625.209045 6914.000000
627.342041 7210.000000
629.473877 6635.000000
631.604248 6648.000000
633.733215 6760.000000
635.860718 6525.000000
637.986938 6180.000000
640.111633 7295.000000
642.235107 6409.000000
644.357239 6869.000000
646.477905 6778.000000
648.597229 6537.000000
650.715149 5751.000000
652.831726 5686.000000
654.946899 6462.000000
657.060730 6468.000000
659.173096 5811.000000
661.284241 6127.000000
663.393982 5416.000000
665.502258 6053.000000
667.609375 6309.000000
669.715027 6822.000000
671.819214 5655.000000
673.922180 5732.000000
676.023743 6967.000000
678.123962 5346.000000
680.222778 6761.000000
682.320251 6211.000000
684.416443 6945.000000
686.511169 6186.000000
688.604675 6985.000000
690.696838 6586.000000
692.787476 7958.000000
694.876892 6619.000000
696.965027 6492.000000
699.051697 6027.000000
701.137146 6721.000000
703.221069 5288.000000
705.303772 5922.000000
707.385193 5900.000000
709.465149 7519.000000
711.543884 6290.000000
713.621155 5548.000000
715.697144 6572.000000
717.771851 6108.000000
719.845276 6890.000000
721.917175 6317.000000
723.987915 7412.000000
726.057312 5813.000000
728.125305 6481.000000
730.191956 6385.000000
732.257385 7083.000000
734.321472 5741.000000
736.384216 6147.000000
738.445618 6578.000000
740.505737 6591.000000
742.564453 6006.000000
744.621948 6563.000000
746.678162 6447.000000
748.732971 6729.000000
750.786499 6387.000000
752.838623 7457.000000
754.889526 5762.000000
756.939209 6642.000000
758.987427 6382.000000
761.034424 6170.000000
763.080139 7019.000000
765.124451 5345.000000
767.167480 5713.000000
769.209290 6318.500000
771.249756 6924.000000
773.288818 6407.000000
775.326721 6091.000000
777.363281 5962.000000
779.398621 5341.000000
781.432617 5741.000000
783.465210 6874.000000
785.496643 5515.000000
787.526672 11625.000000
789.555420 6003.000000
791.583008 6319.000000
793.609253 6316.000000
795.634094 5855.000000
797.657837 5643.000000
799.680176 6374.000000
801.701294 5899.000000
803.721069 6665.000000
805.739563 4911.000000
807.756836 6698.000000
809.772705 6776.000000
811.787415 5738.000000
813.800781 6462.000000
815.812927 6222.000000
817.823853 6060.000000
819.833435 6529.000000
821.841797 5249.000000
823.848755 5668.000000
825.854492 5997.000000
827.859009 5744.000000
829.862244 5662.000000
831.864197 6475.000000
833.864868 6069.000000
835.864319 5910.000000
837.862427 6397.000000
839.859436 6937.000000
841.855042 6174.000000
843.849487 6050.000000
845.842590 6213.000000
847.834473 6818.000000
849.825012 5547.000000
851.814270 6817.000000
853.802490 6016.000000
855.789307 5675.000000
857.774902 6384.000000
859.759216 7251.000000
861.742432 6302.000000
863.724243 6385.000000
865.704834 5818.000000
867.684143 7729.000000
869.662292 7123.000000
871.639099 6128.000000
873.614624 5902.000000
875.589111 6185.000000
877.562134 5999.000000
879.534119 5479.000000
881.504761 6405.000000
883.474243 6145.000000
885.442383 5510.000000
887.409363 5247.000000
889.375000 6127.000000
891.339478 5811.000000
893.302734 6026.000000
895.264771 6481.000000
897.225525 5838.000000
899.185059 6386.000000
901.143311 6675.000000
903.100464 6309.000000
905.056458 6054.000000
907.011047 6840.000000
908.964417 6533.000000
910.916626 6519.000000
912.867615 6418.000000
914.817322 7096.000000
916.765869 6333.000000
918.713196 6198.000000
920.659241 6135.000000
922.604004 6108.000000
924.547729 6324.000000
926.490295 5955.000000
928.431580 5472.000000
930.371521 6442.000000
932.310364 5773.000000
934.247925 5505.000000
936.184265 5954.000000
938.119446 5829.000000
940.053345 6005.000000
941.986145 5895.000000
943.917725 6771.000000
945.848145 5292.000000
947.777344 6402.000000
949.705200 7079.000000
951.632019 6678.000000
953.557556 5999.000000
955.481812 5360.000000
957.404968 5980.000000
959.326965 6687.000000
961.247681 7217.000000
963.167236 6491.000000
965.085632 5281.000000
967.002991 6408.000000
968.918884 6411.000000
970.833679 6150.000000
972.747253 5931.000000
974.659668 6391.000000
976.570862 6521.000000
978.480896 5494.000000
980.389648 6181.000000
982.297363 6119.000000
984.203857 6359.000000
986.109131 5687.000000
988.013306 6785.000000
989.916260 6207.000000
991.817993 6791.000000
993.718567 6266.000000
995.617981 6602.000000
997.516174 5279.000000
999.413208 6671.000000
1001.309021 6518.000000
1003.203674 7752.000000
1005.097229 5564.000000
1006.989502 7098.000000
1008.880859 6082.000000
1010.770874 5364.000000
1012.659668 6672.000000
1014.547302 6293.000000
1016.433777 6936.000000
1018.319092 6757.000000
1020.203247 6013.000000
1022.086182 5832.000000
1023.968079 6219.000000
1025.848755 5160.000000
1027.728271 5802.000000
1029.606812 6059.000000
1031.484009 5364.000000
1033.359863 6178.000000
1035.234741 5893.000000
1037.108643 6564.000000
1038.981079 7102.000000
1040.852539 6648.000000
1042.722656 5469.000000
1044.591797 5514.000000
1046.459717 5788.000000
1048.326538 7084.000000
1050.192261 6797.000000
1052.056763 6459.000000
1053.920166 6485.000000
1055.782227 6492.000000
1057.643311 5864.000000
1059.503296 6498.000000
1061.361938 6606.000000
1063.219482 5803.000000
1065.075928 6688.000000
1066.931274 5960.000000
1068.785400 5788.000000
1070.638672 6244.000000
1072.490479 6379.000000
1074.341309 6145.000000
1076.190918 6136.000000
1078.039307 5780.000000
1079.886841 7956.000000
1081.733032 5598.000000
1083.578003 6215.000000
1085.422119 5393.000000
1087.264893 5529.000000
1089.106445 6485.000000
1090.947266 5416.000000
1092.786499 5734.000000
1094.625000 6026.000000
1096.462158 6042.000000
1098.298096 6790.000000
1100.133057 6664.000000
1101.966797 5409.000000
1103.799561 5521.000000
1105.630981 6189.000000
1107.461548 7288.000000
1109.290771 6541.000000
1111.119019 6506.000000
1112.946045 7087.000000
1114.772095 5462.000000
1116.596924 6273.000000
1118.420654 7127.000000
1120.243164 6072.000000
1122.064575 5906.000000
1123.885132 5904.000000
1125.704224 6567.000000
1127.522461 7035.000000
1129.339355 6852.000000
1131.155396 6625.000000
1132.970215 6461.000000
1134.783936 5622.000000
1136.596558 5846.000000
1138.407959 5656.000000
1140.218384 6127.000000
1142.027710 6719.000000
1143.835693 6897.000000
1145.642944 5912.000000
1147.448730 5937.000000
1149.253662 5399.000000
1151.057495 5378.000000
1152.860107 6146.000000
1154.661865 6169.000000
1156.462158 6103.000000
1158.261475 6126.000000
1160.059814 5904.000000
1161.856812 5433.000000
1163.653076 5954.000000
1165.447998 6075.000000
1167.241821 6340.000000
1169.034790 7729.000000
1170.826416 5539.000000
1172.617065 6492.000000
1174.406738 5938.000000
1176.194946 5869.000000
1177.982300 7426.000000
1179.768555 6851.000000
1181.553711 5784.000000
1183.337769 5929.000000
1185.120728 7639.000000
1186.902710 5836.000000
1188.683472 5851.000000
1190.463257 6344.000000
1192.241943 6926.000000
1194.019653 6703.000000
1195.796143 7169.000000
1197.571533 6595.000000
1199.345825 6509.000000
1201.119019 6605.000000
1202.891357 6446.000000
1204.662354 6694.000000
1206.432495 5631.000000
1208.201416 6055.000000
1209.969238 6318.000000
1211.736206 5788.000000
1213.501831 5901.000000
1215.266479 6902.000000
1217.030029 6579.000000
1218.792480 5916.000000
1220.554077 6640.000000
1222.314453 5906.000000
1224.073730 6288.000000
1225.832153 6035.000000
1227.589355 7104.000000
1229.345459 6504.000000
1231.100464 5536.000000
1232.854614 5916.000000
1234.607422 5859.000000
1236.359253 6029.000000
1238.110229 5996.000000
1239.859863 4969.000000
1241.608643 7013.000000
1243.356079 6562.000000
1245.102783 6543.000000
1246.848267 6476.000000
1248.592896 6387.000000
1250.336182 6735.000000
1252.078491 6692.000000
1253.819702 5314.000000
1255.560059 5048.000000
1257.299316 5798.000000
1259.037354 6559.000000
1260.774536 7048.000000
1262.510498 6085.000000
1264.245483 6468.000000
1265.979492 7329.000000
1267.712524 6002.000000
1269.444336 6232.000000
1271.175171 6450.000000
1272.904785 7277.000000
1274.633545 5951.000000
1276.361206 5633.000000
1278.087769 5561.000000
1279.813477 5585.000000
1281.537842 6478.000000
1283.261353 5143.000000
1284.983887 6883.000000
1286.705444 6507.000000
1288.425781 6063.000000
1290.145142 6672.000000
1291.863403 7235.000000
1293.580688 6451.000000
1295.296997 5759.000000
1297.012085 6414.000000
1298.726196 6132.000000
1300.439331 5718.000000
1302.151611 6506.000000
1303.862671 8355.000000
1305.572754 5592.000000
1307.281738 6277.000000
1308.989502 6641.000000
1310.696655 7013.000000
1312.402344 5818.000000
1314.107300 6864.000000
1315.811279 6119.000000
1317.514038 5954.000000
1319.215820 6522.000000
1320.916748 6017.000000
1322.616333 8916.000000
1324.315063 7268.500000
1326.013062 18571.500000
1327.709717 6464.000000
1329.405273 7219.000000
1331.099976 6841.000000
1332.793457 5719.000000
1334.486084 5395.000000
1336.177856 7073.000000
1337.868286 6279.000000
1339.557983 6582.000000
1341.246582 6114.000000
1342.934082 7566.000000
1344.620605 5615.000000
1346.306030 6706.000000
1347.990479 5981.000000
1349.674072 7225.000000
1351.356445 6420.000000
1353.037842 5963.000000
1354.718384 6556.000000
1356.397705 6743.000000
1358.076416 5815.000000
1359.753784 6513.000000
1361.430054 5738.000000
1363.105347 5621.000000
1364.779907 6638.000000
1366.453247 6462.000000
1368.125610 6707.000000
1369.796997 5157.000000
1371.467407 6790.000000
1373.136719 6245.000000
1374.805054 5709.000000
1376.472534 5854.000000
1378.138916 6419.000000
1379.804321 6053.000000
1381.468750 5795.000000
1383.131958 5914.000000
1384.794556 5640.000000
1386.455811 6323.000000
1388.116211 6643.000000
1389.775513 6434.000000
1391.433838 6497.000000
1393.091431 6864.000000
1394.747803 6510.000000
1396.403320 6998.000000
1398.057617 6324.000000
1399.711060 5890.000000
1401.363403 6120.000000
1403.015015 6461.000000
1404.665405 7148.000000
1406.314697 6217.000000
1407.963257 7432.000000
1409.610718 7836.000000
1411.257202 6171.000000
1412.902832 6249.000000
1414.547485 5954.000000
1416.190918 7025.000000
1417.833496 7112.000000
1419.474976 6818.000000
1421.115601 6471.000000
1422.755249 6480.000000
1424.393799 5975.000000
1426.031494 6656.000000
1427.668091 6332.000000
1429.303711 6007.000000
1430.938599 6377.000000
1432.572388 5898.000000
1434.205078 6072.000000
1435.836792 5628.000000
1437.467651 6095.000000
1439.097412 6031.000000
1440.726074 7749.000000
1442.354126 5948.000000
1443.981079 6109.000000
1445.606812 6142.000000
1447.231934 6134.000000
1448.855957 6514.000000
1450.479004 6089.000000
1452.101074 5994.000000
1453.722046 7336.000000
1455.342041 6324.000000
1456.961304 6776.000000
1458.579224 12840.500000
1460.196533 5571.500000
1461.812866 5512.000000
1463.427979 7160.000000
1465.042236 6209.000000
1466.655640 5195.000000
1468.267944 5579.000000
1469.879395 6201.000000
1471.489990 6365.000000
1473.099365 5974.000000
1474.707764 6014.000000
1476.315308 6202.000000
1477.921875 6666.000000
1479.527710 5318.000000
1481.132324 6196.000000
1482.736084 5501.000000
1484.338623 6752.000000
1485.940552 5561.000000
1487.541260 5552.000000
1489.141235 5609.000000
1490.740112 6239.000000
1492.338135 6537.000000
1493.935059 6630.000000
1495.531128 6324.000000
1497.126221 6022.000000
1498.720337 5466.000000
1500.313721 6542.000000
1501.906006 5565.000000
1503.497070 5941.000000
1505.087646 6788.000000
1506.676880 6413.000000
1508.265503 6145.000000
1509.853027 6530.000000
1511.439453 6847.000000
1513.025146 6124.000000
1514.609741 6639.000000
1516.193481 6194.000000
1517.776123 6161.000000
1519.358032 6578.000000
1520.938843 6593.000000
1522.518921 6059.000000
1524.097778 6201.000000
1525.675781 6371.000000
1527.253052 6276.000000
1528.829102 5699.000000
1530.404419 5843.000000
1531.978638 6186.000000
1533.552124 5490.000000
1535.124390 5924.000000
1536.695923 6391.000000
1538.266479 6419.000000
1539.836182 6297.000000
1541.404663 5429.000000
1542.972412 6549.000000
1544.539307 5586.000000
1546.104980 6791.000000
1547.669922 5899.000000
1549.233765 5087.000000
1550.796997 7423.000000
1552.358887 6268.000000
1553.920166 5951.000000
1555.480347 5682.000000
1557.039795 5778.000000
1558.598145 5926.000000
1560.155762 6248.000000
1561.712280 7082.000000
1563.267578 5884.000000
1564.822266 6308.000000
1566.376221 5641.000000
1567.929199 6332.000000
1569.480835 5668.000000
1571.031738 5900.000000
1572.581909 6149.000000
1574.131104 6351.000000
1575.678955 5772.000000
1577.226318 5497.000000
1578.772705 5665.000000
1580.318237 5098.000000
1581.862793 6583.000000
1583.406128 6376.000000
1584.948853 6554.000000
1586.490723 6415.000000
1588.031494 6680.000000
1589.571289 5810.000000
1591.110352 6600.000000
1592.648315 5916.000000
1594.185791 6035.000000
1595.721924 5837.000000
1597.256958 6689.000000
1598.791504 6204.000000
1600.325073 5964.000000
1601.857788 5810.000000
1603.388916 6267.000000
1604.919800 6450.000000
1606.449829 5749.000000
1607.978638 6152.000000
1609.506348 6201.000000
1611.033447 5991.000000
1612.559814 5884.000000
1614.085205 6206.000000
1615.609741 5749.000000
1617.132935 5742.000000
1618.655396 5639.000000
1620.177124 6565.000000
1621.697998 6941.000000
1623.217407 15582.000000
1624.736328 6137.000000
1626.254517 6022.000000
1627.771851 5923.000000
1629.288086 6410.000000
1630.802979 7037.000000
1632.317383 6699.000000
1633.831055 5732.000000
1635.343628 6811.000000
1636.854980 5944.000000
1638.365967 6435.000000
1639.875854 6226.000000
1641.384888 6164.000000
1642.892578 5646.000000
1644.399902 6096.000000
1645.906372 7091.000000
1647.411865 6252.000000
1648.916504 6760.000000
1650.419678 6124.000000
1651.922241 6541.000000
1653.424438 6334.000000
1654.925293 6629.000000
1656.425049 7469.000000
1657.923950 5956.000000
1659.422485 6527.000000
1660.919800 6228.000000
1662.416382 5950.000000
1663.911377 6394.000000
1665.406128 6316.000000
1666.900024 5199.000000
1668.392944 5648.000000
1669.884521 20012.000000
1671.375610 6476.000000
1672.866089 6064.000000
1674.355469 5951.000000
1675.843384 6924.000000
1677.331055 6801.000000
1678.817749 6052.000000
1680.303589 5353.000000
1681.788574 6082.000000
1683.272095 6208.000000
1684.755371 6238.000000
1686.237793 5849.000000
1687.719116 6171.000000
1689.198975 6204.000000
1690.678589 5500.000000
1692.157471 6621.000000
1693.635376 5546.000000
1695.112305 6095.000000
1696.588013 5717.000000
1698.063354 6009.000000
1699.537476 6290.000000
1701.010986 5428.000000
1702.483032 5610.000000
1703.954834 6890.000000
1705.425659 6375.000000
1706.895630 7057.000000
1708.364258 5069.000000
1709.832397 5820.000000
1711.299805 6345.000000
1712.766113 5478.000000
1714.231812 5802.000000
1715.695801 6162.000000
1717.159668 5980.000000
1718.622681 6903.000000
1720.084717 6385.000000
1721.545532 6545.000000
1723.005737 5461.000000
1724.465210 5633.000000
1725.923828 6170.000000
1727.381470 5962.000000
1728.837769 6235.000000
1730.293823 6023.000000
1731.748901 6446.000000
1733.203003 6017.000000
1734.655884 6849.000000
1736.108521 5987.000000
1737.560059 6850.000000
1739.010864 6044.000000
1740.460693 6574.000000
1741.909180 5938.000000
1743.357300 7250.000000
1744.804565 6560.000000
1746.251099 6573.000000
1747.696045 6636.000000
1749.140747 6093.000000
1750.584595 5788.000000
1752.027588 5513.000000
1753.469116 6546.000000
1754.910400 6292.000000
1756.350830 19323.000000
1757.790283 6276.000000
1759.228760 5274.000000
1760.666260 6073.000000
1762.103271 7481.000000
1763.539307 5847.000000
1764.974487 7061.000000
1766.408203 6141.000000
1767.841797 6398.000000
1769.274414 6663.000000
1770.706177 5891.000000
1772.137085 5786.000000
1773.566772 6294.000000
1774.995728 6220.000000
1776.424194 6295.000000
1777.851685 6675.000000
1779.277832 6309.000000
1780.703735 5584.000000
1782.128540 6889.000000
1783.552734 5582.000000
1784.975464 6642.000000
1786.397705 6574.000000
1787.819214 6868.000000
1789.239990 5903.000000
1790.659790 6149.000000
1792.078247 6120.000000
1793.496216 6864.000000
1794.913574 5540.000000
1796.330078 6082.000000
1797.745117 6514.000000
1799.159790 5828.000000
1800.573853 6644.000000
1801.986694 5936.000000
1803.398926 6945.000000
1804.809814 7120.000000
1806.220215 7812.000000
1807.629883 6460.000000
1809.038574 5997.000000
1810.446167 5395.000000
1811.853271 6392.000000
1813.259521 6365.000000
1814.664795 6693.000000
1816.068970 5947.000000
1817.472778 5975.000000
1818.875610 6236.000000
1820.277588 6030.000000
1821.678955 5846.000000
1823.078857 6359.000000
1824.478149 6322.000000
1825.876953 6504.000000
1827.274902 7400.000000
1828.671509 5805.000000
1830.067505 6711.000000
1831.462769 5901.000000
1832.857422 8076.000000
1834.251099 5948.000000
1835.643433 6778.000000
1837.035278 6371.000000
1838.426514 5862.000000
1839.816772 7053.000000
1841.205811 6008.000000
1842.594482 6001.000000
1843.982178 5979.000000
1845.369141 5824.000000
1846.754761 6854.000000
1848.140137 5833.000000
1849.524658 6406.000000
1850.908447 6278.000000
1852.291138 6341.000000
1853.672607 5385.000000
1855.053589 6539.000000
1856.434082 6268.000000
1857.813599 5701.000000
1859.191650 5990.000000
1860.569580 6199.000000
1861.946533 7806.000000
1863.322754 6104.000000
1864.698120 6051.000000
1866.072021 5600.000000
1867.445801 5719.000000
1868.818726 6216.000000
1870.190552 5973.000000
1871.561401 6923.000000
1872.931885 5413.000000
1874.301270 6035.000000
1875.670166 6116.000000
1877.037476 7075.000000
1878.404663 6039.000000
1879.770874 5991.000000
1881.136353 6766.000000
1882.501099 7561.000000
1883.864258 6774.000000
1885.227295 6895.000000
1886.589478 6355.000000
1887.950806 6424.000000
1889.310791 5619.000000
1890.670410 5788.000000
1892.029419 6150.000000
1893.387451 6630.000000
1894.744629 7260.000000
1896.100586 5931.000000
1897.456299 7585.000000
1898.811035 5844.000000
1900.164917 5512.000000
1901.517700 5905.000000
1902.869995 5951.000000
1904.221558 5922.000000
1905.572266 6833.000000
1906.921753 6513.000000
1908.270752 6650.000000
1909.618896 5782.000000
1910.966431 6149.000000
1912.313232 6278.000000
1913.658447 6810.000000
1915.003418 6036.000000
1916.347656 5456.000000
1917.691040 6431.000000
1919.033081 6000.000000
1920.374878 6696.000000
1921.715820 6964.000000
1923.056030 6196.000000
1924.395264 6307.000000
1925.733521 6325.000000
1927.071167 6449.000000
1928.408081 6968.000000
1929.744141 6713.000000
1931.078979 5571.000000
1932.413452 6655.000000
1933.747192 7302.000000
1935.080078 6241.000000
1936.411499 5715.000000
1937.743042 6331.000000
1939.073242 6563.000000
1940.402954 5761.000000
1941.731812 6086.000000
1943.059448 5778.000000
1944.386597 5003.000000
1945.713013 5875.000000
1947.038696 6515.000000
1948.363037 5748.000000
1949.687134 6652.000000
1951.010376 6251.000000
1952.332886 6427.000000
1953.654297 5787.000000
1954.974731 7408.000000
1956.294556 6016.000000
1957.614014 5519.000000
1958.932495 6754.000000
1960.249634 5886.000000
1961.566406 5904.000000
1962.882446 6532.000000
1964.197754 6546.000000
1965.511597 6232.000000
1966.825195 5653.000000
1968.138062 6260.000000
1969.450073 5904.000000
1970.761475 6013.000000
1972.071533 6268.000000
1973.381104 5794.000000
1974.689941 6200.000000
1975.998169 6609.000000
1977.305054 6090.000000
1978.611328 7248.000000
1979.917236 5501.000000
1981.221924 6377.000000
1982.526123 5887.000000
1983.829102 5693.000000
1985.131714 7593.000000
1986.433350 6163.000000
1987.734375 6766.000000
1989.033813 6026.000000
1990.333374 6631.000000
1991.631836 5287.000000
1992.929810 6027.000000
1994.226196 6080.000000
1995.522583 5820.000000
1996.817993 5566.000000
1998.112671 6507.000000
1999.406494 5718.000000
2000.699097 6621.000000
2001.991211 5692.000000
2003.282837 7192.000000
2004.573730 6438.000000
2005.863037 6269.000000
2007.152100 6863.000000
2008.440430 5928.000000
2009.728027 6000.000000
2011.014771 6596.000000
2012.300415 5694.000000
2013.585693 6338.000000
2014.869995 5968.000000
2016.153687 5592.000000
2017.436035 6084.000000
2018.718018 6448.000000
2019.999512 6753.000000
2021.280029 5877.000000
2022.559814 6144.000000
2023.838501 6765.000000
2025.116455 5901.000000
2026.393921 5891.000000
2027.670776 6338.000000
2028.945923 5768.000000
2030.221191 6587.000000
2031.495483 6039.000000
2032.768799 5882.000000
2034.041260 5892.000000
2035.313354 6200.000000
2036.584351 6883.000000
2037.855103 6614.000000
2039.124512 5988.000000
2040.392822 6736.000000
2041.661133 6561.000000
2042.928467 5951.000000
2044.195068 5977.000000
2045.460449 5576.000000
2046.725220 5848.000000
2047.989746 5434.000000
2049.252930 5907.000000
2050.515869 6387.000000
2051.776855 6144.000000
2053.038330 6093.000000
2054.298584 5892.000000
2055.558105 6470.000000
2056.816895 6267.000000
2058.074707 6828.000000
2059.332031 6171.000000
2060.588623 6008.000000
2061.843750 6484.000000
2063.098877 5631.000000
2064.353027 5625.000000
2065.606445 5639.000000
2066.859131 6820.000000
2068.110596 6253.000000
2069.361816 6386.000000
2070.612305 5587.000000
2071.862061 5390.000000
2073.110352 6396.000000
2074.358643 6547.000000
2075.605957 7480.000000
2076.852539 5635.000000
2078.098389 6060.000000
2079.343018 6921.000000
2080.587158 7639.000000
2081.830811 5488.000000
2083.073486 6062.000000
2084.314941 6921.000000
2085.556152 5971.000000
2086.796875 6339.000000
2088.036621 6761.000000
2089.275146 7096.000000
2090.513184 6223.000000
2091.750488 5738.000000
2092.987549 6643.000000
2094.223145 6063.000000
2095.458008 6292.000000
2096.692627 6055.000000
2097.926270 5572.000000
2099.158936 6082.000000
2100.390869 6890.000000
2101.622314 6412.000000
2102.852783 6747.000000
2104.082520 6029.000000
2105.312012 6008.000000
2106.539551 6016.000000
2107.767334 5997.000000
2108.994385 6251.000000
2110.220459 5502.000000
2111.445068 6353.000000
2112.669922 6952.000000
2113.893555 7111.000000
2115.116699 6215.000000
2116.338623 7492.000000
2117.560303 5971.000000
2118.781006 6801.000000
2120.000977 6055.000000
2121.220459 6103.000000
2122.438477 6636.000000
2123.656494 7063.000000
2124.873535 5731.000000
2126.090088 5695.000000
2127.304932 6515.000000
2128.520020 6336.000000
2129.734131 6734.000000
2130.947510 5742.000000
2132.160156 6107.000000
2133.371338 5782.000000
2134.582764 6516.000000
2135.792969 6644.000000
2137.002686 5949.000000
2138.210938 6222.000000
2139.419189 5668.000000
2140.626709 5824.000000
2141.833008 7408.000000
2143.038574 5851.000000
2144.243896 5708.000000
2145.448242 5520.000000
2146.651855 6348.000000
2147.854980 6220.000000
2149.056641 6510.000000
2150.258057 5252.000000
2151.458740 6320.000000
2152.658691 6077.000000
2153.857422 5956.000000
2155.055908 6904.000000
2156.253906 6189.000000
2157.450928 6044.000000
2158.647217 5147.000000
2159.842285 5284.000000
2161.037109 6145.000000
2162.231201 5543.000000
2163.424316 5953.000000
2164.616455 6890.000000
2165.808350 5916.000000
2166.999512 6303.000000
2168.189697 6307.000000
2169.379150 6551.000000
2170.568115 6792.000000
2171.756104 6296.000000
2172.943848 5727.000000
2174.130127 5935.000000
2175.315674 6563.000000
2176.500977 6072.000000
2177.685791 5808.000000
2178.869385 6374.000000
2180.052246 7555.000000
2181.234131 6327.000000
2182.415771 6100.000000
2183.596924 6560.000000
2184.776855 5704.000000
2185.955811 5534.000000
2187.134277 6343.000000
2188.312500 6936.000000
2189.489502 7213.000000
2190.665527 6673.000000
2191.841309 6072.000000
2193.016602 5607.000000
2194.190430 6580.000000
2195.363770 6175.000000
2196.536865 6115.000000
2197.708740 6456.000000
2198.880127 7043.000000
2200.051025 6364.000000
2201.220215 6863.000000
2202.389404 7623.000000
2203.558105 6220.000000
2204.725830 5835.000000
2205.892578 5696.000000
2207.058594 7099.000000
2208.224121 6662.000000
2209.389404 6004.000000
2210.553223 6719.000000
2211.716553 5409.000000
2212.878662 6199.000000
2214.041016 6124.000000
2215.202148 6608.000000
2216.362305 6643.000000
2217.521973 6223.000000
2218.681396 6618.000000
2219.839600 6313.000000
2220.996826 6276.000000
2222.153809 6734.000000
2223.310059 6574.000000
2224.465576 6772.000000
2225.620361 6266.000000
2226.774170 6437.000000
2227.927002 6024.000000
2229.080322 6841.000000
2230.231689 6233.000000
2231.382813 6216.000000
2232.533203 6438.000000
2233.683105 7653.000000
2234.832031 6327.000000
2235.980469 5246.000000
2237.127441 6772.000000
2238.274658 6996.000000
2239.420654 6090.000000
2240.566406 7270.000000
2241.710449 7304.000000
2242.854736 6733.000000
2243.998047 6177.000000
2245.140625 6004.000000
2246.282227 5697.000000
2247.423584 5792.000000
2248.563965 6402.000000
2249.703613 6418.000000
2250.842773 5793.000000
2251.980713 5859.000000
2253.118652 6193.000000
2254.255615 5296.000000
2255.391846 6357.000000
2256.527100 6130.000000
2257.661621 7334.000000
2258.795898 6347.000000
2259.929688 5361.000000
2261.062012 6135.000000
2262.193848 6833.000000
2263.325195 6225.000000
2264.455566 6466.000000
2265.585693 8054.000000
2266.714600 6718.000000
2267.843018 6075.000000
2268.970947 5507.000000
2270.097900 6161.000000
2271.224121 5937.000000
2272.349365 6717.000000
2273.474609 6502.000000
2274.599121 6467.000000
2275.722412 5906.000000
2276.844971 6367.000000
2277.967041 5994.000000
2279.088623 7404.000000
2280.209473 6375.000000
2281.329102 6452.000000
2282.448242 7099.000000
2283.567139 7621.000000
2284.685303 7265.000000
2285.802490 5890.000000
2286.918701 6569.000000
2288.034668 6975.000000
2289.149902 6886.000000
2290.264404 7383.000000
2291.377686 5849.000000
2292.490967 6371.000000
2293.603516 5974.000000
2294.715332 5384.000000
2295.826416 6771.000000
2296.936279 6390.000000
2298.045654 6206.000000
2299.154785 6677.000000
2300.262939 6352.000000
2301.370117 6707.000000
2302.477051 5865.000000
2303.583252 6273.000000
2304.688965 6623.000000
2305.793213 6504.000000
2306.897217 5454.000000
2308.000732 5743.000000
2309.103760 6523.000000
2310.205566 7402.000000
2311.306641 7349.000000
2312.407227 6641.000000
2313.507324 5539.000000
2314.606689 6355.000000
2315.704590 6677.000000
2316.802979 6994.000000
2317.899902 8175.000000
2318.996582 6891.000000
2320.092773 5754.000000
2321.187256 6766.000000
2322.281738 7616.000000
2323.375488 5798.000000
2324.468994 6051.000000
2325.560791 6477.000000
2326.652588 6896.000000
2327.743652 6124.000000
2328.833984 6233.000000
2329.923340 6882.000000
2331.012695 5998.000000
2332.100830 6293.000000
2333.188477 6825.000000
2334.275879 6515.000000
2335.361572 6693.000000
2336.447021 7717.000000
2337.532227 6302.000000
2338.616455 6771.000000
2339.699707 5919.000000
2340.782715 6454.000000
2341.864746 7075.000000
2342.946533 5997.000000
2344.027588 7415.000000
2345.107422 6659.000000
2346.186768 5673.000000
2347.265625 6742.000000
2348.343994 6490.000000
2349.420898 6294.000000
2350.497559 6911.000000
2351.573975 6094.000000
2352.649414 6464.000000
2353.723877 5940.000000
2354.798096 6333.000000
2355.871582 6762.000000
2356.944580 6201.000000
2358.016357 7000.000000
2359.087891 6280.000000
2360.158447 6787.000000
2361.228760 7468.000000
2362.298096 7534.000000
2363.366455 6821.000000
2364.434570 6701.000000
2365.501953 7090.000000
2366.568848 7141.000000
2367.635010 6052.000000
2368.699951 6810.000000
2369.764893 6999.000000
2370.829102 6352.000000
2371.892578 6850.000000
2372.954834 5773.000000
2374.017090 6321.000000
2375.078369 6311.000000
2376.139404 5928.000000
2377.199219 6333.000000
2378.258301 7874.000000
2379.317383 6459.000000
2380.375488 7546.000000
2381.432861 6856.000000
2382.489258 8034.000000
2383.545410 7808.000000
2384.601074 6255.000000
2385.656006 7133.000000
2386.709473 6772.000000
2387.763184 6496.000000
2388.815918 6300.000000
2389.868164 6798.000000
2390.919678 6142.000000
2391.970215 6657.000000
2393.020508 6556.000000
2394.069824 6209.000000
2395.119141 6168.000000
2396.166992 6840.000000
2397.214355 7014.000000
2398.261475 6333.000000
2399.307617 6706.000000
2400.353027 6172.000000
2401.397705 6793.000000
2402.442383 7745.000000
2403.485596 7450.000000
2404.528809 6516.000000
2405.570557 5753.000000
2406.612549 6723.000000
2407.653809 7063.000000
2408.694092 6044.000000
2409.733643 6432.000000
2410.772217 6323.000000
2411.811035 5970.000000
2412.848633 6543.000000
2413.885986 6896.000000
2414.922119 7333.000000
2415.958008 6250.000000
2416.993164 6229.000000
2418.027832 6835.000000
2419.061035 7161.000000
2420.094482 6491.000000
2421.126953 6708.000000
2422.159180 6774.000000
2423.189941 7086.000000
2424.220703 6306.000000
2425.250977 6843.000000
2426.280029 6809.000000
2427.309082 6576.000000
2428.336426 6921.000000
2429.364258 6728.000000
2430.390869 7223.000000
2431.417236 6995.000000
2432.442139 7724.000000
2433.467285 6567.000000
2434.491455 7100.000000
2435.515381 6691.000000
2436.538086 5847.000000
2437.560059 6305.000000
2438.581787 6603.000000
2439.602783 6676.000000
2440.623291 6011.000000
2441.642578 6522.000000
2442.661865 6558.000000
2443.680176 8431.000000
2444.698242 6268.000000
2445.714844 6478.000000
2446.731445 6520.000000
2447.747314 5969.000000
2448.763184 7007.000000
2449.777588 6829.000000
2450.791260 5577.000000
2451.804443 7205.000000
2452.817383 5962.000000
2453.829590 7183.000000
2454.840820 6630.000000
2455.851807 7714.000000
2456.862061 6351.000000
2457.871826 7557.000000
2458.880615 5906.000000
2459.888672 5916.000000
2460.896729 6385.000000
2461.903564 7370.000000
2462.910156 5406.000000
2463.915527 7369.000000
2464.920654 6913.000000
2465.925537 5886.000000
2466.929199 6536.000000
2467.932617 6468.000000
2468.935059 7530.000000
2469.937256 7359.000000
2470.938965 6913.000000
2471.939697 6613.000000
2472.939453 6973.000000
2473.939209 6761.000000
2474.937988 5687.000000
2475.936279 6591.000000
2476.933594 7051.000000
2477.930664 6114.000000
2478.927734 6863.000000
2479.923340 5742.000000
2480.918945 7127.000000
2481.912842 6707.000000
2482.906738 8088.000000
2483.900146 6862.000000
2484.893066 6848.000000
2485.885010 7410.000000
2486.876221 7223.000000
2487.867188 6753.000000
2488.857666 5796.000000
2489.847168 6577.000000
2490.835938 6516.000000
2491.824707 5651.000000
2492.812500 6810.000000
2493.799072 6553.000000
2494.785645 8051.000000
2495.771729 6776.000000
2496.757080 7115.000000
2497.741455 8413.000000
2498.725586 6006.000000
2499.709717 6939.000000
2500.692383 5797.000000
2501.674561 6942.000000
2502.656250 6862.000000
2503.637207 7249.000000
2504.617676 6491.000000
2505.597900 5782.000000
2506.576660 6325.000000
2507.555176 7568.000000
2508.533203 6779.000000
2509.510742 7038.000000
2510.487305 6049.000000
2511.463623 5935.000000
2512.439209 6436.000000
2513.414307 6238.000000
2514.388916 6417.000000
2515.362305 7503.000000
2516.335449 6758.000000
2517.308350 6856.000000
2518.280273 6169.000000
2519.251465 6822.000000
2520.222168 6891.000000
2521.192627 7697.000000
2522.162354 7988.000000
2523.131104 6106.000000
2524.099121 6121.000000
2525.067139 7758.000000
2526.034180 6339.000000
2527.000977 5536.000000
2527.966553 7188.000000
2528.932129 6971.000000
2529.896973 7745.000000
2530.861328 6362.000000
2531.824463 6348.000000
2532.787842 5877.000000
2533.750244 5935.000000
2534.712402 6694.000000
2535.673340 6369.000000
2536.633545 6140.000000
2537.593994 6119.000000
2538.553467 6771.000000
2539.512207 6848.000000
2540.469971 6666.000000
2541.427979 6168.000000
2542.385254 6766.000000
2543.341553 6063.000000
2544.297607 7080.000000
2545.252441 6196.000000
2546.207520 7748.000000
2547.161865 7001.000000
2548.115479 6958.000000
2549.068115 7197.000000
2550.020508 6689.000000
2550.972412 6997.000000
2551.923584 6450.000000
2552.874023 7629.000000
2553.823975 7251.000000
2554.773682 7383.000000
2555.722656 6698.000000
2556.671143 6225.000000
2557.618408 7127.000000
2558.565674 6299.000000
2559.512207 6535.000000
2560.458252 6752.000000
2561.403320 7423.000000
2562.348145 6747.000000
2563.292480 7211.000000
2564.236328 6882.000000
2565.179688 6640.000000
2566.121582 6550.000000
2567.063721 6546.000000
2568.005127 6135.000000
2568.945801 7141.000000
2569.885742 7337.000000
2570.825684 5713.000000
2571.764648 6132.000000
2572.703369 7547.000000
2573.641113 7163.000000
2574.578613 5446.000000
2575.515381 6978.000000
2576.451416 6777.000000
2577.386963 7494.000000
2578.321777 6310.000000
2579.256592 5960.000000
2580.190430 7052.000000
2581.123779 7066.000000
2582.056396 5812.000000
2582.988770 6920.000000
2583.920410 5473.000000
2584.851563 7076.000000
2585.782227 6984.000000
2586.711670 6897.000000
2587.641113 7253.000000
2588.570068 6483.000000
2589.498779 7432.000000
2590.425781 7356.000000
2591.353027 5911.000000
2592.279785 6810.000000
2593.205811 6278.000000
2594.131592 5693.000000
2595.056152 7601.000000
2595.980469 7598.000000
2596.904297 5389.000000
2597.827637 7228.000000
2598.750000 6287.000000
2599.672119 6835.000000
2600.593750 8345.000000
2601.514648 6386.000000
2602.434814 5960.000000
2603.354736 6354.000000
2604.274170 6351.000000
2605.193359 6403.000000
2606.111572 5845.000000
2607.028564 5985.000000
2607.945801 7264.000000
2608.862793 5834.000000
2609.778809 7659.000000
2610.693604 6698.000000
2611.608887 6662.000000
2612.523438 6580.000000
2613.437012 6569.000000
2614.350586 6078.000000
2615.262939 7601.000000
2616.175293 7024.000000
2617.086670 6752.000000
2617.997803 5639.000000
2618.908203 7165.000000
2619.818359 6714.000000
2620.727783 6188.000000
2621.636719 6565.000000
2622.544678 6262.000000
2623.452881 6870.000000
2624.360107 6636.000000
2625.266846 7009.000000
2626.172852 5983.000000
2627.078613 6652.000000
2627.983643 6457.000000
2628.888428 7861.000000
2629.792480 6410.000000
2630.695557 6418.000000
2631.598633 6372.000000
2632.500732 5606.000000
2633.402832 6755.000000
2634.304688 7045.000000
2635.204834 6737.000000
2636.105225 6413.000000
2637.004883 6568.000000
2637.904297 5999.000000
2638.802246 6934.000000
2639.700684 6715.000000
2640.598633 6339.000000
2641.495850 6088.000000
2642.391846 6194.000000
2643.287842 6780.000000
2644.183594 6050.000000
2645.078613 6471.000000
2645.973389 6633.000000
2646.866699 7129.000000
2647.760010 6309.000000
2648.653076 6877.000000
2649.545898 6430.000000
2650.437012 7515.000000
2651.328369 6415.000000
2652.219238 7667.000000
2653.109375 7374.000000
2653.999268 6552.000000
2654.887939 7294.000000
2655.776855 6662.000000
2656.665283 6626.000000
2657.552734 7268.000000
2658.439209 6456.000000
2659.326172 7105.000000
2660.212402 6784.000000
2661.098145 6849.000000
2661.982666 6529.000000
2662.867188 6356.000000
2663.751465 6194.000000
2664.635010 7052.000000
2665.518066 7775.000000
2666.400391 7323.000000
2667.282227 6148.000000
2668.163330 6593.000000
2669.044678 6089.000000
2669.924561 6610.000000
2670.804688 7391.000000
2671.684082 7220.000000
2672.563477 6254.000000
2673.442139 6163.000000
2674.319092 6420.000000
2675.196777 6763.000000
2676.073730 6388.000000
2676.949951 8069.000000
2677.825684 7198.000000
2678.700684 6261.000000
2679.575928 7758.000000
2680.450195 6985.000000
2681.323975 7343.000000
2682.197021 7021.000000
2683.069824 6307.000000
2683.942383 6073.000000
2684.814209 6894.000000
2685.685303 6574.000000
2686.556152 6858.000000
2687.426514 7106.000000
2688.296631 6722.000000
2689.165039 6269.000000
2690.034180 7384.000000
2690.902588 7104.000000
2691.770752 6644.000000
2692.638184 6912.000000
2693.504395 5883.000000
2694.371094 7141.000000
2695.236816 7352.000000
2696.102539 7184.000000
2696.966797 7921.000000
2697.831787 6583.000000
2698.695313 7266.000000
2699.559082 5852.000000
2700.421387 7493.000000
2701.284180 6803.000000
2702.145996 5942.000000
2703.007324 6909.000000
2703.868652 6693.000000
2704.728760 7430.000000
2705.588867 7279.000000
2706.448486 6600.000000
2707.307861 6867.000000
2708.165527 7170.000000
2709.023438 6877.000000
2709.881836 7398.000000
2710.739014 6756.000000
2711.595459 5994.000000
2712.451416 6873.000000
2713.307373 6187.000000
2714.162598 6929.000000
2715.017090 6109.000000
2715.871094 6893.000000
2716.725098 7322.000000
2717.578125 6282.000000
2718.431396 6475.000000
2719.282959 7678.000000
2720.135010 6823.000000
2720.986816 6296.000000
2721.837402 6444.000000
2722.687988 6435.000000
2723.538086 7085.000000
2724.387451 6998.000000
2725.236816 6981.000000
2726.084961 6680.000000
2726.932617 6526.000000
2727.780762 7018.000000
2728.627686 6828.000000
2729.475098 5579.000000
2730.321045 7420.000000
2731.166260 6997.000000
2732.011963 6492.000000
2732.856689 6993.000000
2733.701416 7399.000000
2734.544922 6876.000000
2735.388672 7815.000000
2736.231689 7161.000000
2737.074219 6110.000000
2737.915771 6234.000000
2738.757813 6800.000000
2739.598877 6918.000000
2740.439697 5799.000000
2741.280273 5936.000000
2742.119629 7725.000000
2742.958984 6848.000000
2743.798340 6884.000000
2744.636475 6771.000000
2745.474121 7721.000000
2746.311768 6350.000000
2747.148926 7084.000000
2747.985840 6228.000000
2748.822266 6003.000000
2749.657471 6627.000000
2750.492920 6308.000000
2751.327881 6372.000000
2752.162109 6365.000000
2752.996094 6895.000000
2753.829590 6822.000000
2754.663086 7977.000000
2755.495605 6788.000000
2756.327637 7322.000000
2757.159180 6839.000000
2757.990723 7149.000000
2758.821289 7259.000000
2759.652100 7208.000000
2760.481689 7228.000000
2761.311279 6679.000000
2762.140625 7323.000000
2762.969238 6890.000000
2763.797363 6796.000000
2764.625000 6944.000000
2765.452637 6646.000000
2766.279785 7918.000000
2767.106201 5769.000000
2767.932129 7457.000000
2768.757568 6837.000000
2769.582764 7857.000000
2770.407959 7129.000000
2771.231934 6750.000000
2772.055908 6538.000000
2772.879883 7659.000000
2773.702637 6426.000000
2774.525635 6967.000000
2775.347412 6925.000000
2776.169189 6985.000000
2776.990967 6494.000000
2777.811768 7989.000000
2778.631836 6539.000000
2779.452148 6954.000000
2780.271973 7314.000000
2781.091797 6452.000000
2781.909668 5934.000000
2782.728760 8130.000000
2783.546631 6485.000000
2784.364258 6717.000000
2785.181396 7089.000000
2785.998047 7272.000000
2786.814453 7232.000000
2787.630371 6295.000000
2788.446045 5962.000000
2789.260742 6486.000000
2790.075928 6985.000000
2790.890381 7196.000000
2791.704346 6563.000000
2792.518066 7400.000000
2793.330566 8808.000000
2794.143311 6946.000000
2794.955566 7452.000000
2795.767334 7178.000000
2796.578369 7340.000000
2797.390137 6589.000000
2798.200684 7244.000000
2799.011230 7040.000000
2799.820313 7416.000000
2800.630127 8333.000000
2801.439209 7819.000000
2802.248047 6653.000000
2803.056396 7196.000000
2803.863770 6193.000000
2804.671631 6479.000000
2805.478760 6914.000000
2806.285645 6846.000000
2807.091309 7160.000000
2807.897461 6706.000000
2808.702881 6547.000000
2809.508301 7321.000000
2810.312988 6200.000000
2811.116699 7608.000000
2811.920898 7473.000000
2812.724609 6359.000000
2813.528076 6139.000000
2814.330078 6336.000000
2815.132813 7324.000000
2815.934814 7778.000000
2816.736572 6199.000000
2817.537842 6502.000000
2818.338623 7277.000000
2819.138916 6572.000000
2819.939453 6681.000000
2820.739014 8083.000000
2821.538086 7128.000000
2822.337158 6567.000000
2823.135986 6928.000000
2823.934326 6358.000000
2824.731689 6987.000000
2825.529297 7061.000000
2826.326172 6735.000000
2827.123291 7372.000000
2827.919678 8068.000000
2828.715332 6987.000000
2829.510986 7342.000000
2830.306396 7523.000000
2831.101318 7436.000000
2831.895508 6608.000000
2832.689697 6875.000000
2833.483643 5748.000000
2834.277100 6891.000000
2835.069824 7224.000000
2835.862305 8145.000000
2836.654785 7699.000000
2837.447021 7469.000000
2838.238770 6503.000000
2839.029541 6796.000000
2839.820313 8875.000000
2840.611328 7439.000000
2841.401367 6283.000000
2842.190918 7687.000000
2842.980713 7136.000000
2843.769531 7414.000000
2844.558350 7851.000000
2845.347168 7746.000000
2846.135010 7490.000000
2846.922363 7196.000000
2847.709961 7477.000000
2848.497070 7330.000000
2849.283447 6665.000000
2850.069824 7441.000000
2850.855957 7241.000000
2851.641602 7478.000000
2852.426270 7161.000000
2853.211426 6954.000000
2853.996338 7490.000000
2854.780518 7154.000000
2855.564697 6900.000000
2856.347656 8290.000000
2857.130859 6824.000000
2857.913818 6772.000000
2858.696289 7845.000000
2859.478516 6228.000000
2860.260254 6588.000000
2861.041748 7601.000000
2861.823486 7424.000000
2862.604492 7651.000000
2863.384766 6600.000000
2864.164795 6732.000000
2864.944824 8222.000000
2865.724609 7477.000000
2866.503418 8127.000000
2867.282471 7712.000000
2868.061035 6868.000000
2868.839355 7053.000000
2869.617188 7250.000000
2870.394775 6978.000000
2871.172119 7516.000000
2871.949219 7020.000000
2872.725830 6451.000000
2873.501953 7529.000000
2874.278076 7149.000000
2875.053711 8332.000000
2875.829102 7184.000000
2876.604004 6578.000000
2877.378662 7999.000000
2878.153320 6598.000000
2878.927734 7797.000000
2879.701416 6876.000000
2880.474365 7140.000000
2881.248047 6830.000000
2882.020752 7604.000000
2882.793457 7799.000000
2883.565430 8241.000000
2884.337158 6221.000000
2885.109375 6789.000000
2885.880371 6921.000000
2886.650879 6194.000000
2887.421875 8318.000000
2888.192871 7363.000000
2888.963135 7999.000000
2889.732422 7671.000000
2890.501953 6916.000000
2891.271484 7256.000000
2892.040527 7323.000000
2892.809082 7914.000000
2893.577637 7902.000000
2894.345215 6996.000000
2895.113281 6641.000000
2895.880859 7419.000000
2896.648438 8336.000000
2897.414795 7436.000000
2898.182129 6525.000000
2898.948242 7219.000000
2899.714600 7015.000000
2900.479492 8308.000000
2901.244873 7000.000000
2902.010742 6527.000000
2902.775146 7726.000000
2903.539551 7666.000000
2904.304199 8385.000000
2905.067871 6668.000000
2905.832275 8431.000000
2906.595947 6732.000000
2907.358887 8436.000000
2908.121582 6535.000000
2908.884766 8920.000000
2909.647461 6995.000000
2910.408936 6828.000000
2911.170898 6828.000000
