scanname Analyse116
timestamp 2017-02-10 23:04:40
ccdbias 953.733398
ccdgain 3.473401
sigmaread 8.960639
laserwavenum -0.719043
wavenumcorrection -0.196079
scancount 1
totalexposurems 10000
singleexposurems 10000
measurementstate Unknown
scanmode Manual
snr 193.925034 4.015260 3.521739
replacelist 3
374 36497.000000 14985.000000
383 36165.000000 11607.000000
672 35802.000000 31211.000000
peaks 22
278.310608 0.544277 0.000000 1.322831 0.000157
284.785156 0.543773 0.000000 0.648820 0.000048
301.017242 0.548504 0.000000 0.718149 0.000052
334.646423 0.552865 0.000000 0.605535 0.000108
387.974121 0.568823 0.000000 1.441725 0.000276
500.698120 0.561958 0.000000 0.327063 0.000042
522.822021 0.557821 0.000000 0.237117 0.000015
533.677856 0.561174 0.000000 0.828059 0.000147
581.919067 0.567524 0.000000 0.552286 0.000031
671.038513 0.558992 0.000000 0.731379 0.000053
677.064331 0.559126 0.000000 0.797887 0.000110
716.079285 0.554776 0.000000 3.926026 0.000740
738.205505 0.541676 0.000000 0.505168 0.000034
767.075500 0.565733 0.000000 3.087022 0.000653
785.871948 0.553721 0.000000 1.951677 0.000466
828.862061 0.527669 0.000000 0.432427 0.000062
851.249939 0.526264 0.000000 0.349601 0.000134
875.287354 0.529706 0.000000 0.893496 0.000325
1322.683960 0.551560 0.000000 17.114614 0.005090
1448.819092 0.421978 0.000000 0.558218 0.000137
1662.945313 0.375722 0.000000 0.916249 0.000525
1704.073242 0.359982 0.000000 0.146187 0.000060
finalresult GLS_NoMatch 0
spectrum 2048
-96.882408 44939.000000
-94.255539 44939.000000
-91.630547 45561.000000
-89.007446 45676.000000
-86.386215 46478.000000
-83.766884 46250.000000
-81.149414 46622.000000
-78.533821 46353.000000
-75.920105 46684.000000
-73.308266 47055.000000
-70.698288 46913.000000
-68.090195 47117.000000
-65.483948 47122.000000
-62.879581 47192.000000
-60.277073 47085.000000
-57.676418 47517.000000
-55.077625 46918.000000
-52.480690 46297.000000
-49.885609 46683.000000
-47.292381 46622.000000
-44.701004 46814.000000
-42.111473 46324.000000
-39.523785 47209.000000
-36.937946 47134.000000
-34.353951 46627.000000
-31.771791 47380.000000
-29.191479 46759.000000
-26.612993 47374.000000
-24.036350 46932.000000
-21.461533 46785.000000
-18.888556 46504.000000
-16.317398 46534.000000
-13.748075 46136.000000
-11.180576 45128.000000
-8.614897 46541.000000
-6.051043 46241.000000
-3.489002 46625.000000
-0.928786 46651.000000
1.629622 46219.000000
4.186209 45282.000000
6.740991 45226.000000
9.293956 45243.000000
11.845120 43793.000000
14.394472 43153.000000
16.942028 41983.000000
19.487772 41431.000000
22.031723 40211.000000
24.573870 38146.000000
27.114220 36507.000000
29.652784 33210.000000
32.189552 30190.000000
34.724518 25386.000000
37.257706 15100.000000
39.789112 7962.000000
42.318726 7113.000000
44.846542 7120.000000
47.372601 6400.000000
49.896870 5493.000000
52.419369 4544.000000
54.940071 4233.000000
57.459019 4500.000000
59.976192 5389.000000
62.491589 6942.000000
65.005211 7883.000000
67.517075 8177.000000
70.027191 5852.000000
72.535515 3654.000000
75.042084 3096.000000
77.546906 2469.000000
80.049973 2091.000000
82.551262 1895.000000
85.050812 1800.000000
87.548607 1777.000000
90.044670 1758.000000
92.538956 1950.000000
95.031502 2397.000000
97.522331 2264.000000
100.011391 2114.000000
102.498703 1815.000000
104.984291 1537.000000
107.468140 1282.000000
109.950241 1227.000000
112.430618 1268.000000
114.909271 1154.000000
117.386200 1066.000000
119.861374 1144.000000
122.334839 1097.000000
124.806572 1188.000000
127.276596 1303.000000
129.744858 1324.000000
132.211456 1388.000000
134.676300 1507.000000
137.139450 1788.000000
139.600861 2045.000000
142.060577 2328.000000
144.518570 2947.000000
146.974869 3599.000000
149.429459 4609.000000
151.882324 5427.000000
154.333511 6733.000000
156.783005 8062.000000
159.230774 9499.000000
161.676834 11297.000000
164.121216 12491.000000
166.563919 14070.000000
169.004929 15425.000000
171.444229 16066.000000
173.881821 16806.000000
176.317780 17293.000000
178.751999 17592.000000
181.184540 17702.000000
183.615433 17936.000000
186.044601 18004.000000
188.472122 18141.000000
190.897964 18276.000000
193.322128 18404.000000
195.744629 18776.000000
198.165436 18820.000000
200.584579 19375.000000
203.002060 20560.000000
205.417847 21615.000000
207.831985 24044.000000
210.244492 26135.000000
212.655319 27798.000000
215.064468 29009.000000
217.471985 29323.000000
219.877792 31607.000000
222.282013 32406.000000
224.684525 33244.000000
227.085419 33825.000000
229.484665 34633.000000
231.882248 34478.000000
234.278168 34263.000000
236.672470 35152.000000
239.065109 35886.000000
241.456131 35093.000000
243.845490 35468.000000
246.233231 35682.000000
248.619324 35176.000000
251.003784 36048.000000
253.386597 34326.000000
255.767838 35624.000000
258.147369 35568.000000
260.525330 35773.000000
262.901611 34756.000000
265.276337 34691.000000
267.649414 34241.000000
270.020844 35843.000000
272.390625 35519.000000
274.758850 35992.000000
277.125427 35566.000000
279.490417 35102.000000
281.853790 35898.000000
284.215515 35654.000000
286.575653 34877.000000
288.934174 35957.000000
291.291107 35392.000000
293.646423 35488.000000
296.000153 35961.000000
298.352234 35946.000000
300.702759 35659.000000
303.051697 35665.000000
305.398987 35224.000000
307.744751 35619.000000
310.088837 35497.000000
312.431396 34690.000000
314.772339 34337.000000
317.111664 34637.000000
319.449432 34737.000000
321.785645 33453.000000
324.120209 35164.000000
326.453217 34758.000000
328.784668 35254.000000
331.114532 34705.000000
333.442810 34978.000000
335.769470 34128.000000
338.094635 34989.000000
340.418182 35052.000000
342.740173 35254.000000
345.060608 33892.000000
347.379425 33645.000000
349.696686 35118.000000
352.012421 35280.000000
354.326569 34276.000000
356.639130 34972.000000
358.950134 34957.000000
361.259613 34285.000000
363.567566 34904.000000
365.873901 35536.000000
368.178650 34864.000000
370.481934 34930.000000
372.783600 35111.000000
375.083771 35009.000000
377.382385 35163.000000
379.679443 35800.000000
381.974945 35531.000000
384.268921 35795.000000
386.561310 36562.000000
388.852203 36322.000000
391.141571 35891.000000
393.429352 36014.000000
395.715607 35779.000000
398.000366 35395.000000
400.283508 36228.000000
402.565216 35811.000000
404.845398 36080.000000
407.123993 35026.000000
409.401062 35673.000000
411.676605 35356.000000
413.950623 35518.000000
416.223206 35520.000000
418.494171 35391.000000
420.763641 35302.000000
423.031616 34556.000000
425.298035 34387.000000
427.562958 35108.000000
429.826416 35013.000000
432.088287 34676.000000
434.348694 34953.000000
436.607544 34403.000000
438.864929 34661.000000
441.120819 35022.000000
443.375214 34735.000000
445.628082 35051.000000
447.879395 33649.000000
450.129303 34353.000000
452.377625 34084.000000
454.624512 34638.000000
456.869934 33797.000000
459.113800 33863.000000
461.356171 33574.000000
463.597046 34491.000000
465.836517 33504.000000
468.074402 34710.000000
470.310852 34277.000000
472.545776 34168.000000
474.779236 33061.000000
477.011261 33369.000000
479.241760 34276.000000
481.470764 33530.000000
483.698303 33723.000000
485.924347 34005.000000
488.148956 33610.000000
490.372101 34244.000000
492.593781 33872.000000
494.813904 33645.000000
497.032623 34674.000000
499.249847 34093.000000
501.465698 34888.000000
503.679932 34469.000000
505.892853 34262.000000
508.104187 34212.000000
510.314087 33871.000000
512.522583 34257.000000
514.729675 34165.000000
516.935181 34127.000000
519.139282 33816.000000
521.341858 34147.000000
523.543030 33669.000000
525.742859 33599.000000
527.941162 33221.000000
530.137939 34512.000000
532.333374 34098.000000
534.527283 34457.000000
536.719849 32694.000000
538.910889 33365.000000
541.100525 33876.000000
543.288757 32836.000000
545.475464 32535.000000
547.660706 32496.000000
549.844666 32727.000000
552.027039 32283.000000
554.208069 32323.000000
556.387573 32361.000000
558.565796 32460.000000
560.742493 32287.000000
562.917786 31923.000000
565.091675 31853.000000
567.264099 32302.000000
569.435120 32196.000000
571.604675 31958.000000
573.772949 32978.000000
575.939697 32101.000000
578.104980 32251.000000
580.268860 32439.000000
582.431458 32796.000000
584.592529 32591.000000
586.752197 33117.000000
588.910522 33005.000000
591.067322 32817.000000
593.222778 32552.000000
595.376831 33321.000000
597.529541 33015.000000
599.680725 32191.000000
601.830566 32675.000000
603.979065 32648.000000
606.125977 33246.000000
608.271667 32898.000000
610.415955 32981.000000
612.558777 32438.000000
614.700134 33171.000000
616.840271 32832.000000
618.978882 31591.000000
621.116211 33297.000000
623.252075 32384.000000
625.386536 32105.000000
627.519531 31557.000000
629.651367 31893.000000
631.781738 31802.000000
633.910706 31504.000000
636.038208 31545.000000
638.164429 31601.000000
640.289124 30555.000000
642.412598 31288.000000
644.534729 30716.000000
646.655396 30503.000000
648.774719 30661.000000
650.892639 31207.000000
653.009216 31160.000000
655.124390 30480.000000
657.238220 30319.000000
659.350586 30874.000000
661.461731 30518.000000
663.571472 31344.000000
665.679749 30756.000000
667.786865 30609.000000
669.892517 30156.000000
671.996704 31301.000000
674.099670 31308.000000
676.201233 30272.000000
678.301453 32042.000000
680.400269 30845.000000
682.497742 31529.000000
684.593933 30732.000000
686.688660 31483.000000
688.782166 30712.000000
690.874329 31103.000000
692.964966 29942.000000
695.054382 31080.000000
697.142517 31019.000000
699.229187 31263.000000
701.314636 30421.000000
703.398560 31772.000000
705.481262 30843.000000
707.562683 30595.000000
709.642639 28927.000000
711.721375 29983.000000
713.798645 30413.000000
715.874634 29593.000000
717.949341 30117.000000
720.022766 29414.000000
722.094666 30053.000000
724.165405 28882.000000
726.234802 30134.000000
728.302795 29225.000000
730.369446 29432.000000
732.434875 28569.000000
734.498962 29756.000000
736.561707 29252.000000
738.623108 28958.000000
740.683228 28788.000000
742.741943 29329.000000
744.799438 28716.000000
746.855652 28904.000000
748.910461 28628.000000
750.963989 28973.000000
753.016113 27773.000000
755.067017 29344.000000
757.116699 28420.000000
759.164917 28844.000000
761.211914 29065.000000
763.257629 28453.000000
765.301941 30179.000000
767.344971 30128.000000
769.386780 29585.500000
771.427246 29043.000000
773.466309 28665.000000
775.504211 28806.000000
777.540771 29003.000000
779.576111 29700.000000
781.610107 29670.000000
783.642700 28838.000000
785.674133 30380.000000
787.704163 30090.000000
789.732910 29800.000000
791.760498 28964.000000
793.786743 28839.000000
795.811584 29400.000000
797.835327 29620.000000
799.857666 28913.000000
801.878784 29375.000000
803.898560 28609.000000
805.917053 30271.000000
807.934326 28425.000000
809.950195 28363.000000
811.964905 29210.000000
813.978271 28358.000000
815.990417 28314.000000
818.001343 28254.000000
820.010925 27522.000000
822.019287 28439.000000
824.026245 27923.000000
826.031982 27700.000000
828.036499 27852.000000
830.039734 27839.000000
832.041687 27130.000000
834.042358 27426.000000
836.041809 27499.000000
838.039917 27156.000000
840.036926 26602.000000
842.032532 26975.000000
844.026978 27001.000000
846.020081 26738.000000
848.011963 26103.000000
850.002502 27096.000000
851.991760 25851.000000
853.979980 26482.000000
855.966797 26843.000000
857.952393 26310.000000
859.936707 25537.000000
861.919922 26405.000000
863.901733 26304.000000
865.882324 26953.000000
867.861633 25303.000000
869.839783 25898.000000
871.816589 26482.000000
873.792114 26860.000000
875.766602 26742.000000
877.739624 26990.000000
879.711609 27579.000000
881.682251 26748.000000
883.651733 26980.000000
885.619873 27388.000000
887.586853 27716.000000
889.552490 26966.000000
891.516968 27287.000000
893.480225 27017.000000
895.442261 26580.000000
897.403015 27184.000000
899.362549 26605.000000
901.320801 26421.000000
903.277954 26618.000000
905.233948 26900.000000
907.188538 26103.000000
909.141907 26419.000000
911.094116 26367.000000
913.045105 26233.000000
914.994812 25408.000000
916.943359 25750.000000
918.890686 25743.000000
920.836731 25562.000000
922.781494 25250.000000
924.725220 24681.000000
926.667786 24568.000000
928.609070 24687.000000
930.549011 23879.000000
932.487854 24172.000000
934.425415 24199.000000
936.361755 23979.000000
938.296936 23958.000000
940.230835 23978.000000
942.163635 24192.000000
944.095215 23622.000000
946.025635 24638.000000
947.954834 24299.000000
949.882690 23955.000000
951.809509 24020.000000
953.735046 24285.000000
955.659302 24716.000000
957.582458 24817.000000
959.504456 24666.000000
961.425171 24109.000000
963.344727 24467.000000
965.263123 25332.000000
967.180481 24754.000000
969.096375 24835.000000
971.011169 24842.000000
972.924744 25015.000000
974.837158 24733.000000
976.748352 24581.000000
978.658386 25202.000000
980.567139 24687.000000
982.474854 24846.000000
984.381348 24567.000000
986.286621 24967.000000
988.190796 24288.000000
990.093750 24741.000000
991.995483 24209.000000
993.896057 24290.000000
995.795471 24006.000000
997.693665 24532.000000
999.590698 23790.000000
1001.486511 23655.000000
1003.381165 22660.000000
1005.274719 23385.000000
1007.166992 22537.000000
1009.058350 22751.000000
1010.948364 22774.000000
1012.837158 22471.000000
1014.724792 22557.000000
1016.611267 22321.000000
1018.496582 22345.000000
1020.380737 22432.000000
1022.263672 22322.000000
1024.145508 22262.000000
1026.026123 22474.000000
1027.905640 22339.000000
1029.784180 22288.000000
1031.661377 22365.000000
1033.537231 21972.000000
1035.412109 22308.000000
1037.286011 22190.000000
1039.158447 22041.000000
1041.029907 22078.000000
1042.900024 22288.000000
1044.769165 22379.000000
1046.637085 22612.000000
1048.503906 22157.000000
1050.369629 22365.000000
1052.234131 22543.000000
1054.097534 22462.000000
1055.959595 22620.000000
1057.820679 22825.000000
1059.680664 22555.000000
1061.539307 22459.000000
1063.396851 22904.000000
1065.253296 22520.000000
1067.108643 22969.000000
1068.962769 22950.000000
1070.816040 22702.000000
1072.667847 22663.000000
1074.518677 22811.000000
1076.368286 22646.000000
1078.216675 22988.000000
1080.064209 21987.000000
1081.910400 22646.000000
1083.755371 22414.000000
1085.599487 22452.000000
1087.442261 22488.000000
1089.283813 22314.000000
1091.124634 22285.000000
1092.963867 21948.000000
1094.802368 21977.000000
1096.639526 22052.000000
1098.475464 21727.000000
1100.310425 21181.000000
1102.144165 20892.000000
1103.976929 20862.000000
1105.808350 20968.000000
1107.638916 21169.000000
1109.468140 20794.000000
1111.296387 20064.000000
1113.123413 20012.000000
1114.949463 20276.000000
1116.774292 20274.000000
1118.598022 20023.000000
1120.420532 20065.000000
1122.241943 20212.000000
1124.062500 20109.000000
1125.881592 20124.000000
1127.699829 20086.000000
1129.516724 20187.000000
1131.332764 20256.000000
1133.147583 20490.000000
1134.961304 20431.000000
1136.773926 20689.000000
1138.585327 20986.000000
1140.395752 21120.000000
1142.205078 20985.000000
1144.013062 20951.000000
1145.820313 21075.000000
1147.626099 21315.000000
1149.431030 21061.000000
1151.234863 21009.000000
1153.037476 20942.000000
1154.839233 20967.000000
1156.639526 20921.000000
1158.438843 20982.000000
1160.237183 20837.000000
1162.034180 20811.000000
1163.830444 20661.000000
1165.625366 20478.000000
1167.419189 20409.000000
1169.212158 19970.000000
1171.003784 20182.000000
1172.794434 19799.000000
1174.584106 19667.000000
1176.372314 19594.000000
1178.159668 19535.000000
1179.945923 19672.000000
1181.731079 19743.000000
1183.515137 19731.000000
1185.298096 19388.000000
1187.080078 19650.000000
1188.860840 19560.000000
1190.640625 19589.000000
1192.419312 19405.000000
1194.197021 19249.000000
1195.973511 18996.000000
1197.748901 18831.000000
1199.523193 18766.000000
1201.296387 18517.000000
1203.068726 18437.000000
1204.839722 18351.000000
1206.609863 18494.000000
1208.378784 18336.000000
1210.146606 18327.000000
1211.913574 18271.000000
1213.679199 18282.000000
1215.443848 18045.000000
1217.207397 18232.000000
1218.969849 18175.000000
1220.731445 17975.000000
1222.491821 18175.000000
1224.251099 17783.000000
1226.009521 17932.000000
1227.766724 18074.000000
1229.522827 18201.000000
1231.277832 18314.000000
1233.031982 18326.000000
1234.784790 18444.000000
1236.536621 18411.000000
1238.287598 18441.000000
1240.037231 18752.000000
1241.786011 18716.000000
1243.533447 18859.000000
1245.280151 18557.000000
1247.025635 18661.000000
1248.770264 18748.000000
1250.513550 18391.000000
1252.255859 18573.000000
1253.997070 18515.000000
1255.737427 18310.000000
1257.476685 17837.000000
1259.214722 17238.000000
1260.951904 17054.000000
1262.687866 17334.000000
1264.422852 17621.000000
1266.156860 17783.000000
1267.889893 18169.000000
1269.621704 18249.000000
1271.352539 18175.000000
1273.082153 18234.000000
1274.810913 18483.000000
1276.538574 18355.000000
1278.265137 18534.000000
1279.990845 18518.000000
1281.715210 18256.000000
1283.438721 18190.000000
1285.161255 17990.000000
1286.882813 17993.000000
1288.603149 18041.000000
1290.322510 18145.000000
1292.040771 17761.000000
1293.758057 17940.000000
1295.474365 18038.000000
1297.189453 17986.000000
1298.903564 18106.000000
1300.616699 17585.000000
1302.328979 17508.000000
1304.040039 17160.000000
1305.750122 17239.000000
1307.459106 17153.000000
1309.166870 16997.000000
1310.874023 16908.000000
1312.579712 16924.000000
1314.284668 16966.000000
1315.988647 17138.000000
1317.691406 17339.000000
1319.393188 17677.000000
1321.094116 21620.000000
1322.793701 22659.000000
1324.492432 19458.500000
1326.190430 16258.000000
1327.887085 16191.000000
1329.582642 16164.000000
1331.277344 16111.000000
1332.970825 16094.000000
1334.663452 16015.000000
1336.355225 15853.000000
1338.045654 15784.000000
1339.735352 15841.000000
1341.423950 15791.000000
1343.111450 15771.000000
1344.797974 15617.000000
1346.483398 15665.000000
1348.167847 15674.000000
1349.851440 15690.000000
1351.533813 15862.000000
1353.215210 15962.000000
1354.895752 16026.000000
1356.575073 16224.000000
1358.253784 16404.000000
1359.931152 16579.000000
1361.607422 16667.000000
1363.282715 16764.000000
1364.957275 16820.000000
1366.630615 16584.000000
1368.302979 16578.000000
1369.974365 16683.000000
1371.644775 16584.000000
1373.314087 16427.000000
1374.982422 16473.000000
1376.649902 16473.000000
1378.316284 16430.000000
1379.981689 16339.000000
1381.646118 16354.000000
1383.309326 15825.000000
1384.971924 16066.000000
1386.633179 15945.000000
1388.293579 15862.000000
1389.952881 15692.000000
1391.611206 15505.000000
1393.268799 15584.000000
1394.925171 15654.000000
1396.580688 15569.000000
1398.234985 15652.000000
1399.888428 15782.000000
1401.540771 15872.000000
1403.192383 15845.000000
1404.842773 15502.000000
1406.492065 15260.000000
1408.140625 14893.000000
1409.788086 14676.000000
1411.434570 14641.000000
1413.080200 14663.000000
1414.724854 14419.000000
1416.368286 14306.000000
1418.010864 14296.000000
1419.652344 14393.000000
1421.292969 14351.000000
1422.932617 14262.000000
1424.571167 14244.000000
1426.208862 14119.000000
1427.845459 14055.000000
1429.481079 14138.000000
1431.115967 14011.000000
1432.749756 14016.000000
1434.382446 14006.000000
1436.014160 13917.000000
1437.645020 14043.000000
1439.274780 14062.000000
1440.903442 13891.000000
1442.531494 13981.000000
1444.158447 13907.000000
1445.784180 13843.000000
1447.409302 14027.000000
1449.033325 13914.000000
1450.656372 14151.000000
1452.278442 14122.000000
1453.899414 14085.000000
1455.519409 14158.000000
1457.138672 14192.000000
1458.756592 15147.000000
1460.373901 12449.000000
1461.990234 13941.000000
1463.605347 13797.000000
1465.219604 13949.000000
1466.833008 14230.000000
1468.445313 14242.000000
1470.056763 14225.000000
1471.667358 14213.000000
1473.276733 14238.000000
1474.885132 14241.000000
1476.492676 14340.000000
1478.099243 14523.000000
1479.705078 14471.000000
1481.309692 14163.000000
1482.913452 13970.000000
1484.515991 13660.000000
1486.117920 13282.000000
1487.718628 13325.000000
1489.318604 13034.000000
1490.917480 12867.000000
1492.515503 12983.000000
1494.112427 12991.000000
1495.708496 13399.000000
1497.303589 13969.000000
1498.897705 13906.000000
1500.491089 13986.000000
1502.083374 13730.000000
1503.674438 13821.000000
1505.265015 13471.000000
1506.854248 13464.000000
1508.442871 13315.000000
1510.030396 13136.000000
1511.616821 13199.000000
1513.202515 13215.000000
1514.787109 13179.000000
1516.370850 13087.000000
1517.953491 13120.000000
1519.535400 12982.000000
1521.116211 13050.000000
1522.696289 12970.000000
1524.275146 12598.000000
1525.853149 12604.000000
1527.430420 12499.000000
1529.006470 12404.000000
1530.581787 12639.000000
1532.156006 12436.000000
1533.729492 12497.000000
1535.301758 12358.000000
1536.873291 12441.000000
1538.443848 12277.000000
1540.013550 12372.000000
1541.582031 12417.000000
1543.149780 12200.000000
1544.716675 12193.000000
1546.282349 12151.000000
1547.847290 12163.000000
1549.411133 12163.000000
1550.974365 12072.000000
1552.536255 12106.000000
1554.097534 12014.000000
1555.657715 11955.000000
1557.217163 11926.000000
1558.775513 11760.000000
1560.333130 11835.000000
1561.889648 11744.000000
1563.444946 11782.000000
1564.999634 11851.000000
1566.553589 11897.000000
1568.106567 11978.000000
1569.658203 11928.000000
1571.209106 11933.000000
1572.759277 11915.000000
1574.308472 12038.000000
1575.856323 11856.000000
1577.403687 11800.000000
1578.950073 11738.000000
1580.495605 11957.000000
1582.040161 11976.000000
1583.583496 12011.000000
1585.126221 11896.000000
1586.668091 11861.000000
1588.208862 11882.000000
1589.748657 11952.000000
1591.287720 11893.000000
1592.825684 11744.000000
1594.363159 11697.000000
1595.899292 11881.000000
1597.434326 11692.000000
1598.968872 11606.000000
1600.502441 11523.000000
1602.035156 11610.000000
1603.566284 11689.000000
1605.097168 11652.000000
1606.627197 11684.000000
1608.156006 11481.000000
1609.683716 11483.000000
1611.210815 11637.000000
1612.737183 11953.000000
1614.262573 11531.000000
1615.787109 11499.000000
1617.310303 11451.000000
1618.832764 11446.000000
1620.354492 11541.000000
1621.875366 11614.000000
1623.394775 10850.000000
1624.913696 11358.000000
1626.431885 11412.000000
1627.949219 11294.000000
1629.465454 11425.000000
1630.980347 11204.000000
1632.494751 11051.000000
1634.008423 11104.000000
1635.520996 11092.000000
1637.032349 10953.000000
1638.543335 11019.000000
1640.053223 11106.000000
1641.562256 11068.000000
1643.069946 10893.000000
1644.577271 10870.000000
1646.083740 10841.000000
1647.589233 10860.000000
1649.093872 10735.000000
1650.597046 10590.000000
1652.099609 10625.000000
1653.601807 10678.000000
1655.102661 10535.000000
1656.602417 10319.000000
1658.101318 10405.000000
1659.599854 10423.000000
1661.097168 10275.000000
1662.593750 10305.000000
1664.088745 10271.000000
1665.583496 10097.000000
1667.077393 10182.000000
1668.570313 11119.000000
1670.061890 8558.000000
1671.552979 9866.000000
1673.043457 9811.000000
1674.532837 9839.000000
1676.020752 9735.000000
1677.508423 9803.000000
1678.995117 9955.000000
1680.480957 9994.000000
1681.965942 9765.000000
1683.449463 9618.000000
1684.932739 9534.000000
1686.415161 9590.000000
1687.896484 9560.000000
1689.376343 9497.000000
1690.855957 9492.000000
1692.334839 9445.000000
1693.812744 9176.000000
1695.289673 9555.000000
1696.765381 9646.000000
1698.240723 9533.000000
1699.714844 9462.000000
1701.188354 9577.000000
1702.660400 9550.000000
1704.132202 9560.000000
1705.603027 9538.000000
1707.072998 9508.000000
1708.541626 9674.000000
1710.009766 9633.000000
1711.477173 9525.000000
1712.943481 9505.000000
1714.409180 9500.000000
1715.873169 9504.000000
1717.337036 9451.000000
1718.800049 9491.000000
1720.262085 9586.000000
1721.722900 9591.000000
1723.183105 9601.000000
1724.642578 9550.000000
1726.101196 9430.000000
1727.558838 9503.000000
1729.015137 9535.000000
1730.471191 9426.000000
1731.926270 9444.000000
1733.380371 9293.000000
1734.833252 9397.000000
1736.285889 9330.000000
1737.737427 9332.000000
1739.188232 9273.000000
1740.638062 9262.000000
1742.086548 9194.000000
1743.534668 9287.000000
1744.981934 9232.000000
1746.428467 8983.000000
1747.873413 9200.000000
1749.318115 9115.000000
1750.761963 9097.000000
1752.204956 9284.000000
1753.646484 8926.000000
1755.087769 9352.000000
1756.528198 8182.000000
1757.967651 8859.000000
1759.406128 8931.000000
1760.843628 8792.000000
1762.280640 8665.000000
1763.716675 8688.000000
1765.151855 8573.000000
1766.585571 8605.000000
1768.019165 8888.000000
1769.451782 8746.000000
1770.883545 8792.000000
1772.314453 8802.000000
1773.744141 8726.000000
1775.173096 8533.000000
1776.601563 8228.000000
1778.029053 7984.000000
1779.455200 7612.000000
1780.881104 8228.000000
1782.305908 8233.000000
1783.730103 8224.000000
1785.152832 8043.000000
1786.575073 8148.000000
1787.996582 8140.000000
1789.417358 8139.000000
1790.837158 8064.000000
1792.255615 8006.000000
1793.673584 7876.000000
1795.090942 7989.000000
1796.507446 7898.000000
1797.922485 7981.000000
1799.337158 7937.000000
1800.751221 7811.000000
1802.164063 7970.000000
1803.576294 7861.000000
1804.987183 7835.000000
1806.397583 7810.000000
1807.807251 7759.000000
1809.215942 7731.000000
1810.623535 7917.000000
1812.030640 7885.000000
1813.436890 7805.000000
1814.842163 7915.000000
1816.246338 8033.000000
1817.650146 7926.000000
1819.052979 7943.000000
1820.454956 7790.000000
1821.856323 7898.000000
1823.256226 7839.000000
1824.655518 7909.000000
1826.054321 7886.000000
1827.452271 7735.000000
1828.848877 7905.000000
1830.244873 7863.000000
1831.640137 7821.000000
1833.034790 7664.000000
1834.428467 7774.000000
1835.820801 7734.000000
1837.212646 7718.000000
1838.603882 7767.000000
1839.994141 7833.000000
1841.383179 7624.000000
1842.771851 7588.000000
1844.159546 7524.000000
1845.546509 7581.000000
1846.932129 7473.000000
1848.317505 7591.000000
1849.702026 7624.000000
1851.085815 7516.000000
1852.468506 7451.000000
1853.849976 7373.000000
1855.230957 7278.000000
1856.611450 7275.000000
1857.990967 7356.000000
1859.369019 7271.000000
1860.746948 7257.000000
1862.123901 7145.000000
1863.500122 7094.000000
1864.875488 7180.000000
1866.249390 7102.000000
1867.623169 7082.000000
1868.996094 6966.000000
1870.367920 6880.000000
1871.738770 6896.000000
1873.109253 6927.000000
1874.478638 6811.000000
1875.847534 6900.000000
1877.214844 6799.000000
1878.582031 6785.000000
1879.948242 6827.000000
1881.313721 6622.000000
1882.678467 6712.000000
1884.041626 6677.000000
1885.404663 6746.000000
1886.766846 6697.000000
1888.128174 6568.000000
1889.488159 6668.000000
1890.847778 6654.000000
1892.206787 6608.000000
1893.564819 6575.000000
1894.921997 6455.000000
1896.277954 6531.000000
1897.633667 6409.000000
1898.988403 6537.000000
1900.342285 6507.000000
1901.695068 6591.000000
1903.047363 6449.000000
1904.398926 6545.000000
1905.749634 6669.000000
1907.099121 6670.000000
1908.448120 6482.000000
1909.796265 6555.000000
1911.143799 6625.000000
1912.490601 6507.000000
1913.835815 6576.000000
1915.180786 6555.000000
1916.525024 6629.000000
1917.868408 6573.000000
1919.210449 6465.000000
1920.552246 6604.000000
1921.893188 6369.000000
1923.233398 6581.000000
1924.572632 6414.000000
1925.910889 6427.000000
1927.248535 6524.000000
1928.585449 6481.000000
1929.921509 6494.000000
1931.256348 6399.000000
1932.590820 6442.000000
1933.924561 6355.000000
1935.257446 6298.000000
1936.588867 6337.000000
1937.920410 6342.000000
1939.250610 6121.000000
1940.580322 6291.000000
1941.909180 6332.000000
1943.236816 6214.000000
1944.563965 6248.000000
1945.890381 6191.000000
1947.216064 6294.000000
1948.540405 6273.000000
1949.864502 6176.000000
1951.187744 6135.000000
1952.510254 6190.000000
1953.831665 6060.000000
1955.152100 6082.000000
1956.471924 6125.000000
1957.791382 6010.000000
1959.109863 6049.000000
1960.427002 5975.000000
1961.743774 5925.000000
1963.059814 6013.000000
1964.375122 5924.000000
1965.688965 5893.000000
1967.002563 5974.000000
1968.315430 5962.000000
1969.627441 5810.000000
1970.938843 5836.000000
1972.248901 5737.000000
1973.558472 5627.000000
1974.867310 5728.000000
1976.175537 5703.000000
1977.482422 5493.000000
1978.788696 5563.000000
1980.094604 5657.000000
1981.399292 5720.000000
1982.703491 5605.000000
1984.006470 5554.000000
1985.309082 5610.000000
1986.610718 5671.000000
1987.911743 5496.000000
1989.211182 5297.000000
1990.510742 5367.000000
1991.809204 5393.000000
1993.107178 5334.000000
1994.403564 5312.000000
1995.699951 5246.000000
1996.995361 5314.000000
1998.290039 5211.000000
1999.583862 5236.000000
2000.876465 5204.000000
2002.168579 5135.000000
2003.460205 5132.000000
2004.751099 5039.000000
2006.040405 5228.000000
2007.329468 5084.000000
2008.617798 5178.000000
2009.905396 5069.000000
2011.192139 5069.000000
2012.477783 5077.000000
2013.763062 5105.000000
2015.047363 5120.000000
2016.331055 5059.000000
2017.613403 5081.000000
2018.895386 5091.000000
2020.176880 5031.000000
2021.457397 4940.000000
2022.737183 4974.000000
2024.015869 5002.000000
2025.293823 4918.000000
2026.571289 4906.000000
2027.848145 5036.000000
2029.123291 4996.000000
2030.398560 5073.000000
2031.672852 5136.000000
2032.946167 5040.000000
2034.218628 4992.000000
2035.490723 5192.000000
2036.761719 4985.000000
2038.032471 4940.000000
2039.301880 5024.000000
2040.570190 5125.000000
2041.838501 5019.000000
2043.105835 5021.000000
2044.372437 5004.000000
2045.637817 4932.000000
2046.902588 5457.000000
2048.167236 5023.000000
2049.430420 4843.000000
2050.693359 4916.000000
2051.954346 4896.000000
2053.215820 4863.000000
2054.476074 4814.000000
2055.735596 4770.000000
2056.994385 4769.000000
2058.252197 4824.000000
2059.509521 4762.000000
2060.766113 4701.000000
2062.021240 4809.000000
2063.276367 4794.000000
2064.530518 4711.000000
2065.783936 4707.000000
2067.036621 4654.000000
2068.288086 4642.000000
2069.539307 4653.000000
2070.789795 4662.000000
2072.039551 4615.000000
2073.287842 4252.000000
2074.536133 4639.000000
2075.783447 4535.000000
2077.030029 4472.000000
2078.275879 4462.000000
2079.520508 4572.000000
2080.764648 4551.000000
2082.008301 4466.000000
2083.250977 4468.000000
2084.492432 4448.000000
2085.733643 4344.000000
2086.974365 4366.000000
2088.214111 4377.000000
2089.452637 4316.000000
2090.690674 4348.000000
2091.927979 4292.000000
2093.165039 4303.000000
2094.400635 4250.000000
2095.635498 4387.000000
2096.870117 4380.000000
2098.103760 4360.000000
2099.336426 4273.000000
2100.568359 4265.000000
2101.799805 4314.000000
2103.030273 4244.000000
2104.260010 4231.000000
2105.489502 4245.000000
2106.717041 4141.000000
2107.944824 4059.000000
2109.171875 4039.000000
2110.397949 4017.000000
2111.622559 4054.000000
2112.847412 3987.000000
2114.071045 4113.000000
2115.294189 4070.000000
2116.516113 3965.000000
2117.737793 4075.000000
2118.958496 4173.000000
2120.178467 4071.000000
2121.397949 4149.000000
2122.615967 4053.000000
2123.833984 3974.000000
2125.051025 4051.000000
2126.267578 4074.000000
2127.482422 4030.000000
2128.697510 4027.000000
2129.911621 4087.000000
2131.125000 3997.000000
2132.337646 3901.000000
2133.548828 4037.000000
2134.760254 4094.000000
2135.970459 3978.000000
2137.180176 4014.000000
2138.388428 4009.000000
2139.596680 3959.000000
2140.804199 3881.000000
2142.010498 3833.000000
2143.216064 3860.000000
2144.421387 3930.000000
2145.625732 3945.000000
2146.829346 3925.000000
2148.032471 3843.000000
2149.234131 3932.000000
2150.435547 3968.000000
2151.636230 3850.000000
2152.836182 3781.000000
2154.034912 3858.000000
2155.233398 3841.000000
2156.431396 3935.000000
2157.628418 3784.000000
2158.824707 3786.000000
2160.019775 3728.000000
2161.214600 3647.000000
2162.408691 3655.000000
2163.601807 3709.000000
2164.793945 3661.000000
2165.985840 3631.000000
2167.177002 3561.000000
2168.367188 3538.000000
2169.556641 3538.000000
2170.745605 3602.000000
2171.933594 3489.000000
2173.121338 3478.000000
2174.307617 3472.000000
2175.493164 3352.000000
2176.678467 3465.000000
2177.863281 3271.000000
2179.046875 3380.000000
2180.229736 3439.000000
2181.411621 3297.000000
2182.593262 3369.000000
2183.774414 3317.000000
2184.954346 3264.000000
2186.133301 3306.000000
2187.311768 3299.000000
2188.489990 3390.000000
2189.666992 3342.000000
2190.843018 3196.000000
2192.018799 3321.000000
2193.194092 3215.000000
2194.367920 3373.000000
2195.541260 3284.000000
2196.714355 3248.000000
2197.886230 3377.000000
2199.057617 3282.000000
2200.228516 3254.000000
2201.397705 3260.000000
2202.566895 3392.000000
2203.735596 3250.000000
2204.903320 3236.000000
2206.070068 3307.000000
2207.236084 3293.000000
2208.401611 3300.000000
2209.566895 3220.000000
2210.730713 3160.000000
2211.894043 3253.000000
2213.056152 3253.000000
2214.218506 3256.000000
2215.379639 3175.000000
2216.539795 3084.000000
2217.699463 3190.000000
2218.858887 3257.000000
2220.017090 3096.000000
2221.174316 3231.000000
2222.331299 3116.000000
2223.487549 3131.000000
2224.643066 3053.000000
2225.797852 3036.000000
2226.951660 3050.000000
2228.104492 3007.000000
2229.257813 3034.000000
2230.409180 3062.000000
2231.560303 2925.000000
2232.710693 3104.000000
2233.860596 2966.000000
2235.009521 2972.000000
2236.157959 2965.000000
2237.304932 3066.000000
2238.452148 2984.000000
2239.598145 2977.000000
2240.743896 2847.000000
2241.887939 2831.000000
2243.032227 2825.000000
2244.175537 2800.000000
2245.318115 2833.000000
2246.459717 2811.000000
2247.601074 2729.000000
2248.741455 2855.000000
2249.881104 2732.000000
2251.020264 2735.000000
2252.158203 2670.000000
2253.296143 2641.000000
2254.433105 2711.000000
2255.569336 2664.000000
2256.704590 2734.000000
2257.839111 2649.000000
2258.973389 2522.000000
2260.107178 2695.000000
2261.239502 2693.000000
2262.371338 2700.000000
2263.502686 2509.000000
2264.633057 2560.000000
2265.763184 2514.000000
2266.892090 2399.000000
2268.020508 2513.000000
2269.148438 2527.000000
2270.275391 2472.000000
2271.401611 2472.000000
2272.526855 2519.000000
2273.652100 2461.000000
2274.776611 2503.000000
2275.899902 2564.000000
2277.022461 2620.000000
2278.144531 2515.000000
2279.266113 2417.000000
2280.386963 2542.000000
2281.506592 2332.000000
2282.625732 2496.000000
2283.744629 2402.000000
2284.862793 2390.000000
2285.979980 2379.000000
2287.096191 2376.000000
2288.212158 2367.000000
2289.327393 2424.000000
2290.441895 2380.000000
2291.555176 2494.000000
2292.668457 2432.000000
2293.781006 2430.000000
2294.892822 2425.000000
2296.003906 2415.000000
2297.113770 2517.000000
2298.223145 2445.000000
2299.332275 2395.000000
2300.440430 2434.000000
2301.547607 2410.000000
2302.654541 2486.000000
2303.760742 2474.000000
2304.866455 2490.000000
2305.970703 2403.000000
2307.074707 2417.000000
2308.178223 2488.000000
2309.281250 2369.000000
2310.383057 2375.000000
2311.484131 2298.000000
2312.584717 2313.000000
2313.684814 2328.000000
2314.784180 2366.000000
2315.882080 2158.000000
2316.980469 2436.000000
2318.077393 2342.000000
2319.174072 2360.000000
2320.270264 2288.000000
2321.364746 2312.000000
2322.459229 2225.000000
2323.552979 2279.000000
2324.646484 2181.000000
2325.738281 2272.000000
2326.830078 2384.000000
2327.921143 2271.000000
2329.011475 2294.000000
2330.100830 2358.000000
2331.190186 2211.000000
2332.278320 2324.000000
2333.365967 2343.000000
2334.453369 2152.000000
2335.539063 2084.000000
2336.624512 2130.000000
2337.709717 2149.000000
2338.793945 2090.000000
2339.877197 2119.000000
2340.960205 2233.000000
2342.042236 2112.000000
2343.124023 2049.000000
2344.205078 2051.000000
2345.284912 2102.000000
2346.364258 2109.000000
2347.443115 2107.000000
2348.521484 1998.000000
2349.598389 1970.000000
2350.675049 1968.000000
2351.751465 2093.000000
2352.826904 1970.000000
2353.901367 2056.000000
2354.975586 2072.000000
2356.049072 2044.000000
2357.122070 2006.000000
2358.193848 2001.000000
2359.265381 1916.000000
2360.335938 1919.000000
2361.406250 1955.000000
2362.475586 1992.000000
2363.543945 1893.000000
2364.612061 1868.000000
2365.679443 1970.000000
2366.746338 1886.000000
2367.812500 1951.000000
2368.877441 1790.000000
2369.942383 1907.000000
2371.006592 1920.000000
2372.070068 1828.000000
2373.132324 1874.000000
2374.194580 1923.000000
2375.255859 1770.000000
2376.316895 1880.000000
2377.376709 1871.000000
2378.435791 1837.000000
2379.494873 1874.000000
2380.552979 1787.000000
2381.610352 1855.000000
2382.666748 1878.000000
2383.722900 1915.000000
2384.778564 1840.000000
2385.833496 1830.000000
2386.886963 1746.000000
2387.940674 1737.000000
2388.993408 1778.000000
2390.045654 1757.000000
2391.097168 1947.000000
2392.147705 1908.000000
2393.197998 1823.000000
2394.247314 1820.000000
2395.296631 1830.000000
2396.344482 1858.000000
2397.391846 1724.000000
2398.438965 1786.000000
2399.485107 1800.000000
2400.530518 1791.000000
2401.575195 1796.000000
2402.619873 1800.000000
2403.663086 1748.000000
2404.706299 1739.000000
2405.748047 1810.000000
2406.790039 1707.000000
2407.831299 1796.000000
2408.871582 1776.000000
2409.911133 1734.000000
2410.949707 1832.000000
2411.988525 1722.000000
2413.026123 1748.000000
2414.063477 1747.000000
2415.099609 1724.000000
2416.135498 1721.000000
2417.170654 1676.000000
2418.205322 1740.000000
2419.238525 1710.000000
2420.271973 1688.000000
2421.304443 1622.000000
2422.336670 1712.000000
2423.367432 1604.000000
2424.398193 1676.000000
2425.428467 1764.000000
2426.457520 1699.000000
2427.486572 1556.000000
2428.513916 1736.000000
2429.541748 1723.000000
2430.568359 1695.000000
2431.594727 1602.000000
2432.619629 1692.000000
2433.644775 1719.000000
2434.668945 1542.000000
2435.692871 1626.000000
2436.715576 1597.000000
2437.737549 1564.000000
2438.759277 1654.000000
2439.780273 1564.000000
2440.800781 1636.000000
2441.820068 1573.000000
2442.839355 1552.000000
2443.857666 1536.000000
2444.875732 1487.000000
2445.892334 1564.000000
2446.908936 1506.000000
2447.924805 1441.000000
2448.940674 1476.000000
2449.955078 1494.000000
2450.968750 1501.000000
2451.981934 1585.000000
2452.994873 1542.000000
2454.007080 1469.000000
2455.018311 1488.000000
2456.029297 1477.000000
2457.039551 1503.000000
2458.049316 1508.000000
2459.058105 1382.000000
2460.066162 1357.000000
2461.074219 1538.000000
2462.081055 1431.000000
2463.087646 1447.000000
2464.093018 1456.000000
2465.098145 1309.000000
2466.103027 1413.000000
2467.106689 1347.000000
2468.110107 1431.000000
2469.112549 1461.000000
2470.114746 1386.000000
2471.116455 1469.000000
2472.117188 1329.000000
2473.116943 1245.000000
2474.116699 1371.000000
2475.115479 1427.000000
2476.113770 1302.000000
2477.111084 1350.000000
2478.108154 1401.000000
2479.105225 1345.000000
2480.100830 1370.000000
2481.096436 1344.000000
2482.090332 1384.000000
2483.084229 1342.000000
2484.077637 1306.000000
2485.070557 1391.000000
2486.062500 1408.000000
2487.053711 1377.000000
2488.044678 1480.000000
2489.035156 1380.000000
2490.024658 1406.000000
2491.013428 1329.000000
2492.002197 1345.000000
2492.989990 1475.000000
2493.976563 1344.000000
2494.963135 1377.000000
2495.949219 1298.000000
2496.934570 1357.000000
2497.918945 1306.000000
2498.903076 1405.000000
2499.887207 1282.000000
2500.869873 1376.000000
2501.852051 1407.000000
2502.833740 1391.000000
2503.814697 1345.000000
2504.795166 1307.000000
2505.775391 1411.000000
2506.754150 1319.000000
2507.732666 1297.000000
2508.710693 1285.000000
2509.688232 1342.000000
2510.664795 1305.000000
2511.641113 1330.000000
2512.616699 1342.000000
2513.591797 1287.000000
2514.566406 1304.000000
2515.539795 1329.000000
2516.512939 1108.000000
2517.485840 1311.000000
2518.457764 1325.000000
2519.428955 1139.000000
2520.399658 1213.000000
2521.370117 1208.000000
2522.339844 1163.000000
2523.308594 1222.000000
2524.276611 1234.000000
2525.244629 1275.000000
2526.211670 1299.000000
2527.178467 1245.000000
2528.144043 1208.000000
2529.109619 1184.000000
2530.074463 1230.000000
2531.038818 1249.000000
2532.001953 1233.000000
2532.965332 1175.000000
2533.927734 1181.000000
2534.889893 1148.000000
2535.850830 1211.000000
2536.811035 1257.000000
2537.771484 1187.000000
2538.730957 1263.000000
2539.689697 1184.000000
2540.647461 1129.000000
2541.605469 1150.000000
2542.562744 1225.000000
2543.519043 1142.000000
2544.475098 1137.000000
2545.429932 1125.000000
2546.385010 1173.000000
2547.339355 1113.000000
2548.292969 531.000000
2549.245605 1142.000000
2550.197998 982.000000
2551.149902 1118.000000
2552.101074 1174.000000
2553.051514 1082.000000
2554.001465 1044.000000
2554.951172 1201.000000
2555.900146 1187.000000
2556.848633 1111.000000
2557.795898 1136.000000
2558.743164 1087.000000
2559.689697 1066.000000
2560.635742 1041.000000
2561.580811 1122.000000
2562.525635 1003.000000
2563.469971 1101.000000
2564.413818 1041.000000
2565.357178 1043.000000
2566.299072 960.000000
2567.241211 1063.000000
2568.182617 1186.000000
2569.123291 977.000000
2570.063232 1046.000000
2571.003174 987.000000
2571.942139 1086.000000
2572.880859 964.000000
2573.818604 965.000000
2574.756104 960.000000
2575.692871 1010.000000
2576.628906 983.000000
2577.564453 1148.000000
2578.499268 1057.000000
2579.434082 960.000000
2580.367920 1027.000000
2581.301270 917.000000
2582.233887 983.000000
2583.166260 1031.000000
2584.097900 1096.000000
2585.029053 899.000000
2585.959717 1034.000000
2586.889160 1053.000000
2587.818604 934.000000
2588.747559 1003.000000
2589.676270 1009.000000
2590.603271 1065.000000
2591.530518 1041.000000
2592.457275 912.000000
2593.383301 1023.000000
2594.309082 1018.000000
2595.233643 898.000000
2596.157959 995.000000
2597.081787 1027.000000
2598.005127 934.000000
2598.927490 999.000000
2599.849609 984.000000
2600.771240 938.000000
2601.692139 954.000000
2602.612305 988.000000
2603.532227 989.000000
2604.451660 891.000000
2605.370850 895.000000
2606.289063 928.000000
2607.206055 899.000000
2608.123291 894.000000
2609.040283 886.000000
2609.956299 990.000000
2610.871094 876.000000
2611.786377 981.000000
2612.700928 927.000000
2613.614502 823.000000
2614.528076 896.000000
2615.440430 915.000000
2616.352783 994.000000
2617.264160 954.000000
2618.175293 1049.000000
2619.085693 615.000000
2619.995850 865.000000
2620.905273 871.000000
2621.814209 868.000000
2622.722168 909.000000
2623.630371 869.000000
2624.537598 862.000000
2625.444336 885.000000
2626.350342 892.000000
2627.256104 909.000000
2628.161133 898.000000
2629.065918 964.000000
2629.969971 838.000000
2630.873047 872.000000
2631.776123 878.000000
2632.678223 920.000000
2633.580322 860.000000
2634.482178 949.000000
2635.382324 875.000000
2636.282715 887.000000
2637.182373 881.000000
2638.081787 916.000000
2638.979736 819.000000
2639.878174 999.000000
2640.776123 845.000000
2641.673340 750.000000
2642.569336 812.000000
2643.465332 978.000000
2644.361084 862.000000
2645.256104 819.000000
2646.150879 731.000000
2647.044189 768.000000
2647.937500 840.000000
2648.830566 831.000000
2649.723389 799.000000
2650.614502 754.000000
2651.505859 777.000000
2652.396729 757.000000
2653.286865 786.000000
2654.176758 773.000000
2655.065430 769.000000
2655.954346 842.000000
2656.842773 770.000000
2657.730225 640.000000
2658.616699 733.000000
2659.503662 725.000000
2660.389893 760.000000
2661.275635 652.000000
2662.160156 816.000000
2663.044678 739.000000
2663.928955 814.000000
2664.812500 772.000000
2665.695557 537.000000
2666.577881 732.000000
2667.459717 735.000000
2668.340820 808.000000
2669.222168 776.000000
2670.102051 749.000000
2670.982178 653.000000
2671.861572 743.000000
2672.740967 773.000000
2673.619629 744.000000
2674.496582 782.000000
2675.374268 687.000000
2676.251221 749.000000
2677.127441 635.000000
2678.003174 725.000000
2678.878174 757.000000
2679.753418 689.000000
2680.627686 670.000000
2681.501465 786.000000
2682.374512 783.000000
2683.247314 742.000000
2684.119873 710.000000
2684.991699 732.000000
2685.862793 704.000000
2686.733643 642.000000
2687.604004 705.000000
2688.474121 640.000000
2689.342529 637.000000
2690.211670 631.000000
2691.080078 704.000000
2691.948242 722.000000
2692.815674 576.000000
2693.681885 649.000000
2694.548584 689.000000
2695.414307 660.000000
2696.280029 767.000000
2697.144287 580.000000
2698.009277 639.000000
2698.872803 738.000000
2699.736572 675.000000
2700.598877 610.000000
2701.461670 637.000000
2702.323486 715.000000
2703.184814 640.000000
2704.046143 710.000000
2704.906250 661.000000
2705.766357 602.000000
2706.625977 694.000000
2707.485352 661.000000
2708.343018 612.000000
2709.200928 715.000000
2710.059326 595.000000
2710.916504 695.000000
2711.772949 582.000000
2712.628906 581.000000
2713.484863 643.000000
2714.340088 514.000000
2715.194580 518.000000
2716.048584 612.000000
2716.902588 674.000000
2717.755615 539.000000
2718.608887 636.000000
2719.460449 567.000000
2720.312500 659.000000
2721.164307 647.000000
2722.014893 597.000000
2722.865479 648.000000
2723.715576 638.000000
2724.564941 583.000000
2725.414307 562.000000
2726.262451 629.000000
2727.110107 595.000000
2727.958252 648.000000
2728.805176 634.000000
2729.652588 577.000000
2730.498535 661.000000
2731.343750 619.000000
2732.189453 568.000000
2733.034180 581.000000
2733.878906 574.000000
2734.722412 625.000000
2735.566162 611.000000
2736.409180 636.000000
2737.251709 567.000000
2738.093262 579.000000
2738.935303 533.000000
2739.776367 563.000000
2740.617188 628.000000
2741.457764 514.000000
2742.297119 546.000000
2743.136475 657.000000
2743.975830 558.000000
2744.813965 500.000000
2745.651611 624.000000
2746.489258 580.000000
2747.326416 597.000000
2748.163330 613.000000
2748.999756 544.000000
2749.834961 541.000000
2750.670410 648.000000
2751.505371 587.000000
2752.339600 562.000000
2753.173584 620.000000
2754.007080 490.000000
2754.840576 612.000000
2755.673096 639.000000
2756.505127 585.000000
2757.336670 600.000000
2758.168213 564.000000
2758.998779 468.000000
2759.829590 523.000000
2760.659180 607.000000
2761.488770 572.000000
2762.318115 465.000000
2763.146729 511.000000
2763.974854 615.000000
2764.802490 557.000000
2765.630127 587.000000
2766.457275 521.000000
2767.283691 569.000000
2768.109619 562.000000
2768.935059 542.000000
2769.760254 535.000000
2770.585449 531.000000
2771.409424 586.000000
2772.233398 568.000000
2773.057373 505.000000
2773.880127 586.000000
2774.703125 562.000000
2775.524902 441.000000
2776.346680 557.000000
2777.168457 503.000000
2777.989258 543.000000
2778.809326 505.000000
2779.629639 537.000000
2780.449463 478.000000
2781.269287 450.000000
2782.087158 591.000000
2782.906250 521.000000
2783.724121 549.000000
2784.541748 480.000000
2785.358887 376.000000
2786.175537 506.000000
2786.991943 565.000000
2787.807861 469.000000
2788.623535 524.000000
2789.438232 513.000000
2790.253418 452.000000
2791.067871 483.000000
2791.881836 497.000000
2792.695557 516.000000
2793.508057 410.000000
2794.320801 379.000000
2795.133057 486.000000
2795.944824 579.000000
2796.755859 416.000000
2797.567627 491.000000
2798.378174 510.000000
2799.188721 535.000000
2799.997803 446.000000
2800.807617 416.000000
2801.616699 341.000000
2802.425537 449.000000
2803.233887 465.000000
2804.041260 460.000000
2804.849121 537.000000
2805.656250 477.000000
2806.463135 446.000000
2807.268799 274.000000
2808.074951 300.000000
2808.880371 438.000000
2809.685791 393.000000
2810.490479 516.000000
2811.294189 317.000000
2812.098389 364.000000
2812.902100 512.000000
2813.705566 375.000000
2814.507568 483.000000
2815.310303 382.000000
2816.112305 416.000000
2816.914063 493.000000
2817.715332 455.000000
2818.516113 358.000000
2819.316406 400.000000
2820.116943 513.000000
2820.916504 426.000000
2821.715576 387.000000
2822.514648 412.000000
2823.313477 437.000000
2824.111816 435.000000
2824.909180 361.000000
2825.706787 462.000000
2826.503662 437.000000
2827.300781 341.000000
2828.097168 498.000000
2828.892822 395.000000
2829.688477 436.000000
2830.483887 294.000000
2831.278809 418.000000
2832.072998 472.000000
2832.867188 414.000000
2833.661133 417.000000
2834.454590 383.000000
2835.247314 472.000000
2836.039795 389.000000
2836.832275 396.000000
2837.624512 493.000000
2838.416260 449.000000
2839.207031 408.000000
2839.997803 450.000000
2840.788818 385.000000
2841.578857 419.000000
2842.368408 386.000000
2843.158203 404.000000
2843.947021 412.000000
2844.735840 373.000000
2845.524658 426.000000
2846.312500 325.000000
2847.099854 468.000000
2847.887451 332.000000
2848.674561 358.000000
2849.460938 352.000000
2850.247314 338.000000
2851.033447 300.000000
2851.819092 316.000000
2852.603760 316.000000
2853.388916 349.000000
2854.173828 375.000000
2854.958008 408.000000
2855.742188 452.000000
2856.525146 409.000000
2857.308350 331.000000
2858.091309 357.000000
2858.873779 417.000000
2859.656006 443.000000
2860.437744 430.000000
2861.219238 382.000000
2862.000977 379.000000
2862.781982 290.000000
2863.562256 478.000000
2864.342285 404.000000
2865.122314 372.000000
2865.902100 379.000000
2866.680908 384.000000
2867.459961 240.000000
2868.238525 373.000000
2869.016846 380.000000
2869.794678 298.000000
2870.572266 369.000000
2871.349609 476.000000
2872.126709 430.000000
2872.903320 440.000000
2873.679443 365.000000
2874.455566 406.000000
2875.231201 376.000000
2876.006592 348.000000
2876.781494 331.000000
2877.556152 409.000000
2878.330811 321.000000
2879.105225 352.000000
2879.878906 385.000000
2880.651855 287.000000
2881.425537 379.000000
2882.198242 329.000000
2882.970947 385.000000
2883.742920 341.000000
2884.514648 353.000000
2885.286865 298.000000
2886.057861 307.000000
2886.828369 357.000000
2887.599365 347.000000
2888.370361 261.000000
2889.140625 399.000000
2889.909912 250.000000
2890.679443 319.000000
2891.448975 261.000000
2892.218018 314.000000
2892.986572 318.000000
2893.755127 321.000000
2894.522705 394.000000
2895.290771 334.000000
2896.058350 272.000000
2896.825928 479.000000
2897.592285 331.000000
2898.359619 336.000000
2899.125732 376.000000
2899.892090 312.000000
2900.656982 277.000000
2901.422363 331.000000
2902.188232 429.000000
2902.952637 356.000000
2903.717041 280.000000
2904.481689 287.000000
2905.245361 303.000000
2906.009766 415.000000
2906.773438 248.000000
2907.536377 244.000000
2908.299072 318.000000
2909.062256 326.000000
2909.824951 361.000000
2910.586426 325.000000
2911.348389 325.000000
spectrumdark 2048
-96.882408 6220.000000
-94.255539 6220.000000
-91.630547 6113.000000
-89.007446 6453.000000
-86.386215 5849.000000
-83.766884 6320.000000
-81.149414 6076.000000
-78.533821 6403.000000
-75.920105 6218.000000
-73.308266 5919.000000
-70.698288 6116.000000
-68.090195 5988.000000
-65.483948 5987.000000
-62.879581 5992.000000
-60.277073 6107.000000
-57.676418 5641.000000
-55.077625 6272.000000
-52.480690 6870.000000
-49.885609 6473.000000
-47.292381 6534.000000
-44.701004 6319.000000
-42.111473 6784.000000
-39.523785 5929.000000
-36.937946 6022.000000
-34.353951 6505.000000
-31.771791 5730.000000
-29.191479 6305.000000
-26.612993 5719.000000
-24.036350 6132.000000
-21.461533 6247.000000
-18.888556 6448.000000
-16.317398 6459.000000
-13.748075 6791.000000
-11.180576 7729.000000
-8.614897 6275.000000
-6.051043 6456.000000
-3.489002 5994.000000
-0.928786 5851.000000
1.629622 6159.000000
4.186209 6894.000000
6.740991 6577.000000
9.293956 6020.000000
11.845120 6735.000000
14.394472 6499.000000
16.942028 6513.000000
19.487772 5995.000000
22.031723 5804.000000
24.573870 6663.000000
27.114220 6758.000000
29.652784 6898.000000
32.189552 6166.000000
34.724518 5824.000000
37.257706 7262.000000
39.789112 6325.000000
42.318726 7160.000000
44.846542 6541.000000
47.372601 7829.000000
49.896870 5608.000000
52.419369 6187.000000
54.940071 6733.000000
57.459019 6303.000000
59.976192 6442.000000
62.491589 6529.000000
65.005211 5627.000000
67.517075 5727.000000
70.027191 6559.000000
72.535515 6580.000000
75.042084 5931.000000
77.546906 6399.000000
80.049973 6446.000000
82.551262 6323.000000
85.050812 6152.000000
87.548607 6286.000000
90.044670 5762.000000
92.538956 7229.000000
95.031502 5771.000000
97.522331 6937.000000
100.011391 7212.000000
102.498703 6357.000000
104.984291 6178.000000
107.468140 6458.000000
109.950241 5779.000000
112.430618 6489.000000
114.909271 6242.000000
117.386200 6469.000000
119.861374 7201.000000
122.334839 6811.000000
124.806572 5903.000000
127.276596 6685.000000
129.744858 6259.000000
132.211456 6319.000000
134.676300 5718.000000
137.139450 6167.000000
139.600861 7247.000000
142.060577 6863.000000
144.518570 6411.000000
146.974869 5976.000000
149.429459 5786.000000
151.882324 6790.000000
154.333511 6314.000000
156.783005 6550.000000
159.230774 6048.000000
161.676834 6561.000000
164.121216 8704.000000
166.563919 6433.000000
169.004929 6660.000000
171.444229 6232.000000
173.881821 7231.000000
176.317780 6549.000000
178.751999 6890.000000
181.184540 7193.000000
183.615433 6669.000000
186.044601 6794.000000
188.472122 6703.000000
190.897964 6313.000000
193.322128 6654.000000
195.744629 7042.000000
198.165436 7401.000000
200.584579 6474.000000
203.002060 5982.000000
205.417847 7553.000000
207.831985 7061.000000
210.244492 6411.000000
212.655319 6092.000000
215.064468 6252.000000
217.471985 7346.000000
219.877792 6151.000000
222.282013 6562.000000
224.684525 6717.000000
227.085419 6857.000000
229.484665 6465.000000
231.882248 6886.000000
234.278168 7257.000000
236.672470 6499.000000
239.065109 5827.000000
241.456131 6775.000000
243.845490 6513.000000
246.233231 6362.000000
248.619324 6955.000000
251.003784 6127.000000
253.386597 7891.000000
255.767838 6670.000000
258.147369 6653.000000
260.525330 6470.000000
262.901611 7519.000000
265.276337 7555.000000
267.649414 7856.000000
270.020844 6151.000000
272.390625 6372.000000
274.758850 5887.000000
277.125427 6314.000000
279.490417 6792.000000
281.853790 6030.000000
284.215515 6244.000000
286.575653 7070.000000
288.934174 5948.000000
291.291107 6501.000000
293.646423 6428.000000
296.000153 5924.000000
298.352234 5989.000000
300.702759 6316.000000
303.051697 6338.000000
305.398987 6760.000000
307.744751 6376.000000
310.088837 6454.000000
312.431396 7284.000000
314.772339 7597.000000
317.111664 7152.000000
319.449432 6973.000000
321.785645 8133.000000
324.120209 6212.000000
326.453217 6462.000000
328.784668 6025.000000
331.114532 6599.000000
333.442810 6390.000000
335.769470 7256.000000
338.094635 6308.000000
340.418182 6179.000000
342.740173 6027.000000
345.060608 7457.000000
347.379425 7676.000000
349.696686 5973.000000
352.012421 5802.000000
354.326569 6927.000000
356.639130 6275.000000
358.950134 6313.000000
361.259613 7050.000000
363.567566 6340.000000
365.873901 5654.000000
368.178650 6395.000000
370.481934 6415.000000
372.783600 6260.000000
375.083771 6384.000000
377.382385 6265.000000
379.679443 5710.000000
381.974945 6079.000000
384.268921 5892.000000
386.561310 5192.000000
388.852203 5575.000000
391.141571 6217.000000
393.429352 6195.000000
395.715607 6512.000000
398.000366 6969.000000
400.283508 6019.000000
402.565216 6422.000000
404.845398 6142.000000
407.123993 7169.000000
409.401062 6451.000000
411.676605 6654.000000
413.950623 6441.000000
416.223206 6333.000000
418.494171 6371.000000
420.763641 6406.000000
423.031616 7112.000000
425.298035 7215.000000
427.562958 6274.000000
429.826416 6207.000000
432.088287 6460.000000
434.348694 6064.000000
436.607544 6522.000000
438.864929 6160.000000
441.120819 5663.000000
443.375214 5805.000000
445.628082 5448.000000
447.879395 6877.000000
450.129303 6073.000000
452.377625 6235.000000
454.624512 5671.000000
456.869934 6501.000000
459.113800 6482.000000
461.356171 6714.000000
463.597046 5663.000000
465.836517 6714.000000
468.074402 5471.000000
470.310852 5917.000000
472.545776 6056.000000
474.779236 7203.000000
477.011261 6740.000000
479.241760 5667.000000
481.470764 6523.000000
483.698303 6285.000000
485.924347 5999.000000
488.148956 6512.000000
490.372101 5914.000000
492.593781 6386.000000
494.813904 6671.000000
497.032623 5638.000000
499.249847 6312.000000
501.465698 5548.000000
503.679932 6100.000000
505.892853 6442.000000
508.104187 6504.000000
510.314087 6896.000000
512.522583 6480.000000
514.729675 6517.000000
516.935181 6393.000000
519.139282 6624.000000
521.341858 6216.000000
523.543030 6625.000000
525.742859 6650.000000
527.941162 6899.000000
530.137939 5365.000000
532.333374 5813.000000
534.527283 5567.000000
536.719849 7493.000000
538.910889 6691.000000
541.100525 6003.000000
543.288757 6958.000000
545.475464 7118.000000
547.660706 6806.000000
549.844666 6202.000000
552.027039 6419.000000
554.208069 6217.000000
556.387573 6037.000000
558.565796 5868.000000
560.742493 6040.000000
562.917786 6402.000000
565.091675 6427.000000
567.264099 5911.000000
569.435120 6012.000000
571.604675 6309.000000
573.772949 5256.000000
575.939697 6363.000000
578.104980 6287.000000
580.268860 6113.000000
582.431458 5743.000000
584.592529 5997.000000
586.752197 5583.000000
588.910522 5815.000000
591.067322 6167.000000
593.222778 6543.000000
595.376831 5755.000000
597.529541 6210.000000
599.680725 7290.000000
601.830566 6742.000000
603.979065 6679.000000
606.125977 6018.000000
608.271667 6460.000000
610.415955 6445.000000
612.558777 6989.000000
614.700134 6171.000000
616.840271 6488.000000
618.978882 7661.000000
621.116211 5707.000000
623.252075 6543.000000
625.386536 6819.000000
627.519531 7200.000000
629.651367 6655.000000
631.781738 6575.000000
633.910706 6738.000000
636.038208 6507.000000
638.164429 6249.000000
640.289124 7282.000000
642.412598 6347.000000
644.534729 6757.000000
646.655396 6810.000000
648.774719 6467.000000
650.892639 5708.000000
653.009216 5663.000000
655.124390 6422.000000
657.238220 6468.000000
659.350586 5802.000000
661.461731 6141.000000
663.571472 5386.000000
665.679749 6092.000000
667.786865 6289.000000
669.892517 6821.000000
671.996704 5642.000000
674.099670 5729.000000
676.201233 7017.000000
678.301453 5322.000000
680.400269 6738.000000
682.497742 6197.000000
684.593933 6990.000000
686.688660 6211.000000
688.782166 7029.000000
690.874329 6612.000000
692.964966 7914.000000
695.054382 6601.000000
697.142517 6442.000000
699.229187 6027.000000
701.314636 6693.000000
703.398560 5121.000000
705.481262 5883.000000
707.562683 6024.000000
709.642639 7562.000000
711.721375 6194.000000
713.798645 5546.000000
715.874634 6591.000000
717.949341 6121.000000
720.022766 6956.000000
722.094666 6357.000000
724.165405 7404.000000
726.234802 5858.000000
728.302795 6559.000000
730.369446 6325.000000
732.434875 7075.000000
734.498962 5761.000000
736.561707 6168.000000
738.623108 6487.000000
740.683228 6631.000000
742.741943 6023.000000
744.799438 6646.000000
746.855652 6429.000000
748.910461 6674.000000
750.963989 6326.000000
753.016113 7467.000000
755.067017 5808.000000
757.116699 6650.000000
759.164917 6336.000000
761.211914 6165.000000
763.257629 6959.000000
765.301941 5373.000000
767.344971 5741.000000
769.386780 6371.500000
771.427246 7002.000000
773.466309 6307.000000
775.504211 6098.000000
777.540771 5991.000000
779.576111 5407.000000
781.610107 5748.000000
783.642700 6887.000000
785.674133 5521.000000
787.704163 5788.000000
789.732910 6055.000000
791.760498 6305.000000
793.786743 6387.000000
795.811584 5770.000000
797.835327 5547.000000
799.857666 6334.000000
801.878784 5891.000000
803.898560 6675.000000
805.917053 4869.000000
807.934326 6742.000000
809.950195 6820.000000
811.964905 5687.000000
813.978271 6366.000000
815.990417 6254.000000
818.001343 6037.000000
820.010925 6560.000000
822.019287 5387.000000
824.026245 5741.000000
826.031982 6021.000000
828.036499 5743.000000
830.039734 5677.000000
832.041687 6434.000000
834.042358 6131.000000
836.041809 5955.000000
838.039917 6334.000000
840.036926 6895.000000
842.032532 6297.000000
844.026978 6070.000000
846.020081 6162.000000
848.011963 6757.000000
850.002502 5531.000000
851.991760 6794.000000
853.979980 6037.000000
855.966797 5637.000000
857.952393 6383.000000
859.936707 7318.000000
861.919922 6349.000000
863.901733 6406.000000
865.882324 5831.000000
867.861633 7687.000000
869.839783 7029.000000
871.816589 6191.000000
873.792114 5893.000000
875.766602 6167.000000
877.739624 6039.000000
879.711609 5455.000000
881.682251 6378.000000
883.651733 6119.000000
885.619873 5555.000000
887.586853 5219.000000
889.552490 6135.000000
891.516968 5801.000000
893.480225 6038.000000
895.442261 6490.000000
897.403015 5819.000000
899.362549 6426.000000
901.320801 6711.000000
903.277954 6377.000000
905.233948 6000.000000
907.188538 6875.000000
909.141907 6504.000000
911.094116 6426.000000
913.045105 6414.000000
914.994812 7076.000000
916.943359 6338.000000
918.890686 6120.000000
920.836731 6044.000000
922.781494 6008.000000
924.725220 6268.000000
926.667786 6004.000000
928.609070 5512.000000
930.549011 6457.000000
932.487854 5728.000000
934.425415 5488.000000
936.361755 5929.000000
938.296936 5956.000000
940.230835 6090.000000
942.163635 5832.000000
944.095215 6809.000000
946.025635 5274.000000
947.954834 6357.000000
949.882690 7005.000000
951.809509 6596.000000
953.735046 5946.000000
955.659302 5417.000000
957.582458 5931.000000
959.504456 6675.000000
961.425171 7280.000000
963.344727 6472.000000
965.263123 5286.000000
967.180481 6407.000000
969.096375 6339.000000
971.011169 6169.000000
972.924744 5932.000000
974.837158 6388.000000
976.748352 6462.000000
978.658386 5450.000000
980.567139 6231.000000
982.474854 6097.000000
984.381348 6376.000000
986.286621 5720.000000
988.190796 6816.000000
990.093750 6159.000000
991.995483 6806.000000
993.896057 6601.000000
995.795471 6545.000000
997.693665 5296.000000
999.590698 6586.000000
1001.486511 6472.000000
1003.381165 7662.000000
1005.274719 5562.000000
1007.166992 7100.000000
1009.058350 6085.000000
1010.948364 5361.000000
1012.837158 6585.000000
1014.724792 6301.000000
1016.611267 6985.000000
1018.496582 6719.000000
1020.380737 5982.000000
1022.263672 5894.000000
1024.145508 6230.000000
1026.026123 5139.000000
1027.905640 5866.000000
1029.784180 6100.000000
1031.661377 5432.000000
1033.537231 6225.000000
1035.412109 5903.000000
1037.286011 6632.000000
1039.158447 7120.000000
1041.029907 6673.000000
1042.900024 5466.000000
1044.769165 5511.000000
1046.637085 5780.000000
1048.503906 6989.000000
1050.369629 6674.000000
1052.234131 6469.000000
1054.097534 6546.000000
1055.959595 6448.000000
1057.820679 5887.000000
1059.680664 6460.000000
1061.539307 6626.000000
1063.396851 5805.000000
1065.253296 6792.000000
1067.108643 5935.000000
1068.962769 5800.000000
1070.816040 6257.000000
1072.667847 6379.000000
1074.518677 6121.000000
1076.368286 6126.000000
1078.216675 5744.000000
1080.064209 7959.000000
1081.910400 5566.000000
1083.755371 6207.000000
1085.599487 5444.000000
1087.442261 5552.000000
1089.283813 6462.000000
1091.124634 5412.000000
1092.963867 5695.000000
1094.802368 6056.000000
1096.639526 6053.000000
1098.475464 6753.000000
1100.310425 6589.000000
1102.144165 5434.000000
1103.976929 5449.000000
1105.808350 6154.000000
1107.638916 7251.000000
1109.468140 6511.000000
1111.296387 6445.000000
1113.123413 7095.000000
1114.949463 5496.000000
1116.774292 6311.000000
1118.598022 7123.000000
1120.420532 6126.000000
1122.241943 5938.000000
1124.062500 5900.000000
1125.881592 6590.000000
1127.699829 7075.000000
1129.516724 6876.000000
1131.332764 6721.000000
1133.147583 6468.000000
1134.961304 5693.000000
1136.773926 5762.000000
1138.585327 5628.000000
1140.395752 6114.000000
1142.205078 6748.000000
1144.013062 6914.000000
1145.820313 5964.000000
1147.626099 5897.000000
1149.431030 5428.000000
1151.234863 5385.000000
1153.037476 6081.000000
1154.839233 6088.000000
1156.639526 6099.000000
1158.438843 6133.000000
1160.237183 5903.000000
1162.034180 5451.000000
1163.830444 5861.000000
1165.625366 6070.000000
1167.419189 6334.000000
1169.212158 7702.000000
1171.003784 5747.000000
1172.794434 6478.000000
1174.584106 5985.000000
1176.372314 5889.000000
1178.159668 7501.000000
1179.945923 6787.000000
1181.731079 5756.000000
1183.515137 5946.000000
1185.298096 7670.000000
1187.080078 5851.000000
1188.860840 5895.000000
1190.640625 6273.000000
1192.419312 6881.000000
1194.197021 6648.000000
1195.973511 7203.000000
1197.748901 6555.000000
1199.523193 6499.000000
1201.296387 6719.000000
1203.068726 6489.000000
1204.839722 6739.000000
1206.609863 5703.000000
1208.378784 6119.000000
1210.146606 6250.000000
1211.913574 5798.000000
1213.679199 5858.000000
1215.443848 7002.000000
1217.207397 6511.000000
1218.969849 5868.000000
1220.731445 6736.000000
1222.491821 5833.000000
1224.251099 6304.000000
1226.009521 6043.000000
1227.766724 7072.000000
1229.522827 6477.000000
1231.277832 5551.000000
1233.031982 5976.000000
1234.784790 5835.000000
1236.536621 6029.000000
1238.287598 5903.000000
1240.037231 4943.000000
1241.786011 6953.000000
1243.533447 6495.000000
1245.280151 6607.000000
1247.025635 6475.000000
1248.770264 6351.000000
1250.513550 6819.000000
1252.255859 6599.000000
1253.997070 5346.000000
1255.737427 5026.000000
1257.476685 5782.000000
1259.214722 6539.000000
1260.951904 7094.000000
1262.687866 6117.000000
1264.422852 6360.000000
1266.156860 7280.000000
1267.889893 5938.000000
1269.621704 6164.000000
1271.352539 6475.000000
1273.082153 7220.000000
1274.810913 5924.000000
1276.538574 5640.000000
1278.265137 5508.000000
1279.990845 5570.000000
1281.715210 6400.000000
1283.438721 5200.000000
1285.161255 6888.000000
1286.882813 6596.000000
1288.603149 6152.000000
1290.322510 6636.000000
1292.040771 7232.000000
1293.758057 6388.000000
1295.474365 5768.000000
1297.189453 6301.000000
1298.903564 6137.000000
1300.616699 5773.000000
1302.328979 6469.000000
1304.040039 8300.000000
1305.750122 5635.000000
1307.459106 6282.000000
1309.166870 6675.000000
1310.874023 7022.000000
1312.579712 5753.000000
1314.284668 6823.000000
1315.988647 6137.000000
1317.691406 5970.000000
1319.393188 6484.000000
1321.094116 6026.000000
1322.793701 9715.000000
1324.492432 7676.000000
1326.190430 5637.000000
1327.887085 6500.000000
1329.582642 7152.000000
1331.277344 6826.000000
1332.970825 5715.000000
1334.663452 5347.000000
1336.355225 7233.000000
1338.045654 6232.000000
1339.735352 6533.000000
1341.423950 6115.000000
1343.111450 7562.000000
1344.797974 5671.000000
1346.483398 6736.000000
1348.167847 5946.000000
1349.851440 7198.000000
1351.533813 6356.000000
1353.215210 5999.000000
1354.895752 6524.000000
1356.575073 6700.000000
1358.253784 5845.000000
1359.931152 6525.000000
1361.607422 5739.000000
1363.282715 5604.000000
1364.957275 6497.000000
1366.630615 6467.000000
1368.302979 6762.000000
1369.974365 5118.000000
1371.644775 6728.000000
1373.314087 6187.000000
1374.982422 5718.000000
1376.649902 5976.000000
1378.316284 6253.000000
1379.981689 6061.000000
1381.646118 5846.000000
1383.309326 5985.000000
1384.971924 5664.000000
1386.633179 6318.000000
1388.293579 6498.000000
1389.952881 6361.000000
1391.611206 6491.000000
1393.268799 6833.000000
1394.925171 6505.000000
1396.580688 7036.000000
1398.234985 6290.000000
1399.888428 5823.000000
1401.540771 6066.000000
1403.192383 6478.000000
1404.842773 7148.000000
1406.492065 6208.000000
1408.140625 7450.000000
1409.788086 7905.000000
1411.434570 6117.000000
1413.080200 6201.000000
1414.724854 5953.000000
1416.368286 7060.000000
1418.010864 7142.000000
1419.652344 6827.000000
1421.292969 6446.000000
1422.932617 6471.000000
1424.571167 6005.000000
1426.208862 6585.000000
1427.845459 6354.000000
1429.481079 5952.000000
1431.115967 6307.000000
1432.749756 5890.000000
1434.382446 6134.000000
1436.014160 5633.000000
1437.645020 6101.000000
1439.274780 6023.000000
1440.903442 7757.000000
1442.531494 5984.000000
1444.158447 6146.000000
1445.784180 6234.000000
1447.409302 6111.000000
1449.033325 6511.000000
1450.656372 6000.000000
1452.278442 6013.000000
1453.899414 7273.000000
1455.519409 6282.000000
1457.138672 6838.000000
1458.756592 5692.000000
1460.373901 17122.000000
1461.990234 5583.000000
1463.605347 7272.000000
1465.219604 6268.000000
1466.833008 5241.000000
1468.445313 5629.000000
1470.056763 6187.000000
1471.667358 6341.000000
1473.276733 5944.000000
1474.885132 6022.000000
1476.492676 6199.000000
1478.099243 6614.000000
1479.705078 5270.000000
1481.309692 6273.000000
1482.913452 5521.000000
1484.515991 6691.000000
1486.117920 5564.000000
1487.718628 5409.000000
1489.318604 5567.000000
1490.917480 6203.000000
1492.515503 6511.000000
1494.112427 6633.000000
1495.708496 6326.000000
1497.303589 6014.000000
1498.897705 5478.000000
1500.491089 6559.000000
1502.083374 5526.000000
1503.674438 5921.000000
1505.265015 6784.000000
1506.854248 6452.000000
1508.442871 6119.000000
1510.030396 6544.000000
1511.616821 6822.000000
1513.202515 6192.000000
1514.787109 6621.000000
1516.370850 6190.000000
1517.953491 6213.000000
1519.535400 6612.000000
1521.116211 6648.000000
1522.696289 6043.000000
1524.275146 6232.000000
1525.853149 6399.000000
1527.430420 6289.000000
1529.006470 5688.000000
1530.581787 5871.000000
1532.156006 6329.000000
1533.729492 5406.000000
1535.301758 5926.000000
1536.873291 6388.000000
1538.443848 6443.000000
1540.013550 6234.000000
1541.582031 5385.000000
1543.149780 6565.000000
1544.716675 5617.000000
1546.282349 6754.000000
1547.847290 5949.000000
1549.411133 5066.000000
1550.974365 7411.000000
1552.536255 6302.000000
1554.097534 6024.000000
1555.657715 5682.000000
1557.217163 5720.000000
1558.775513 5975.000000
1560.333130 6205.000000
1561.889648 7036.000000
1563.444946 5848.000000
1564.999634 6329.000000
1566.553589 5626.000000
1568.106567 6295.000000
1569.658203 5653.000000
1571.209106 5848.000000
1572.759277 6186.000000
1574.308472 6260.000000
1575.856323 5811.000000
1577.403687 5498.000000
1578.950073 5749.000000
1580.495605 5057.000000
1582.040161 6596.000000
1583.583496 6311.000000
1585.126221 6644.000000
1586.668091 6430.000000
1588.208862 6662.000000
1589.748657 5800.000000
1591.287720 6655.000000
1592.825684 5893.000000
1594.363159 6137.000000
1595.899292 5800.000000
1597.434326 6725.000000
1598.968872 6195.000000
1600.502441 5983.000000
1602.035156 5870.000000
1603.566284 6305.000000
1605.097168 6430.000000
1606.627197 5730.000000
1608.156006 6071.000000
1609.683716 6197.000000
1611.210815 5967.000000
1612.737183 5808.000000
1614.262573 6253.000000
1615.787109 5778.000000
1617.310303 5826.000000
1618.832764 5591.000000
1620.354492 6565.000000
1621.875366 6962.000000
1623.394775 15552.000000
1624.913696 6120.000000
1626.431885 5991.000000
1627.949219 5883.000000
1629.465454 6328.000000
1630.980347 6969.000000
1632.494751 6673.000000
1634.008423 5763.000000
1635.520996 6815.000000
1637.032349 5937.000000
1638.543335 6443.000000
1640.053223 6242.000000
1641.562256 6131.000000
1643.069946 5622.000000
1644.577271 6003.000000
1646.083740 7119.000000
1647.589233 6212.000000
1649.093872 6803.000000
1650.597046 6176.000000
1652.099609 6498.000000
1653.601807 6318.000000
1655.102661 6573.000000
1656.602417 7562.000000
1658.101318 5928.000000
1659.599854 6512.000000
1661.097168 6269.000000
1662.593750 5927.000000
1664.088745 6460.000000
1665.583496 6321.000000
1667.077393 5204.000000
1668.570313 5626.000000
1670.061890 20963.000000
1671.552979 6512.000000
1673.043457 6078.000000
1674.532837 5953.000000
1676.020752 6936.000000
1677.508423 6855.000000
1678.995117 6001.000000
1680.480957 5357.000000
1681.965942 6067.000000
1683.449463 6185.000000
1684.932739 6162.000000
1686.415161 5867.000000
1687.896484 6230.000000
1689.376343 6203.000000
1690.855957 5514.000000
1692.334839 6676.000000
1693.812744 5994.000000
1695.289673 6057.000000
1696.765381 5719.000000
1698.240723 6228.000000
1699.714844 6277.000000
1701.188354 5440.000000
1702.660400 5562.000000
1704.132202 6854.000000
1705.603027 6365.000000
1707.072998 6990.000000
1708.541626 5141.000000
1710.009766 5780.000000
1711.477173 6448.000000
1712.943481 5482.000000
1714.409180 5764.000000
1715.873169 6150.000000
1717.337036 5968.000000
1718.800049 6924.000000
1720.262085 6268.000000
1721.722900 6493.000000
1723.183105 5456.000000
1724.642578 5645.000000
1726.101196 6165.000000
1727.558838 5981.000000
1729.015137 6218.000000
1730.471191 6124.000000
1731.926270 6431.000000
1733.380371 6046.000000
1734.833252 6823.000000
1736.285889 6005.000000
1737.737427 6869.000000
1739.188232 5950.000000
1740.638062 6524.000000
1742.086548 5967.000000
1743.534668 7319.000000
1744.981934 6486.000000
1746.428467 6660.000000
1747.873413 6644.000000
1749.318115 6119.000000
1750.761963 5767.000000
1752.204956 5501.000000
1753.646484 6580.000000
1755.087769 6336.000000
1756.528198 19290.000000
1757.967651 6290.000000
1759.406128 5243.000000
1760.843628 5976.000000
1762.280640 7496.000000
1763.716675 5793.000000
1765.151855 7173.000000
1766.585571 6239.000000
1768.019165 6333.000000
1769.451782 6648.000000
1770.883545 5911.000000
1772.314453 5755.000000
1773.744141 6294.000000
1775.173096 6146.000000
1776.601563 6288.000000
1778.029053 6734.000000
1779.455200 6238.000000
1780.881104 5613.000000
1782.305908 6841.000000
1783.730103 5601.000000
1785.152832 6673.000000
1786.575073 6517.000000
1787.996582 6883.000000
1789.417358 5830.000000
1790.837158 6158.000000
1792.255615 6154.000000
1793.673584 6871.000000
1795.090942 5502.000000
1796.507446 6041.000000
1797.922485 6460.000000
1799.337158 5852.000000
1800.751221 6659.000000
1802.164063 5968.000000
1803.576294 6942.000000
1804.987183 7124.000000
1806.397583 7740.000000
1807.807251 6466.000000
1809.215942 5901.000000
1810.623535 5365.000000
1812.030640 6369.000000
1813.436890 6344.000000
1814.842163 6692.000000
1816.246338 5943.000000
1817.650146 5922.000000
1819.052979 6226.000000
1820.454956 6053.000000
1821.856323 5832.000000
1823.256226 6330.000000
1824.655518 6372.000000
1826.054321 6541.000000
1827.452271 7431.000000
1828.848877 5732.000000
1830.244873 6712.000000
1831.640137 5933.000000
1833.034790 8159.000000
1834.428467 6027.000000
1835.820801 6777.000000
1837.212646 6332.000000
1838.603882 5854.000000
1839.994141 7054.000000
1841.383179 6079.000000
1842.771851 6083.000000
1844.159546 6016.000000
1845.546509 5825.000000
1846.932129 6905.000000
1848.317505 5859.000000
1849.702026 6334.000000
1851.085815 6245.000000
1852.468506 6342.000000
1853.849976 5483.000000
1855.230957 6559.000000
1856.611450 6333.000000
1857.990967 5670.000000
1859.369019 5956.000000
1860.746948 6203.000000
1862.123901 7822.000000
1863.500122 6147.000000
1864.875488 6032.000000
1866.249390 5640.000000
1867.623169 5675.000000
1868.996094 6192.000000
1870.367920 5990.000000
1871.738770 6944.000000
1873.109253 5429.000000
1874.478638 6067.000000
1875.847534 6036.000000
1877.214844 7069.000000
1878.582031 6060.000000
1879.948242 5950.000000
1881.313721 6847.000000
1882.678467 7480.000000
1884.041626 6763.000000
1885.404663 6925.000000
1886.766846 6313.000000
1888.128174 6499.000000
1889.488159 5617.000000
1890.847778 5763.000000
1892.206787 6122.000000
1893.564819 6646.000000
1894.921997 7247.000000
1896.277954 5915.000000
1897.633667 7658.000000
1898.988403 5852.000000
1900.342285 5564.000000
1901.695068 5886.000000
1903.047363 6007.000000
1904.398926 5949.000000
1905.749634 6801.000000
1907.099121 6469.000000
1908.448120 6725.000000
1909.796265 5774.000000
1911.143799 6163.000000
1912.490601 6286.000000
1913.835815 6771.000000
1915.180786 6047.000000
1916.525024 5369.000000
1917.868408 6503.000000
1919.210449 6033.000000
1920.552246 6747.000000
1921.893188 6963.000000
1923.233398 6123.000000
1924.572632 6311.000000
1925.910889 6234.000000
1927.248535 6490.000000
1928.585449 7003.000000
1929.921509 6706.000000
1931.256348 5639.000000
1932.590820 6704.000000
1933.924561 7237.000000
1935.257446 6270.000000
1936.588867 5756.000000
1937.920410 6319.000000
1939.250610 6652.000000
1940.580322 5778.000000
1941.909180 6057.000000
1943.236816 5873.000000
1944.563965 5026.000000
1945.890381 5888.000000
1947.216064 6489.000000
1948.540405 5782.000000
1949.864502 6662.000000
1951.187744 6317.000000
1952.510254 6388.000000
1953.831665 5846.000000
1955.152100 7465.000000
1956.471924 5964.000000
1957.791382 5558.000000
1959.109863 6772.000000
1960.427002 5869.000000
1961.743774 5790.000000
1963.059814 6545.000000
1964.375122 6593.000000
1965.688965 6261.000000
1967.002563 5627.000000
1968.315430 6180.000000
1969.627441 5994.000000
1970.938843 6059.000000
1972.248901 6315.000000
1973.558472 5867.000000
1974.867310 6189.000000
1976.175537 6537.000000
1977.482422 6090.000000
1978.788696 7230.000000
1980.094604 5539.000000
1981.399292 6323.000000
1982.703491 5887.000000
1984.006470 5721.000000
1985.309082 7528.000000
1986.610718 6078.000000
1987.911743 6775.000000
1989.211182 6083.000000
1990.510742 6603.000000
1991.809204 5292.000000
1993.107178 6093.000000
1994.403564 6162.000000
1995.699951 5806.000000
1996.995361 5579.000000
1998.290039 6512.000000
1999.583862 5694.000000
2000.876465 6544.000000
2002.168579 5669.000000
2003.460205 7142.000000
2004.751099 6428.000000
2006.040405 6209.000000
2007.329468 6808.000000
2008.617798 5890.000000
2009.905396 5964.000000
2011.192139 6593.000000
2012.477783 5598.000000
2013.763062 6300.000000
2015.047363 5973.000000
2016.331055 5604.000000
2017.613403 5971.000000
2018.895386 6464.000000
2020.176880 6724.000000
2021.457397 5927.000000
2022.737183 6092.000000
2024.015869 6739.000000
2025.293823 5861.000000
2026.571289 5897.000000
2027.848145 6246.000000
2029.123291 5769.000000
2030.398560 6558.000000
2031.672852 6023.000000
2032.946167 5902.000000
2034.218628 5948.000000
2035.490723 6130.000000
2036.761719 6965.000000
2038.032471 6618.000000
2039.301880 6029.000000
2040.570190 6664.000000
2041.838501 6597.000000
2043.105835 5907.000000
2044.372437 5969.000000
2045.637817 5650.000000
2046.902588 5465.000000
2048.167236 5398.000000
2049.430420 5858.000000
2050.693359 6382.000000
2051.954346 6157.000000
2053.215820 6086.000000
2054.476074 5897.000000
2055.735596 6357.000000
2056.994385 6284.000000
2058.252197 6915.000000
2059.509521 6136.000000
2060.766113 6030.000000
2062.021240 6490.000000
2063.276367 5592.000000
2064.530518 5635.000000
2065.783936 5609.000000
2067.036621 6813.000000
2068.288086 6273.000000
2069.539307 6380.000000
2070.789795 5607.000000
2072.039551 5394.000000
2073.287842 6470.000000
2074.536133 6467.000000
2075.783447 7516.000000
2077.030029 5659.000000
2078.275879 5989.000000
2079.520508 6977.000000
2080.764648 7554.000000
2082.008301 5476.000000
2083.250977 6059.000000
2084.492432 6919.000000
2085.733643 6002.000000
2086.974365 6353.000000
2088.214111 6780.000000
2089.452637 7062.000000
2090.690674 6170.000000
2091.927979 5761.000000
2093.165039 6583.000000
2094.400635 6053.000000
2095.635498 6157.000000
2096.870117 6009.000000
2098.103760 5575.000000
2099.336426 6111.000000
2100.568359 6862.000000
2101.799805 6351.000000
2103.030273 6730.000000
2104.260010 6007.000000
2105.489502 5947.000000
2106.717041 6025.000000
2107.944824 5979.000000
2109.171875 6241.000000
2110.397949 5483.000000
2111.622559 6386.000000
2112.847412 6966.000000
2114.071045 6991.000000
2115.294189 6186.000000
2116.516113 7535.000000
2117.737793 5957.000000
2118.958496 6785.000000
2120.178467 6018.000000
2121.397949 6080.000000
2122.615967 6619.000000
2123.833984 7006.000000
2125.051025 5762.000000
2126.267578 5785.000000
2127.482422 6552.000000
2128.697510 6326.000000
2129.911621 6757.000000
2131.125000 5685.000000
2132.337646 6078.000000
2133.548828 5784.000000
2134.760254 6493.000000
2135.970459 6630.000000
2137.180176 5902.000000
2138.388428 6197.000000
2139.596680 5668.000000
2140.804199 5898.000000
2142.010498 7640.000000
2143.216064 5909.000000
2144.421387 5690.000000
2145.625732 5553.000000
2146.829346 6237.000000
2148.032471 6236.000000
2149.234131 6511.000000
2150.435547 5280.000000
2151.636230 6239.000000
2152.836182 6087.000000
2154.034912 5981.000000
2155.233398 6922.000000
2156.431396 6173.000000
2157.628418 6014.000000
2158.824707 5135.000000
2160.019775 5239.000000
2161.214600 6156.000000
2162.408691 5590.000000
2163.601807 5952.000000
2164.793945 6830.000000
2165.985840 5847.000000
2167.177002 6297.000000
2168.367188 6288.000000
2169.556641 6468.000000
2170.745605 6744.000000
2171.933594 6271.000000
2173.121338 5686.000000
2174.307617 5901.000000
2175.493164 6529.000000
2176.678467 5956.000000
2177.863281 5878.000000
2179.046875 6313.000000
2180.229736 7455.000000
2181.411621 6310.000000
2182.593262 6101.000000
2183.774414 6525.000000
2184.954346 5767.000000
2186.133301 5555.000000
2187.311768 6384.000000
2188.489990 6807.000000
2189.666992 7139.000000
2190.843018 6667.000000
2192.018799 6106.000000
2193.194092 5660.000000
2194.367920 6630.000000
2195.541260 6134.000000
2196.714355 6142.000000
2197.886230 6325.000000
2199.057617 7101.000000
2200.228516 6341.000000
2201.397705 6897.000000
2202.566895 7556.000000
2203.735596 6295.000000
2204.903320 5871.000000
2206.070068 5623.000000
2207.236084 7126.000000
2208.401611 6677.000000
2209.566895 5999.000000
2210.730713 6775.000000
2211.894043 5395.000000
2213.056152 6153.000000
2214.218506 6139.000000
2215.379639 6699.000000
2216.539795 6738.000000
2217.699463 6299.000000
2218.858887 6535.000000
2220.017090 6398.000000
2221.174316 6242.000000
2222.331299 6720.000000
2223.487549 6531.000000
2224.643066 6723.000000
2225.797852 6361.000000
2226.951660 6409.000000
2228.104492 6009.000000
2229.257813 6939.000000
2230.409180 6227.000000
2231.560303 6206.000000
2232.710693 6479.000000
2233.860596 7707.000000
2235.009521 6314.000000
2236.157959 5210.000000
2237.304932 6765.000000
2238.452148 7038.000000
2239.598145 6010.000000
2240.743896 7253.000000
2241.887939 7324.000000
2243.032227 6722.000000
2244.175537 6117.000000
2245.318115 5949.000000
2246.459717 5758.000000
2247.601074 5881.000000
2248.741455 6332.000000
2249.881104 6419.000000
2251.020264 5802.000000
2252.158203 5840.000000
2253.296143 6151.000000
2254.433105 5288.000000
2255.569336 6282.000000
2256.704590 6049.000000
2257.839111 7236.000000
2258.973389 6402.000000
2260.107178 5380.000000
2261.239502 6108.000000
2262.371338 6754.000000
2263.502686 6313.000000
2264.633057 6481.000000
2265.763184 8116.000000
2266.892090 6764.000000
2268.020508 6048.000000
2269.148438 5570.000000
2270.275391 6119.000000
2271.401611 5933.000000
2272.526855 6708.000000
2273.652100 6521.000000
2274.776611 6472.000000
2275.899902 5902.000000
2277.022461 6266.000000
2278.144531 5992.000000
2279.266113 7427.000000
2280.386963 6349.000000
2281.506592 6496.000000
2282.625732 7136.000000
2283.744629 7636.000000
2284.862793 7202.000000
2285.979980 5887.000000
2287.096191 6449.000000
2288.212158 7009.000000
2289.327393 6832.000000
2290.441895 7332.000000
2291.555176 5767.000000
2292.668457 6330.000000
2293.781006 6015.000000
2294.892822 5404.000000
2296.003906 6793.000000
2297.113770 6354.000000
2298.223145 6188.000000
2299.332275 6755.000000
2300.440430 6313.000000
2301.547607 6750.000000
2302.654541 5872.000000
2303.760742 6252.000000
2304.866455 6603.000000
2305.970703 6523.000000
2307.074707 5408.000000
2308.178223 5745.000000
2309.281250 6576.000000
2310.383057 7455.000000
2311.484131 7350.000000
2312.584717 6609.000000
2313.684814 5527.000000
2314.784180 6432.000000
2315.882080 6635.000000
2316.980469 6988.000000
2318.077393 8163.000000
2319.174072 6827.000000
2320.270264 5829.000000
2321.364746 6831.000000
2322.459229 7624.000000
2323.552979 5767.000000
2324.646484 6066.000000
2325.738281 6503.000000
2326.830078 6923.000000
2327.921143 6140.000000
2329.011475 6310.000000
2330.100830 6852.000000
2331.190186 6091.000000
2332.278320 6294.000000
2333.365967 6864.000000
2334.453369 6532.000000
2335.539063 6784.000000
2336.624512 7739.000000
2337.709717 6316.000000
2338.793945 6757.000000
2339.877197 5893.000000
2340.960205 6384.000000
2342.042236 7926.000000
2343.124023 6041.000000
2344.205078 7391.000000
2345.284912 6658.000000
2346.364258 5661.000000
2347.443115 6765.000000
2348.521484 6490.000000
2349.598389 6326.000000
2350.675049 7005.000000
2351.751465 6031.000000
2352.826904 6470.000000
2353.901367 5941.000000
2354.975586 6240.000000
2356.049072 6727.000000
2357.122070 6178.000000
2358.193848 7020.000000
2359.265381 6278.000000
2360.335938 6777.000000
2361.406250 7531.000000
2362.475586 7545.000000
2363.543945 6817.000000
2364.612061 6736.000000
2365.679443 7055.000000
2366.746338 7151.000000
2367.812500 6063.000000
2368.877441 6874.000000
2369.942383 6929.000000
2371.006592 6323.000000
2372.070068 6939.000000
2373.132324 5747.000000
2374.194580 6329.000000
2375.255859 6358.000000
2376.316895 5946.000000
2377.376709 6271.000000
2378.435791 7874.000000
2379.494873 6435.000000
2380.552979 7601.000000
2381.610352 6877.000000
2382.666748 7991.000000
2383.722900 7764.000000
2384.778564 6206.000000
2385.833496 6958.000000
2386.886963 6830.000000
2387.940674 6738.000000
2388.993408 6312.000000
2390.045654 6752.000000
2391.097168 6105.000000
2392.147705 6588.000000
2393.197998 6532.000000
2394.247314 6181.000000
2395.296631 6205.000000
2396.344482 6854.000000
2397.391846 6989.000000
2398.438965 6273.000000
2399.485107 6702.000000
2400.530518 6131.000000
2401.575195 6712.000000
2402.619873 7699.000000
2403.663086 7463.000000
2404.706299 6629.000000
2405.748047 5683.000000
2406.790039 6757.000000
2407.831299 7043.000000
2408.871582 6135.000000
2409.911133 6410.000000
2410.949707 6334.000000
2411.988525 5918.000000
2413.026123 6523.000000
2414.063477 6887.000000
2415.099609 7377.000000
2416.135498 6224.000000
2417.170654 6289.000000
2418.205322 6654.000000
2419.238525 7223.000000
2420.271973 6479.000000
2421.304443 6756.000000
2422.336670 6802.000000
2423.367432 7117.000000
2424.398193 6394.000000
2425.428467 6787.000000
2426.457520 6869.000000
2427.486572 6709.000000
2428.513916 6875.000000
2429.541748 6665.000000
2430.568359 7219.000000
2431.594727 6943.000000
2432.619629 7711.000000
2433.644775 6531.000000
2434.668945 7099.000000
2435.692871 6654.000000
2436.715576 5822.000000
2437.737549 6362.000000
2438.759277 6626.000000
2439.780273 6638.000000
2440.800781 5996.000000
2441.820068 6509.000000
2442.839355 6556.000000
2443.857666 8477.000000
2444.875732 6249.000000
2445.892334 6508.000000
2446.908936 6586.000000
2447.924805 5984.000000
2448.940674 6994.000000
2449.955078 6875.000000
2450.968750 5580.000000
2451.981934 7236.000000
2452.994873 5909.000000
2454.007080 7124.000000
2455.018311 6638.000000
2456.029297 7713.000000
2457.039551 6368.000000
2458.049316 7614.000000
2459.058105 5933.000000
2460.066162 5972.000000
2461.074219 6263.000000
2462.081055 7344.000000
2463.087646 5421.000000
2464.093018 7306.000000
2465.098145 6973.000000
2466.103027 5858.000000
2467.106689 6548.000000
2468.110107 6350.000000
2469.112549 7568.000000
2470.114746 7326.000000
2471.116455 6825.000000
2472.117188 6609.000000
2473.116943 6997.000000
2474.116699 6732.000000
2475.115479 5641.000000
2476.113770 6646.000000
2477.111084 7023.000000
2478.108154 6067.000000
2479.105225 6889.000000
2480.100830 5794.000000
2481.096436 7141.000000
2482.090332 6706.000000
2483.084229 8051.000000
2484.077637 6859.000000
2485.070557 6705.000000
2486.062500 7487.000000
2487.053711 7180.000000
2488.044678 6643.000000
2489.035156 5846.000000
2490.024658 6530.000000
2491.013428 6510.000000
2492.002197 5673.000000
2492.989990 6751.000000
2493.976563 6569.000000
2494.963135 8036.000000
2495.949219 6745.000000
2496.934570 7115.000000
2497.918945 8402.000000
2498.903076 5982.000000
2499.887207 6913.000000
2500.869873 5751.000000
2501.852051 6962.000000
2502.833740 6833.000000
2503.814697 7229.000000
2504.795166 6519.000000
2505.775391 5687.000000
2506.754150 6396.000000
2507.732666 7583.000000
2508.710693 6743.000000
2509.688232 7058.000000
2510.664795 6059.000000
2511.641113 5964.000000
2512.616699 6402.000000
2513.591797 6254.000000
2514.566406 6425.000000
2515.539795 7511.000000
2516.512939 6884.000000
2517.485840 6833.000000
2518.457764 6093.000000
2519.428955 6911.000000
2520.399658 6903.000000
2521.370117 7793.000000
2522.339844 8114.000000
2523.308594 6070.000000
2524.276611 6107.000000
2525.244629 7726.000000
2526.211670 6271.000000
2527.178467 5537.000000
2528.144043 7196.000000
2529.109619 7031.000000
2530.074463 7753.000000
2531.038818 6303.000000
2532.001953 6315.000000
2532.965332 5913.000000
2533.927734 5926.000000
2534.889893 6687.000000
2535.850830 6366.000000
2536.811035 6103.000000
2537.771484 6150.000000
2538.730957 6728.000000
2539.689697 6851.000000
2540.647461 6713.000000
2541.605469 6242.000000
2542.562744 6737.000000
2543.519043 6097.000000
2544.475098 7078.000000
2545.429932 6231.000000
2546.385010 7716.000000
2547.339355 7047.000000
2548.292969 6955.000000
2549.245605 7189.000000
2550.197998 6763.000000
2551.149902 6949.000000
2552.101074 6402.000000
2553.051514 7723.000000
2554.001465 7287.000000
2554.951172 7290.000000
2555.900146 6619.000000
2556.848633 6249.000000
2557.795898 7123.000000
2558.743164 6271.000000
2559.689697 6544.000000
2560.635742 6723.000000
2561.580811 7338.000000
2562.525635 6727.000000
2563.469971 7163.000000
2564.413818 6860.000000
2565.357178 6614.000000
2566.299072 6589.000000
2567.241211 6550.000000
2568.182617 6131.000000
2569.123291 7153.000000
2570.063232 7269.000000
2571.003174 5723.000000
2571.942139 6093.000000
2572.880859 7519.000000
2573.818604 7215.000000
2574.756104 5487.000000
2575.692871 6958.000000
2576.628906 6843.000000
2577.564453 7427.000000
2578.499268 6367.000000
2579.434082 5971.000000
2580.367920 7057.000000
2581.301270 7243.000000
2582.233887 5855.000000
2583.166260 6898.000000
2584.097900 5375.000000
2585.029053 7114.000000
2585.959717 6954.000000
2586.889160 6851.000000
2587.818604 7305.000000
2588.747559 6519.000000
2589.676270 7373.000000
2590.603271 7308.000000
2591.530518 5871.000000
2592.457275 6843.000000
2593.383301 6262.000000
2594.309082 5623.000000
2595.233643 7677.000000
2596.157959 7606.000000
2597.081787 5359.000000
2598.005127 7293.000000
2598.927490 6287.000000
2599.849609 6871.000000
2600.771240 8309.000000
2601.692139 6447.000000
2602.612305 5955.000000
2603.532227 6367.000000
2604.451660 6443.000000
2605.370850 6483.000000
2606.289063 5854.000000
2607.206055 6039.000000
2608.123291 7298.000000
2609.040283 5951.000000
2609.956299 7547.000000
2610.871094 6672.000000
2611.786377 6631.000000
2612.700928 6597.000000
2613.614502 6607.000000
2614.528076 6151.000000
2615.440430 7649.000000
2616.352783 7014.000000
2617.264160 6763.000000
2618.175293 5607.000000
2619.085693 7491.000000
2619.995850 6683.000000
2620.905273 6201.000000
2621.814209 6603.000000
2622.722168 6251.000000
2623.630371 6863.000000
2624.537598 6675.000000
2625.444336 7071.000000
2626.350342 5963.000000
2627.256104 6591.000000
2628.161133 6423.000000
2629.065918 7782.000000
2629.969971 6423.000000
2630.873047 6394.000000
2631.776123 6446.000000
2632.678223 5587.000000
2633.580322 6749.000000
2634.482178 6970.000000
2635.382324 6673.000000
2636.282715 6433.000000
2637.182373 6534.000000
2638.081787 5983.000000
2638.979736 6860.000000
2639.878174 6606.000000
2640.776123 6335.000000
2641.673340 6156.000000
2642.569336 6194.000000
2643.465332 6701.000000
2644.361084 6068.000000
2645.256104 6454.000000
2646.150879 6701.000000
2647.044189 7120.000000
2647.937500 6298.000000
2648.830566 6721.000000
2649.723389 6416.000000
2650.614502 7410.000000
2651.505859 6416.000000
2652.396729 7672.000000
2653.286865 7287.000000
2654.176758 6621.000000
2655.065430 7304.000000
2655.954346 6553.000000
2656.842773 6576.000000
2657.730225 7358.000000
2658.616699 6479.000000
2659.503662 7093.000000
2660.389893 6846.000000
2661.275635 6856.000000
2662.160156 6472.000000
2663.044678 6342.000000
2663.928955 6175.000000
2664.812500 7069.000000
2665.695557 7896.000000
2666.577881 7344.000000
2667.459717 6208.000000
2668.340820 6610.000000
2669.222168 6039.000000
2670.102051 6597.000000
2670.982178 7456.000000
2671.861572 7208.000000
2672.740967 6248.000000
2673.619629 6139.000000
2674.496582 6431.000000
2675.374268 6780.000000
2676.251221 6417.000000
2677.127441 8176.000000
2678.003174 7182.000000
2678.878174 6270.000000
2679.753418 7733.000000
2680.627686 7014.000000
2681.501465 7332.000000
2682.374512 6952.000000
2683.247314 6181.000000
2684.119873 6099.000000
2684.991699 6945.000000
2685.862793 6505.000000
2686.733643 6913.000000
2687.604004 7150.000000
2688.474121 6746.000000
2689.342529 6318.000000
2690.211670 7415.000000
2691.080078 7110.000000
2691.948242 6660.000000
2692.815674 6964.000000
2693.681885 5917.000000
2694.548584 7183.000000
2695.414307 7404.000000
2696.280029 7145.000000
2697.144287 7944.000000
2698.009277 6646.000000
2698.872803 7238.000000
2699.736572 5817.000000
2700.598877 7447.000000
2701.461670 6796.000000
2702.323486 5896.000000
2703.184814 6960.000000
2704.046143 6695.000000
2704.906250 7414.000000
2705.766357 7320.000000
2706.625977 6533.000000
2707.485352 6808.000000
2708.343018 7138.000000
2709.200928 6784.000000
2710.059326 7349.000000
2710.916504 6743.000000
2711.772949 6000.000000
2712.628906 6908.000000
2713.484863 6100.000000
2714.340088 6995.000000
2715.194580 6214.000000
2716.048584 6824.000000
2716.902588 7260.000000
2717.755615 6300.000000
2718.608887 6431.000000
2719.460449 7749.000000
2720.312500 6749.000000
2721.164307 6289.000000
2722.014893 6473.000000
2722.865479 6390.000000
2723.715576 7074.000000
2724.564941 7054.000000
2725.414307 6986.000000
2726.262451 6651.000000
2727.110107 6633.000000
2727.958252 7016.000000
2728.805176 6832.000000
2729.652588 5592.000000
2730.498535 7427.000000
2731.343750 6958.000000
2732.189453 6460.000000
2733.034180 6968.000000
2733.878906 7381.000000
2734.722412 6855.000000
2735.566162 7776.000000
2736.409180 7092.000000
2737.251709 6080.000000
2738.093262 6259.000000
2738.935303 6779.000000
2739.776367 6908.000000
2740.617188 5785.000000
2741.457764 6001.000000
2742.297119 7722.000000
2743.136475 6819.000000
2743.975830 6904.000000
2744.813965 6835.000000
2745.651611 7798.000000
2746.489258 6317.000000
2747.326416 7151.000000
2748.163330 6148.000000
2748.999756 6022.000000
2749.834961 6648.000000
2750.670410 6287.000000
2751.505371 6326.000000
2752.339600 6237.000000
2753.173584 6844.000000
2754.007080 6885.000000
2754.840576 7959.000000
2755.673096 6772.000000
2756.505127 7278.000000
2757.336670 6816.000000
2758.168213 7119.000000
2758.998779 7246.000000
2759.829590 7252.000000
2760.659180 7264.000000
2761.488770 6684.000000
2762.318115 7290.000000
2763.146729 6893.000000
2763.974854 6728.000000
2764.802490 6825.000000
2765.630127 6613.000000
2766.457275 7925.000000
2767.283691 5819.000000
2768.109619 7473.000000
2768.935059 6862.000000
2769.760254 7786.000000
2770.585449 7046.000000
2771.409424 6762.000000
2772.233398 6547.000000
2773.057373 7676.000000
2773.880127 6381.000000
2774.703125 6933.000000
2775.524902 6888.000000
2776.346680 6874.000000
2777.168457 6504.000000
2777.989258 7927.000000
2778.809326 6562.000000
2779.629639 6949.000000
2780.449463 7280.000000
2781.269287 6441.000000
2782.087158 5950.000000
2782.906250 8017.000000
2783.724121 6515.000000
2784.541748 6701.000000
2785.358887 7215.000000
2786.175537 7237.000000
2786.991943 7175.000000
2787.807861 6299.000000
2788.623535 5939.000000
2789.438232 6354.000000
2790.253418 7002.000000
2791.067871 7134.000000
2791.881836 6591.000000
2792.695557 7418.000000
2793.508057 8861.000000
2794.320801 7001.000000
2795.133057 7400.000000
2795.944824 7134.000000
2796.755859 7364.000000
2797.567627 6543.000000
2798.378174 7210.000000
2799.188721 6977.000000
2799.997803 7373.000000
2800.807617 8301.000000
2801.616699 7863.000000
2802.425537 6648.000000
2803.233887 7207.000000
2804.041260 6135.000000
2804.849121 6394.000000
2805.656250 6747.000000
2806.463135 6797.000000
2807.268799 7162.000000
2808.074951 6735.000000
2808.880371 6509.000000
2809.685791 7347.000000
2810.490479 6162.000000
2811.294189 7676.000000
2812.098389 7491.000000
2812.902100 6339.000000
2813.705566 6166.000000
2814.507568 6281.000000
2815.310303 7376.000000
2816.112305 7783.000000
2816.914063 6138.000000
2817.715332 6580.000000
2818.516113 7322.000000
2819.316406 6540.000000
2820.116943 6658.000000
2820.916504 8044.000000
2821.715576 7224.000000
2822.514648 6513.000000
2823.313477 6964.000000
2824.111816 6340.000000
2824.909180 7068.000000
2825.706787 7016.000000
2826.503662 6706.000000
2827.300781 7417.000000
2828.097168 7928.000000
2828.892822 7064.000000
2829.688477 7389.000000
2830.483887 7825.000000
2831.278809 7419.000000
2832.072998 6633.000000
2832.867188 6901.000000
2833.661133 5794.000000
2834.454590 6923.000000
2835.247314 7150.000000
2836.039795 8158.000000
2836.832275 7706.000000
2837.624512 7437.000000
2838.416260 6415.000000
2839.207031 6797.000000
2839.997803 8824.000000
2840.788818 7544.000000
2841.578857 6202.000000
2842.368408 7694.000000
2843.158203 7167.000000
2843.947021 7349.000000
2844.735840 7805.000000
2845.524658 7684.000000
2846.312500 7560.000000
2847.099854 7175.000000
2847.887451 7535.000000
2848.674561 7339.000000
2849.460938 6709.000000
2850.247314 7529.000000
2851.033447 7275.000000
2851.819092 7603.000000
2852.603760 7243.000000
2853.388916 6914.000000
2854.173828 7467.000000
2854.958008 7130.000000
2855.742188 6903.000000
2856.525146 8254.000000
2857.308350 6844.000000
2858.091309 6755.000000
2858.873779 7744.000000
2859.656006 6223.000000
2860.437744 6624.000000
2861.219238 7605.000000
2862.000977 7458.000000
2862.781982 7676.000000
2863.562256 6543.000000
2864.342285 6684.000000
2865.122314 8143.000000
2865.902100 7488.000000
2866.680908 8100.000000
2867.459961 7787.000000
2868.238525 6812.000000
2869.016846 6894.000000
2869.794678 7249.000000
2870.572266 6936.000000
2871.349609 7454.000000
2872.126709 6953.000000
2872.903320 6353.000000
2873.679443 7486.000000
2874.455566 7112.000000
2875.231201 8269.000000
2876.006592 7239.000000
2876.781494 6611.000000
2877.556152 7993.000000
2878.330811 6604.000000
2879.105225 7827.000000
2879.878906 6746.000000
2880.651855 7222.000000
2881.425537 6750.000000
2882.198242 7661.000000
2882.970947 7822.000000
2883.742920 8213.000000
2884.514648 6237.000000
2885.286865 6769.000000
2886.057861 6882.000000
2886.828369 6145.000000
2887.599365 8338.000000
2888.370361 7379.000000
2889.140625 7939.000000
2889.909912 7685.000000
2890.679443 6986.000000
2891.448975 7233.000000
2892.218018 7331.000000
2892.986572 7875.000000
2893.755127 7934.000000
2894.522705 6917.000000
2895.290771 6643.000000
2896.058350 7486.000000
2896.825928 8291.000000
2897.592285 7344.000000
2898.359619 6506.000000
2899.125732 7166.000000
2899.892090 6973.000000
2900.656982 8347.000000
2901.422363 6964.000000
2902.188232 6396.000000
2902.952637 7657.000000
2903.717041 7766.000000
2904.481689 8434.000000
2905.245361 6664.000000
2906.009766 8388.000000
2906.773438 6691.000000
2907.536377 8432.000000
2908.299072 6496.000000
2909.062256 8933.000000
2909.824951 6965.000000
2910.586426 6786.000000
2911.348389 6786.000000
