scanname Analyse087
timestamp 2017-02-10 22:09:22
ccdbias 953.315430
ccdgain 3.473401
sigmaread 8.960639
laserwavenum -0.445307
wavenumcorrection 0.077657
scancount 1
totalexposurems 10000
singleexposurems 10000
measurementstate Unknown
scanmode Manual
snr 260.955170 7.247415 6.111237
replacelist 4
374 50982.000000 15053.000000
672 39818.000000 30739.000000
673 38404.000000 5613.000000
754 34207.000000 14507.000000
peaks 50
278.203583 0.703889 0.000000 1.449196 0.000184
284.586395 0.703707 0.000000 0.862850 0.000063
293.218658 0.705592 0.000000 0.656595 0.000029
301.776611 0.706282 0.000000 0.217054 0.000024
331.927765 0.724898 0.000000 0.937230 0.000150
342.256042 0.725575 0.000000 0.746689 0.000034
348.987640 0.728811 0.000000 0.699328 0.000025
360.518097 0.730152 0.000000 0.328187 0.000017
385.857849 0.733078 0.000000 1.262233 0.000284
459.133881 0.744700 0.000000 0.265985 0.000041
491.472595 0.755864 0.000000 0.969896 0.000045
534.330566 0.757873 0.000000 0.506557 0.000130
559.108276 0.793022 0.000000 1.344943 0.000231
573.764709 0.799258 0.000000 0.228009 0.000068
583.295166 0.795061 0.000000 0.669272 0.000105
661.799133 0.824977 0.000000 1.985871 0.000503
673.225647 0.818426 0.000000 1.378893 0.000264
715.551758 0.832633 0.000000 5.407454 0.001120
722.420166 0.813892 0.000000 1.247597 0.000052
742.170044 0.834910 0.000000 1.028212 0.000112
751.789734 0.838313 0.000000 1.003895 0.000047
764.713135 0.854665 0.000000 1.537724 0.000476
777.177734 0.856766 0.000000 6.435752 0.001003
807.421265 0.817518 0.000000 1.587616 0.000088
830.679260 0.843437 0.000000 0.342599 0.000150
841.919189 0.848088 0.000000 0.863395 0.000045
852.743469 0.868735 0.000000 0.899219 0.000246
869.001648 0.866852 0.000000 0.868329 0.000163
938.169250 0.875374 0.000000 0.620442 0.000363
954.437195 0.864488 0.000000 3.556129 0.001025
1012.518555 0.842323 0.000000 1.638700 0.000414
1028.152588 0.859178 0.000000 0.495036 0.000217
1044.241455 0.864839 0.000000 4.162288 0.001265
1102.402466 0.816740 0.000000 1.583678 0.000436
1120.523315 0.834291 0.000000 1.241255 0.000262
1135.385742 0.831013 0.000000 2.070379 0.000809
1149.618774 0.816554 0.000000 2.223591 0.000838
1172.740601 0.800947 0.000000 0.687295 0.000282
1179.101440 0.799214 0.000000 0.680683 0.000096
1211.526123 0.797231 0.000000 0.518872 0.000086
1236.353516 0.808533 0.000000 0.912510 0.000561
1259.835327 0.807980 0.000000 1.883500 0.000583
1280.640625 0.788485 0.000000 0.687414 0.000207
1317.611694 0.853342 0.000000 12.234894 0.003234
1349.162476 0.784186 0.000000 0.517919 0.000138
1386.201660 0.766849 0.000000 0.631325 0.000066
1458.407349 0.823504 0.000000 6.016955 0.002707
1616.024414 0.734859 0.000000 4.494743 0.001789
1664.804443 0.745825 0.000000 10.500966 0.005951
1749.522705 0.678373 0.000000 3.732496 0.001861
finalresult GLS_NoMatch 0
spectrum 2048
-97.156151 44964.000000
-94.529282 44964.000000
-91.904289 45703.000000
-89.281189 45715.000000
-86.659958 46645.000000
-84.040627 46406.000000
-81.423157 46816.000000
-78.807564 46525.000000
-76.193848 46809.000000
-73.582008 47235.000000
-70.972031 47064.000000
-68.363937 47204.000000
-65.757690 47346.000000
-63.153316 47297.000000
-60.550808 47169.000000
-57.950153 47680.000000
-55.351360 47043.000000
-52.754425 46451.000000
-50.159344 46826.000000
-47.566116 46778.000000
-44.974739 47000.000000
-42.385208 46474.000000
-39.797520 47395.000000
-37.211681 47228.000000
-34.627686 46761.000000
-32.045528 47552.000000
-29.465216 46904.000000
-26.886730 47526.000000
-24.310087 47009.000000
-21.735270 46859.000000
-19.162292 46648.000000
-16.591135 46585.000000
-14.021811 46160.000000
-11.454312 45305.000000
-8.888633 46642.000000
-6.324780 46356.000000
-3.762739 46715.000000
-1.202523 46772.000000
1.355885 46241.000000
3.912472 45212.000000
6.467255 44968.000000
9.020220 44694.000000
11.571384 43001.000000
14.120736 41590.000000
16.668291 39620.000000
19.214035 39275.000000
21.757986 38076.000000
24.300133 34835.000000
26.840483 31681.000000
29.379047 28737.000000
31.915815 24729.000000
34.450783 18731.000000
36.983971 12451.000000
39.515377 8110.000000
42.044991 7206.000000
44.572807 7023.000000
47.098866 6213.000000
49.623135 5766.000000
52.145634 5000.000000
54.666336 4563.000000
57.185284 4794.000000
59.702457 5653.000000
62.217854 7519.000000
64.731468 8267.000000
67.243332 7647.000000
69.753448 5897.000000
72.261772 3873.000000
74.768341 3062.000000
77.273163 2673.000000
79.776230 2409.000000
82.277519 2081.000000
84.777069 1973.000000
87.274864 1860.000000
89.770927 1834.000000
92.265213 2266.000000
94.757759 2459.000000
97.248589 2395.000000
99.737648 2287.000000
102.224960 1787.000000
104.710548 1619.000000
107.194397 1550.000000
109.676498 1374.000000
112.156876 1373.000000
114.635529 1274.000000
117.112457 1369.000000
119.587631 1331.000000
122.061096 1283.000000
124.532829 1366.000000
127.002853 1572.000000
129.471130 1694.000000
131.937729 1967.000000
134.402573 2149.000000
136.865723 2600.000000
139.327133 3048.000000
141.786850 3800.000000
144.244843 4875.000000
146.701141 5935.000000
149.155731 7560.000000
151.608597 9311.000000
154.059784 11315.000000
156.509277 15509.000000
158.957047 24278.000000
161.403107 27480.000000
163.847488 28546.000000
166.290192 33711.000000
168.731201 34938.000000
171.170502 36628.000000
173.608093 36548.000000
176.044052 37844.000000
178.478271 38237.000000
180.910812 38669.000000
183.341705 39957.000000
185.770874 40663.000000
188.198395 41553.000000
190.624237 42533.000000
193.048401 42570.000000
195.470901 42470.000000
197.891708 42599.000000
200.310852 43878.000000
202.728333 44626.000000
205.144119 43340.000000
207.558258 44089.000000
209.970764 45014.000000
212.381592 45499.000000
214.790741 45524.000000
217.198257 44659.000000
219.604065 45939.000000
222.008286 45688.000000
224.410797 45593.000000
226.811691 45300.000000
229.210938 45862.000000
231.608521 45517.000000
234.004440 45188.000000
236.398743 45938.000000
238.791382 46576.000000
241.182404 45635.000000
243.571762 45893.000000
245.959503 45995.000000
248.345596 45464.000000
250.730057 46324.000000
253.112869 44487.000000
255.494110 45810.000000
257.873627 45663.000000
260.251587 45877.000000
262.627869 44848.000000
265.002594 44775.000000
267.375671 44536.000000
269.747101 46190.000000
272.116882 45978.000000
274.485107 46428.000000
276.851685 46059.000000
279.216675 45619.000000
281.580048 46372.000000
283.941772 46132.000000
286.301910 45219.000000
288.660431 46310.000000
291.017365 45927.000000
293.372681 45925.000000
295.726410 46420.000000
298.078491 46387.000000
300.429016 46016.000000
302.777954 45971.000000
305.125244 45558.000000
307.471008 45804.000000
309.815094 45811.000000
312.157654 44963.000000
314.498596 44766.000000
316.837921 45084.000000
319.175690 45288.000000
321.511902 44194.000000
323.846466 45983.000000
326.179474 45832.000000
328.510925 46280.000000
330.840790 45715.000000
333.169067 45948.000000
335.495728 45051.000000
337.820892 45872.000000
340.144440 46108.000000
342.466431 46233.000000
344.786865 44735.000000
347.105682 44630.000000
349.422943 46252.000000
351.738678 46436.000000
354.052826 45290.000000
356.365387 45965.000000
358.676392 45868.000000
360.985870 45195.000000
363.293823 45969.000000
365.600159 46640.000000
367.904907 45886.000000
370.208191 45924.000000
372.509857 45970.000000
374.810028 45930.000000
377.108643 46008.000000
379.405701 46564.000000
381.701202 46251.000000
383.995178 46488.000000
386.287567 47084.000000
388.578461 46672.000000
390.867828 46132.000000
393.155609 46013.000000
395.441864 45848.000000
397.726624 45368.000000
400.009766 46348.000000
402.291473 45879.000000
404.571655 46246.000000
406.850250 45052.000000
409.127319 45853.000000
411.402863 45612.000000
413.676880 45855.000000
415.949463 45881.000000
418.220428 45899.000000
420.489899 45822.000000
422.757874 45205.000000
425.024292 44971.000000
427.289215 45970.000000
429.552673 45891.000000
431.814545 45747.000000
434.074951 46194.000000
436.333801 45541.000000
438.591187 45964.000000
440.847076 46458.000000
443.101471 46351.000000
445.354340 46632.000000
447.605652 45142.000000
449.855560 46056.000000
452.103882 45836.000000
454.350769 46454.000000
456.596191 45700.000000
458.840057 45599.000000
461.082428 45232.000000
463.323303 46392.000000
465.562775 45352.000000
467.800659 46596.000000
470.037109 46271.000000
472.272034 45995.000000
474.505493 44633.000000
476.737518 45361.000000
478.968018 46432.000000
481.197021 45554.000000
483.424561 45733.000000
485.650604 46053.000000
487.875214 45477.000000
490.098358 46141.000000
492.320038 45656.000000
494.540161 45353.000000
496.758881 46459.000000
498.976105 45771.000000
501.191956 46529.000000
503.406189 45867.000000
505.619110 45677.000000
507.830444 45645.000000
510.040344 45165.000000
512.248840 45563.000000
514.455933 45398.000000
516.661438 45703.000000
518.865540 45543.000000
521.068115 45798.000000
523.269287 45437.000000
525.469116 45364.000000
527.667419 45107.000000
529.864197 46614.000000
532.059631 46061.000000
534.253540 46413.000000
536.446106 44336.000000
538.637146 45226.000000
540.826782 45888.000000
543.015015 44991.000000
545.201721 44661.000000
547.386963 44976.000000
549.570923 45488.000000
551.753296 45388.000000
553.934326 45583.000000
556.113831 45723.000000
558.292053 45785.000000
560.468750 45648.000000
562.644043 45308.000000
564.817932 45270.000000
566.990356 45789.000000
569.161377 45658.000000
571.330933 45403.000000
573.499207 46492.000000
575.665955 45292.000000
577.831238 45434.000000
579.995117 45640.000000
582.157715 46047.000000
584.318787 45788.000000
586.478455 46163.000000
588.636780 45968.000000
590.793579 45632.000000
592.949036 45315.000000
595.103088 46068.000000
597.255798 45779.000000
599.406982 44548.000000
601.556824 45036.000000
603.705322 45149.000000
605.852234 45812.000000
607.997925 45305.000000
610.142212 45380.000000
612.285034 44809.000000
614.426392 45631.000000
616.566528 45348.000000
618.705139 44073.000000
620.842468 46064.000000
622.978333 45102.000000
625.112793 44806.000000
627.245789 44428.000000
629.377625 45058.000000
631.507996 45012.000000
633.636963 44448.000000
635.764465 45111.000000
637.890686 45396.000000
640.015381 44173.000000
642.138855 45113.000000
644.260986 44656.000000
646.381653 44542.000000
648.500977 44863.000000
650.618896 45717.000000
652.735474 45726.000000
654.850647 44941.000000
656.964478 44972.000000
659.076843 45594.000000
661.187988 45350.000000
663.297729 45960.000000
665.406006 44809.000000
667.513123 45147.000000
669.618774 44644.000000
671.722961 45712.000000
673.825928 45733.000000
675.927490 44474.000000
678.027710 46090.000000
680.126526 44741.000000
682.223999 45216.000000
684.320190 44494.000000
686.414917 45251.000000
688.508423 44473.000000
690.600586 44882.000000
692.691223 43476.000000
694.780640 44796.000000
696.868774 44950.000000
698.955444 45362.000000
701.040894 44667.000000
703.124817 46175.000000
705.207520 45296.000000
707.288940 45328.000000
709.368896 43671.000000
711.447632 45034.000000
713.524902 45598.000000
715.600891 44577.000000
717.675598 45041.000000
719.749023 44141.000000
721.820923 44811.000000
723.891663 43721.000000
725.961060 45258.000000
728.029053 44589.000000
730.095703 44603.000000
732.161133 43953.000000
734.225220 45195.000000
736.287964 44833.000000
738.349365 44490.000000
740.409485 44438.000000
742.468201 44857.000000
744.525696 44314.000000
746.581909 44454.000000
748.636719 44215.000000
750.690247 44592.000000
752.742371 43429.000000
754.793274 45124.000000
756.842957 44204.000000
758.891174 44559.000000
760.938171 44791.000000
762.983887 43990.000000
765.028198 45665.000000
767.071228 45248.000000
769.113037 44637.000000
771.153503 44026.000000
773.192566 44537.000000
775.230469 44822.000000
777.267029 44980.000000
779.302368 45510.000000
781.336365 45115.000000
783.368958 44033.000000
785.400391 45387.000000
787.430420 38880.000000
789.459167 44907.000000
791.486755 44573.000000
793.513000 44495.000000
795.537842 45027.000000
797.561584 45243.000000
799.583923 44446.000000
801.605042 44851.000000
803.624817 44114.000000
805.643311 45838.000000
807.660583 44007.000000
809.676453 43873.000000
811.691162 44943.000000
813.704529 44047.000000
815.716675 44164.000000
817.727600 44233.000000
819.737183 43826.000000
821.745544 45042.000000
823.752502 44522.000000
825.758240 44144.000000
827.762756 44422.000000
829.765991 44432.000000
831.767944 43685.000000
833.768616 44021.000000
835.768066 44071.000000
837.766174 43771.000000
839.763184 42964.000000
841.758789 43774.000000
843.753235 44078.000000
845.746338 43809.000000
847.738220 43097.000000
849.728760 44320.000000
851.718018 43056.000000
853.706238 43887.000000
855.693054 44094.000000
857.678650 43477.000000
859.662964 42612.000000
861.646179 43671.000000
863.627991 43554.000000
865.608582 44124.000000
867.587891 42222.000000
869.566040 42960.000000
871.542847 43742.000000
873.518372 44024.000000
875.492859 43800.000000
877.465881 43972.000000
879.437866 44488.000000
881.408508 43511.000000
883.377991 43655.000000
885.346130 44081.000000
887.313110 44316.000000
889.278748 43265.000000
891.243225 43451.000000
893.206482 43206.000000
895.168518 42602.000000
897.129272 43184.000000
899.088806 42538.000000
901.047058 42194.000000
903.004211 42561.000000
904.960205 42768.000000
906.914795 41811.000000
908.868164 42019.000000
910.820374 42123.000000
912.771362 41985.000000
914.721069 41077.000000
916.669617 41617.000000
918.616943 41577.000000
920.562988 41415.000000
922.507751 41263.000000
924.451477 40835.000000
926.394043 40985.000000
928.335327 41329.000000
930.275269 40362.000000
932.214111 41178.000000
934.151672 41342.000000
936.088013 41022.000000
938.023193 41115.000000
939.957092 40951.000000
941.889893 41232.000000
943.821472 40391.000000
945.751892 41985.000000
947.681091 40734.000000
949.608948 40297.000000
951.535767 40640.000000
953.461304 41358.000000
955.385559 41986.000000
957.308716 41419.000000
959.230713 40775.000000
961.151428 40203.000000
963.070984 41004.000000
964.989380 42032.000000
966.906738 40918.000000
968.822632 40953.000000
970.737427 41169.000000
972.651001 41241.000000
974.563416 40776.000000
976.474609 40580.000000
978.384644 41473.000000
980.293396 40622.000000
982.201111 40618.000000
984.107605 40161.000000
986.012878 40745.000000
987.917053 39535.000000
989.820007 39993.000000
991.721741 39264.000000
993.622314 39534.000000
995.521729 39165.000000
997.419922 40247.000000
999.316956 38834.000000
1001.212769 38697.000000
1003.107422 37441.000000
1005.000977 39401.000000
1006.893250 37650.000000
1008.784607 38712.000000
1010.674622 39331.000000
1012.563416 38082.000000
1014.451050 38346.000000
1016.337524 37788.000000
1018.222839 37945.000000
1020.106995 38689.000000
1021.989929 38824.000000
1023.871826 38509.000000
1025.752441 39512.000000
1027.631958 38922.000000
1029.510498 38765.000000
1031.387695 39493.000000
1033.263550 38753.000000
1035.138428 39104.000000
1037.012329 38520.000000
1038.884766 38123.000000
1040.756226 38438.000000
1042.626343 39641.000000
1044.495483 39636.000000
1046.363403 39428.000000
1048.230225 38202.000000
1050.095947 38545.000000
1051.960449 38843.000000
1053.823853 38824.000000
1055.685913 38719.000000
1057.546997 39232.000000
1059.406982 38574.000000
1061.265625 38315.000000
1063.123169 39160.000000
1064.979614 38155.000000
1066.834961 38896.000000
1068.689087 38936.000000
1070.542358 38450.000000
1072.394165 38292.000000
1074.244995 38358.000000
1076.094604 38295.000000
1077.942993 38563.000000
1079.790527 36221.000000
1081.636719 38425.000000
1083.481689 37755.000000
1085.325806 38418.000000
1087.168579 38153.000000
1089.010132 37142.000000
1090.850952 37970.000000
1092.690186 37491.000000
1094.528687 37112.000000
1096.365845 37059.000000
1098.201782 35948.000000
1100.036743 35976.000000
1101.870483 36914.000000
1103.703247 36564.000000
1105.534668 36034.000000
1107.365234 34943.000000
1109.194458 35452.000000
1111.022705 35293.000000
1112.849731 34509.000000
1114.675781 36204.000000
1116.500610 35327.000000
1118.324341 34639.000000
1120.146851 35666.000000
1121.968262 35934.000000
1123.788818 35956.000000
1125.607910 35391.000000
1127.426147 35045.000000
1129.243042 35319.000000
1131.059082 35493.000000
1132.873901 35728.000000
1134.687622 36585.000000
1136.500244 36411.000000
1138.311646 36787.000000
1140.122070 36383.000000
1141.931396 35824.000000
1143.739380 35567.000000
1145.546631 36431.000000
1147.352417 36250.000000
1149.157349 36707.000000
1150.961182 36689.000000
1152.763794 35959.000000
1154.565552 35873.000000
1156.365845 35828.000000
1158.165161 35602.000000
1159.963501 35691.000000
1161.760498 35899.000000
1163.556763 35397.000000
1165.351685 35125.000000
1167.145508 34719.000000
1168.938477 33229.000000
1170.730103 34990.000000
1172.520752 34050.000000
1174.310425 34482.000000
1176.098633 34627.000000
1177.885986 33262.000000
1179.672241 33623.000000
1181.457397 34576.000000
1183.241455 34261.000000
1185.024414 32558.000000
1186.806396 34116.000000
1188.587158 34050.000000
1190.366943 33575.000000
1192.145630 32838.000000
1193.923340 32933.000000
1195.699829 32236.000000
1197.475220 32451.000000
1199.249512 32198.000000
1201.022705 31820.000000
1202.795044 31793.000000
1204.566040 31511.000000
1206.336182 32349.000000
1208.105103 31904.000000
1209.872925 31712.000000
1211.639893 31886.000000
1213.405518 32109.000000
1215.170166 31222.000000
1216.933716 31524.000000
1218.696167 31943.000000
1220.457764 31163.000000
1222.218140 31958.000000
1223.977417 31728.000000
1225.735840 31955.000000
1227.493042 31163.000000
1229.249146 31814.000000
1231.004150 32679.000000
1232.758301 32365.000000
1234.511108 32715.000000
1236.262939 32575.000000
1238.013916 32744.000000
1239.763550 33837.000000
1241.512329 31978.000000
1243.259766 32550.000000
1245.006470 32199.000000
1246.751953 32313.000000
1248.496582 32255.000000
1250.239868 31688.000000
1251.982178 31525.000000
1253.723389 32377.000000
1255.463745 32514.000000
1257.203003 31678.000000
1258.941040 30997.000000
1260.678223 30598.000000
1262.414185 31603.000000
1264.149170 31548.000000
1265.883179 31084.000000
1267.616211 32355.000000
1269.348022 32229.000000
1271.078857 32117.000000
1272.808472 31731.000000
1274.537231 32472.000000
1276.264893 32578.000000
1277.991455 32650.000000
1279.717163 32773.000000
1281.441528 31890.000000
1283.165039 33149.000000
1284.887573 31525.000000
1286.609131 31732.000000
1288.329468 32002.000000
1290.048828 31480.000000
1291.767090 30883.000000
1293.484375 31414.000000
1295.200684 31833.000000
1296.915771 31240.000000
1298.629883 31348.000000
1300.343018 31625.000000
1302.055298 30727.000000
1303.766357 28898.000000
1305.476440 31620.000000
1307.185425 30557.000000
1308.893188 30306.000000
1310.600342 30045.000000
1312.306030 31220.000000
1314.010986 30407.000000
1315.714966 31302.000000
1317.417725 31928.000000
1319.119507 31799.000000
1320.820435 32760.000000
1322.520020 30651.000000
1324.218750 31721.000000
1325.916748 18830.500000
1327.613403 28582.000000
1329.308960 27915.000000
1331.003662 28069.000000
1332.697144 28942.000000
1334.389771 29310.000000
1336.081543 27513.000000
1337.771973 28547.000000
1339.461670 28186.000000
1341.150269 28657.000000
1342.837769 27132.000000
1344.524292 29089.000000
1346.209717 27997.000000
1347.894165 28956.000000
1349.577759 27710.000000
1351.260132 28771.000000
1352.941528 29285.000000
1354.622070 28906.000000
1356.301392 28936.000000
1357.980103 29647.000000
1359.657471 29086.000000
1361.333740 29807.000000
1363.009033 29957.000000
1364.683594 29157.000000
1366.356934 29238.000000
1368.029297 28788.000000
1369.700684 30255.000000
1371.371094 28667.000000
1373.040405 29203.000000
1374.708740 29553.000000
1376.376221 29175.000000
1378.042603 28630.000000
1379.708008 28810.000000
1381.372437 28921.000000
1383.035645 28675.000000
1384.698242 28866.000000
1386.359497 28160.000000
1388.019897 28064.000000
1389.679199 28094.000000
1391.337524 27974.000000
1392.995117 27693.000000
1394.651489 28041.000000
1396.307007 27352.000000
1397.961304 28045.000000
1399.614746 28368.000000
1401.267090 27962.000000
1402.918701 27738.000000
1404.569092 26859.000000
1406.218384 27479.000000
1407.866943 25920.000000
1409.514404 25353.000000
1411.160889 26488.000000
1412.806519 26297.000000
1414.451172 26522.000000
1416.094604 25725.000000
1417.737183 25686.000000
1419.378662 25776.000000
1421.019287 25883.000000
1422.658936 25831.000000
1424.297485 25987.000000
1425.935181 25391.000000
1427.571777 25439.000000
1429.207397 25633.000000
1430.842285 25207.000000
1432.476074 25627.000000
1434.108765 25362.000000
1435.740479 25778.000000
1437.371338 25683.000000
1439.001099 25909.000000
1440.629761 24466.000000
1442.257813 25925.000000
1443.884766 25743.000000
1445.510498 26027.000000
1447.135620 26270.000000
1448.759644 26229.000000
1450.382690 26850.000000
1452.004761 27130.000000
1453.625732 26058.000000
1455.245728 27232.000000
1456.864990 26807.000000
1458.482910 28136.000000
1460.100220 27636.000000
1461.716553 27136.000000
1463.331665 24969.000000
1464.945923 25739.000000
1466.559326 26647.000000
1468.171631 26532.000000
1469.783081 25960.000000
1471.393677 25934.000000
1473.003052 26129.000000
1474.611450 26022.000000
1476.218994 25988.000000
1477.825562 25404.000000
1479.431396 26375.000000
1481.036011 25338.000000
1482.639771 25755.000000
1484.242310 24432.000000
1485.844238 24353.000000
1487.444946 24189.000000
1489.044922 24125.000000
1490.643799 23823.000000
1492.241821 23955.000000
1493.838745 24041.000000
1495.434814 24639.000000
1497.029907 25322.000000
1498.624023 25527.000000
1500.217407 24735.000000
1501.809692 25370.000000
1503.400757 25002.000000
1504.991333 24484.000000
1506.580566 24475.000000
1508.169189 24442.000000
1509.756714 24172.000000
1511.343140 23855.000000
1512.928833 24173.000000
1514.513428 23986.000000
1516.097168 24021.000000
1517.679810 23983.000000
1519.261719 23839.000000
1520.842529 23847.000000
1522.422607 23612.000000
1524.001465 23247.000000
1525.579468 23118.000000
1527.156738 22893.000000
1528.732788 22946.000000
1530.308105 22793.000000
1531.882324 22546.000000
1533.455811 22827.000000
1535.028076 22674.000000
1536.599609 22536.000000
1538.170166 22498.000000
1539.739868 22285.000000
1541.308350 22646.000000
1542.876099 22280.000000
1544.442993 22421.000000
1546.008667 21941.000000
1547.573608 22014.000000
1549.137451 22363.000000
1550.700684 21692.000000
1552.262573 22027.000000
1553.823853 21987.000000
1555.384033 21923.000000
1556.943481 21926.000000
1558.501831 21884.000000
1560.059448 21650.000000
1561.615967 21562.000000
1563.171265 21723.000000
1564.725952 21568.000000
1566.279907 21921.000000
1567.832886 21713.000000
1569.384521 21795.000000
1570.935425 21943.000000
1572.485596 21868.000000
1574.034790 21781.000000
1575.582642 21801.000000
1577.130005 21942.000000
1578.676392 21950.000000
1580.221924 22303.000000
1581.766479 21946.000000
1583.309814 22001.000000
1584.852539 21980.000000
1586.394409 21956.000000
1587.935181 21734.000000
1589.474976 22200.000000
1591.014038 21617.000000
1592.552002 21773.000000
1594.089478 21519.000000
1595.625610 21853.000000
1597.160645 21633.000000
1598.695190 21395.000000
1600.228760 21361.000000
1601.761475 21590.000000
1603.292603 21449.000000
1604.823486 21694.000000
1606.353516 21531.000000
1607.882324 21138.000000
1609.410034 21395.000000
1610.937134 21545.000000
1612.463501 21759.000000
1613.988892 21626.000000
1615.513428 21455.000000
1617.036621 21371.000000
1618.559082 21585.000000
1620.080811 22275.000000
1621.601685 23768.000000
1623.121094 16991.000000
1624.640015 21089.000000
1626.158203 21050.000000
1627.675537 21131.000000
1629.191772 21100.000000
1630.706665 20885.000000
1632.221069 20658.000000
1633.734741 20941.000000
1635.247314 20690.000000
1636.758667 20619.000000
1638.269653 20458.000000
1639.779541 20676.000000
1641.288574 20698.000000
1642.796265 20436.000000
1644.303589 20173.000000
1645.810059 20148.000000
1647.315552 20267.000000
1648.820190 20056.000000
1650.323364 20167.000000
1651.825928 20085.000000
1653.328125 19807.000000
1654.828979 19666.000000
1656.328735 19364.000000
1657.827637 19394.000000
1659.326172 19406.000000
1660.823486 19547.000000
1662.320068 19313.000000
1663.815063 19132.000000
1665.309814 19012.000000
1666.803711 19709.000000
1668.296631 24111.000000
1669.788208 12866.000000
1671.279297 18640.000000
1672.769775 18451.000000
1674.259155 18551.000000
1675.747070 18226.000000
1677.234741 18249.000000
1678.721436 18705.000000
1680.207275 18714.000000
1681.692261 18370.000000
1683.175781 18045.000000
1684.659058 18055.000000
1686.141479 18142.000000
1687.622803 18072.000000
1689.102661 18072.000000
1690.582275 18099.000000
1692.061157 18138.000000
1693.539063 18076.000000
1695.015991 17983.000000
1696.491699 18012.000000
1697.967041 17969.000000
1699.441162 17740.000000
1700.914673 17848.000000
1702.386719 17821.000000
1703.858521 17575.000000
1705.329346 17941.000000
1706.799316 17709.000000
1708.267944 17967.000000
1709.736084 17962.000000
1711.203491 17662.000000
1712.669800 17831.000000
1714.135498 17971.000000
1715.599487 17851.000000
1717.063354 17935.000000
1718.526367 17907.000000
1719.988403 17886.000000
1721.449219 17946.000000
1722.909424 17855.000000
1724.368896 18070.000000
1725.827515 17926.000000
1727.285156 17800.000000
1728.741455 17812.000000
1730.197510 17990.000000
1731.652588 17759.000000
1733.106689 17808.000000
1734.559570 17737.000000
1736.012207 17813.000000
1737.463745 17588.000000
1738.914551 17610.000000
1740.364380 17544.000000
1741.812866 17561.000000
1743.260986 17293.000000
1744.708252 17369.000000
1746.154785 17171.000000
1747.599731 17143.000000
1749.044434 17230.000000
1750.488281 17158.000000
1751.931274 17214.000000
1753.372803 17009.000000
1754.814087 20327.000000
1756.254517 12748.000000
1757.693970 16865.000000
1759.132446 16832.000000
1760.569946 16714.000000
1762.006958 16351.000000
1763.442993 16456.000000
1764.878174 16430.000000
1766.311890 16519.000000
1767.745483 16927.000000
1769.178101 16442.000000
1770.609863 16784.000000
1772.040771 16588.000000
1773.470459 16546.000000
1774.899414 15966.000000
1776.327881 15832.000000
1777.755371 15347.000000
1779.181519 14595.000000
1780.607422 15813.000000
1782.032227 15716.000000
1783.456421 15780.000000
1784.879150 15503.000000
1786.301392 15550.000000
1787.722900 15502.000000
1789.143677 15316.000000
1790.563477 15207.000000
1791.981934 15334.000000
1793.399902 15243.000000
1794.817261 15275.000000
1796.233765 15344.000000
1797.648804 15162.000000
1799.063477 15123.000000
1800.477539 15062.000000
1801.890381 15091.000000
1803.302612 15140.000000
1804.713501 14900.000000
1806.123901 14801.000000
1807.533569 14964.000000
1808.942261 15002.000000
1810.349854 14895.000000
1811.756958 15028.000000
1813.163208 14975.000000
1814.568481 15104.000000
1815.972656 15083.000000
1817.376465 15083.000000
1818.779297 15188.000000
1820.181274 15170.000000
1821.582642 15011.000000
1822.982544 15134.000000
1824.381836 14954.000000
1825.780640 15056.000000
1827.178589 14948.000000
1828.575195 14925.000000
1829.971191 14815.000000
1831.366455 14984.000000
1832.761108 14741.000000
1834.154785 14824.000000
1835.547119 14806.000000
1836.938965 14694.000000
1838.330200 14652.000000
1839.720459 14834.000000
1841.109497 14739.000000
1842.498169 14756.000000
1843.885864 14632.000000
1845.272827 14576.000000
1846.658447 14596.000000
1848.043823 14555.000000
1849.428345 14520.000000
1850.812134 14587.000000
1852.194824 14364.000000
1853.576294 14208.000000
1854.957275 14135.000000
1856.337769 14151.000000
1857.717285 14098.000000
1859.095337 14097.000000
1860.473267 13863.000000
1861.850220 14066.000000
1863.226440 13926.000000
1864.601807 13832.000000
1865.975708 13738.000000
1867.349487 13525.000000
1868.722412 13428.000000
1870.094238 13384.000000
1871.465088 13323.000000
1872.835571 13480.000000
1874.204956 13386.000000
1875.573853 13028.000000
1876.941162 13172.000000
1878.308350 13070.000000
1879.674561 12936.000000
1881.040039 13040.000000
1882.404785 13005.000000
1883.767944 13096.000000
1885.130981 13081.000000
1886.493164 13025.000000
1887.854492 13004.000000
1889.214478 12886.000000
1890.574097 12848.000000
1891.933105 12738.000000
1893.291138 12807.000000
1894.648315 12689.000000
1896.004272 12708.000000
1897.359985 12739.000000
1898.714722 12809.000000
1900.068604 12618.000000
1901.421387 12806.000000
1902.773682 12853.000000
1904.125244 12742.000000
1905.475952 12897.000000
1906.825439 12913.000000
1908.174438 12716.000000
1909.522583 12837.000000
1910.870117 12803.000000
1912.216919 12590.000000
1913.562134 12677.000000
1914.907104 12781.000000
1916.251343 12869.000000
1917.594727 12893.000000
1918.936768 12800.000000
1920.278564 12878.000000
1921.619507 12685.000000
1922.959717 12890.000000
1924.298950 12706.000000
1925.637207 12809.000000
1926.974854 12749.000000
1928.311768 12639.000000
1929.647827 12727.000000
1930.982666 12740.000000
1932.317139 12730.000000
1933.650879 12545.000000
1934.983765 12502.000000
1936.315186 12375.000000
1937.646729 12501.000000
1938.976929 12325.000000
1940.306641 12438.000000
1941.635498 12559.000000
1942.963135 12542.000000
1944.290283 12469.000000
1945.616699 12499.000000
1946.942383 12349.000000
1948.266724 12318.000000
1949.590820 12160.000000
1950.914063 12354.000000
1952.236572 12270.000000
1953.557983 12158.000000
1954.878418 11941.000000
1956.198242 12052.000000
1957.517700 12008.000000
1958.836182 11824.000000
1960.153320 11875.000000
1961.470093 11819.000000
1962.786133 11759.000000
1964.101440 11777.000000
1965.415283 11757.000000
1966.728882 11706.000000
1968.041748 11577.000000
1969.353760 11714.000000
1970.665161 11695.000000
1971.975220 11498.000000
1973.284790 11448.000000
1974.593628 11306.000000
1975.901855 11340.000000
1977.208740 11241.000000
1978.515015 11211.000000
1979.820923 11121.000000
1981.125610 11301.000000
1982.429810 11145.000000
1983.732788 11265.000000
1985.035400 11313.000000
1986.337036 11287.000000
1987.638062 10962.000000
1988.937500 10867.000000
1990.237061 10891.000000
1991.535522 10810.000000
1992.833496 10698.000000
1994.129883 10768.000000
1995.426270 10695.000000
1996.721680 10593.000000
1998.016357 10481.000000
1999.310181 10601.000000
2000.602783 10388.000000
2001.894897 10407.000000
2003.186523 10306.000000
2004.477417 10326.000000
2005.766724 10711.000000
2007.055786 10304.000000
2008.344116 10350.000000
2009.631714 10452.000000
2010.918457 10365.000000
2012.204102 10165.000000
2013.489380 10227.000000
2014.773682 10388.000000
2016.057373 10440.000000
2017.339722 10106.000000
2018.621704 10163.000000
2019.903198 10246.000000
2021.183716 10157.000000
2022.463501 10144.000000
2023.742188 10120.000000
2025.020142 10161.000000
2026.297607 10000.000000
2027.574463 10199.000000
2028.849609 10216.000000
2030.124878 10353.000000
2031.399170 10226.000000
2032.672485 10320.000000
2033.944946 10330.000000
2035.217041 10312.000000
2036.488037 10210.000000
2037.758789 10281.000000
2039.028198 10276.000000
2040.296509 10260.000000
2041.564819 10403.000000
2042.832153 10135.000000
2044.098755 10173.000000
2045.364136 10332.000000
2046.628906 10551.000000
2047.893433 10145.000000
2049.156738 10118.000000
2050.419678 9994.000000
2051.680664 10021.000000
2052.942139 9983.000000
2054.202393 9970.000000
2055.461914 9845.000000
2056.720703 9740.000000
2057.978516 9790.000000
2059.235840 9794.000000
2060.492432 9756.000000
2061.747559 9737.000000
2063.002686 9804.000000
2064.256836 9612.000000
2065.510254 9667.000000
2066.762939 9620.000000
2068.014404 9718.000000
2069.265625 9572.000000
2070.516113 9644.000000
2071.765869 9706.000000
2073.014160 9313.000000
2074.262451 9553.000000
2075.509766 9407.000000
2076.756348 9461.000000
2078.002197 9272.000000
2079.246826 9342.000000
2080.490967 9523.000000
2081.734619 9194.000000
2082.977295 9451.000000
2084.218750 9132.000000
2085.459961 9124.000000
2086.700684 9218.000000
2087.940430 9136.000000
2089.178955 9138.000000
2090.416992 8964.000000
2091.654297 8924.000000
2092.891357 8931.000000
2094.126953 9020.000000
2095.361816 8928.000000
2096.596436 8956.000000
2097.830078 8948.000000
2099.062744 8846.000000
2100.294678 8868.000000
2101.526123 8884.000000
2102.756592 8728.000000
2103.986328 8711.000000
2105.215820 8735.000000
2106.443359 8653.000000
2107.671143 8532.000000
2108.898193 8545.000000
2110.124268 8571.000000
2111.348877 8525.000000
2112.573730 8475.000000
2113.797363 8436.000000
2115.020508 8533.000000
2116.242432 8489.000000
2117.464111 8554.000000
2118.684814 8491.000000
2119.904785 8575.000000
2121.124268 8546.000000
2122.342285 8679.000000
2123.560303 8564.000000
2124.777344 8718.000000
2125.993896 8733.000000
2127.208740 8532.000000
2128.423828 8534.000000
2129.637939 8473.000000
2130.851318 8424.000000
2132.063965 8282.000000
2133.275146 8527.000000
2134.486572 8561.000000
2135.696777 8619.000000
2136.906494 8440.000000
2138.114746 8467.000000
2139.322998 8454.000000
2140.530518 8305.000000
2141.736816 8094.000000
2142.942383 8213.000000
2144.147705 8301.000000
2145.352051 8255.000000
2146.555664 8386.000000
2147.758789 8287.000000
2148.960449 8142.000000
2150.161865 8355.000000
2151.362549 8189.000000
2152.562500 8151.000000
2153.761230 8295.000000
2154.959717 8191.000000
2156.157715 8178.000000
2157.354736 8031.000000
2158.551025 8077.000000
2159.746094 7939.000000
2160.940918 7973.000000
2162.135010 7689.000000
2163.328125 7854.000000
2164.520264 7806.000000
2165.712158 7802.000000
2166.903320 7706.000000
2168.093506 7595.000000
2169.282959 7576.000000
2170.471924 7499.000000
2171.659912 7509.000000
2172.847656 7481.000000
2174.033936 7414.000000
2175.219482 7244.000000
2176.404785 7277.000000
2177.589600 7257.000000
2178.773193 7250.000000
2179.956055 7284.000000
2181.137939 7420.000000
2182.319580 7229.000000
2183.500732 7169.000000
2184.680664 7175.000000
2185.859619 7311.000000
2187.038086 7164.000000
2188.216309 7090.000000
2189.393311 7162.000000
2190.569336 7103.000000
2191.745117 7263.000000
2192.920410 7244.000000
2194.094238 7191.000000
2195.267578 7121.000000
2196.440674 7134.000000
2197.612549 7142.000000
2198.783936 7157.000000
2199.954834 7177.000000
2201.124023 7261.000000
2202.293213 7268.000000
2203.461914 7167.000000
2204.629639 7247.000000
2205.796387 7289.000000
2206.962402 7218.000000
2208.127930 7165.000000
2209.293213 7099.000000
2210.457031 7090.000000
2211.620361 7166.000000
2212.782471 7092.000000
2213.944824 7057.000000
2215.105957 6923.000000
2216.266113 6944.000000
2217.425781 7023.000000
2218.585205 6987.000000
2219.743408 6919.000000
2220.900635 6930.000000
2222.057617 6927.000000
2223.213867 6942.000000
2224.369385 6921.000000
2225.524170 6825.000000
2226.677979 6816.000000
2227.830811 6866.000000
2228.984131 6620.000000
2230.135498 6713.000000
2231.286621 6630.000000
2232.437012 6647.000000
2233.586914 6608.000000
2234.735840 6645.000000
2235.884277 6585.000000
2237.031250 6567.000000
2238.178467 6430.000000
2239.324463 6359.000000
2240.470215 6455.000000
2241.614258 6346.000000
2242.758545 6422.000000
2243.901855 6308.000000
2245.044434 6302.000000
2246.186035 6165.000000
2247.327393 6215.000000
2248.467773 6279.000000
2249.607422 6257.000000
2250.746582 6056.000000
2251.884521 6183.000000
2253.022461 6146.000000
2254.159424 5973.000000
2255.295654 6099.000000
2256.430908 5996.000000
2257.565430 5965.000000
2258.699707 6004.000000
2259.833496 6210.000000
2260.965820 6230.000000
2262.097656 6056.000000
2263.229004 5905.000000
2264.359375 5895.000000
2265.489502 5711.000000
2266.618408 5783.000000
2267.746826 5860.000000
2268.874756 5738.000000
2270.001709 5851.000000
2271.127930 5718.000000
2272.253174 5710.000000
2273.378418 5727.000000
2274.502930 5827.000000
2275.626221 5835.000000
2276.748779 5788.000000
2277.870850 5684.000000
2278.992432 5595.000000
2280.113281 5643.000000
2281.232910 5658.000000
2282.352051 5592.000000
2283.470947 5516.000000
2284.589111 5450.000000
2285.706299 5623.000000
2286.822510 5592.000000
2287.938477 5700.000000
2289.053711 5509.000000
2290.168213 5660.000000
2291.281494 5859.000000
2292.394775 5728.000000
2293.507324 5677.000000
2294.619141 5734.000000
2295.730225 5560.000000
2296.840088 5653.000000
2297.949463 5635.000000
2299.058594 5718.000000
2300.166748 5741.000000
2301.273926 5660.000000
2302.380859 5723.000000
2303.487061 5654.000000
2304.592773 5552.000000
2305.697021 5689.000000
2306.801025 5609.000000
2307.904541 5539.000000
2309.007568 5579.000000
2310.109375 5583.000000
2311.210449 5483.000000
2312.311035 5501.000000
2313.411133 5494.000000
2314.510498 5433.000000
2315.608398 5487.000000
2316.706787 5629.000000
2317.803711 5427.000000
2318.900391 5392.000000
2319.996582 5459.000000
2321.091064 5378.000000
2322.185547 5178.000000
2323.279297 5217.000000
2324.372803 5295.000000
2325.464600 5343.000000
2326.556396 5293.000000
2327.647461 5344.000000
2328.737793 5271.000000
2329.827148 5294.000000
2330.916504 5382.000000
2332.004639 5187.000000
2333.092285 5231.000000
2334.179688 5241.000000
2335.265381 5168.000000
2336.350830 5248.000000
2337.436035 5158.000000
2338.520264 4983.000000
2339.603516 5033.000000
2340.686523 5024.000000
2341.768555 5136.000000
2342.850342 5008.000000
2343.931396 5015.000000
2345.011230 5017.000000
2346.090576 4864.000000
2347.169434 4892.000000
2348.247803 4871.000000
2349.324707 4850.000000
2350.401367 4833.000000
2351.477783 4712.000000
2352.553223 4705.000000
2353.627686 4934.000000
2354.701904 4788.000000
2355.775391 4646.000000
2356.848389 4632.000000
2357.920166 4634.000000
2358.991699 4649.000000
2360.062256 4629.000000
2361.132568 4583.000000
2362.201904 4581.000000
2363.270264 4537.000000
2364.338379 4521.000000
2365.405762 4502.000000
2366.472656 4462.000000
2367.538818 4639.000000
2368.603760 4522.000000
2369.668701 4442.000000
2370.732910 4468.000000
2371.796387 4433.000000
2372.858643 4434.000000
2373.920898 4464.000000
2374.982178 4404.000000
2376.043213 4380.000000
2377.103027 4445.000000
2378.162109 4400.000000
2379.221191 4479.000000
2380.279297 4417.000000
2381.336670 4448.000000
2382.393066 4301.000000
2383.449219 4235.000000
2384.504883 4430.000000
2385.559814 4474.000000
2386.613281 4244.000000
2387.666992 4185.000000
2388.719727 4433.000000
2389.771973 4379.000000
2390.823486 4364.000000
2391.874023 4375.000000
2392.924316 4327.000000
2393.973633 4387.000000
2395.022949 4351.000000
2396.070801 4317.000000
2397.118164 4223.000000
2398.165283 4446.000000
2399.211426 4301.000000
2400.256836 4267.000000
2401.301514 4334.000000
2402.346191 4235.000000
2403.389404 4232.000000
2404.432617 4314.000000
2405.474365 4350.000000
2406.516357 4259.000000
2407.557617 4330.000000
2408.597900 4137.000000
2409.637451 4100.000000
2410.676025 4304.000000
2411.714844 4269.000000
2412.752441 4196.000000
2413.789795 4257.000000
2414.825928 4152.000000
2415.861816 4261.000000
2416.896973 4097.000000
2417.931641 4163.000000
2418.964844 4310.000000
2419.998291 4148.000000
2421.030762 4126.000000
2422.062988 4151.000000
2423.093750 4129.000000
2424.124512 4048.000000
2425.154785 4164.000000
2426.183838 4040.000000
2427.212891 4110.000000
2428.240234 3933.000000
2429.268066 4068.000000
2430.294678 4032.000000
2431.321045 3893.000000
2432.345947 3947.000000
2433.371094 3894.000000
2434.395264 3892.000000
2435.419189 3887.000000
2436.441895 3902.000000
2437.463867 3805.000000
2438.485596 3885.000000
2439.506592 3775.000000
2440.527100 3833.000000
2441.546387 3664.000000
2442.565674 3714.000000
2443.583984 3662.000000
2444.602051 3658.000000
2445.618652 3602.000000
2446.635254 3704.000000
2447.651123 3665.000000
2448.666992 3657.000000
2449.681396 3652.000000
2450.695068 3671.000000
2451.708252 3583.000000
2452.721191 3658.000000
2453.733398 3714.000000
2454.744629 3567.000000
2455.755615 3586.000000
2456.765869 3599.000000
2457.775635 3532.000000
2458.784424 3584.000000
2459.792480 3563.000000
2460.800537 3547.000000
2461.807373 3514.000000
2462.813965 3412.000000
2463.819336 3476.000000
2464.824463 3349.000000
2465.829346 3471.000000
2466.833008 3420.000000
2467.836426 3499.000000
2468.838867 3457.000000
2469.841064 3490.000000
2470.842773 3499.000000
2471.843506 3427.000000
2472.843262 3353.000000
2473.843018 3378.000000
2474.841797 3279.000000
2475.840088 3406.000000
2476.837402 3301.000000
2477.834473 3289.000000
2478.831543 3376.000000
2479.827148 3362.000000
2480.822754 3387.000000
2481.816650 3295.000000
2482.810547 3330.000000
2483.803955 3491.000000
2484.796875 3392.000000
2485.788818 3313.000000
2486.780029 3317.000000
2487.770996 3336.000000
2488.761475 3355.000000
2489.750977 3308.000000
2490.739746 3305.000000
2491.728516 3285.000000
2492.716309 3375.000000
2493.702881 3242.000000
2494.689453 3189.000000
2495.675537 3266.000000
2496.660889 3259.000000
2497.645264 3314.000000
2498.629395 3272.000000
2499.613525 3318.000000
2500.596191 3348.000000
2501.578369 3223.000000
2502.560059 3269.000000
2503.541016 3220.000000
2504.521484 3273.000000
2505.501709 3244.000000
2506.480469 3305.000000
2507.458984 3171.000000
2508.437012 3213.000000
2509.414551 3149.000000
2510.391113 3200.000000
2511.367432 3230.000000
2512.343018 3183.000000
2513.318115 3121.000000
2514.292725 3206.000000
2515.266113 3056.000000
2516.239258 3176.000000
2517.212158 3151.000000
2518.184082 3134.000000
2519.155273 3137.000000
2520.125977 3075.000000
2521.096436 3041.000000
2522.066162 3001.000000
2523.034912 2997.000000
2524.002930 2913.000000
2524.970947 2987.000000
2525.937988 2998.000000
2526.904785 2962.000000
2527.870361 2965.000000
2528.835938 2955.000000
2529.800781 2938.000000
2530.765137 2972.000000
2531.728271 2924.000000
2532.691650 2931.000000
2533.654053 2985.000000
2534.616211 2944.000000
2535.577148 3071.000000
2536.537354 3012.000000
2537.497803 2967.000000
2538.457275 2935.000000
2539.416016 2948.000000
2540.373779 2963.000000
2541.331787 2904.000000
2542.289063 2826.000000
2543.245361 2782.000000
2544.201416 2831.000000
2545.156250 2775.000000
2546.111328 2723.000000
2547.065674 2752.000000
2548.019287 3220.000000
2548.971924 2794.000000
2549.924316 2806.000000
2550.876221 2642.000000
2551.827393 2837.000000
2552.777832 2751.000000
2553.727783 2776.000000
2554.677490 2717.000000
2555.626465 2815.000000
2556.574951 2675.000000
2557.522217 2654.000000
2558.469482 2733.000000
2559.416016 2622.000000
2560.362061 2626.000000
2561.307129 2642.000000
2562.251953 2679.000000
2563.196289 2654.000000
2564.140137 2721.000000
2565.083496 2663.000000
2566.025391 2556.000000
2566.967529 2463.000000
2567.908936 2556.000000
2568.849609 2483.000000
2569.789551 2618.000000
2570.729492 2612.000000
2571.668457 2597.000000
2572.607178 2592.000000
2573.544922 2582.000000
2574.482422 2563.000000
2575.419189 2561.000000
2576.355225 2545.000000
2577.290771 2579.000000
2578.225586 2576.000000
2579.160400 2534.000000
2580.094238 2470.000000
2581.027588 2474.000000
2581.960205 2487.000000
2582.892578 2328.000000
2583.824219 2600.000000
2584.755371 2445.000000
2585.686035 2531.000000
2586.615479 2470.000000
2587.544922 2484.000000
2588.473877 2524.000000
2589.402588 2562.000000
2590.329590 2447.000000
2591.256836 2580.000000
2592.183594 2383.000000
2593.109619 2515.000000
2594.035400 2540.000000
2594.959961 2458.000000
2595.884277 2407.000000
2596.808105 2470.000000
2597.731445 2545.000000
2598.653809 2524.000000
2599.575928 2545.000000
2600.497559 2446.000000
2601.418457 2448.000000
2602.338623 2471.000000
2603.258545 2388.000000
2604.177979 2366.000000
2605.097168 2392.000000
2606.015381 2340.000000
2606.932373 2374.000000
2607.849609 2493.000000
2608.766602 2313.000000
2609.682617 2272.000000
2610.597412 2433.000000
2611.512695 2429.000000
2612.427246 2326.000000
2613.340820 2306.000000
2614.254395 2321.000000
2615.166748 2375.000000
2616.079102 2365.000000
2616.990479 2315.000000
2617.901611 2245.000000
2618.812012 2174.000000
2619.722168 2299.000000
2620.631592 2270.000000
2621.540527 2222.000000
2622.448486 2346.000000
2623.356689 2264.000000
2624.263916 2210.000000
2625.170654 2141.000000
2626.076660 2296.000000
2626.982422 2240.000000
2627.887451 2161.000000
2628.792236 2224.000000
2629.696289 2290.000000
2630.599365 2212.000000
2631.502441 2219.000000
2632.404541 2146.000000
2633.306641 2189.000000
2634.208496 2196.000000
2635.108643 2084.000000
2636.009033 2147.000000
2636.908691 2135.000000
2637.808105 2127.000000
2638.706055 2140.000000
2639.604492 2184.000000
2640.502441 2034.000000
2641.399658 2082.000000
2642.295654 2019.000000
2643.191650 2152.000000
2644.087402 2028.000000
2644.982422 2029.000000
2645.877197 2104.000000
2646.770508 2038.000000
2647.663818 1980.000000
2648.556885 2024.000000
2649.449707 1970.000000
2650.340820 1993.000000
2651.232178 1972.000000
2652.123047 1928.000000
2653.013184 1957.000000
2653.903076 1993.000000
2654.791748 1890.000000
2655.680664 1972.000000
2656.569092 2035.000000
2657.456543 1950.000000
2658.343018 1935.000000
2659.229980 1992.000000
2660.116211 1901.000000
2661.001953 1873.000000
2661.886475 1820.000000
2662.770996 1919.000000
2663.655273 1901.000000
2664.538818 1943.000000
2665.421875 1993.000000
2666.304199 1989.000000
2667.186035 1902.000000
2668.067139 1881.000000
2668.948486 2043.000000
2669.828369 1990.000000
2670.708496 1937.000000
2671.587891 2017.000000
2672.467285 1907.000000
2673.345947 1971.000000
2674.222900 1915.000000
2675.100586 1902.000000
2675.977539 1918.000000
2676.853760 1849.000000
2677.729492 1866.000000
2678.604492 1853.000000
2679.479736 1803.000000
2680.354004 1877.000000
2681.227783 1885.000000
2682.100830 1972.000000
2682.973633 1802.000000
2683.846191 1869.000000
2684.718018 1901.000000
2685.589111 1697.000000
2686.459961 1816.000000
2687.330322 1808.000000
2688.200439 1706.000000
2689.068848 1762.000000
2689.937988 1769.000000
2690.806396 1863.000000
2691.674561 1816.000000
2692.541992 1788.000000
2693.408203 1760.000000
2694.274902 1681.000000
2695.140625 1903.000000
2696.006348 1737.000000
2696.870605 1923.000000
2697.735596 1689.000000
2698.599121 1650.000000
2699.462891 1785.000000
2700.325195 1698.000000
2701.187988 1611.000000
2702.049805 1766.000000
2702.911133 1697.000000
2703.772461 1697.000000
2704.632568 1728.000000
2705.492676 1730.000000
2706.352295 1616.000000
2707.211670 1661.000000
2708.069336 1826.000000
2708.927246 1708.000000
2709.785645 1713.000000
2710.642822 1560.000000
2711.499268 1605.000000
2712.355225 1752.000000
2713.211182 1692.000000
2714.066406 1613.000000
2714.920898 1656.000000
2715.774902 1613.000000
2716.628906 1600.000000
2717.481934 1657.000000
2718.335205 1570.000000
2719.186768 1563.000000
2720.038818 1621.000000
2720.890625 1603.000000
2721.741211 1599.000000
2722.591797 1620.000000
2723.441895 1559.000000
2724.291260 1598.000000
2725.140625 1639.000000
2725.988770 1591.000000
2726.836426 1684.000000
2727.684570 1607.000000
2728.531494 1480.000000
2729.378906 1594.000000
2730.224854 1627.000000
2731.070068 1619.000000
2731.915771 1478.000000
2732.760498 1508.000000
2733.605225 1621.000000
2734.448730 1614.000000
2735.292480 1483.000000
2736.135498 1561.000000
2736.978027 1583.000000
2737.819580 1525.000000
2738.661621 1520.000000
2739.502686 1561.000000
2740.343506 1554.000000
2741.184082 1453.000000
2742.023438 1526.000000
2742.862793 1477.000000
2743.702148 1539.000000
2744.540283 1509.000000
2745.377930 1571.000000
2746.215576 1524.000000
2747.052734 1534.000000
2747.889648 1521.000000
2748.726074 1531.000000
2749.561279 1426.000000
2750.396729 1505.000000
2751.231689 1528.000000
2752.065918 1519.000000
2752.899902 1507.000000
2753.733398 1544.000000
2754.566895 1462.000000
2755.399414 1529.000000
2756.231445 1397.000000
2757.062988 1487.000000
2757.894531 1440.000000
2758.725098 1528.000000
2759.555908 1475.000000
2760.385498 1455.000000
2761.215088 1486.000000
2762.044434 1420.000000
2762.873047 1321.000000
2763.701172 1371.000000
2764.528809 1541.000000
2765.356445 1320.000000
2766.183594 1428.000000
2767.010010 1377.000000
2767.835938 1498.000000
2768.661377 1377.000000
2769.486572 1344.000000
2770.311768 1444.000000
2771.135742 1402.000000
2771.959717 1316.000000
2772.783691 1429.000000
2773.606445 1259.000000
2774.429443 1336.000000
2775.251221 1331.000000
2776.072998 1352.000000
2776.894775 1233.000000
2777.715576 1386.000000
2778.535645 1336.000000
2779.355957 1321.000000
2780.175781 1347.000000
2780.995605 1303.000000
2781.813477 1359.000000
2782.632568 1229.000000
2783.450439 1298.000000
2784.268066 1334.000000
2785.085205 1318.000000
2785.901855 1282.000000
2786.718262 1342.000000
2787.534180 1297.000000
2788.349854 1156.000000
2789.164551 1313.000000
2789.979736 1251.000000
2790.794189 1316.000000
2791.608154 1325.000000
2792.421875 1229.000000
2793.234375 1183.000000
2794.047119 1342.000000
2794.859375 1265.000000
2795.671143 1230.000000
2796.482178 1250.000000
2797.293945 1318.000000
2798.104492 1212.000000
2798.915039 1198.000000
2799.724121 1261.000000
2800.533936 1203.000000
2801.343018 1191.000000
2802.151855 1244.000000
2802.960205 1148.000000
2803.767578 1169.000000
2804.575439 1230.000000
2805.382568 1162.000000
2806.189453 1283.000000
2806.995117 1040.000000
2807.801270 1147.000000
2808.606689 1203.000000
2809.412109 1207.000000
2810.216797 1138.000000
2811.020508 1245.000000
2811.824707 1150.000000
2812.628418 1041.000000
2813.431885 1218.000000
2814.233887 1208.000000
2815.036621 1194.000000
2815.838623 1208.000000
2816.640381 1158.000000
2817.441650 1168.000000
2818.242432 1120.000000
2819.042725 1268.000000
2819.843262 1253.000000
2820.642822 1181.000000
2821.441895 1143.000000
2822.240967 1203.000000
2823.039795 1203.000000
2823.838135 1162.000000
2824.635498 1193.000000
2825.433105 1217.000000
2826.229980 1121.000000
2827.027100 1131.000000
2827.823486 1168.000000
2828.619141 1150.000000
2829.414795 1106.000000
2830.210205 1154.000000
2831.005127 1055.000000
2831.799316 1180.000000
2832.593506 1051.000000
2833.387451 1177.000000
2834.180908 1100.000000
2834.973633 1127.000000
2835.766113 1079.000000
2836.558594 1098.000000
2837.350830 1151.000000
2838.142578 1177.000000
2838.933350 1162.000000
2839.724121 1074.000000
2840.515137 1060.000000
2841.305176 1101.000000
2842.094727 1081.000000
2842.884521 1095.000000
2843.673340 1147.000000
2844.462158 1056.000000
2845.250977 1074.000000
2846.038818 1142.000000
2846.826172 1207.000000
2847.613770 1150.000000
2848.400879 1064.000000
2849.187256 1067.000000
2849.973633 1064.000000
2850.759766 1067.000000
2851.545410 1141.000000
2852.330078 1089.000000
2853.115234 1182.000000
2853.900146 939.000000
2854.684326 1090.000000
2855.468506 1053.000000
2856.251465 1073.000000
2857.034668 1033.000000
2857.817627 1030.000000
2858.600098 1167.000000
2859.382324 1087.000000
2860.164063 1134.000000
2860.945557 1002.000000
2861.727295 1052.000000
2862.508301 1015.000000
2863.288574 1053.000000
2864.068604 1108.000000
2864.848633 1145.000000
2865.628418 1095.000000
2866.407227 1109.000000
2867.186279 1173.000000
2867.964844 1075.000000
2868.743164 1150.000000
2869.520996 1127.000000
2870.298584 1106.000000
2871.075928 1047.000000
2871.853027 1214.000000
2872.629639 1156.000000
2873.405762 1190.000000
2874.181885 1184.000000
2874.957520 1227.000000
2875.732910 1257.000000
2876.507813 1245.000000
2877.282471 1227.000000
2878.057129 1224.000000
2878.831543 1238.000000
2879.605225 1307.000000
2880.378174 1214.000000
2881.151855 1294.000000
2881.924561 1300.000000
2882.697266 1293.000000
2883.469238 1198.000000
2884.240967 1289.000000
2885.013184 1136.000000
2885.784180 1215.000000
2886.554688 1222.000000
2887.325684 1101.000000
2888.096680 1113.000000
2888.866943 1303.000000
2889.636230 1161.000000
2890.405762 1192.000000
2891.175293 1193.000000
2891.944336 1155.000000
2892.712891 1302.000000
2893.481445 1197.000000
2894.249023 1248.000000
2895.017090 1079.000000
2895.784668 1198.000000
2896.552246 1151.000000
2897.318604 1097.000000
2898.085938 1128.000000
2898.852051 1186.000000
2899.618408 1077.000000
2900.383301 1190.000000
2901.148682 1178.000000
2901.914551 1164.000000
2902.678955 1220.000000
2903.443359 1149.000000
2904.208008 1020.000000
2904.971680 1067.000000
2905.736084 1137.000000
2906.499756 1187.000000
2907.262695 1142.000000
2908.025391 1120.000000
2908.788574 1206.000000
2909.551270 1082.000000
2910.312744 1111.000000
2911.074707 1111.000000
spectrumdark 2048
-97.156151 6225.000000
-94.529282 6225.000000
-91.904289 6056.000000
-89.281189 6515.000000
-86.659958 5847.000000
-84.040627 6255.000000
-81.423157 6083.000000
-78.807564 6453.000000
-76.193848 6271.000000
-73.582008 5902.000000
-70.972031 6086.000000
-68.363937 6050.000000
-65.757690 5955.000000
-63.153316 5987.000000
-60.550808 6165.000000
-57.950153 5664.000000
-55.351360 6249.000000
-52.754425 6855.000000
-50.159344 6503.000000
-47.566116 6535.000000
-44.974739 6284.000000
-42.385208 6806.000000
-39.797520 5918.000000
-37.211681 6042.000000
-34.627686 6526.000000
-32.045528 5728.000000
-29.465216 6340.000000
-26.886730 5681.000000
-24.310087 6176.000000
-21.735270 6308.000000
-19.162292 6485.000000
-16.591135 6520.000000
-14.021811 6874.000000
-11.454312 7733.000000
-8.888633 6301.000000
-6.324780 6463.000000
-3.762739 6044.000000
-1.202523 5837.000000
1.355885 6203.000000
3.912472 6890.000000
6.467255 6662.000000
9.020220 6125.000000
11.571384 6726.000000
14.120736 6522.000000
16.668291 6681.000000
19.214035 6013.000000
21.757986 5771.000000
24.300133 6648.000000
26.840483 6796.000000
29.379047 6878.000000
31.915815 6267.000000
34.450783 5811.000000
36.983971 7244.000000
39.515377 6384.000000
42.044991 7244.000000
44.572807 6542.000000
47.098866 7879.000000
49.623135 5617.000000
52.145634 6256.000000
54.666336 6793.000000
57.185284 6373.000000
59.702457 6503.000000
62.217854 6695.000000
64.731468 5661.000000
67.243332 5698.000000
69.753448 6570.000000
72.261772 6599.000000
74.768341 5975.000000
77.273163 6403.000000
79.776230 6413.000000
82.277519 6313.000000
84.777069 6147.000000
87.274864 6378.000000
89.770927 5802.000000
92.265213 7246.000000
94.757759 5854.000000
97.248589 6974.000000
99.737648 7197.000000
102.224960 6409.000000
104.710548 6233.000000
107.194397 6396.000000
109.676498 5789.000000
112.156876 6599.000000
114.635529 6323.000000
117.112457 6459.000000
119.587631 7217.000000
122.061096 6919.000000
124.532829 5935.000000
127.002853 6731.000000
129.471130 6310.000000
131.937729 6298.000000
134.402573 5731.000000
136.865723 6170.000000
139.327133 7270.000000
141.786850 6873.000000
144.244843 6356.000000
146.701141 6002.000000
149.155731 5836.000000
151.608597 6833.000000
154.059784 6375.000000
156.509277 6629.000000
158.957047 6120.000000
161.403107 6605.000000
163.847488 8771.000000
166.290192 6458.000000
168.731201 6814.000000
171.170502 6209.000000
173.608093 7230.000000
176.044052 6622.000000
178.478271 6913.000000
180.910812 7156.000000
183.341705 6654.000000
185.770874 6773.000000
188.198395 6772.000000
190.624237 6355.000000
193.048401 6712.000000
195.470901 7196.000000
197.891708 7470.000000
200.310852 6553.000000
202.728333 6066.000000
205.144119 7593.000000
207.558258 7080.000000
209.970764 6389.000000
212.381592 6111.000000
214.790741 6280.000000
217.198257 7375.000000
219.604065 6204.000000
222.008286 6526.000000
224.410797 6703.000000
226.811691 7037.000000
229.210938 6519.000000
231.608521 6893.000000
234.004440 7268.000000
236.398743 6498.000000
238.791382 5887.000000
241.182404 6811.000000
243.571762 6615.000000
245.959503 6445.000000
248.345596 7008.000000
250.730057 6103.000000
253.112869 7958.000000
255.494110 6619.000000
257.873627 6726.000000
260.251587 6552.000000
262.627869 7586.000000
265.002594 7636.000000
267.375671 7883.000000
269.747101 6236.000000
272.116882 6440.000000
274.485107 5956.000000
276.851685 6340.000000
279.216675 6787.000000
281.580048 6045.000000
283.941772 6264.000000
286.301910 7181.000000
288.660431 6073.000000
291.017365 6458.000000
293.372681 6450.000000
295.726410 5960.000000
298.078491 5982.000000
300.429016 6338.000000
302.777954 6376.000000
305.125244 6804.000000
307.471008 6581.000000
309.815094 6560.000000
312.157654 7381.000000
314.498596 7581.000000
316.837921 7217.000000
319.175690 7062.000000
321.511902 8104.000000
323.846466 6354.000000
326.179474 6474.000000
328.510925 6027.000000
330.840790 6593.000000
333.169067 6357.000000
335.495728 7244.000000
337.820892 6409.000000
340.144440 6175.000000
342.466431 6051.000000
344.786865 7531.000000
347.105682 7673.000000
349.422943 6022.000000
351.738678 5834.000000
354.052826 6994.000000
356.365387 6323.000000
358.676392 6463.000000
360.985870 7085.000000
363.293823 6324.000000
365.600159 5693.000000
367.904907 6442.000000
370.208191 6410.000000
372.509857 6307.000000
374.810028 6400.000000
377.108643 6343.000000
379.405701 5772.000000
381.701202 6105.000000
383.995178 5858.000000
386.287567 5244.000000
388.578461 5659.000000
390.867828 6228.000000
393.155609 6303.000000
395.441864 6513.000000
397.726624 7012.000000
400.009766 6055.000000
402.291473 6477.000000
404.571655 6142.000000
406.850250 7330.000000
409.127319 6536.000000
411.402863 6719.000000
413.676880 6498.000000
415.949463 6444.000000
418.220428 6441.000000
420.489899 6469.000000
422.757874 7122.000000
425.024292 7316.000000
427.289215 6288.000000
429.552673 6322.000000
431.814545 6507.000000
434.074951 5996.000000
436.333801 6697.000000
438.591187 6213.000000
440.847076 5701.000000
443.101471 5810.000000
445.354340 5473.000000
447.605652 6970.000000
449.855560 6074.000000
452.103882 6307.000000
454.350769 5701.000000
456.596191 6418.000000
458.840057 6509.000000
461.082428 6852.000000
463.323303 5679.000000
465.562775 6730.000000
467.800659 5484.000000
470.037109 5794.000000
472.272034 6113.000000
474.505493 7426.000000
476.737518 6752.000000
478.968018 5672.000000
481.197021 6513.000000
483.424561 6343.000000
485.650604 5997.000000
487.875214 6585.000000
490.098358 5916.000000
492.320038 6435.000000
494.540161 6743.000000
496.758881 5662.000000
498.976105 6294.000000
501.191956 5569.000000
503.406189 6175.000000
505.619110 6431.000000
507.830444 6453.000000
510.040344 6925.000000
512.248840 6506.000000
514.455933 6631.000000
516.661438 6386.000000
518.865540 6546.000000
521.068115 6254.000000
523.269287 6597.000000
525.469116 6663.000000
527.667419 6908.000000
529.864197 5376.000000
532.059631 5920.000000
534.253540 5567.000000
536.446106 7590.000000
538.637146 6712.000000
540.826782 6053.000000
543.015015 6904.000000
545.201721 7187.000000
547.386963 6881.000000
549.570923 6328.000000
551.753296 6410.000000
553.934326 6196.000000
556.113831 6034.000000
558.292053 5938.000000
560.468750 6064.000000
562.644043 6408.000000
564.817932 6440.000000
566.990356 5933.000000
569.161377 6076.000000
571.330933 6337.000000
573.499207 5252.000000
575.665955 6469.000000
577.831238 6327.000000
579.995117 6144.000000
582.157715 5738.000000
584.318787 6064.000000
586.478455 5651.000000
588.636780 5854.000000
590.793579 6205.000000
592.949036 6552.000000
595.103088 5772.000000
597.255798 6102.000000
599.406982 7272.000000
601.556824 6794.000000
603.705322 6693.000000
605.852234 6077.000000
607.997925 6525.000000
610.142212 6480.000000
612.285034 6996.000000
614.426392 6202.000000
616.566528 6467.000000
618.705139 7687.000000
620.842468 5720.000000
622.978333 6620.000000
625.112793 6893.000000
627.245789 7271.000000
629.377625 6622.000000
631.507996 6613.000000
633.636963 7156.000000
635.764465 6475.000000
637.890686 6162.000000
640.015381 7356.000000
642.138855 6398.000000
644.260986 6824.000000
646.381653 6931.000000
648.500977 6565.000000
650.618896 5721.000000
652.735474 5716.000000
654.850647 6488.000000
656.964478 6471.000000
659.076843 5850.000000
661.187988 6122.000000
663.297729 5456.000000
665.406006 6653.000000
667.513123 6319.000000
669.618774 6816.000000
671.722961 5733.000000
673.825928 5768.000000
675.927490 6999.000000
678.027710 5391.000000
680.126526 6780.000000
682.223999 6290.000000
684.320190 7025.000000
686.414917 6251.000000
688.508423 7026.000000
690.600586 6612.000000
692.691223 8028.000000
694.780640 6639.000000
696.868774 6475.000000
698.955444 6052.000000
701.040894 6713.000000
703.124817 5153.000000
705.207520 5959.000000
707.288940 5974.000000
709.368896 7597.000000
711.447632 6210.000000
713.524902 5571.000000
715.600891 6570.000000
717.675598 6128.000000
719.749023 7043.000000
721.820923 6321.000000
723.891663 7422.000000
725.961060 5864.000000
728.029053 6489.000000
730.095703 6442.000000
732.161133 7055.000000
734.225220 5808.000000
736.287964 6180.000000
738.349365 6495.000000
740.409485 6545.000000
742.468201 6107.000000
744.525696 6672.000000
746.581909 6517.000000
748.636719 6731.000000
750.690247 6395.000000
752.742371 7515.000000
754.793274 5817.000000
756.842957 6727.000000
758.891174 6382.000000
760.938171 6139.000000
762.983887 6950.000000
765.028198 5306.000000
767.071228 5734.000000
769.113037 6366.000000
771.153503 6998.000000
773.192566 6412.000000
775.230469 6080.000000
777.267029 5949.000000
779.302368 5398.000000
781.336365 5821.000000
783.368958 6925.000000
785.400391 5573.000000
787.430420 12054.000000
789.459167 6045.000000
791.486755 6327.000000
793.513000 6350.000000
795.537842 5822.000000
797.561584 5545.000000
799.583923 6386.000000
801.605042 5910.000000
803.624817 6641.000000
805.643311 4916.000000
807.660583 6678.000000
809.676453 6816.000000
811.691162 5664.000000
813.704529 6455.000000
815.716675 6329.000000
817.727600 6173.000000
819.737183 6561.000000
821.745544 5320.000000
823.752502 5730.000000
825.758240 6046.000000
827.762756 5766.000000
829.765991 5703.000000
831.767944 6452.000000
833.768616 6100.000000
835.768066 5993.000000
837.766174 6285.000000
839.763184 7082.000000
841.758789 6257.000000
843.753235 5892.000000
845.746338 6135.000000
847.738220 6839.000000
849.728760 5617.000000
851.718018 6810.000000
853.706238 6025.000000
855.693054 5806.000000
857.678650 6463.000000
859.662964 7330.000000
861.646179 6329.000000
863.627991 6435.000000
865.608582 5904.000000
867.587891 7799.000000
869.566040 7097.000000
871.542847 6287.000000
873.518372 5998.000000
875.492859 6252.000000
877.465881 6062.000000
879.437866 5462.000000
881.408508 6383.000000
883.377991 6145.000000
885.346130 5600.000000
887.313110 5229.000000
889.278748 6144.000000
891.243225 5858.000000
893.206482 6062.000000
895.168518 6596.000000
897.129272 5914.000000
899.088806 6492.000000
901.047058 6769.000000
903.004211 6368.000000
904.960205 6057.000000
906.914795 6909.000000
908.868164 6629.000000
910.820374 6407.000000
912.771362 6385.000000
914.721069 7106.000000
916.669617 6339.000000
918.616943 6155.000000
920.562988 6138.000000
922.507751 6070.000000
924.451477 6328.000000
926.394043 6019.000000
928.335327 5611.000000
930.275269 6500.000000
932.214111 5733.000000
934.151672 5524.000000
936.088013 5922.000000
938.023193 5878.000000
939.957092 6137.000000
941.889893 5903.000000
943.821472 6785.000000
945.751892 5236.000000
947.681091 6476.000000
949.608948 7031.000000
951.535767 6727.000000
953.461304 6014.000000
955.385559 5409.000000
957.308716 6013.000000
959.230713 6754.000000
961.151428 7335.000000
963.070984 6496.000000
964.989380 5370.000000
966.906738 6439.000000
968.822632 6449.000000
970.737427 6127.000000
972.651001 5956.000000
974.563416 6377.000000
976.474609 6483.000000
978.384644 5483.000000
980.293396 6191.000000
982.201111 6112.000000
984.107605 6474.000000
986.012878 5730.000000
987.917053 6810.000000
989.820007 6234.000000
991.721741 6812.000000
993.622314 6381.000000
995.521729 6581.000000
997.419922 5308.000000
999.316956 6533.000000
1001.212769 6556.000000
1003.107422 7646.000000
1005.000977 5611.000000
1006.893250 7177.000000
1008.784607 6070.000000
1010.674622 5360.000000
1012.563416 6592.000000
1014.451050 6330.000000
1016.337524 6902.000000
1018.222839 6784.000000
1020.106995 6041.000000
1021.989929 5888.000000
1023.871826 6216.000000
1025.752441 5257.000000
1027.631958 5864.000000
1029.510498 6143.000000
1031.387695 5432.000000
1033.263550 6225.000000
1035.138428 5934.000000
1037.012329 6621.000000
1038.884766 7038.000000
1040.756226 6728.000000
1042.626343 5507.000000
1044.495483 5517.000000
1046.363403 5814.000000
1048.230225 7128.000000
1050.095947 6804.000000
1051.960449 6450.000000
1053.823853 6446.000000
1055.685913 6493.000000
1057.546997 5929.000000
1059.406982 6513.000000
1061.265625 6724.000000
1063.123169 5792.000000
1064.979614 6754.000000
1066.834961 5994.000000
1068.689087 5839.000000
1070.542358 6261.000000
1072.394165 6356.000000
1074.244995 6204.000000
1076.094604 6157.000000
1077.942993 5787.000000
1079.790527 8026.000000
1081.636719 5700.000000
1083.481689 6221.000000
1085.325806 5451.000000
1087.168579 5583.000000
1089.010132 6485.000000
1090.850952 5549.000000
1092.690186 5814.000000
1094.528687 6046.000000
1096.365845 5998.000000
1098.201782 6899.000000
1100.036743 6651.000000
1101.870483 5416.000000
1103.703247 5653.000000
1105.534668 6209.000000
1107.365234 7299.000000
1109.194458 6622.000000
1111.022705 6464.000000
1112.849731 7158.000000
1114.675781 5442.000000
1116.500610 6366.000000
1118.324341 7173.000000
1120.146851 6133.000000
1121.968262 5880.000000
1123.788818 5949.000000
1125.607910 6632.000000
1127.426147 7139.000000
1129.243042 6871.000000
1131.059082 6712.000000
1132.873901 6479.000000
1134.687622 5649.000000
1136.500244 5898.000000
1138.311646 5654.000000
1140.122070 6156.000000
1141.931396 6739.000000
1143.739380 6962.000000
1145.546631 5984.000000
1147.352417 5968.000000
1149.157349 5424.000000
1150.961182 5414.000000
1152.763794 6116.000000
1154.565552 6181.000000
1156.365845 6093.000000
1158.165161 6153.000000
1159.963501 5880.000000
1161.760498 5524.000000
1163.556763 5923.000000
1165.351685 6146.000000
1167.145508 6419.000000
1168.938477 7809.000000
1170.730103 5733.000000
1172.520752 6503.000000
1174.310425 6061.000000
1176.098633 5954.000000
1177.885986 7459.000000
1179.672241 6895.000000
1181.457397 5799.000000
1183.241455 5994.000000
1185.024414 7744.000000
1186.806396 5923.000000
1188.587158 5851.000000
1190.366943 6327.000000
1192.145630 7016.000000
1193.923340 6740.000000
1195.699829 7178.000000
1197.475220 6583.000000
1199.249512 6546.000000
1201.022705 6736.000000
1202.795044 6625.000000
1204.566040 6725.000000
1206.336182 5683.000000
1208.105103 6113.000000
1209.872925 6304.000000
1211.639893 5999.000000
1213.405518 5883.000000
1215.170166 6906.000000
1216.933716 6531.000000
1218.696167 5981.000000
1220.457764 6735.000000
1222.218140 5935.000000
1223.977417 6265.000000
1225.735840 6127.000000
1227.493042 7110.000000
1229.249146 6482.000000
1231.004150 5579.000000
1232.758301 5978.000000
1234.511108 5806.000000
1236.262939 6028.000000
1238.013916 5949.000000
1239.763550 4951.000000
1241.512329 7020.000000
1243.259766 6476.000000
1245.006470 6672.000000
1246.751953 6478.000000
1248.496582 6450.000000
1250.239868 6776.000000
1251.982178 6680.000000
1253.723389 5421.000000
1255.463745 5040.000000
1257.203003 5844.000000
1258.941040 6612.000000
1260.678223 7092.000000
1262.414185 6178.000000
1264.149170 6500.000000
1265.883179 7304.000000
1267.616211 6024.000000
1269.348022 6252.000000
1271.078857 6465.000000
1272.808472 6833.000000
1274.537231 5996.000000
1276.264893 5712.000000
1277.991455 5624.000000
1279.717163 5571.000000
1281.441528 6506.000000
1283.165039 5188.000000
1284.887573 6908.000000
1286.609131 6645.000000
1288.329468 6215.000000
1290.048828 6693.000000
1291.767090 7228.000000
1293.484375 6468.000000
1295.200684 5790.000000
1296.915771 6398.000000
1298.629883 6151.000000
1300.343018 5729.000000
1302.055298 6509.000000
1303.766357 8308.000000
1305.476440 5348.000000
1307.185425 6294.000000
1308.893188 6711.000000
1310.600342 7011.000000
1312.306030 5829.000000
1314.010986 6897.000000
1315.714966 6221.000000
1317.417725 6006.000000
1319.119507 6610.000000
1320.820435 6102.000000
1322.520020 8978.000000
1324.218750 7295.500000
1325.916748 18628.000000
1327.613403 6517.000000
1329.308960 7197.000000
1331.003662 6849.000000
1332.697144 5783.000000
1334.389771 5370.000000
1336.081543 7286.000000
1337.771973 6306.000000
1339.461670 6559.000000
1341.150269 6082.000000
1342.837769 7696.000000
1344.524292 5645.000000
1346.209717 6753.000000
1347.894165 5971.000000
1349.577759 7308.000000
1351.260132 6389.000000
1352.941528 5983.000000
1354.622070 6538.000000
1356.301392 6679.000000
1357.980103 5929.000000
1359.657471 6571.000000
1361.333740 5818.000000
1363.009033 5648.000000
1364.683594 6582.000000
1366.356934 6498.000000
1368.029297 6850.000000
1369.700684 5208.000000
1371.371094 6756.000000
1373.040405 6204.000000
1374.708740 5696.000000
1376.376221 6009.000000
1378.042603 6513.000000
1379.708008 6201.000000
1381.372437 5929.000000
1383.035645 5996.000000
1384.698242 5734.000000
1386.359497 6415.000000
1388.019897 6542.000000
1389.679199 6470.000000
1391.337524 6564.000000
1392.995117 6852.000000
1394.651489 6478.000000
1396.307007 7089.000000
1397.961304 6320.000000
1399.614746 5836.000000
1401.267090 6221.000000
1402.918701 6473.000000
1404.569092 7231.000000
1406.218384 6264.000000
1407.866943 7592.000000
1409.514404 7878.000000
1411.160889 6231.000000
1412.806519 6255.000000
1414.451172 6001.000000
1416.094604 7032.000000
1417.737183 7145.000000
1419.378662 6863.000000
1421.019287 6522.000000
1422.658936 6455.000000
1424.297485 6084.000000
1425.935181 6647.000000
1427.571777 6383.000000
1429.207397 6013.000000
1430.842285 6410.000000
1432.476074 5908.000000
1434.108765 6178.000000
1435.740479 5707.000000
1437.371338 6074.000000
1439.001099 6049.000000
1440.629761 7824.000000
1442.257813 5996.000000
1443.884766 6275.000000
1445.510498 6192.000000
1447.135620 6215.000000
1448.759644 6540.000000
1450.382690 6093.000000
1452.004761 6075.000000
1453.625732 7492.000000
1455.245728 6315.000000
1456.864990 6852.000000
1458.482910 5698.000000
1460.100220 5637.500000
1461.716553 5577.000000
1463.331665 7302.000000
1464.945923 6260.000000
1466.559326 5185.000000
1468.171631 5642.000000
1469.783081 6322.000000
1471.393677 6336.000000
1473.003052 5981.000000
1474.611450 6095.000000
1476.218994 6208.000000
1477.825562 6720.000000
1479.431396 5257.000000
1481.036011 6319.000000
1482.639771 5507.000000
1484.242310 6781.000000
1485.844238 5576.000000
1487.444946 5631.000000
1489.044922 5642.000000
1490.643799 6310.000000
1492.241821 6527.000000
1493.838745 6689.000000
1495.434814 6362.000000
1497.029907 6008.000000
1498.624023 5536.000000
1500.217407 6598.000000
1501.809692 5550.000000
1503.400757 6205.000000
1504.991333 6801.000000
1506.580566 6484.000000
1508.169189 6172.000000
1509.756714 6564.000000
1511.343140 6875.000000
1512.928833 6210.000000
1514.513428 6632.000000
1516.097168 6224.000000
1517.679810 6221.000000
1519.261719 6570.000000
1520.842529 6612.000000
1522.422607 6101.000000
1524.001465 6304.000000
1525.579468 6379.000000
1527.156738 6317.000000
1528.732788 5729.000000
1530.308105 5966.000000
1531.882324 6385.000000
1533.455811 5507.000000
1535.028076 5987.000000
1536.599609 6450.000000
1538.170166 6408.000000
1539.739868 6334.000000
1541.308350 5491.000000
1542.876099 6554.000000
1544.442993 5660.000000
1546.008667 6848.000000
1547.573608 5977.000000
1549.137451 5087.000000
1550.700684 7508.000000
1552.262573 6324.000000
1553.823853 6016.000000
1555.384033 5707.000000
1556.943481 5738.000000
1558.501831 5901.000000
1560.059448 6300.000000
1561.615967 6988.000000
1563.171265 5846.000000
1564.725952 6372.000000
1566.279907 5670.000000
1567.832886 6288.000000
1569.384521 5717.000000
1570.935425 5924.000000
1572.485596 6228.000000
1574.034790 6321.000000
1575.582642 5841.000000
1577.130005 5515.000000
1578.676392 5732.000000
1580.221924 5109.000000
1581.766479 6670.000000
1583.309814 6383.000000
1584.852539 6634.000000
1586.394409 6392.000000
1587.935181 6727.000000
1589.474976 5825.000000
1591.014038 6695.000000
1592.552002 5968.000000
1594.089478 6145.000000
1595.625610 5834.000000
1597.160645 6686.000000
1598.695190 6266.000000
1600.228760 5949.000000
1601.761475 6031.000000
1603.292603 6305.000000
1604.823486 6284.000000
1606.353516 5784.000000
1607.882324 6231.000000
1609.410034 6159.000000
1610.937134 6043.000000
1612.463501 5813.000000
1613.988892 6233.000000
1615.513428 5827.000000
1617.036621 5818.000000
1618.559082 5607.000000
1620.080811 6586.000000
1621.601685 6986.000000
1623.121094 15594.000000
1624.640015 6193.000000
1626.158203 6070.000000
1627.675537 5956.000000
1629.191772 6441.000000
1630.706665 7025.000000
1632.221069 6830.000000
1633.734741 5792.000000
1635.247314 6892.000000
1636.758667 5983.000000
1638.269653 6494.000000
1639.779541 6288.000000
1641.288574 6137.000000
1642.796265 5673.000000
1644.303589 6175.000000
1645.810059 7097.000000
1647.315552 6317.000000
1648.820190 6867.000000
1650.323364 6207.000000
1651.825928 6551.000000
1653.328125 6371.000000
1654.828979 6694.000000
1656.328735 7539.000000
1657.827637 5958.000000
1659.326172 6555.000000
1660.823486 6202.000000
1662.320068 5968.000000
1663.815063 6526.000000
1665.309814 6381.000000
1666.803711 5270.000000
1668.296631 5668.000000
1669.788208 20332.000000
1671.279297 6457.000000
1672.769775 6151.000000
1674.259155 6000.000000
1675.747070 6992.000000
1677.234741 6900.000000
1678.721436 6030.000000
1680.207275 5406.000000
1681.692261 6092.000000
1683.175781 6144.000000
1684.659058 6260.000000
1686.141479 5932.000000
1687.622803 6244.000000
1689.102661 6184.000000
1690.582275 5504.000000
1692.061157 6581.000000
1693.539063 6012.000000
1695.015991 6085.000000
1696.491699 5765.000000
1697.967041 5977.000000
1699.441162 6338.000000
1700.914673 5512.000000
1702.386719 5599.000000
1703.858521 6931.000000
1705.329346 6463.000000
1706.799316 7120.000000
1708.267944 5145.000000
1709.736084 5843.000000
1711.203491 6475.000000
1712.669800 5514.000000
1714.135498 5760.000000
1715.599487 6226.000000
1717.063354 6015.000000
1718.526367 6987.000000
1719.988403 6405.000000
1721.449219 6656.000000
1722.909424 5508.000000
1724.368896 5658.000000
1725.827515 6135.000000
1727.285156 6075.000000
1728.741455 6284.000000
1730.197510 6068.000000
1731.652588 6489.000000
1733.106689 6038.000000
1734.559570 6870.000000
1736.012207 5888.000000
1737.463745 6777.000000
1738.914551 5950.000000
1740.364380 6596.000000
1741.812866 6017.000000
1743.260986 7345.000000
1744.708252 6582.000000
1746.154785 6665.000000
1747.599731 6685.000000
1749.044434 6143.000000
1750.488281 5882.000000
1751.931274 5564.000000
1753.372803 6615.000000
1754.814087 6366.000000
1756.254517 19306.000000
1757.693970 6296.000000
1759.132446 5361.000000
1760.569946 6075.000000
1762.006958 7604.000000
1763.442993 5857.000000
1764.878174 7140.000000
1766.311890 6215.000000
1767.745483 6455.000000
1769.178101 6709.000000
1770.609863 5798.000000
1772.040771 5816.000000
1773.470459 6415.000000
1774.899414 6211.000000
1776.327881 6311.000000
1777.755371 6717.000000
1779.181519 6289.000000
1780.607422 5590.000000
1782.032227 6923.000000
1783.456421 5523.000000
1784.879150 6742.000000
1786.301392 6594.000000
1787.722900 6864.000000
1789.143677 5926.000000
1790.563477 6171.000000
1791.981934 6157.000000
1793.399902 6877.000000
1794.817261 5477.000000
1796.233765 6041.000000
1797.648804 6594.000000
1799.063477 5863.000000
1800.477539 6614.000000
1801.890381 6010.000000
1803.302612 7011.000000
1804.713501 7160.000000
1806.123901 7827.000000
1807.533569 6480.000000
1808.942261 6012.000000
1810.349854 5495.000000
1811.756958 6408.000000
1813.163208 6430.000000
1814.568481 6725.000000
1815.972656 6033.000000
1817.376465 5938.000000
1818.779297 6261.000000
1820.181274 5996.000000
1821.582642 5915.000000
1822.982544 6346.000000
1824.381836 6553.000000
1825.780640 6567.000000
1827.178589 7428.000000
1828.575195 5799.000000
1829.971191 6829.000000
1831.366455 5878.000000
1832.761108 8174.000000
1834.154785 5981.000000
1835.547119 6839.000000
1836.938965 6419.000000
1838.330200 5989.000000
1839.720459 7120.000000
1841.109497 6063.000000
1842.498169 6082.000000
1843.885864 6047.000000
1845.272827 5795.000000
1846.658447 6909.000000
1848.043823 5898.000000
1849.428345 6421.000000
1850.812134 6299.000000
1852.194824 6387.000000
1853.576294 5467.000000
1854.957275 6588.000000
1856.337769 6367.000000
1857.717285 5754.000000
1859.095337 6006.000000
1860.473267 6331.000000
1861.850220 7789.000000
1863.226440 6122.000000
1864.601807 6097.000000
1865.975708 5716.000000
1867.349487 5807.000000
1868.722412 6275.000000
1870.094238 6056.000000
1871.465088 6943.000000
1872.835571 5449.000000
1874.204956 6099.000000
1875.573853 6191.000000
1876.941162 7136.000000
1878.308350 6051.000000
1879.674561 6039.000000
1881.040039 6806.000000
1882.404785 7494.000000
1883.767944 6745.000000
1885.130981 6934.000000
1886.493164 6354.000000
1887.854492 6421.000000
1889.214478 5641.000000
1890.574097 5906.000000
1891.933105 6144.000000
1893.291138 6640.000000
1894.648315 7282.000000
1896.004272 5986.000000
1897.359985 7605.000000
1898.714722 5888.000000
1900.068604 5617.000000
1901.421387 5921.000000
1902.773682 5976.000000
1904.125244 5958.000000
1905.475952 6841.000000
1906.825439 6558.000000
1908.174438 6738.000000
1909.522583 5817.000000
1910.870117 6125.000000
1912.216919 6302.000000
1913.562134 6821.000000
1914.907104 6132.000000
1916.251343 5499.000000
1917.594727 6527.000000
1918.936768 6037.000000
1920.278564 6698.000000
1921.619507 6993.000000
1922.959717 6203.000000
1924.298950 6351.000000
1925.637207 6258.000000
1926.974854 6500.000000
1928.311768 7066.000000
1929.647827 6743.000000
1930.982666 5602.000000
1932.317139 6593.000000
1933.650879 7289.000000
1934.983765 6284.000000
1936.315186 5814.000000
1937.646729 6336.000000
1938.976929 6634.000000
1940.306641 5815.000000
1941.635498 6105.000000
1942.963135 5828.000000
1944.290283 5025.000000
1945.616699 5836.000000
1946.942383 6566.000000
1948.266724 5774.000000
1949.590820 6656.000000
1950.914063 6282.000000
1952.236572 6444.000000
1953.557983 5785.000000
1954.878418 7416.000000
1956.198242 5988.000000
1957.517700 5541.000000
1958.836182 6873.000000
1960.153320 5919.000000
1961.470093 5852.000000
1962.786133 6641.000000
1964.101440 6590.000000
1965.415283 6286.000000
1966.728882 5707.000000
1968.041748 6281.000000
1969.353760 6007.000000
1970.665161 6064.000000
1971.975220 6336.000000
1973.284790 5827.000000
1974.593628 6150.000000
1975.901855 6607.000000
1977.208740 6109.000000
1978.515015 7297.000000
1979.820923 5602.000000
1981.125610 6452.000000
1982.429810 6014.000000
1983.732788 5735.000000
1985.035400 7619.000000
1986.337036 6124.000000
1987.638062 6856.000000
1988.937500 6044.000000
1990.237061 6594.000000
1991.535522 5294.000000
1992.833496 6164.000000
1994.129883 6185.000000
1995.426270 5784.000000
1996.721680 5641.000000
1998.016357 6572.000000
1999.310181 5732.000000
2000.602783 6547.000000
2001.894897 5748.000000
2003.186523 7231.000000
2004.477417 6520.000000
2005.766724 6164.000000
2007.055786 6842.000000
2008.344116 5968.000000
2009.631714 6050.000000
2010.918457 6900.000000
2012.204102 5713.000000
2013.489380 6321.000000
2014.773682 6009.000000
2016.057373 5569.000000
2017.339722 6093.000000
2018.621704 6502.000000
2019.903198 6782.000000
2021.183716 5894.000000
2022.463501 6055.000000
2023.742188 6775.000000
2025.020142 5853.000000
2026.297607 5917.000000
2027.574463 6280.000000
2028.849609 5795.000000
2030.124878 6614.000000
2031.399170 6167.000000
2032.672485 5911.000000
2033.944946 5941.000000
2035.217041 6171.000000
2036.488037 7016.000000
2037.758789 6562.000000
2039.028198 5994.000000
2040.296509 6751.000000
2041.564819 6551.000000
2042.832153 6005.000000
2044.098755 6021.000000
2045.364136 5641.000000
2046.628906 5543.000000
2047.893433 5443.000000
2049.156738 5919.000000
2050.419678 6462.000000
2051.680664 6154.000000
2052.942139 6130.000000
2054.202393 5886.000000
2055.461914 6438.000000
2056.720703 6332.000000
2057.978516 6928.000000
2059.235840 6241.000000
2060.492432 5996.000000
2061.747559 6529.000000
2063.002686 5633.000000
2064.256836 5628.000000
2065.510254 5663.000000
2066.762939 6833.000000
2068.014404 6247.000000
2069.265625 6330.000000
2070.516113 5620.000000
2071.765869 5419.000000
2073.014160 6486.000000
2074.262451 6550.000000
2075.509766 7453.000000
2076.756348 5636.000000
2078.002197 6074.000000
2079.246826 6973.000000
2080.490967 7608.000000
2081.734619 5551.000000
2082.977295 6024.000000
2084.218750 7017.000000
2085.459961 6030.000000
2086.700684 6373.000000
2087.940430 6778.000000
2089.178955 7061.000000
2090.416992 6251.000000
2091.654297 5845.000000
2092.891357 6671.000000
2094.126953 6129.000000
2095.361816 6262.000000
2096.596436 6083.000000
2097.830078 5695.000000
2099.062744 6106.000000
2100.294678 6878.000000
2101.526123 6388.000000
2102.756592 6822.000000
2103.986328 6071.000000
2105.215820 5965.000000
2106.443359 6072.000000
2107.671143 6048.000000
2108.898193 6248.000000
2110.124268 5538.000000
2111.348877 6447.000000
2112.573730 6936.000000
2113.797363 7153.000000
2115.020508 6249.000000
2116.242432 7577.000000
2117.464111 6007.000000
2118.684814 6864.000000
2119.904785 6087.000000
2121.124268 6191.000000
2122.342285 6646.000000
2123.560303 7055.000000
2124.777344 5717.000000
2125.993896 5767.000000
2127.208740 6563.000000
2128.423828 6409.000000
2129.637939 6854.000000
2130.851318 5734.000000
2132.063965 6106.000000
2133.275146 5839.000000
2134.486572 6498.000000
2135.696777 6740.000000
2136.906494 5968.000000
2138.114746 6181.000000
2139.322998 5695.000000
2140.530518 5921.000000
2141.736816 7545.000000
2142.942383 5988.000000
2144.147705 5759.000000
2145.352051 5591.000000
2146.555664 6306.000000
2147.758789 6291.000000
2148.960449 6660.000000
2150.161865 5358.000000
2151.362549 6287.000000
2152.562500 6053.000000
2153.761230 5994.000000
2154.959717 6985.000000
2156.157715 6201.000000
2157.354736 6006.000000
2158.551025 5155.000000
2159.746094 5296.000000
2160.940918 6171.000000
2162.135010 5658.000000
2163.328125 6056.000000
2164.520264 6862.000000
2165.712158 5921.000000
2166.903320 6335.000000
2168.093506 6300.000000
2169.282959 6537.000000
2170.471924 6833.000000
2171.659912 6010.000000
2172.847656 5782.000000
2174.033936 5965.000000
2175.219482 6626.000000
2176.404785 6079.000000
2177.589600 5877.000000
2178.773193 6369.000000
2179.956055 7498.000000
2181.137939 6285.000000
2182.319580 6003.000000
2183.500732 6595.000000
2184.680664 5747.000000
2185.859619 5593.000000
2187.038086 6374.000000
2188.216309 6915.000000
2189.393311 7214.000000
2190.569336 6738.000000
2191.745117 6062.000000
2192.920410 5601.000000
2194.094238 6715.000000
2195.267578 6180.000000
2196.440674 6217.000000
2197.612549 6412.000000
2198.783936 7158.000000
2199.954834 6299.000000
2201.124023 6933.000000
2202.293213 7555.000000
2203.461914 6369.000000
2204.629639 5844.000000
2205.796387 5639.000000
2206.962402 7119.000000
2208.127930 6694.000000
2209.293213 6034.000000
2210.457031 6705.000000
2211.620361 5450.000000
2212.782471 6170.000000
2213.944824 6157.000000
2215.105957 6764.000000
2216.266113 6695.000000
2217.425781 6361.000000
2218.585205 6597.000000
2219.743408 6354.000000
2220.900635 6368.000000
2222.057617 6763.000000
2223.213867 6566.000000
2224.369385 6771.000000
2225.524170 6317.000000
2226.677979 6417.000000
2227.830811 6042.000000
2228.984131 6993.000000
2230.135498 6239.000000
2231.286621 6210.000000
2232.437012 6579.000000
2233.586914 7704.000000
2234.735840 6310.000000
2235.884277 5255.000000
2237.031250 6873.000000
2238.178467 7099.000000
2239.324463 6105.000000
2240.470215 7296.000000
2241.614258 7282.000000
2242.758545 6723.000000
2243.901855 6291.000000
2245.044434 5974.000000
2246.186035 5777.000000
2247.327393 5813.000000
2248.467773 6415.000000
2249.607422 6350.000000
2250.746582 5869.000000
2251.884521 5842.000000
2253.022461 6210.000000
2254.159424 5335.000000
2255.295654 6316.000000
2256.430908 6151.000000
2257.565430 7317.000000
2258.699707 6432.000000
2259.833496 5402.000000
2260.965820 6149.000000
2262.097656 6871.000000
2263.229004 6343.000000
2264.359375 6485.000000
2265.489502 8137.000000
2266.618408 6727.000000
2267.746826 6039.000000
2268.874756 5582.000000
2270.001709 6158.000000
2271.127930 5999.000000
2272.253174 6826.000000
2273.378418 6543.000000
2274.502930 6413.000000
2275.626221 5900.000000
2276.748779 6351.000000
2277.870850 5988.000000
2278.992432 7402.000000
2280.113281 6486.000000
2281.232910 6465.000000
2282.352051 7202.000000
2283.470947 7713.000000
2284.589111 7325.000000
2285.706299 5936.000000
2286.822510 6418.000000
2287.938477 6960.000000
2289.053711 6930.000000
2290.168213 7430.000000
2291.281494 5776.000000
2292.394775 6348.000000
2293.507324 6072.000000
2294.619141 5420.000000
2295.730225 6860.000000
2296.840088 6433.000000
2297.949463 6233.000000
2299.058594 6716.000000
2300.166748 6340.000000
2301.273926 6777.000000
2302.380859 5946.000000
2303.487061 6279.000000
2304.592773 6653.000000
2305.697021 6561.000000
2306.801025 5510.000000
2307.904541 5788.000000
2309.007568 6567.000000
2310.109375 7451.000000
2311.210449 7382.000000
2312.311035 6649.000000
2313.411133 5576.000000
2314.510498 6443.000000
2315.608398 6602.000000
2316.706787 6965.000000
2317.803711 8250.000000
2318.900391 6901.000000
2319.996582 5806.000000
2321.091064 6917.000000
2322.185547 7566.000000
2323.279297 5889.000000
2324.372803 6015.000000
2325.464600 6452.000000
2326.556396 7050.000000
2327.647461 6144.000000
2328.737793 6322.000000
2329.827148 6923.000000
2330.916504 6044.000000
2332.004639 6356.000000
2333.092285 6893.000000
2334.179688 6469.000000
2335.265381 6767.000000
2336.350830 7765.000000
2337.436035 6333.000000
2338.520264 6742.000000
2339.603516 5951.000000
2340.686523 6486.000000
2341.768555 7078.000000
2342.850342 5994.000000
2343.931396 7424.000000
2345.011230 6623.000000
2346.090576 5708.000000
2347.169434 6825.000000
2348.247803 6541.000000
2349.324707 6297.000000
2350.401367 6911.000000
2351.477783 6069.000000
2352.553223 6538.000000
2353.627686 5886.000000
2354.701904 6282.000000
2355.775391 6799.000000
2356.848389 6258.000000
2357.920166 7093.000000
2358.991699 6344.000000
2360.062256 6844.000000
2361.132568 7567.000000
2362.201904 7564.000000
2363.270264 6878.000000
2364.338379 6777.000000
2365.405762 7113.000000
2366.472656 7170.000000
2367.538818 6064.000000
2368.603760 6808.000000
2369.668701 7055.000000
2370.732910 6355.000000
2371.796387 6920.000000
2372.858643 5820.000000
2373.920898 6341.000000
2374.982178 6362.000000
2376.043213 5986.000000
2377.103027 6269.000000
2378.162109 7908.000000
2379.221191 6471.000000
2380.279297 7680.000000
2381.336670 6917.000000
2382.393066 8007.000000
2383.449219 7965.000000
2384.504883 6219.000000
2385.559814 7052.000000
2386.613281 6750.000000
2387.666992 6579.000000
2388.719727 6271.000000
2389.771973 6787.000000
2390.823486 6173.000000
2391.874023 6685.000000
2392.924316 6550.000000
2393.973633 6254.000000
2395.022949 6218.000000
2396.070801 6934.000000
2397.118164 6998.000000
2398.165283 6289.000000
2399.211426 6685.000000
2400.256836 6176.000000
2401.301514 6756.000000
2402.346191 7760.000000
2403.389404 7426.000000
2404.432617 6579.000000
2405.474365 5696.000000
2406.516357 6725.000000
2407.557617 7069.000000
2408.597900 6168.000000
2409.637451 6495.000000
2410.676025 6353.000000
2411.714844 6027.000000
2412.752441 6578.000000
2413.789795 6877.000000
2414.825928 7263.000000
2415.861816 6190.000000
2416.896973 6363.000000
2417.931641 6665.000000
2418.964844 7215.000000
2419.998291 6522.000000
2421.030762 6736.000000
2422.062988 6814.000000
2423.093750 7079.000000
2424.124512 6398.000000
2425.154785 6792.000000
2426.183838 6904.000000
2427.212891 6625.000000
2428.240234 7431.000000
2429.268066 6685.000000
2430.294678 7285.000000
2431.321045 6968.000000
2432.345947 7851.000000
2433.371094 6651.000000
2434.395264 7175.000000
2435.419189 6759.000000
2436.441895 5813.000000
2437.463867 6371.000000
2438.485596 6654.000000
2439.506592 6747.000000
2440.527100 6083.000000
2441.546387 6587.000000
2442.565674 6615.000000
2443.583984 8489.000000
2444.602051 6279.000000
2445.618652 6514.000000
2446.635254 6570.000000
2447.651123 6062.000000
2448.666992 7062.000000
2449.681396 6863.000000
2450.695068 5601.000000
2451.708252 7317.000000
2452.721191 6005.000000
2453.733398 7149.000000
2454.744629 6719.000000
2455.755615 7763.000000
2456.765869 6426.000000
2457.775635 7643.000000
2458.784424 5923.000000
2459.792480 5958.000000
2460.800537 6339.000000
2461.807373 7361.000000
2462.813965 5470.000000
2463.819336 7418.000000
2464.824463 6957.000000
2465.829346 5922.000000
2466.833008 6546.000000
2467.836426 6369.000000
2468.838867 7612.000000
2469.841064 7370.000000
2470.842773 6912.000000
2471.843506 6617.000000
2472.843262 6967.000000
2473.843018 6777.000000
2474.841797 5781.000000
2475.840088 6601.000000
2476.837402 7083.000000
2477.834473 6215.000000
2478.831543 7003.000000
2479.827148 5871.000000
2480.822754 7151.000000
2481.816650 6770.000000
2482.810547 8099.000000
2483.803955 6803.000000
2484.796875 6807.000000
2485.788818 7535.000000
2486.780029 7261.000000
2487.770996 6778.000000
2488.761475 5822.000000
2489.750977 6647.000000
2490.739746 6535.000000
2491.728516 5739.000000
2492.716309 6809.000000
2493.702881 6592.000000
2494.689453 8118.000000
2495.675537 6770.000000
2496.660889 7094.000000
2497.645264 8378.000000
2498.629395 6084.000000
2499.613525 6916.000000
2500.596191 5784.000000
2501.578369 7032.000000
2502.560059 6832.000000
2503.541016 7276.000000
2504.521484 6516.000000
2505.501709 5788.000000
2506.480469 6321.000000
2507.458984 7680.000000
2508.437012 6780.000000
2509.414551 7093.000000
2510.391113 6140.000000
2511.367432 5982.000000
2512.343018 6508.000000
2513.318115 6289.000000
2514.292725 6482.000000
2515.266113 7520.000000
2516.239258 6777.000000
2517.212158 6884.000000
2518.184082 6087.000000
2519.155273 6832.000000
2520.125977 6957.000000
2521.096436 7826.000000
2522.066162 8045.000000
2523.034912 6154.000000
2524.002930 6249.000000
2524.970947 7746.000000
2525.937988 6353.000000
2526.904785 5566.000000
2527.870361 7245.000000
2528.835938 7026.000000
2529.800781 7753.000000
2530.765137 6367.000000
2531.728271 6417.000000
2532.691650 5926.000000
2533.654053 5977.000000
2534.616211 6690.000000
2535.577148 6359.000000
2536.537354 6106.000000
2537.497803 6148.000000
2538.457275 6790.000000
2539.416016 6845.000000
2540.373779 6690.000000
2541.331787 6281.000000
2542.289063 6769.000000
2543.245361 6153.000000
2544.201416 7111.000000
2545.156250 6268.000000
2546.111328 7739.000000
2547.065674 7042.000000
2548.019287 6426.000000
2548.971924 7238.000000
2549.924316 6724.000000
2550.876221 7043.000000
2551.827393 6364.000000
2552.777832 7717.000000
2553.727783 7277.000000
2554.677490 7412.000000
2555.626465 6647.000000
2556.574951 6308.000000
2557.522217 7178.000000
2558.469482 6306.000000
2559.416016 6604.000000
2560.362061 6747.000000
2561.307129 7609.000000
2562.251953 6737.000000
2563.196289 7169.000000
2564.140137 6856.000000
2565.083496 6671.000000
2566.025391 6655.000000
2566.967529 6634.000000
2567.908936 6191.000000
2568.849609 7212.000000
2569.789551 7242.000000
2570.729492 5654.000000
2571.668457 6177.000000
2572.607178 7531.000000
2573.544922 7229.000000
2574.482422 5505.000000
2575.419189 7052.000000
2576.355225 6827.000000
2577.290771 7491.000000
2578.225586 6415.000000
2579.160400 5967.000000
2580.094238 7104.000000
2581.027588 7278.000000
2581.960205 5910.000000
2582.892578 7039.000000
2583.824219 5474.000000
2584.755371 7120.000000
2585.686035 7021.000000
2586.615479 6928.000000
2587.544922 7251.000000
2588.473877 6513.000000
2589.402588 7404.000000
2590.329590 7402.000000
2591.256836 5873.000000
2592.183594 6863.000000
2593.109619 6311.000000
2594.035400 5684.000000
2594.959961 7645.000000
2595.884277 7703.000000
2596.808105 5414.000000
2597.731445 7227.000000
2598.653809 6288.000000
2599.575928 6870.000000
2600.497559 8303.000000
2601.418457 6420.000000
2602.338623 5810.000000
2603.258545 6404.000000
2604.177979 6505.000000
2605.097168 6475.000000
2606.015381 5876.000000
2606.932373 6028.000000
2607.849609 7268.000000
2608.766602 5942.000000
2609.682617 7595.000000
2610.597412 6596.000000
2611.512695 6588.000000
2612.427246 6592.000000
2613.340820 6589.000000
2614.254395 6174.000000
2615.166748 7572.000000
2616.079102 7061.000000
2616.990479 6841.000000
2617.901611 5690.000000
2618.812012 7457.000000
2619.722168 6660.000000
2620.631592 6190.000000
2621.540527 6706.000000
2622.448486 6237.000000
2623.356689 6862.000000
2624.263916 6653.000000
2625.170654 7104.000000
2626.076660 6089.000000
2626.982422 6551.000000
2627.887451 6588.000000
2628.792236 7822.000000
2629.696289 6440.000000
2630.599365 6431.000000
2631.502441 6443.000000
2632.404541 5696.000000
2633.306641 6744.000000
2634.208496 6976.000000
2635.108643 6795.000000
2636.009033 6478.000000
2636.908691 6373.000000
2637.808105 6012.000000
2638.706055 6900.000000
2639.604492 6707.000000
2640.502441 6497.000000
2641.399658 6110.000000
2642.295654 6260.000000
2643.191650 6732.000000
2644.087402 6163.000000
2644.982422 6498.000000
2645.877197 6609.000000
2646.770508 7053.000000
2647.663818 6301.000000
2648.556885 6775.000000
2649.449707 6505.000000
2650.340820 7478.000000
2651.232178 6438.000000
2652.123047 7662.000000
2653.013184 7358.000000
2653.903076 6610.000000
2654.791748 7349.000000
2655.680664 6657.000000
2656.569092 6577.000000
2657.456543 7349.000000
2658.343018 6528.000000
2659.229980 7143.000000
2660.116211 6894.000000
2661.001953 6879.000000
2661.886475 6627.000000
2662.770996 6408.000000
2663.655273 6246.000000
2664.538818 7084.000000
2665.421875 7739.000000
2666.304199 7394.000000
2667.186035 6281.000000
2668.067139 6689.000000
2668.948486 6056.000000
2669.828369 6603.000000
2670.708496 7409.000000
2671.587891 7178.000000
2672.467285 6226.000000
2673.345947 6160.000000
2674.222900 6467.000000
2675.100586 6783.000000
2675.977539 6445.000000
2676.853760 8149.000000
2677.729492 7229.000000
2678.604492 6355.000000
2679.479736 7775.000000
2680.354004 7002.000000
2681.227783 7339.000000
2682.100830 6970.000000
2682.973633 6218.000000
2683.846191 6099.000000
2684.718018 6913.000000
2685.589111 6627.000000
2686.459961 6896.000000
2687.330322 7133.000000
2688.200439 6782.000000
2689.068848 6354.000000
2689.937988 7455.000000
2690.806396 7077.000000
2691.674561 6706.000000
2692.541992 6953.000000
2693.408203 5904.000000
2694.274902 7223.000000
2695.140625 7406.000000
2696.006348 7204.000000
2696.870605 7999.000000
2697.735596 6672.000000
2698.599121 7286.000000
2699.462891 5853.000000
2700.325195 7440.000000
2701.187988 6874.000000
2702.049805 5952.000000
2702.911133 6920.000000
2703.772461 6843.000000
2704.632568 7501.000000
2705.492676 7360.000000
2706.352295 6645.000000
2707.211670 6877.000000
2708.069336 7131.000000
2708.927246 6871.000000
2709.785645 7348.000000
2710.642822 6786.000000
2711.499268 6031.000000
2712.355225 6842.000000
2713.211182 6151.000000
2714.066406 6925.000000
2714.920898 6133.000000
2715.774902 6859.000000
2716.628906 7348.000000
2717.481934 6326.000000
2718.335205 6503.000000
2719.186768 7759.000000
2720.038818 6775.000000
2720.890625 6301.000000
2721.741211 6540.000000
2722.591797 6462.000000
2723.441895 7174.000000
2724.291260 7075.000000
2725.140625 6970.000000
2725.988770 6688.000000
2726.836426 6588.000000
2727.684570 7072.000000
2728.531494 6906.000000
2729.378906 5628.000000
2730.224854 7484.000000
2731.070068 6993.000000
2731.915771 6481.000000
2732.760498 7048.000000
2733.605225 7304.000000
2734.448730 6901.000000
2735.292480 7894.000000
2736.135498 7202.000000
2736.978027 6069.000000
2737.819580 6285.000000
2738.661621 6839.000000
2739.502686 6969.000000
2740.343506 5873.000000
2741.184082 6047.000000
2742.023438 7755.000000
2742.862793 6918.000000
2743.702148 6966.000000
2744.540283 6794.000000
2745.377930 7854.000000
2746.215576 6335.000000
2747.052734 7137.000000
2747.889648 6233.000000
2748.726074 6040.000000
2749.561279 6676.000000
2750.396729 6342.000000
2751.231689 6367.000000
2752.065918 6266.000000
2752.899902 6892.000000
2753.733398 6800.000000
2754.566895 8057.000000
2755.399414 6802.000000
2756.231445 7365.000000
2757.062988 6856.000000
2757.894531 7168.000000
2758.725098 7227.000000
2759.555908 7260.000000
2760.385498 7286.000000
2761.215088 6677.000000
2762.044434 7312.000000
2762.873047 6926.000000
2763.701172 6820.000000
2764.528809 6941.000000
2765.356445 6703.000000
2766.183594 7921.000000
2767.010010 5833.000000
2767.835938 7469.000000
2768.661377 6919.000000
2769.486572 7854.000000
2770.311768 7074.000000
2771.135742 6794.000000
2771.959717 6594.000000
2772.783691 7607.000000
2773.606445 6677.000000
2774.429443 6833.000000
2775.251221 7005.000000
2776.072998 6992.000000
2776.894775 6575.000000
2777.715576 7942.000000
2778.535645 6567.000000
2779.355957 7059.000000
2780.175781 7253.000000
2780.995605 6430.000000
2781.813477 5973.000000
2782.632568 8166.000000
2783.450439 6547.000000
2784.268066 6778.000000
2785.085205 7152.000000
2785.901855 7291.000000
2786.718262 7224.000000
2787.534180 6278.000000
2788.349854 6061.000000
2789.164551 6444.000000
2789.979736 7043.000000
2790.794189 7172.000000
2791.608154 6593.000000
2792.421875 7514.000000
2793.234375 8828.000000
2794.047119 6971.000000
2794.859375 7532.000000
2795.671143 7258.000000
2796.482178 7372.000000
2797.293945 6588.000000
2798.104492 7259.000000
2798.915039 7104.000000
2799.724121 7424.000000
2800.533936 8341.000000
2801.343018 7769.000000
2802.151855 6654.000000
2802.960205 7216.000000
2803.767578 6229.000000
2804.575439 6487.000000
2805.382568 6955.000000
2806.189453 6969.000000
2806.995117 7308.000000
2807.801270 6646.000000
2808.606689 6539.000000
2809.412109 7351.000000
2810.216797 6258.000000
2811.020508 7668.000000
2811.824707 7537.000000
2812.628418 6515.000000
2813.431885 6103.000000
2814.233887 6301.000000
2815.036621 7304.000000
2815.838623 7838.000000
2816.640381 6202.000000
2817.441650 6531.000000
2818.242432 7318.000000
2819.042725 6533.000000
2819.843262 6652.000000
2820.642822 8036.000000
2821.441895 7147.000000
2822.240967 6493.000000
2823.039795 6935.000000
2823.838135 6401.000000
2824.635498 7089.000000
2825.433105 7407.000000
2826.229980 6755.000000
2827.027100 7374.000000
2827.823486 7958.000000
2828.619141 7039.000000
2829.414795 7402.000000
2830.210205 7607.000000
2831.005127 7524.000000
2831.799316 6652.000000
2832.593506 6919.000000
2833.387451 5684.000000
2834.180908 6942.000000
2834.973633 7152.000000
2835.766113 8241.000000
2836.558594 7675.000000
2837.350830 7748.000000
2838.142578 6448.000000
2838.933350 6797.000000
2839.724121 8879.000000
2840.515137 7535.000000
2841.305176 6221.000000
2842.094727 7701.000000
2842.884521 7223.000000
2843.673340 7327.000000
2844.462158 7835.000000
2845.250977 7747.000000
2846.038818 7515.000000
2846.826172 7206.000000
2847.613770 7534.000000
2848.400879 7359.000000
2849.187256 6671.000000
2849.973633 7474.000000
2850.759766 7296.000000
2851.545410 7616.000000
2852.330078 7122.000000
2853.115234 6887.000000
2853.900146 7573.000000
2854.684326 7169.000000
2855.468506 6989.000000
2856.251465 8321.000000
2857.034668 6878.000000
2857.817627 6806.000000
2858.600098 7719.000000
2859.382324 6262.000000
2860.164063 6642.000000
2860.945557 7665.000000
2861.727295 7504.000000
2862.508301 7686.000000
2863.288574 6609.000000
2864.068604 6732.000000
2864.848633 8126.000000
2865.628418 7517.000000
2866.407227 8125.000000
2867.186279 7679.000000
2867.964844 6809.000000
2868.743164 7037.000000
2869.520996 7294.000000
2870.298584 7014.000000
2871.075928 7542.000000
2871.853027 6967.000000
2872.629639 6486.000000
2873.405762 7524.000000
2874.181885 7233.000000
2874.957520 8280.000000
2875.732910 7194.000000
2876.507813 6652.000000
2877.282471 7997.000000
2878.057129 6674.000000
2878.831543 7853.000000
2879.605225 6800.000000
2880.378174 7244.000000
2881.151855 6766.000000
2881.924561 7625.000000
2882.697266 7842.000000
2883.469238 8281.000000
2884.240967 6256.000000
2885.013184 6852.000000
2885.784180 6927.000000
2886.554688 6156.000000
2887.325684 8374.000000
2888.096680 7421.000000
2888.866943 7941.000000
2889.636230 7663.000000
2890.405762 7008.000000
2891.175293 7281.000000
2891.944336 7346.000000
2892.712891 7855.000000
2893.481445 7743.000000
2894.249023 6989.000000
2895.017090 6686.000000
2895.784668 7436.000000
2896.552246 8387.000000
2897.318604 7395.000000
2898.085938 6550.000000
2898.852051 7224.000000
2899.618408 7016.000000
2900.383301 8247.000000
2901.148682 6990.000000
2901.914551 6489.000000
2902.678955 7769.000000
2903.443359 7721.000000
2904.208008 8530.000000
2904.971680 6657.000000
2905.736084 8466.000000
2906.499756 6715.000000
2907.262695 8407.000000
2908.025391 6520.000000
2908.788574 8959.000000
2909.551270 7024.000000
2910.312744 6806.000000
2911.074707 6806.000000
