scanname Analyse008
timestamp 2017-02-10 19:59:12
ccdbias 906.860840
ccdgain 3.473401
sigmaread 8.960639
laserwavenum -0.538500
wavenumcorrection -0.015536
scancount 1
totalexposurems 10000
singleexposurems 10000
measurementstate Unknown
scanmode Manual
snr 26.685789 0.301090 0.189675
replacelist 3
889 21545.000000 19992.000000
1163 6383.000000 5490.000000
1618 7005.000000 6312.000000
peaks 7
398.371277 0.066981 0.000000 0.097229 0.000008
809.398132 0.059138 0.000000 0.056075 0.000053
839.532410 0.056978 0.000000 0.059564 0.000023
1153.002197 0.047680 0.000000 0.279177 0.000044
1218.919434 0.046148 0.000000 0.222728 0.000071
1316.373779 0.048932 0.000000 0.351405 0.000103
1458.641113 0.048979 0.000000 0.062179 0.000037
finalresult GLS_Multiple 90
A11883	Polypropylene (Isotactic)	4.587860e-001
A13500	Poly(propylene-co-ethylene)	4.577048e-001
A0115	Polypropylene	4.558131e-001
A2703	Acetaldehyde dimethyl acetal	3.801014e-001
A3653	(R)-(+)-3-Methylcyclopentanone	3.726629e-001
A1531	Ethyl formate	3.601589e-001
A13507	Poly(methyl methacrylate-co-ethyl acrylate)	3.567947e-001
A9321	Methyl 2-hydroxyisobutyrate	3.551778e-001
A14069	(R)-(-)-1,2-Propanediol	3.547676e-001
A11885	Poly(methyl methacrylate-co-butyl methacrylate)	3.542346e-001
A0518	Propylene glycol	3.528360e-001
A10674	Dibutyl succinate	3.525641e-001
A0400	Potassium permanganate	3.524529e-001
A2313	Barium peroxide	3.506165e-001
A11872	Poly(methyl methacrylate)	3.499157e-001
A10066	2,5-Lutidine	3.497685e-001
A0369	2,4,6-Tribromophenol	3.475635e-001
A3222	Potassium nitrite	3.455392e-001
A9546	4-Methoxy-alpha-methylbenzyl alcohol	3.448587e-001
A2727	Acrolein diethyl acetal	3.443120e-001
A1676	Trifluoroacetic acid	3.434876e-001
A7225	Dibutyl adipate	3.425075e-001
A7848	Butyl glycolate	3.421692e-001
A2721	Formaldehyde diethyl acetal	3.420964e-001
A1167	Ethylene glycol butyl ether	3.419278e-001
A12733	Tri-tert-butyl borate	3.414934e-001
A1584	Pentane	3.400725e-001
A1697	Ethyl vinyl ether	3.399403e-001
A2839	5-Azacytidine	3.398319e-001
A0793	Tris(2-methoxyethoxy)(vinyl)silane	3.388838e-001
A1519	Butyl vinyl ether	3.388358e-001
A2098	Diethylene glycol dibutyl ether	3.386800e-001
A1270	Methyl DL-lactate	3.384883e-001
A4269	2,4-Dibromoanisole	3.379616e-001
A2210	Calcium peroxide hydrate	3.370056e-001
A0098	Roundup (weed and grass killer)	3.367667e-001
A12725	Cerium(III) fluoride	3.352422e-001
A0365	Tris(2-butoxyethyl) phosphate	3.347188e-001
A1224	Poly(ethylene glycol) butyl ether	3.344103e-001
A8610	5-Methyl-2-pyrrolidinone	3.338051e-001
A13820	(-)-Methyl L-lactate	3.337106e-001
A9308	Dimethyl 2,4-dimethylglutarate,mixture of (+/-) and meso	3.336512e-001
A1226	Bis[2-(2-butoxyethoxy)ethyl] adipate	3.333077e-001
A11366	4-Isopropylanisole	3.331065e-001
A1149	Methyl 2-aminobenzoate	3.328697e-001
A2225	Diethylene glycol butyl ether	3.325385e-001
A8360	5-Chloro-2-nitroaniline	3.325269e-001
A0524	Propionic acid	3.322552e-001
A0340	Butyronitrile	3.322316e-001
A1754	N,N-Dimethylhydrazine	3.316531e-001
A8178	N,N'-Diisopropylethylenediamine	3.313938e-001
A4025	2,4-Dimethylpentane	3.313470e-001
A12955	2-Chloro-1,3,2-dioxaphospholane	3.313114e-001
A4543	1,4-Butanediol divinyl ether	3.311934e-001
A12947	Diethyl (trichloromethyl)phosphonate	3.311465e-001
A8180	Tetrahydro-2-(2-propynyloxy)-2H-pyran	3.300757e-001
A1002	Dibutyl maleate	3.300285e-001
A12448	Tribromofluoromethane	3.300285e-001
A6278	6-Methylnicotinamide	3.299345e-001
A9593	(R)-(-)-2-Amino-1-propanol	3.297469e-001
A0544	1,4-Dioxane	3.296762e-001
A11767	Di(ethylene glycol) vinyl ether	3.285622e-001
A5380	4-(Trifluoromethoxy)benzyl alcohol	3.284451e-001
A3285	4,N,N-Trimethylaniline	3.281758e-001
A9484	S-(+)-2-Amino-1-propanol	3.280120e-001
A3574	Sodium hexanitrocobaltate(III)	3.280007e-001
A0761	N,N,N',N'-Tetrakis(2-Hydroxypropyl)ethylenediamine	3.274628e-001
A2630	DL-Alaninol	3.273460e-001
A7885	beta-Carotene	3.272994e-001
A13797	Isobutyltriethoxysilane	3.271360e-001
A9112	L-(+)-Arabinose	3.269025e-001
A12438	Methyl dichlorophosphite	3.263664e-001
A0199	Isobutyric acid	3.260516e-001
A8580	Sodium permanganate solution	3.260166e-001
A10296	Tri(ethylene glycol) divinyl ether	3.255749e-001
A5525	2-Methylene-1,3-propanediol	3.248078e-001
A5382	3-Methoxypropionic acid	3.246917e-001
A1748	3,4-Dihydro-2H-pyran	3.242627e-001
A8415	2-Chloro-6-methoxy-3-nitropyridine	3.236374e-001
A4645	1-Bromo-4-(trifluoromethoxy)benzene	3.235214e-001
A10529	1-Formylpiperazine	3.234867e-001
A10301	2-Methoxytetrahydropyran	3.223426e-001
A7633	2-Nitro-p-cymene	3.214550e-001
A5377	4-Methyl-2-nitroanisole	3.209488e-001
A0419	Sodium chlorite	3.207533e-001
A1547	Isovaleric acid	3.207072e-001
A14007	1,2-Dichlorotetramethyldisilane	3.206498e-001
A6700	4'-Methoxypropiophenone	3.181063e-001
A11768	Methyl (S)-(-)-3-Boc-2,2-dimethyl-4-oxazolidinecarboxylate	3.180149e-001
A8663	4-Methyl-3,5-dinitrobenzoic acid	3.176151e-001
spectrum 2048
-97.062958 45227.000000
-94.436089 45227.000000
-91.811096 46025.000000
-89.187996 46049.000000
-86.566765 46908.000000
-83.947433 46696.000000
-81.329964 47090.000000
-78.714371 46762.000000
-76.100655 47061.000000
-73.488815 47397.000000
-70.878838 47288.000000
-68.270744 47485.000000
-65.664497 47528.000000
-63.060123 47513.000000
-60.457615 47493.000000
-57.856960 47920.000000
-55.258167 47325.000000
-52.661232 46677.000000
-50.066151 47154.000000
-47.472923 47039.000000
-44.881546 47280.000000
-42.292015 46815.000000
-39.704327 47614.000000
-37.118488 47411.000000
-34.534492 47071.000000
-31.952335 47772.000000
-29.372023 47174.000000
-26.793537 47708.000000
-24.216894 47329.000000
-21.642076 47142.000000
-19.069099 47040.000000
-16.497942 46913.000000
-13.928617 46644.000000
-11.361119 45521.000000
-8.795440 46932.000000
-6.231586 46744.000000
-3.669546 47134.000000
-1.109330 47168.000000
1.449078 46707.000000
4.005665 45825.000000
6.560447 45960.000000
9.113413 46236.000000
11.664577 45020.000000
14.213929 44722.000000
16.761484 44033.000000
19.307228 44388.000000
21.851179 43955.000000
24.393326 41741.000000
26.933676 39547.000000
29.472240 36406.000000
32.009010 32229.000000
34.543976 23495.000000
37.077164 13322.000000
39.608570 8726.000000
42.138184 7969.000000
44.666000 7430.000000
47.192059 6621.000000
49.716328 5913.000000
52.238827 5251.000000
54.759529 4821.000000
57.278477 4967.000000
59.795650 5723.000000
62.311047 7005.000000
64.824661 7610.000000
67.336525 7618.000000
69.846642 5929.000000
72.354965 4066.000000
74.861534 3482.000000
77.366356 2805.000000
79.869423 2263.000000
82.370712 2078.000000
84.870262 1948.000000
87.368057 1988.000000
89.864120 2129.000000
92.358406 2534.000000
94.850952 2947.000000
97.341782 2808.000000
99.830841 2608.000000
102.318153 2003.000000
104.803741 1543.000000
107.287590 1370.000000
109.769691 1380.000000
112.250069 1224.000000
114.728722 1089.000000
117.205650 1071.000000
119.680824 945.000000
122.154289 984.000000
124.626022 940.000000
127.096046 913.000000
129.564316 990.000000
132.030914 871.000000
134.495758 963.000000
136.958908 892.000000
139.420319 986.000000
141.880035 1072.000000
144.338028 1130.000000
146.794327 1250.000000
149.248917 1216.000000
151.701782 1269.000000
154.152969 1408.000000
156.602463 1553.000000
159.050232 1747.000000
161.496292 1996.000000
163.940674 3550.000000
166.383377 2380.000000
168.824387 2574.000000
171.263687 2690.000000
173.701279 2644.000000
176.137238 2717.000000
178.571457 2759.000000
181.003998 2787.000000
183.434891 2675.000000
185.864059 2781.000000
188.291580 2634.000000
190.717422 2687.000000
193.141586 2774.000000
195.564087 2833.000000
197.984894 2705.000000
200.404037 2832.000000
202.821518 2877.000000
205.237305 2949.000000
207.651443 3142.000000
210.063950 3255.000000
212.474777 3448.000000
214.883926 3574.000000
217.291443 3754.000000
219.697250 3891.000000
222.101471 4066.000000
224.503983 4348.000000
226.904877 4459.000000
229.304123 4600.000000
231.701706 4526.000000
234.097626 4593.000000
236.491928 4729.000000
238.884567 4735.000000
241.275589 4784.000000
243.664948 4768.000000
246.052689 4602.000000
248.438782 4754.000000
250.823242 4681.000000
253.206055 4688.000000
255.587296 4801.000000
257.966827 4756.000000
260.344788 4740.000000
262.721069 4642.000000
265.095795 4673.000000
267.468872 4686.000000
269.840302 4535.000000
272.210083 4629.000000
274.578308 4548.000000
276.944885 4593.000000
279.309875 4720.000000
281.673248 4654.000000
284.034973 4533.000000
286.395111 4585.000000
288.753632 4542.000000
291.110565 4569.000000
293.465881 4592.000000
295.819611 4551.000000
298.171692 4534.000000
300.522217 4544.000000
302.871155 4553.000000
305.218445 4456.000000
307.564209 4530.000000
309.908295 4424.000000
312.250854 4368.000000
314.591797 4419.000000
316.931122 4444.000000
319.268890 4396.000000
321.605103 4319.000000
323.939667 4305.000000
326.272675 4366.000000
328.604126 4368.000000
330.933990 4348.000000
333.262268 4222.000000
335.588928 4281.000000
337.914093 4300.000000
340.237640 4244.000000
342.559631 4340.000000
344.880066 4147.000000
347.198883 4282.000000
349.516144 4069.000000
351.831879 4231.000000
354.146027 4185.000000
356.458588 4103.000000
358.769592 4217.000000
361.079071 4298.000000
363.387024 4259.000000
365.693359 4235.000000
367.998108 4206.000000
370.301392 4163.000000
372.603058 4160.000000
374.903229 4134.000000
377.201843 4135.000000
379.498901 4147.000000
381.794403 4277.000000
384.088379 4103.000000
386.380768 4275.000000
388.671661 4153.000000
390.961029 4261.000000
393.248810 4250.000000
395.535065 4407.000000
397.819824 4329.000000
400.102966 4410.000000
402.384674 4382.000000
404.664856 4319.000000
406.943451 4319.000000
409.220520 4283.000000
411.496063 4236.000000
413.770081 4124.000000
416.042664 4082.000000
418.313629 4114.000000
420.583099 4143.000000
422.851074 4249.000000
425.117493 4112.000000
427.382416 4060.000000
429.645874 4045.000000
431.907745 3986.000000
434.168152 4095.000000
436.427002 4048.000000
438.684387 4043.000000
440.940277 3986.000000
443.194672 4037.000000
445.447540 3950.000000
447.698853 4057.000000
449.948761 3863.000000
452.197083 3969.000000
454.443970 3950.000000
456.689392 3981.000000
458.933258 3953.000000
461.175629 3911.000000
463.416504 3910.000000
465.655975 3896.000000
467.893860 3845.000000
470.130310 3806.000000
472.365234 3826.000000
474.598694 3831.000000
476.830719 3793.000000
479.061218 3885.000000
481.290222 3801.000000
483.517761 3757.000000
485.743805 3718.000000
487.968414 3695.000000
490.191559 3754.000000
492.413239 3762.000000
494.633362 3838.000000
496.852081 3820.000000
499.069305 3623.000000
501.285156 3848.000000
503.499390 3739.000000
505.712311 3668.000000
507.923645 3775.000000
510.133545 3731.000000
512.342041 3785.000000
514.549133 3782.000000
516.754639 3808.000000
518.958740 3767.000000
521.161316 3682.000000
523.362488 3833.000000
525.562317 3789.000000
527.760620 3720.000000
529.957397 3690.000000
532.152832 3780.000000
534.346741 3765.000000
536.539307 3651.000000
538.730347 3817.000000
540.919983 3793.000000
543.108215 3484.000000
545.294922 3675.000000
547.480164 3687.000000
549.664124 3654.000000
551.846497 3465.000000
554.027527 3552.000000
556.207031 3526.000000
558.385254 3518.000000
560.561951 3464.000000
562.737244 3497.000000
564.911133 3457.000000
567.083557 3429.000000
569.254578 3375.000000
571.424133 3321.000000
573.592407 3458.000000
575.759155 3471.000000
577.924438 3554.000000
580.088318 3479.000000
582.250916 3475.000000
584.411987 3420.000000
586.571655 3451.000000
588.729980 3336.000000
590.886780 3481.000000
593.042236 3394.000000
595.196289 3499.000000
597.348999 3409.000000
599.500183 3365.000000
601.650024 3430.000000
603.798523 3473.000000
605.945435 3506.000000
608.091125 3374.000000
610.235413 3435.000000
612.378235 3360.000000
614.519592 3494.000000
616.659729 3452.000000
618.798340 3403.000000
620.935669 3417.000000
623.071533 3481.000000
625.205994 3476.000000
627.338989 3299.000000
629.470825 3422.000000
631.601196 3430.000000
633.730164 3222.000000
635.857666 3437.000000
637.983887 3306.000000
640.108582 3263.000000
642.232056 3319.000000
644.354187 3357.000000
646.474854 3273.000000
648.594177 3252.000000
650.712097 3238.000000
652.828674 3186.000000
654.943848 3186.000000
657.057678 3189.000000
659.170044 3132.000000
661.281189 3128.000000
663.390930 3288.000000
665.499207 3264.000000
667.606323 3174.000000
669.711975 3224.000000
671.816162 3221.000000
673.919128 3169.000000
676.020691 3101.000000
678.120911 3175.000000
680.219727 3152.000000
682.317200 3171.000000
684.413391 3197.000000
686.508118 3118.000000
688.601624 3250.000000
690.693787 3197.000000
692.784424 3185.000000
694.873840 3225.000000
696.961975 3280.000000
699.048645 3280.000000
701.134094 3229.000000
703.218018 3106.000000
705.300720 3182.000000
707.382141 3033.000000
709.462097 3213.000000
711.540833 3086.000000
713.618103 3057.000000
715.694092 3027.000000
717.768799 2954.000000
719.842224 3041.000000
721.914124 3163.000000
723.984863 3183.000000
726.054260 3002.000000
728.122253 2976.000000
730.188904 3002.000000
732.254333 2938.000000
734.318420 2981.000000
736.381165 3009.000000
738.442566 2764.000000
740.502686 2999.000000
742.561401 3000.000000
744.618896 2889.000000
746.675110 2886.000000
748.729919 2904.000000
750.783447 3033.000000
752.835571 2839.000000
754.886475 2898.000000
756.936157 2949.000000
758.984375 2984.000000
761.031372 2893.000000
763.077087 2893.000000
765.121399 2927.000000
767.164429 2778.000000
769.206238 2855.000000
771.246704 2874.000000
773.285767 2873.000000
775.323669 2954.000000
777.360229 3020.000000
779.395569 2847.000000
781.429565 2904.000000
783.462158 2882.000000
785.493591 2952.000000
787.523621 3061.000000
789.552368 2994.000000
791.579956 3041.000000
793.606201 3053.000000
795.631042 2981.000000
797.654785 2931.000000
799.677124 3005.000000
801.698242 3114.000000
803.718018 3170.000000
805.736511 3185.000000
807.753784 3329.000000
809.769653 3258.000000
811.784363 3180.000000
813.797729 3180.000000
815.809875 3113.000000
817.820801 2990.000000
819.830383 2871.000000
821.838745 2887.000000
823.845703 2887.000000
825.851440 2859.000000
827.855957 2913.000000
829.859192 2858.000000
831.861145 2855.000000
833.861816 2813.000000
835.861267 2926.000000
837.859375 2890.000000
839.856384 3061.000000
841.851990 2999.000000
843.846436 2927.000000
845.839539 2860.000000
847.831421 2824.000000
849.821960 2702.000000
851.811218 2706.000000
853.799438 2746.000000
855.786255 2671.000000
857.771851 2641.000000
859.756165 2796.000000
861.739380 2583.000000
863.721191 2749.000000
865.701782 2679.000000
867.681091 2849.000000
869.659241 2616.000000
871.636047 2742.000000
873.611572 2770.000000
875.586060 2721.000000
877.559082 2769.000000
879.531067 2884.000000
881.501709 2716.000000
883.471191 2772.000000
885.439331 2806.000000
887.406311 2726.000000
889.371948 2781.000000
891.336426 2803.000000
893.299683 2751.000000
895.261719 2813.000000
897.222473 2659.000000
899.182007 2653.000000
901.140259 2665.000000
903.097412 2631.000000
905.053406 2622.000000
907.007996 2654.000000
908.961365 2533.000000
910.913574 2625.000000
912.864563 2605.000000
914.814270 2616.000000
916.762817 2516.000000
918.710144 2519.000000
920.656189 2486.000000
922.600952 2322.000000
924.544678 2396.000000
926.487244 2395.000000
928.428528 2366.000000
930.368469 2328.000000
932.307312 2395.000000
934.244873 2308.000000
936.181213 2354.000000
938.116394 2224.000000
940.050293 2283.000000
941.983093 2339.000000
943.914673 2411.000000
945.845093 2268.000000
947.774292 2316.000000
949.702148 2314.000000
951.628967 2375.000000
953.554504 2262.000000
955.478760 2268.000000
957.401917 2372.000000
959.323914 2401.000000
961.244629 2335.000000
963.164185 2424.000000
965.082581 2341.000000
966.999939 2352.000000
968.915833 2466.000000
970.830627 2435.000000
972.744202 2396.000000
974.656616 2429.000000
976.567810 2403.000000
978.477844 2400.000000
980.386597 2306.000000
982.294312 2279.000000
984.200806 2346.000000
986.106079 2386.000000
988.010254 2352.000000
989.913208 2413.000000
991.814941 2295.000000
993.715515 2544.000000
995.614929 2411.000000
997.513123 2325.000000
999.410156 2371.000000
1001.305969 2207.000000
1003.200623 2199.000000
1005.094177 2225.000000
1006.986450 2174.000000
1008.877808 2194.000000
1010.767822 2149.000000
1012.656616 2119.000000
1014.544250 2054.000000
1016.430725 2107.000000
1018.316040 1996.000000
1020.200195 2086.000000
1022.083130 2158.000000
1023.965027 2051.000000
1025.845581 2170.000000
1027.725098 2064.000000
1029.603638 2132.000000
1031.480835 2128.000000
1033.356689 2150.000000
1035.231567 2188.000000
1037.105469 2123.000000
1038.977905 2147.000000
1040.849365 2124.000000
1042.719482 2180.000000
1044.588623 2160.000000
1046.456543 2187.000000
1048.323364 2283.000000
1050.189087 2109.000000
1052.053589 2084.000000
1053.916992 2109.000000
1055.779053 2249.000000
1057.640137 2115.000000
1059.500122 2070.000000
1061.358765 2153.000000
1063.216309 2078.000000
1065.072754 2162.000000
1066.928101 2107.000000
1068.782227 2112.000000
1070.635498 2105.000000
1072.487305 2127.000000
1074.338135 2044.000000
1076.187744 2037.000000
1078.036133 2093.000000
1079.883667 2110.000000
1081.729858 2073.000000
1083.574829 2020.000000
1085.418945 2073.000000
1087.261719 2093.000000
1089.103271 2108.000000
1090.944092 2067.000000
1092.783325 2060.000000
1094.621826 2001.000000
1096.458984 1938.000000
1098.294922 2040.000000
1100.129883 1982.000000
1101.963623 2019.000000
1103.796387 1895.000000
1105.627808 1976.000000
1107.458374 1948.000000
1109.287598 2011.000000
1111.115845 1846.000000
1112.942871 1813.000000
1114.768921 1873.000000
1116.593750 1917.000000
1118.417480 1774.000000
1120.239990 1899.000000
1122.061401 1874.000000
1123.881958 1883.000000
1125.701050 1949.000000
1127.519287 1909.000000
1129.336182 1825.000000
1131.152222 1932.000000
1132.967041 1786.000000
1134.780762 1955.000000
1136.593384 1971.000000
1138.404785 1906.000000
1140.215210 1940.000000
1142.024536 1881.000000
1143.832520 2042.000000
1145.639771 1966.000000
1147.445557 2088.000000
1149.250488 2133.000000
1151.054321 2170.000000
1152.856934 2264.000000
1154.658691 2060.000000
1156.458984 2116.000000
1158.258301 1953.000000
1160.056641 2019.000000
1161.853638 2041.000000
1163.649902 1915.000000
1165.444824 1964.000000
1167.238647 1917.000000
1169.031616 1918.000000
1170.823242 1813.000000
1172.613892 1834.000000
1174.403564 1845.000000
1176.191772 1889.000000
1177.979126 1820.000000
1179.765381 1962.000000
1181.550537 1796.000000
1183.334595 1782.000000
1185.117554 1882.000000
1186.899536 1855.000000
1188.680298 1920.000000
1190.460083 1828.000000
1192.238770 1837.000000
1194.016479 1897.000000
1195.792969 1802.000000
1197.568359 1805.000000
1199.342651 1751.000000
1201.115845 1782.000000
1202.888184 1882.000000
1204.659180 1640.000000
1206.429321 1779.000000
1208.198242 1699.000000
1209.966064 1676.000000
1211.733032 1592.000000
1213.498657 1755.000000
1215.263306 1861.000000
1217.026855 1830.000000
1218.789307 1844.000000
1220.550903 1808.000000
1222.311279 1758.000000
1224.070557 1802.000000
1225.828979 1624.000000
1227.586182 1648.000000
1229.342285 1764.000000
1231.097290 1737.000000
1232.851440 1816.000000
1234.604248 1712.000000
1236.356079 1756.000000
1238.107056 1789.000000
1239.856689 1766.000000
1241.605469 1817.000000
1243.352905 1804.000000
1245.099609 1804.000000
1246.845093 1745.000000
1248.589722 1760.000000
1250.333008 1813.000000
1252.075317 1876.000000
1253.816528 1788.000000
1255.556885 1723.000000
1257.296143 1725.000000
1259.034180 1623.000000
1260.771362 1569.000000
1262.507324 1651.000000
1264.242310 1731.000000
1265.976318 1647.000000
1267.709351 1747.000000
1269.441162 1769.000000
1271.171997 1795.000000
1272.901611 1835.000000
1274.630371 1814.000000
1276.358032 1791.000000
1278.084595 1765.000000
1279.810303 1766.000000
1281.534668 1782.000000
1283.258179 1753.000000
1284.980713 1793.000000
1286.702271 1718.000000
1288.422607 1843.000000
1290.141968 1764.000000
1291.860229 1814.000000
1293.577515 1862.000000
1295.293823 1816.000000
1297.008911 1790.000000
1298.723022 1725.000000
1300.436157 1799.000000
1302.148438 1799.000000
1303.859497 1792.000000
1305.569580 1700.000000
1307.278564 1774.000000
1308.986328 1659.000000
1310.693481 1607.000000
1312.399170 1789.000000
1314.104126 1728.000000
1315.808105 1836.000000
1317.510864 1793.000000
1319.212646 1895.000000
1320.913574 1781.000000
1322.613159 2929.000000
1324.311890 701.000000
1326.009888 1798.000000
1327.706543 1834.000000
1329.402100 1973.000000
1331.096802 1879.000000
1332.790283 1830.000000
1334.482910 1739.000000
1336.174683 1697.000000
1337.865112 1774.000000
1339.554810 1755.000000
1341.243408 1716.000000
1342.930908 1697.000000
1344.617432 1718.000000
1346.302856 1724.000000
1347.987305 1713.000000
1349.670898 1724.000000
1351.353271 1691.000000
1353.034668 1648.000000
1354.715210 1673.000000
1356.394531 1779.000000
1358.073242 1868.000000
1359.750610 1822.000000
1361.426880 1888.000000
1363.102173 1863.000000
1364.776733 1757.000000
1366.450073 1797.000000
1368.122437 1791.000000
1369.793823 1809.000000
1371.464233 1746.000000
1373.133545 1782.000000
1374.801880 1773.000000
1376.469360 1883.000000
1378.135742 1733.000000
1379.801147 1727.000000
1381.465576 1756.000000
1383.128784 1777.000000
1384.791382 1646.000000
1386.452637 1698.000000
1388.113037 1657.000000
1389.772339 1627.000000
1391.430664 1674.000000
1393.088257 1580.000000
1394.744629 1597.000000
1396.400146 1629.000000
1398.054443 1621.000000
1399.707886 1659.000000
1401.360229 1737.000000
1403.011841 1633.000000
1404.662231 1678.000000
1406.311523 1614.000000
1407.960083 1614.000000
1409.607544 1591.000000
1411.254028 1473.000000
1412.899658 1452.000000
1414.544312 1435.000000
1416.187744 1568.000000
1417.830322 1435.000000
1419.471802 1518.000000
1421.112427 1539.000000
1422.752075 1487.000000
1424.390625 1455.000000
1426.028320 1473.000000
1427.664917 1431.000000
1429.300537 1474.000000
1430.935425 1514.000000
1432.569214 1607.000000
1434.201904 1562.000000
1435.833618 1531.000000
1437.464478 1472.000000
1439.094238 1585.000000
1440.722900 1582.000000
1442.350952 1487.000000
1443.977905 1486.000000
1445.603638 1528.000000
1447.228760 1539.000000
1448.852783 1528.000000
1450.475830 1587.000000
1452.097900 1608.000000
1453.718872 1560.000000
1455.338867 1674.000000
1456.958130 1628.000000
1458.576050 1599.000000
1460.193359 1740.000000
1461.809692 1657.000000
1463.424805 1648.000000
1465.039063 1537.000000
1466.652466 1562.000000
1468.264771 1591.000000
1469.876221 1527.000000
1471.486816 1472.000000
1473.096191 1462.000000
1474.704590 1431.000000
1476.312134 1457.000000
1477.918701 1642.000000
1479.524536 1484.000000
1481.129150 1373.000000
1482.732910 1393.000000
1484.335449 1502.000000
1485.937378 1345.000000
1487.538086 1296.000000
1489.138062 1350.000000
1490.736938 1362.000000
1492.334961 1408.000000
1493.931885 1302.000000
1495.527954 1364.000000
1497.123047 1404.000000
1498.717163 1429.000000
1500.310547 1404.000000
1501.902832 1443.000000
1503.493896 1373.000000
1505.084473 1417.000000
1506.673706 1363.000000
1508.262329 1372.000000
1509.849854 1354.000000
1511.436279 1253.000000
1513.021973 1354.000000
1514.606567 1397.000000
1516.190308 1448.000000
1517.772949 1276.000000
1519.354858 1331.000000
1520.935669 1333.000000
1522.515747 1389.000000
1524.094604 1441.000000
1525.672607 1308.000000
1527.249878 1303.000000
1528.825928 1295.000000
1530.401245 1346.000000
1531.975464 1203.000000
1533.548950 1185.000000
1535.121216 1286.000000
1536.692749 1301.000000
1538.263306 1228.000000
1539.833008 1150.000000
1541.401489 1186.000000
1542.969238 1201.000000
1544.536133 1261.000000
1546.101807 1165.000000
1547.666748 1199.000000
1549.230591 1323.000000
1550.793823 1126.000000
1552.355713 1313.000000
1553.916992 1322.000000
1555.477173 1298.000000
1557.036621 1341.000000
1558.594971 1141.000000
1560.152588 1245.000000
1561.709106 1160.000000
1563.264404 1212.000000
1564.819092 1249.000000
1566.373047 1171.000000
1567.926025 1147.000000
1569.477661 1219.000000
1571.028564 1236.000000
1572.578735 1190.000000
1574.127930 1159.000000
1575.675781 1137.000000
1577.223145 1146.000000
1578.769531 1195.000000
1580.315063 1167.000000
1581.859619 1215.000000
1583.402954 1274.000000
1584.945679 1164.000000
1586.487549 1234.000000
1588.028320 1265.000000
1589.568115 1254.000000
1591.107178 1181.000000
1592.645142 1159.000000
1594.182617 1096.000000
1595.718750 1110.000000
1597.253784 1108.000000
1598.788330 1135.000000
1600.321899 1178.000000
1601.854614 1220.000000
1603.385742 1124.000000
1604.916626 1087.000000
1606.446655 1157.000000
1607.975464 1185.000000
1609.503174 1119.000000
1611.030273 1135.000000
1612.556641 1150.000000
1614.082031 1110.000000
1615.606567 1189.000000
1617.129761 1129.000000
1618.652222 1141.000000
1620.173950 1136.000000
1621.694824 1163.000000
1623.214233 1051.000000
1624.733154 1106.000000
1626.251343 1142.000000
1627.768677 1141.000000
1629.284912 1147.000000
1630.799805 1089.000000
1632.314209 1175.000000
1633.827881 1127.000000
1635.340454 1035.000000
1636.851807 1174.000000
1638.362793 1207.000000
1639.872681 1053.000000
1641.381714 1086.000000
1642.889404 1110.000000
1644.396729 1076.000000
1645.903198 1079.000000
1647.408691 1031.000000
1648.913330 1075.000000
1650.416504 1089.000000
1651.919067 1021.000000
1653.421265 1066.000000
1654.922119 962.000000
1656.421875 1006.000000
1657.920776 978.000000
1659.419312 1011.000000
1660.916626 1039.000000
1662.413208 992.000000
1663.908203 1009.000000
1665.402954 1016.000000
1666.896851 1065.000000
1668.389771 954.000000
1669.881348 958.000000
1671.372437 962.000000
1672.862915 927.000000
1674.352295 977.000000
1675.840210 1045.000000
1677.327881 1006.000000
1678.814575 1031.000000
1680.300415 973.000000
1681.785400 998.000000
1683.268921 1002.000000
1684.752197 896.000000
1686.234619 913.000000
1687.715942 945.000000
1689.195801 907.000000
1690.675415 943.000000
1692.154297 1025.000000
1693.632202 991.000000
1695.109131 947.000000
1696.584839 1022.000000
1698.060181 882.000000
1699.534302 1025.000000
1701.007813 867.000000
1702.479858 978.000000
1703.951660 908.000000
1705.422485 943.000000
1706.892456 919.000000
1708.361084 1014.000000
1709.829224 932.000000
1711.296631 932.000000
1712.762939 875.000000
1714.228638 898.000000
1715.692627 953.000000
1717.156494 968.000000
1718.619507 876.000000
1720.081543 941.000000
1721.542358 784.000000
1723.002563 925.000000
1724.462036 996.000000
1725.920654 935.000000
1727.378296 914.000000
1728.834595 853.000000
1730.290649 930.000000
1731.745728 885.000000
1733.199829 863.000000
1734.652710 940.000000
1736.105347 938.000000
1737.556885 936.000000
1739.007690 822.000000
1740.457520 838.000000
1741.906006 931.000000
1743.354126 877.000000
1744.801392 808.000000
1746.247925 871.000000
1747.692871 871.000000
1749.137573 845.000000
1750.581421 877.000000
1752.024414 868.000000
1753.465942 807.000000
1754.907227 889.000000
1756.347656 815.000000
1757.787109 915.000000
1759.225586 844.000000
1760.663086 859.000000
1762.100098 738.000000
1763.536133 918.000000
1764.971313 870.000000
1766.405029 700.000000
1767.838623 735.000000
1769.271240 881.000000
1770.703003 868.000000
1772.133911 791.000000
1773.563599 869.000000
1774.992554 790.000000
1776.421021 767.000000
1777.848511 748.000000
1779.274658 707.000000
1780.700562 877.000000
1782.125366 757.000000
1783.549561 786.000000
1784.972290 816.000000
1786.394531 770.000000
1787.816040 698.000000
1789.236816 743.000000
1790.656616 757.000000
1792.075073 745.000000
1793.493042 776.000000
1794.910400 693.000000
1796.326904 714.000000
1797.741943 678.000000
1799.156616 767.000000
1800.570679 764.000000
1801.983521 830.000000
1803.395752 708.000000
1804.806641 821.000000
1806.217041 710.000000
1807.626709 659.000000
1809.035400 708.000000
1810.442993 712.000000
1811.850098 822.000000
1813.256348 772.000000
1814.661621 761.000000
1816.065796 769.000000
1817.469604 823.000000
1818.872437 757.000000
1820.274414 649.000000
1821.675781 675.000000
1823.075684 695.000000
1824.474976 662.000000
1825.873779 726.000000
1827.271729 766.000000
1828.668335 770.000000
1830.064331 707.000000
1831.459595 664.000000
1832.854248 684.000000
1834.247925 732.000000
1835.640259 712.000000
1837.032104 638.000000
1838.423340 768.000000
1839.813599 713.000000
1841.202637 644.000000
1842.591309 815.000000
1843.979004 653.000000
1845.365967 728.000000
1846.751587 815.000000
1848.136963 707.000000
1849.521484 725.000000
1850.905273 742.000000
1852.287964 728.000000
1853.669434 722.000000
1855.050415 755.000000
1856.430908 711.000000
1857.810425 759.000000
1859.188477 633.000000
1860.566406 605.000000
1861.943359 709.000000
1863.319580 695.000000
1864.694946 718.000000
1866.068848 597.000000
1867.442627 705.000000
1868.815552 654.000000
1870.187378 557.000000
1871.558228 615.000000
1872.928711 654.000000
1874.298096 646.000000
1875.666992 685.000000
1877.034302 641.000000
1878.401489 521.000000
1879.767700 553.000000
1881.133179 692.000000
1882.497925 678.000000
1883.861084 630.000000
1885.224121 590.000000
1886.586304 606.000000
1887.947632 620.000000
1889.307617 571.000000
1890.667236 693.000000
1892.026245 631.000000
1893.384277 640.000000
1894.741455 596.000000
1896.097412 558.000000
1897.453125 665.000000
1898.807861 602.000000
1900.161743 539.000000
1901.514526 604.000000
1902.866821 600.000000
1904.218384 626.000000
1905.569092 583.000000
1906.918579 622.000000
1908.267578 640.000000
1909.615723 660.000000
1910.963257 647.000000
1912.310059 631.000000
1913.655273 643.000000
1915.000244 489.000000
1916.344482 581.000000
1917.687866 543.000000
1919.029907 629.000000
1920.371704 595.000000
1921.712646 655.000000
1923.052856 646.000000
1924.392090 510.000000
1925.730347 682.000000
1927.067993 534.000000
1928.404907 590.000000
1929.740967 520.000000
1931.075806 609.000000
1932.410278 500.000000
1933.744019 617.000000
1935.076904 569.000000
1936.408325 600.000000
1937.739868 519.000000
1939.070068 556.000000
1940.399780 498.000000
1941.728638 533.000000
1943.056274 576.000000
1944.383423 477.000000
1945.709839 612.000000
1947.035522 511.000000
1948.359863 546.000000
1949.683960 531.000000
1951.007202 518.000000
1952.329712 613.000000
1953.651123 530.000000
1954.971558 495.000000
1956.291382 531.000000
1957.610840 504.000000
1958.929321 679.000000
1960.246460 527.000000
1961.563232 546.000000
1962.879272 429.000000
1964.194580 484.000000
1965.508423 558.000000
1966.822021 494.000000
1968.134888 499.000000
1969.446899 406.000000
1970.758301 499.000000
1972.068359 617.000000
1973.377930 508.000000
1974.686768 474.000000
1975.994995 469.000000
1977.301880 591.000000
1978.608154 454.000000
1979.914063 460.000000
1981.218750 487.000000
1982.522949 463.000000
1983.825928 474.000000
1985.128540 488.000000
1986.430176 511.000000
1987.731201 429.000000
1989.030640 521.000000
1990.330200 445.000000
1991.628662 428.000000
1992.926636 446.000000
1994.223022 469.000000
1995.519409 395.000000
1996.814819 498.000000
1998.109497 549.000000
1999.403320 455.000000
2000.695923 471.000000
2001.988037 369.000000
2003.279663 344.000000
2004.570557 426.000000
2005.859863 451.000000
2007.148926 342.000000
2008.437256 391.000000
2009.724854 552.000000
2011.011597 380.000000
2012.297241 493.000000
2013.582520 395.000000
2014.866821 429.000000
2016.150513 515.000000
2017.432861 405.000000
2018.714844 414.000000
2019.996338 454.000000
2021.276855 486.000000
2022.556641 495.000000
2023.835327 434.000000
2025.113281 384.000000
2026.390747 448.000000
2027.667603 375.000000
2028.942749 494.000000
2030.218018 427.000000
2031.492310 368.000000
2032.765625 453.000000
2034.038086 454.000000
2035.310181 456.000000
2036.581177 483.000000
2037.851929 481.000000
2039.121338 474.000000
2040.389648 360.000000
2041.657959 397.000000
2042.925293 498.000000
2044.191895 445.000000
2045.457275 352.000000
2046.722046 373.000000
2047.986572 394.000000
2049.250000 439.000000
2050.512939 351.000000
2051.773926 384.000000
2053.035400 435.000000
2054.295654 444.000000
2055.555176 358.000000
2056.813965 329.000000
2058.071777 412.000000
2059.329102 407.000000
2060.585693 431.000000
2061.840820 345.000000
2063.095947 467.000000
2064.350098 452.000000
2065.603516 479.000000
2066.856201 435.000000
2068.107666 389.000000
2069.358887 434.000000
2070.609375 421.000000
2071.859131 353.000000
2073.107422 355.000000
2074.355713 301.000000
2075.603027 324.000000
2076.849609 389.000000
2078.095459 442.000000
2079.340088 466.000000
2080.584229 354.000000
2081.827881 307.000000
2083.070557 470.000000
2084.312012 341.000000
2085.553223 375.000000
2086.793945 316.000000
2088.033691 390.000000
2089.272217 321.000000
2090.510254 361.000000
2091.747559 371.000000
2092.984619 420.000000
2094.220215 256.000000
2095.455078 325.000000
2096.689697 375.000000
2097.923340 345.000000
2099.156006 292.000000
2100.387939 441.000000
2101.619385 306.000000
2102.849854 297.000000
2104.079590 406.000000
2105.309082 365.000000
2106.536621 293.000000
2107.764404 387.000000
2108.991455 321.000000
2110.217529 327.000000
2111.442139 397.000000
2112.666992 266.000000
2113.890625 365.000000
2115.113770 318.000000
2116.335693 257.000000
2117.557373 391.000000
2118.778076 420.000000
2119.998047 394.000000
2121.217529 468.000000
2122.435547 367.000000
2123.653564 358.000000
2124.870605 388.000000
2126.087158 208.000000
2127.302002 143.000000
2128.517090 253.000000
2129.731201 440.000000
2130.944580 388.000000
2132.157227 353.000000
2133.368408 319.000000
2134.579834 350.000000
2135.790039 432.000000
2136.999756 364.000000
2138.208008 319.000000
2139.416260 337.000000
2140.623779 277.000000
2141.830078 16.000000
2143.035645 367.000000
2144.240967 334.000000
2145.445313 334.000000
2146.648926 302.000000
2147.852051 311.000000
2149.053711 282.000000
2150.255127 348.000000
2151.455811 253.000000
2152.655762 297.000000
2153.854492 278.000000
2155.052979 233.000000
2156.250977 359.000000
2157.447998 257.000000
2158.644287 306.000000
2159.839355 273.000000
2161.034180 287.000000
2162.228271 321.000000
2163.421387 338.000000
2164.613525 327.000000
2165.805420 369.000000
2166.996582 270.000000
2168.186768 218.000000
2169.376221 236.000000
2170.565186 213.000000
2171.753174 274.000000
2172.940918 339.000000
2174.127197 213.000000
2175.312744 312.000000
2176.498047 285.000000
2177.682861 320.000000
2178.866455 266.000000
2180.049316 311.000000
2181.231201 307.000000
2182.412842 347.000000
2183.593994 333.000000
2184.773926 320.000000
2185.952881 282.000000
2187.131348 218.000000
2188.309570 166.000000
2189.486572 297.000000
2190.662598 323.000000
2191.838379 371.000000
2193.013672 291.000000
2194.187500 332.000000
2195.360840 238.000000
2196.533936 271.000000
2197.705811 334.000000
2198.877197 298.000000
2200.048096 256.000000
2201.217285 328.000000
2202.386475 289.000000
2203.555176 311.000000
2204.722900 332.000000
2205.889648 156.000000
2207.055664 217.000000
2208.221191 242.000000
2209.386475 271.000000
2210.550293 280.000000
2211.713623 215.000000
2212.875732 306.000000
2214.038086 240.000000
2215.199219 283.000000
2216.359375 164.000000
2217.519043 318.000000
2218.678467 380.000000
2219.836670 221.000000
2220.993896 217.000000
2222.150879 261.000000
2223.307129 205.000000
2224.462646 259.000000
2225.617432 282.000000
2226.771240 241.000000
2227.924072 277.000000
2229.077393 182.000000
2230.228760 303.000000
2231.379883 292.000000
2232.530273 299.000000
2233.680176 229.000000
2234.829102 304.000000
2235.977539 202.000000
2237.124512 281.000000
2238.271729 195.000000
2239.417725 242.000000
2240.563477 248.000000
2241.707520 277.000000
2242.851807 230.000000
2243.995117 193.000000
2245.137695 267.000000
2246.279297 208.000000
2247.420654 287.000000
2248.561035 208.000000
2249.700684 263.000000
2250.839844 266.000000
2251.977783 263.000000
2253.115723 218.000000
2254.252686 208.000000
2255.388916 210.000000
2256.524170 157.000000
2257.658691 270.000000
2258.792969 193.000000
2259.926758 93.000000
2261.059082 227.000000
2262.190918 142.000000
2263.322266 313.000000
2264.452637 205.000000
2265.582764 193.000000
2266.711670 210.000000
2267.840088 205.000000
2268.968018 171.000000
2270.094971 195.000000
2271.221191 181.000000
2272.346436 228.000000
2273.471680 222.000000
2274.596191 155.000000
2275.719482 173.000000
2276.842041 238.000000
2277.964111 264.000000
2279.085693 203.000000
2280.206543 209.000000
2281.326172 190.000000
2282.445313 219.000000
2283.564209 223.000000
2284.682373 177.000000
2285.799561 247.000000
2286.915771 132.000000
2288.031738 178.000000
2289.146973 146.000000
2290.261475 218.000000
2291.374756 145.000000
2292.488037 217.000000
2293.600586 215.000000
2294.712402 183.000000
2295.823486 224.000000
2296.933350 226.000000
2298.042725 226.000000
2299.151855 165.000000
2300.260010 150.000000
2301.367188 36.000000
2302.474121 176.000000
2303.580322 207.000000
2304.686035 154.000000
2305.790283 336.000000
2306.894287 220.000000
2307.997803 235.000000
2309.100830 174.000000
2310.202637 123.000000
2311.303711 204.000000
2312.404297 171.000000
2313.504395 110.000000
2314.603760 124.000000
2315.701660 207.000000
2316.800049 264.000000
2317.896973 210.000000
2318.993652 180.000000
2320.089844 241.000000
2321.184326 207.000000
2322.278809 13.000000
2323.372559 189.000000
2324.466064 183.000000
2325.557861 217.000000
2326.649658 302.000000
2327.740723 321.000000
2328.831055 253.000000
2329.920410 366.000000
2331.009766 254.000000
2332.097900 263.000000
2333.185547 242.000000
2334.272949 138.000000
2335.358643 132.000000
2336.444092 264.000000
2337.529297 173.000000
2338.613525 220.000000
2339.696777 105.000000
2340.779785 125.000000
2341.861816 648.000000
2342.943604 282.000000
2344.024658 197.000000
2345.104492 134.000000
2346.183838 214.000000
2347.262695 176.000000
2348.341064 173.000000
2349.417969 157.000000
2350.494629 185.000000
2351.571045 148.000000
2352.646484 132.000000
2353.720947 157.000000
2354.795166 219.000000
2355.868652 193.000000
2356.941650 199.000000
2358.013428 169.000000
2359.084961 170.000000
2360.155518 179.000000
2361.225830 203.000000
2362.295166 170.000000
2363.363525 189.000000
2364.431641 164.000000
2365.499023 214.000000
2366.565918 170.000000
2367.632080 115.000000
2368.697021 186.000000
2369.761963 268.000000
2370.826172 168.000000
2371.889648 272.000000
2372.951904 174.000000
2374.014160 116.000000
2375.075439 139.000000
2376.136475 127.000000
2377.196289 147.000000
2378.255371 9.000000
2379.314453 87.000000
2380.372559 130.000000
2381.429932 134.000000
2382.486328 122.000000
2383.542480 153.000000
2384.598145 155.000000
2385.653076 104.000000
2386.706543 180.000000
2387.760254 144.000000
2388.812988 110.000000
2389.865234 107.000000
2390.916748 184.000000
2391.967285 88.000000
2393.017578 83.000000
2394.066895 61.000000
2395.116211 66.000000
2396.164063 105.000000
2397.211426 163.000000
2398.258545 118.000000
2399.304688 167.000000
2400.350098 177.000000
2401.394775 153.000000
2402.439453 122.000000
2403.482666 196.000000
2404.525879 106.000000
2405.567627 167.000000
2406.609619 102.000000
2407.650879 160.000000
2408.691162 97.000000
2409.730713 85.000000
2410.769287 105.000000
2411.808105 73.000000
2412.845703 95.000000
2413.883057 149.000000
2414.919189 183.000000
2415.955078 118.000000
2416.990234 71.000000
2418.024902 7.000000
2419.058105 139.000000
2420.091553 130.000000
2421.124023 139.000000
2422.156250 94.000000
2423.187012 129.000000
2424.217773 117.000000
2425.248047 153.000000
2426.277100 106.000000
2427.306152 196.000000
2428.333496 165.000000
2429.361328 78.000000
2430.387939 66.000000
2431.414307 156.000000
2432.439209 196.000000
2433.464355 90.000000
2434.488525 151.000000
2435.512451 -1.000000
2436.535156 159.000000
2437.557129 168.000000
2438.578857 136.000000
2439.599854 134.000000
2440.620361 189.000000
2441.639648 70.000000
2442.658936 105.000000
2443.677246 160.000000
2444.695313 63.000000
2445.711914 167.000000
2446.728516 153.000000
2447.744385 117.000000
2448.760254 168.000000
2449.774658 66.000000
2450.788330 62.000000
2451.801514 118.000000
2452.814453 114.000000
2453.826660 37.000000
2454.837891 104.000000
2455.848877 64.000000
2456.859131 115.000000
2457.868896 60.000000
2458.877686 46.000000
2459.885742 152.000000
2460.893799 165.000000
2461.900635 101.000000
2462.907227 56.000000
2463.912598 81.000000
2464.917725 79.000000
2465.922607 131.000000
2466.926270 129.000000
2467.929688 120.000000
2468.932129 105.000000
2469.934326 94.000000
2470.936035 113.000000
2471.936768 30.000000
2472.936523 11.000000
2473.936279 87.000000
2474.935059 128.000000
2475.933350 139.000000
2476.930664 189.000000
2477.927734 86.000000
2478.924805 86.000000
2479.920410 41.000000
2480.916016 30.000000
2481.909912 49.000000
2482.903809 19.000000
2483.897217 204.000000
2484.890137 165.000000
2485.882080 92.000000
2486.873291 -33.000000
2487.864258 3.000000
2488.854736 135.000000
2489.844238 30.000000
2490.833008 80.000000
2491.821777 214.000000
2492.809570 186.000000
2493.796143 85.000000
2494.782715 -12.000000
2495.768799 59.000000
2496.754150 149.000000
2497.738525 -13.000000
2498.722656 86.000000
2499.706787 21.000000
2500.689453 82.000000
2501.671631 101.000000
2502.653320 117.000000
2503.634277 64.000000
2504.614746 194.000000
2505.594971 9.000000
2506.573730 31.000000
2507.552246 103.000000
2508.530273 19.000000
2509.507813 132.000000
2510.484375 169.000000
2511.460693 50.000000
2512.436279 81.000000
2513.411377 118.000000
2514.385986 224.000000
2515.359375 57.000000
2516.332520 -48.000000
2517.305420 118.000000
2518.277344 152.000000
2519.248535 24.000000
2520.219238 77.000000
2521.189697 133.000000
2522.159424 131.000000
2523.128174 69.000000
2524.096191 176.000000
2525.064209 139.000000
2526.031250 154.000000
2526.998047 17.000000
2527.963623 49.000000
2528.929199 152.000000
2529.894043 62.000000
2530.858398 120.000000
2531.821533 75.000000
2532.784912 83.000000
2533.747314 68.000000
2534.709473 124.000000
2535.670410 115.000000
2536.630615 -23.000000
2537.591064 54.000000
2538.550537 43.000000
2539.509277 12.000000
2540.467041 70.000000
2541.425049 57.000000
2542.382324 88.000000
2543.338623 86.000000
2544.294678 92.000000
2545.249512 -3.000000
2546.204590 119.000000
2547.158936 81.000000
2548.112549 84.500000
2549.065186 88.000000
2550.017578 89.000000
2550.969482 -10.000000
2551.920654 45.000000
2552.871094 109.000000
2553.821045 200.000000
2554.770752 35.000000
2555.719727 104.000000
2556.668213 75.000000
2557.615479 -5.000000
2558.562744 48.000000
2559.509277 66.000000
2560.455322 36.000000
2561.400391 18.000000
2562.345215 127.000000
2563.289551 112.000000
2564.233398 -8.000000
2565.176758 -12.000000
2566.118652 140.000000
2567.060791 66.000000
2568.002197 60.000000
2568.942871 71.000000
2569.882813 11.000000
2570.822754 51.000000
2571.761719 16.000000
2572.700439 95.000000
2573.638184 34.000000
2574.575684 142.000000
2575.512451 86.000000
2576.448486 119.000000
2577.384033 50.000000
2578.318848 121.000000
2579.253662 61.000000
2580.187500 -7.000000
2581.120850 -30.000000
2582.053467 137.000000
2582.985840 -19.000000
2583.917480 18.000000
2584.848633 57.000000
2585.779297 84.000000
2586.708740 54.000000
2587.638184 141.000000
2588.567139 112.000000
2589.495850 66.000000
2590.422852 5.000000
2591.350098 92.000000
2592.276855 119.000000
2593.202881 36.000000
2594.128662 93.000000
2595.053223 169.000000
2595.977539 113.000000
2596.901367 95.000000
2597.824707 91.000000
2598.747070 83.000000
2599.669189 46.000000
2600.590820 61.000000
2601.511719 22.000000
2602.431885 37.000000
2603.351807 78.000000
2604.271240 20.000000
2605.190430 -30.000000
2606.108643 77.000000
2607.025635 18.000000
2607.942871 49.000000
2608.859863 59.000000
2609.775879 76.000000
2610.690674 62.000000
2611.605957 -1.000000
2612.520508 74.000000
2613.434082 29.000000
2614.347656 69.000000
2615.260010 97.000000
2616.172363 -17.000000
2617.083740 140.000000
2617.994873 110.000000
2618.905273 6.000000
2619.815430 83.000000
2620.724854 39.000000
2621.633789 33.000000
2622.541748 -5.000000
2623.449951 116.000000
2624.357178 43.000000
2625.263916 70.000000
2626.169922 14.000000
2627.075684 -33.000000
2627.980713 128.000000
2628.885498 139.000000
2629.789551 83.000000
2630.692627 87.000000
2631.595703 22.000000
2632.497803 13.000000
2633.399902 55.000000
2634.301758 143.000000
2635.201904 47.000000
2636.102295 56.000000
2637.001953 30.000000
2637.901367 -58.000000
2638.799316 9.000000
2639.697754 10.000000
2640.595703 76.000000
2641.492920 79.000000
2642.388916 121.000000
2643.284912 165.000000
2644.180664 8.000000
2645.075684 84.000000
2645.970459 27.000000
2646.863770 -23.000000
2647.757080 30.000000
2648.650146 -23.000000
2649.542969 116.000000
2650.434082 -2.000000
2651.325439 26.000000
2652.216309 17.000000
2653.106445 9.000000
2653.996338 100.000000
2654.885010 88.000000
2655.773926 24.000000
2656.662354 165.000000
2657.549805 99.000000
2658.436279 -52.000000
2659.323242 -13.000000
2660.209473 89.000000
2661.095215 77.000000
2661.979736 21.000000
2662.864258 -61.000000
2663.748535 -102.000000
2664.632080 46.000000
2665.515137 -122.000000
2666.397461 46.000000
2667.279297 30.000000
2668.160400 9.000000
2669.041748 5.000000
2669.921631 48.000000
2670.801758 64.000000
2671.681152 15.000000
2672.560547 78.000000
2673.439209 14.000000
2674.316162 100.000000
2675.193848 -71.000000
2676.070801 -18.000000
2676.947021 0.000000
2677.822754 -1.000000
2678.697754 93.000000
2679.572998 -31.000000
2680.447266 -13.000000
2681.321045 36.000000
2682.194092 -62.000000
2683.066895 14.000000
2683.939453 -17.000000
2684.811279 7.000000
2685.682373 60.000000
2686.553223 47.000000
2687.423584 9.000000
2688.293701 82.000000
2689.162109 -43.000000
2690.031250 92.000000
2690.899658 -47.000000
2691.767822 -37.000000
2692.635254 -36.000000
2693.501465 70.000000
2694.368164 -21.000000
2695.233887 62.000000
2696.099609 106.000000
2696.963867 164.000000
2697.828857 20.000000
2698.692383 -18.000000
2699.556152 93.000000
2700.418457 -49.000000
2701.281250 103.000000
2702.143066 88.000000
2703.004395 105.000000
2703.865723 107.000000
2704.725830 50.000000
2705.585938 18.000000
2706.445557 80.000000
2707.304932 6.000000
2708.162598 45.000000
2709.020508 37.000000
2709.878906 24.000000
2710.736084 16.000000
2711.592529 81.000000
2712.448486 -3.000000
2713.304443 51.000000
2714.159668 -103.000000
2715.014160 -1.000000
2715.868164 38.000000
2716.722168 39.000000
2717.575195 19.000000
2718.428467 142.000000
2719.280029 97.000000
2720.132080 101.000000
2720.983887 -17.000000
2721.834473 -14.000000
2722.685059 104.000000
2723.535156 49.000000
2724.384521 55.000000
2725.233887 1.000000
2726.082031 21.000000
2726.929688 -7.000000
2727.777832 69.000000
2728.624756 -75.000000
2729.472168 90.000000
2730.318115 46.000000
2731.163330 -43.000000
2732.009033 46.000000
2732.853760 49.000000
2733.698486 52.000000
2734.541992 19.000000
2735.385742 -2.000000
2736.228760 -85.000000
2737.071289 -17.000000
2737.912842 83.000000
2738.754883 -34.000000
2739.595947 93.000000
2740.436768 102.000000
2741.277344 -35.000000
2742.116699 38.000000
2742.956055 -12.000000
2743.795410 51.000000
2744.633545 115.000000
2745.471191 47.000000
2746.308838 44.000000
2747.145996 -64.000000
2747.982910 46.000000
2748.819336 15.000000
2749.654541 59.000000
2750.489990 52.000000
2751.324951 -9.000000
2752.159180 48.000000
2752.993164 82.000000
2753.826660 62.000000
2754.660156 -64.000000
2755.492676 33.000000
2756.324707 -16.000000
2757.156250 73.000000
2757.987793 0.000000
2758.818359 57.000000
2759.649170 21.000000
2760.478760 59.000000
2761.308350 15.000000
2762.137695 44.000000
2762.966309 1.000000
2763.794434 55.000000
2764.622070 -53.000000
2765.449707 -14.000000
2766.276855 8.000000
2767.103271 -23.000000
2767.929199 90.000000
2768.754639 30.000000
2769.579834 28.000000
2770.405029 95.000000
2771.229004 70.000000
2772.052979 -7.000000
2772.876953 -11.000000
2773.699707 8.000000
2774.522705 -189.000000
2775.344482 107.000000
2776.166260 11.000000
2776.988037 1.000000
2777.808838 -56.000000
2778.628906 -47.000000
2779.449219 58.000000
2780.269043 -49.000000
2781.088867 -58.000000
2781.906738 -9.000000
2782.725830 19.000000
2783.543701 19.000000
2784.361328 70.000000
2785.178467 -16.000000
2785.995117 -19.000000
2786.811523 18.000000
2787.627441 -3.000000
2788.443115 -19.000000
2789.257813 -4.000000
2790.072998 -69.000000
2790.887451 24.000000
2791.701416 106.000000
2792.515137 -10.000000
2793.327637 -49.000000
2794.140381 34.000000
2794.952637 -27.000000
2795.764404 36.000000
2796.575439 115.000000
2797.387207 -10.000000
2798.197754 -40.000000
2799.008301 -42.000000
2799.817383 16.000000
2800.627197 49.000000
2801.436279 -56.000000
2802.245117 27.000000
2803.053467 4.000000
2803.860840 -45.000000
2804.668701 -93.000000
2805.475830 48.000000
2806.282715 -14.000000
2807.088379 59.000000
2807.894531 7.000000
2808.699951 27.000000
2809.505371 -19.000000
2810.310059 -16.000000
2811.113770 -27.000000
2811.917969 -65.000000
2812.721680 -14.000000
2813.525146 -30.000000
2814.327148 -97.000000
2815.129883 31.000000
2815.931885 18.000000
2816.733643 -20.000000
2817.534912 -9.000000
2818.335693 58.000000
2819.135986 6.000000
2819.936523 -97.000000
2820.736084 -35.000000
2821.535156 26.000000
2822.334229 -24.000000
2823.133057 31.000000
2823.931396 1.000000
2824.728760 79.000000
2825.526367 45.000000
2826.323242 -25.000000
2827.120361 -74.000000
2827.916748 66.000000
2828.712402 6.000000
2829.508057 17.000000
2830.303467 42.000000
2831.098389 77.000000
2831.892578 -16.000000
2832.686768 12.000000
2833.480713 -25.000000
2834.274170 85.000000
2835.066895 -89.000000
2835.859375 73.000000
2836.651855 137.000000
2837.444092 22.000000
2838.235840 85.000000
2839.026611 11.000000
2839.817383 -77.000000
2840.608398 34.000000
2841.398438 -47.000000
2842.187988 55.000000
2842.977783 -1.000000
2843.766602 -10.000000
2844.555420 -24.000000
2845.344238 -34.000000
2846.132080 35.000000
2846.919434 70.000000
2847.707031 -40.000000
2848.494141 7.000000
2849.280518 69.000000
2850.066895 58.000000
2850.853027 80.000000
2851.638672 -37.000000
2852.423340 -14.000000
2853.208496 133.000000
2853.993408 -44.000000
2854.777588 -47.000000
2855.561768 66.000000
2856.344727 107.000000
2857.127930 -47.000000
2857.910889 53.000000
2858.693359 50.000000
2859.475586 -16.000000
2860.257324 65.000000
2861.038818 -39.000000
2861.820557 -55.000000
2862.601563 -60.000000
2863.381836 13.000000
2864.161865 69.000000
2864.941895 -6.000000
2865.721680 50.000000
2866.500488 61.000000
2867.279541 -70.000000
2868.058105 33.000000
2868.836426 68.000000
2869.614258 -24.000000
2870.391846 115.000000
2871.169189 -21.000000
2871.946289 18.000000
2872.722900 28.000000
2873.499023 117.000000
2874.275146 37.000000
2875.050781 -22.000000
2875.826172 52.000000
2876.601074 28.000000
2877.375732 83.000000
2878.150391 -94.000000
2878.924805 -40.000000
2879.698486 84.000000
2880.471436 15.000000
2881.245117 27.000000
2882.017822 24.000000
2882.790527 84.000000
2883.562500 32.000000
2884.334229 94.000000
2885.106445 -26.000000
2885.877441 -29.000000
2886.647949 24.000000
2887.418945 25.000000
2888.189941 -1.000000
2888.960205 76.000000
2889.729492 118.000000
2890.499023 88.000000
2891.268555 14.000000
2892.037598 102.000000
2892.806152 9.000000
2893.574707 27.000000
2894.342285 44.000000
2895.110352 27.000000
2895.877930 47.000000
2896.645508 -3.000000
2897.411865 25.000000
2898.179199 9.000000
2898.945313 -5.000000
2899.711670 66.000000
2900.476563 -26.000000
2901.241943 -89.000000
2902.007813 -42.000000
2902.772217 -38.000000
2903.536621 27.000000
2904.301270 12.000000
2905.064941 39.000000
2905.829346 43.000000
2906.593018 77.000000
2907.355957 34.000000
2908.118652 -23.000000
2908.881836 3.000000
2909.644531 30.000000
2910.406006 71.000000
2911.167969 71.000000
spectrumdark 2048
-97.062958 6286.000000
-94.436089 6286.000000
-91.811096 6039.000000
-89.187996 6415.000000
-86.566765 5826.000000
-83.947433 6252.000000
-81.329964 6028.000000
-78.714371 6447.000000
-76.100655 6275.000000
-73.488815 5976.000000
-70.878838 6104.000000
-68.270744 5960.000000
-65.664497 5983.000000
-63.060123 6031.000000
-60.457615 6073.000000
-57.856960 5689.000000
-55.258167 6265.000000
-52.661232 6894.000000
-50.066151 6470.000000
-47.472923 6534.000000
-44.881546 6251.000000
-42.292015 6766.000000
-39.704327 5952.000000
-37.118488 6105.000000
-34.534492 6464.000000
-31.952335 5759.000000
-29.372023 6320.000000
-26.793537 5768.000000
-24.216894 6131.000000
-21.642076 6265.000000
-19.069099 6403.000000
-16.497942 6460.000000
-13.928617 6757.000000
-11.361119 7791.000000
-8.795440 6347.000000
-6.231586 6474.000000
-3.669546 6024.000000
-1.109330 5863.000000
1.449078 6226.000000
4.005665 6982.000000
6.560447 6617.000000
9.113413 6048.000000
11.664577 6787.000000
14.213929 6492.000000
16.761484 6737.000000
19.307228 6011.000000
21.851179 5785.000000
24.393326 6682.000000
26.933676 6841.000000
29.472240 6882.000000
32.009010 6190.000000
34.543976 5810.000000
37.077164 7249.000000
39.608570 6342.000000
42.138184 7060.000000
44.666000 6509.000000
47.192059 7853.000000
49.716328 5710.000000
52.238827 6273.000000
54.759529 6749.000000
57.278477 6351.000000
59.795650 6490.000000
62.311047 6645.000000
64.824661 5646.000000
67.336525 5751.000000
69.846642 6595.000000
72.354965 6589.000000
74.861534 5923.000000
77.366356 6388.000000
79.869423 6451.000000
82.370712 6267.000000
84.870262 6158.000000
87.368057 6350.000000
89.864120 5769.000000
92.358406 7299.000000
94.850952 5743.000000
97.341782 6960.000000
99.830841 7173.000000
102.318153 6386.000000
104.803741 6239.000000
107.287590 6463.000000
109.769691 5844.000000
112.250069 6754.000000
114.728722 6301.000000
117.205650 6562.000000
119.680824 7206.000000
122.154289 6824.000000
124.626022 5884.000000
127.096046 6811.000000
129.564316 6276.000000
132.030914 6304.000000
134.495758 5721.000000
136.958908 6236.000000
139.420319 7279.000000
141.880035 6937.000000
144.338028 6344.000000
146.794327 5950.000000
149.248917 5800.000000
151.701782 6910.000000
154.152969 6402.000000
156.602463 6636.000000
159.050232 6125.000000
161.496292 6700.000000
163.940674 7337.000000
166.383377 6469.000000
168.824387 6800.000000
171.263687 6282.000000
173.701279 7280.000000
176.137238 6618.000000
178.571457 6951.000000
181.003998 7153.000000
183.434891 6661.000000
185.864059 7120.000000
188.291580 6809.000000
190.717422 6406.000000
193.141586 6707.000000
195.564087 7143.000000
197.984894 7389.000000
200.404037 6511.000000
202.821518 6041.000000
205.237305 7618.000000
207.651443 7102.000000
210.063950 6414.000000
212.474777 6055.000000
214.883926 6283.000000
217.291443 7397.000000
219.697250 6229.000000
222.101471 6568.000000
224.503983 6723.000000
226.904877 6919.000000
229.304123 6515.000000
231.701706 6870.000000
234.097626 7324.000000
236.491928 6510.000000
238.884567 6118.000000
241.275589 6834.000000
243.664948 6576.000000
246.052689 6449.000000
248.438782 6996.000000
250.823242 6125.000000
253.206055 7993.000000
255.587296 6664.000000
257.966827 6679.000000
260.344788 6485.000000
262.721069 7570.000000
265.095795 7602.000000
267.468872 7808.000000
269.840302 6271.000000
272.210083 6490.000000
274.578308 5964.000000
276.944885 6369.000000
279.309875 6464.000000
281.673248 6035.000000
284.034973 6241.000000
286.395111 7144.000000
288.753632 5979.000000
291.110565 6516.000000
293.465881 6359.000000
295.819611 5962.000000
298.171692 6049.000000
300.522217 6374.000000
302.871155 6405.000000
305.218445 6851.000000
307.564209 6449.000000
309.908295 6535.000000
312.250854 7513.000000
314.591797 7602.000000
316.931122 7223.000000
319.268890 6983.000000
321.605103 8231.000000
323.939667 6318.000000
326.272675 6524.000000
328.604126 6027.000000
330.933990 6659.000000
333.262268 6471.000000
335.588928 7285.000000
337.914093 6432.000000
340.237640 6231.000000
342.559631 5995.000000
344.880066 7615.000000
347.198883 7771.000000
349.516144 6080.000000
351.831879 5831.000000
354.146027 7018.000000
356.458588 6386.000000
358.769592 6290.000000
361.079071 7064.000000
363.387024 6350.000000
365.693359 5640.000000
367.998108 6504.000000
370.301392 6472.000000
372.603058 6301.000000
374.903229 6420.000000
377.201843 6364.000000
379.498901 5729.000000
381.794403 6093.000000
384.088379 5923.000000
386.380768 5205.000000
388.671661 5613.000000
390.961029 6183.000000
393.248810 6271.000000
395.535065 6478.000000
397.819824 7087.000000
400.102966 6063.000000
402.384674 6418.000000
404.664856 6155.000000
406.943451 7244.000000
409.220520 6474.000000
411.496063 6758.000000
413.770081 6601.000000
416.042664 6507.000000
418.313629 6361.000000
420.583099 6468.000000
422.851074 7076.000000
425.117493 7270.000000
427.382416 6311.000000
429.645874 6350.000000
431.907745 6501.000000
434.168152 5984.000000
436.427002 6656.000000
438.684387 6143.000000
440.940277 5724.000000
443.194672 5826.000000
445.447540 5509.000000
447.698853 6908.000000
449.948761 6174.000000
452.197083 6288.000000
454.443970 5700.000000
456.689392 6486.000000
458.933258 6469.000000
461.175629 6500.000000
463.416504 5669.000000
465.655975 6708.000000
467.893860 5481.000000
470.130310 5943.000000
472.365234 6092.000000
474.598694 7315.000000
476.830719 6736.000000
479.061218 5695.000000
481.290222 6458.000000
483.517761 6396.000000
485.743805 5982.000000
487.968414 6648.000000
490.191559 5907.000000
492.413239 6433.000000
494.633362 6676.000000
496.852081 5696.000000
499.069305 6320.000000
501.285156 5546.000000
503.499390 6159.000000
505.712311 6477.000000
507.923645 6453.000000
510.133545 6908.000000
512.342041 6524.000000
514.549133 6567.000000
516.754639 6431.000000
518.958740 6562.000000
521.161316 6272.000000
523.362488 6537.000000
525.562317 6702.000000
527.760620 6979.000000
529.957397 5377.000000
532.152832 5845.000000
534.346741 5531.000000
536.539307 7564.000000
538.730347 6702.000000
540.919983 6042.000000
543.108215 7015.000000
545.294922 7098.000000
547.480164 6756.000000
549.664124 6232.000000
551.846497 6477.000000
554.027527 6215.000000
556.207031 6013.000000
558.385254 5917.000000
560.561951 6061.000000
562.737244 6355.000000
564.911133 6418.000000
567.083557 5910.000000
569.254578 6051.000000
571.424133 6398.000000
573.592407 5263.000000
575.759155 6404.000000
577.924438 6284.000000
580.088318 6118.000000
582.250916 5748.000000
584.411987 6054.000000
586.571655 5668.000000
588.729980 5856.000000
590.886780 6117.000000
593.042236 6589.000000
595.196289 5765.000000
597.348999 6189.000000
599.500183 7268.000000
601.650024 6830.000000
603.798523 6762.000000
605.945435 6030.000000
608.091125 6570.000000
610.235413 6528.000000
612.378235 7092.000000
614.519592 6164.000000
616.659729 6452.000000
618.798340 7717.000000
620.935669 5765.000000
623.071533 6624.000000
625.205994 6864.000000
627.338989 7197.000000
629.470825 6639.000000
631.601196 6551.000000
633.730164 6844.000000
635.857666 6452.000000
637.983887 6254.000000
640.108582 7555.000000
642.232056 6403.000000
644.354187 6796.000000
646.474854 6877.000000
648.594177 6565.000000
650.712097 5646.000000
652.828674 5702.000000
654.943848 6432.000000
657.057678 6495.000000
659.170044 5871.000000
661.281189 6185.000000
663.390930 5404.000000
665.499207 6012.000000
667.606323 6298.000000
669.711975 6815.000000
671.816162 5910.000000
673.919128 5752.000000
676.020691 7096.000000
678.120911 5385.000000
680.219727 6746.000000
682.317200 6228.000000
684.413391 7097.000000
686.508118 6385.000000
688.601624 7015.000000
690.693787 6624.000000
692.784424 7977.000000
694.873840 6647.000000
696.961975 6467.000000
699.048645 6035.000000
701.134094 6677.000000
703.218018 5254.000000
705.300720 5942.000000
707.382141 6034.000000
709.462097 7566.000000
711.540833 6234.000000
713.618103 5536.000000
715.694092 6641.000000
717.768799 6153.000000
719.842224 7041.000000
721.914124 6333.000000
723.984863 7396.000000
726.054260 5814.000000
728.122253 6522.000000
730.188904 6406.000000
732.254333 7151.000000
734.318420 5753.000000
736.381165 6176.000000
738.442566 6505.000000
740.502686 6621.000000
742.561401 6043.000000
744.618896 6699.000000
746.675110 6701.000000
748.729919 6771.000000
750.783447 6335.000000
752.835571 7591.000000
754.886475 5806.000000
756.936157 6706.000000
758.984375 6354.000000
761.031372 6207.000000
763.077087 7035.000000
765.121399 5317.000000
767.164429 5785.000000
769.206238 14957.000000
771.246704 7207.000000
773.285767 6383.000000
775.323669 6130.000000
777.360229 5982.000000
779.395569 5426.000000
781.429565 5779.000000
783.462158 6902.000000
785.493591 5512.000000
787.523621 11524.000000
789.552368 6032.000000
791.579956 6270.000000
793.606201 6324.000000
795.631042 5812.000000
797.654785 5580.000000
799.677124 6376.000000
801.698242 5848.000000
803.718018 6660.000000
805.736511 4893.000000
807.753784 6645.000000
809.769653 6841.000000
811.784363 5765.000000
813.797729 6457.000000
815.809875 6231.000000
817.820801 6095.000000
819.830383 6583.000000
821.838745 5295.000000
823.845703 5735.000000
825.851440 6050.000000
827.855957 5738.000000
829.859192 5670.000000
831.861145 6506.000000
833.861816 6103.000000
835.861267 5913.000000
837.859375 6333.000000
839.856384 7012.000000
841.851990 6216.000000
843.846436 6002.000000
845.839539 6183.000000
847.831421 6815.000000
849.821960 5645.000000
851.811218 6884.000000
853.799438 6020.000000
855.786255 5775.000000
857.771851 6414.000000
859.756165 7226.000000
861.739380 6349.000000
863.721191 6444.000000
865.701782 5858.000000
867.681091 7709.000000
869.659241 7100.000000
871.636047 6158.000000
873.611572 6181.000000
875.586060 6245.000000
877.559082 6047.000000
879.531067 5452.000000
881.501709 6456.000000
883.471191 6131.000000
885.439331 5590.000000
887.406311 5254.000000
889.371948 6120.000000
891.336426 5801.000000
893.299683 5995.000000
895.261719 6476.000000
897.222473 5873.000000
899.182007 6441.000000
901.140259 6731.000000
903.097412 6382.000000
905.053406 6093.000000
907.007996 6902.000000
908.961365 6571.000000
910.913574 6419.000000
912.864563 6389.000000
914.814270 7046.000000
916.762817 6301.000000
918.710144 6174.000000
920.656189 6143.000000
922.600952 6135.000000
924.544678 6240.000000
926.487244 5999.000000
928.428528 5584.000000
930.368469 6467.000000
932.307312 5691.000000
934.244873 5573.000000
936.181213 5978.000000
938.116394 5884.000000
940.050293 6191.000000
941.983093 5878.000000
943.914673 6791.000000
945.845093 5245.000000
947.774292 6396.000000
949.702148 7003.000000
951.628967 6684.000000
953.554504 6010.000000
955.478760 5434.000000
957.401917 6036.000000
959.323914 6710.000000
961.244629 7268.000000
963.164185 6461.000000
965.082581 5348.000000
966.999939 6493.000000
968.915833 6457.000000
970.830627 6136.000000
972.744202 5994.000000
974.656616 6421.000000
976.567810 6483.000000
978.477844 5494.000000
980.386597 6285.000000
982.294312 6201.000000
984.200806 6395.000000
986.106079 5702.000000
988.010254 6789.000000
989.913208 6214.000000
991.814941 6834.000000
993.715515 6391.000000
995.614929 6621.000000
997.513123 5290.000000
999.410156 6676.000000
1001.305969 6564.000000
1003.200623 7655.000000
1005.094177 5655.000000
1006.986450 7217.000000
1008.877808 6040.000000
1010.767822 5353.000000
1012.656616 6622.000000
1014.544250 6386.000000
1016.430725 6959.000000
1018.316040 6817.000000
1020.200195 5959.000000
1022.083130 5833.000000
1023.965027 6269.000000
1025.845581 5218.000000
1027.725098 5919.000000
1029.603638 6111.000000
1031.480835 5422.000000
1033.356689 6186.000000
1035.231567 5905.000000
1037.105469 6631.000000
1038.977905 7099.000000
1040.849365 6765.000000
1042.719482 5529.000000
1044.588623 5506.000000
1046.456543 5810.000000
1048.323364 7030.000000
1050.189087 6706.000000
1052.053589 6510.000000
1053.916992 6508.000000
1055.779053 6425.000000
1057.640137 5908.000000
1059.500122 6553.000000
1061.358765 6668.000000
1063.216309 5856.000000
1065.072754 6731.000000
1066.928101 5916.000000
1068.782227 5850.000000
1070.635498 6289.000000
1072.487305 6369.000000
1074.338135 6186.000000
1076.187744 6161.000000
1078.036133 5768.000000
1079.883667 7903.000000
1081.729858 5635.000000
1083.574829 6236.000000
1085.418945 5447.000000
1087.261719 5577.000000
1089.103271 6534.000000
1090.944092 5494.000000
1092.783325 5800.000000
1094.621826 6055.000000
1096.458984 6095.000000
1098.294922 6805.000000
1100.129883 6640.000000
1101.963623 5397.000000
1103.796387 5710.000000
1105.627808 6154.000000
1107.458374 7290.000000
1109.287598 6537.000000
1111.115845 6490.000000
1112.942871 7145.000000
1114.768921 5468.000000
1116.593750 6360.000000
1118.417480 7275.000000
1120.239990 6133.000000
1122.061401 5906.000000
1123.881958 5888.000000
1125.701050 6529.000000
1127.519287 7038.000000
1129.336182 7003.000000
1131.152222 6713.000000
1132.967041 6552.000000
1134.780762 5618.000000
1136.593384 5784.000000
1138.404785 5591.000000
1140.215210 6174.000000
1142.024536 6780.000000
1143.832520 6957.000000
1145.639771 6029.000000
1147.445557 5898.000000
1149.250488 5396.000000
1151.054321 5400.000000
1152.856934 6047.000000
1154.658691 6130.000000
1156.458984 6121.000000
1158.258301 6189.000000
1160.056641 5933.000000
1161.853638 5510.000000
1163.649902 6013.000000
1165.444824 6111.000000
1167.238647 6431.000000
1169.031616 7758.000000
1170.823242 5809.000000
1172.613892 6566.000000
1174.403564 6030.000000
1176.191772 5843.000000
1177.979126 7509.000000
1179.765381 6815.000000
1181.550537 5772.000000
1183.334595 5989.000000
1185.117554 7714.000000
1186.899536 5883.000000
1188.680298 5919.000000
1190.460083 6332.000000
1192.238770 6938.000000
1194.016479 6704.000000
1195.792969 7163.000000
1197.568359 6598.000000
1199.342651 6561.000000
1201.115845 6697.000000
1202.888184 6484.000000
1204.659180 6759.000000
1206.429321 5756.000000
1208.198242 6162.000000
1209.966064 6351.000000
1211.733032 5908.000000
1213.498657 5919.000000
1215.263306 6973.000000
1217.026855 6577.000000
1218.789307 5922.000000
1220.550903 6713.000000
1222.311279 5895.000000
1224.070557 6398.000000
1225.828979 6094.000000
1227.586182 7237.000000
1229.342285 6439.000000
1231.097290 5542.000000
1232.851440 5997.000000
1234.604248 5828.000000
1236.356079 6055.000000
1238.107056 5958.000000
1239.856689 4912.000000
1241.605469 6990.000000
1243.352905 6468.000000
1245.099609 6646.000000
1246.845093 6533.000000
1248.589722 6500.000000
1250.333008 6825.000000
1252.075317 6644.000000
1253.816528 5348.000000
1255.556885 5150.000000
1257.296143 5836.000000
1259.034180 6642.000000
1260.771362 7172.000000
1262.507324 6157.000000
1264.242310 6428.000000
1265.976318 7336.000000
1267.709351 6028.000000
1269.441162 6205.000000
1271.171997 6446.000000
1272.901611 7344.000000
1274.630371 5964.000000
1276.358032 5692.000000
1278.084595 5567.000000
1279.810303 5600.000000
1281.534668 6469.000000
1283.258179 5280.000000
1284.980713 6953.000000
1286.702271 6650.000000
1288.422607 6365.000000
1290.141968 6711.000000
1291.860229 7257.000000
1293.577515 6395.000000
1295.293823 5764.000000
1297.008911 6430.000000
1298.723022 6238.000000
1300.436157 5771.000000
1302.148438 6463.000000
1303.859497 8345.000000
1305.569580 5321.000000
1307.278564 6580.000000
1308.986328 6790.000000
1310.693481 7106.000000
1312.399170 5810.000000
1314.104126 6907.000000
1315.808105 6165.000000
1317.510864 6005.000000
1319.212646 6560.000000
1320.913574 6137.000000
1322.613159 9018.000000
1324.311890 30850.000000
1326.009888 5638.000000
1327.706543 6556.000000
1329.402100 7131.000000
1331.096802 6868.000000
1332.790283 5708.000000
1334.482910 5469.000000
1336.174683 7452.000000
1337.865112 6311.000000
1339.554810 6600.000000
1341.243408 6137.000000
1342.930908 7631.000000
1344.617432 5624.000000
1346.302856 6807.000000
1347.987305 6009.000000
1349.670898 7319.000000
1351.353271 6430.000000
1353.034668 6016.000000
1354.715210 6618.000000
1356.394531 6770.000000
1358.073242 5898.000000
1359.750610 6636.000000
1361.426880 5793.000000
1363.102173 5628.000000
1364.776733 6645.000000
1366.450073 6536.000000
1368.122437 6837.000000
1369.793823 5182.000000
1371.464233 6856.000000
1373.133545 6202.000000
1374.801880 5729.000000
1376.469360 5934.000000
1378.135742 6525.000000
1379.801147 6177.000000
1381.465576 5845.000000
1383.128784 5923.000000
1384.791382 5773.000000
1386.452637 6434.000000
1388.113037 6599.000000
1389.772339 6471.000000
1391.430664 6510.000000
1393.088257 6922.000000
1394.744629 6540.000000
1396.400146 7059.000000
1398.054443 6351.000000
1399.707886 5913.000000
1401.360229 6156.000000
1403.011841 6517.000000
1404.662231 7190.000000
1406.311523 6278.000000
1407.960083 7514.000000
1409.607544 7944.000000
1411.254028 6311.000000
1412.899658 6301.000000
1414.544312 6081.000000
1416.187744 7041.000000
1417.830322 7196.000000
1419.471802 6867.000000
1421.112427 6487.000000
1422.752075 6494.000000
1424.390625 6039.000000
1426.028320 6697.000000
1427.664917 6395.000000
1429.300537 6043.000000
1430.935425 6377.000000
1432.569214 5862.000000
1434.201904 6170.000000
1435.833618 5674.000000
1437.464478 6210.000000
1439.094238 6018.000000
1440.722900 7836.000000
1442.350952 6017.000000
1443.977905 6548.000000
1445.603638 6177.000000
1447.228760 6144.000000
1448.852783 6553.000000
1450.475830 6026.000000
1452.097900 6072.000000
1453.718872 7435.000000
1455.338867 6284.000000
1456.958130 6982.000000
1458.576050 5788.000000
1460.193359 14348.000000
1461.809692 5542.000000
1463.424805 7261.000000
1465.039063 6440.000000
1466.652466 5196.000000
1468.264771 5609.000000
1469.876221 6296.000000
1471.486816 6386.000000
1473.096191 6036.000000
1474.704590 5989.000000
1476.312134 6235.000000
1477.918701 6601.000000
1479.524536 5348.000000
1481.129150 6368.000000
1482.732910 5571.000000
1484.335449 6643.000000
1485.937378 5590.000000
1487.538086 5504.000000
1489.138062 5661.000000
1490.736938 6279.000000
1492.334961 6487.000000
1493.931885 6741.000000
1495.527954 6328.000000
1497.123047 6014.000000
1498.717163 5526.000000
1500.310547 6611.000000
1501.902832 5479.000000
1503.493896 6224.000000
1505.084473 6764.000000
1506.673706 6532.000000
1508.262329 6162.000000
1509.849854 6575.000000
1511.436279 6937.000000
1513.021973 6237.000000
1514.606567 6641.000000
1516.190308 6405.000000
1517.772949 6231.000000
1519.354858 6626.000000
1520.935669 6742.000000
1522.515747 6051.000000
1524.094604 6202.000000
1525.672607 6375.000000
1527.249878 6304.000000
1528.825928 5684.000000
1530.401245 5971.000000
1531.975464 6412.000000
1533.548950 5538.000000
1535.121216 5932.000000
1536.692749 6381.000000
1538.263306 6487.000000
1539.833008 6352.000000
1541.401489 5493.000000
1542.969238 6592.000000
1544.536133 5663.000000
1546.101807 6870.000000
1547.666748 5997.000000
1549.230591 5059.000000
1550.793823 7572.000000
1552.355713 6311.000000
1553.916992 5973.000000
1555.477173 5726.000000
1557.036621 5759.000000
1558.594971 6000.000000
1560.152588 6279.000000
1561.709106 7095.000000
1563.264404 5869.000000
1564.819092 6343.000000
1566.373047 5680.000000
1567.926025 6390.000000
1569.477661 5691.000000
1571.028564 5895.000000
1572.578735 6231.000000
1574.127930 6348.000000
1575.675781 5781.000000
1577.223145 5539.000000
1578.769531 5703.000000
1580.315063 5087.000000
1581.859619 6696.000000
1583.402954 6307.000000
1584.945679 6634.000000
1586.487549 6446.000000
1588.028320 6663.000000
1589.568115 5765.000000
1591.107178 6730.000000
1592.645142 5921.000000
1594.182617 6204.000000
1595.718750 5970.000000
1597.253784 6722.000000
1598.788330 6280.000000
1600.321899 6066.000000
1601.854614 6192.000000
1603.385742 6368.000000
1604.916626 6309.000000
1606.446655 5761.000000
1607.975464 6116.000000
1609.503174 6173.000000
1611.030273 6037.000000
1612.556641 5859.000000
1614.082031 6307.000000
1615.606567 5817.000000
1617.129761 5815.000000
1618.652222 5639.000000
1620.173950 6618.000000
1621.694824 6995.000000
1623.214233 15658.000000
1624.733154 6267.000000
1626.251343 6127.000000
1627.768677 5828.000000
1629.284912 6462.000000
1630.799805 7089.000000
1632.314209 6791.000000
1633.827881 5775.000000
1635.340454 7044.000000
1636.851807 5968.000000
1638.362793 6458.000000
1639.872681 6339.000000
1641.381714 6183.000000
1642.889404 5600.000000
1644.396729 6169.000000
1645.903198 7192.000000
1647.408691 6270.000000
1648.913330 6831.000000
1650.416504 6144.000000
1651.919067 6606.000000
1653.421265 6361.000000
1654.922119 6744.000000
1656.421875 7606.000000
1657.920776 6184.000000
1659.419312 6568.000000
1660.916626 6283.000000
1662.413208 5964.000000
1663.908203 6560.000000
1665.402954 6356.000000
1666.896851 5225.000000
1668.389771 5786.000000
1669.881348 6135.500000
1671.372437 6485.000000
1672.862915 6173.000000
1674.352295 6015.000000
1675.840210 6960.000000
1677.327881 6877.000000
1678.814575 6059.000000
1680.300415 5543.000000
1681.785400 6135.000000
1683.268921 6172.000000
1684.752197 6242.000000
1686.234619 5975.000000
1687.715942 6251.000000
1689.195801 6263.000000
1690.675415 5565.000000
1692.154297 6576.000000
1693.632202 6034.000000
1695.109131 6138.000000
1696.584839 5759.000000
1698.060181 6086.000000
1699.534302 6285.000000
1701.007813 5520.000000
1702.479858 5569.000000
1703.951660 6911.000000
1705.422485 6441.000000
1706.892456 7178.000000
1708.361084 5109.000000
1709.829224 5843.000000
1711.296631 6390.000000
1712.762939 5518.000000
1714.228638 5833.000000
1715.692627 6206.000000
1717.156494 5966.000000
1718.619507 7085.000000
1720.081543 6409.000000
1721.542358 6731.000000
1723.002563 5493.000000
1724.462036 6381.000000
1725.920654 6311.000000
1727.378296 6051.000000
1728.834595 6314.000000
1730.290649 6086.000000
1731.745728 6502.000000
1733.199829 6018.000000
1734.652710 6915.000000
1736.105347 5984.000000
1737.556885 6749.000000
1739.007690 6037.000000
1740.457520 6616.000000
1741.906006 5891.000000
1743.354126 7664.000000
1744.801392 6618.000000
1746.247925 6703.000000
1747.692871 6673.000000
1749.137573 6191.000000
1750.581421 5905.000000
1752.024414 5508.000000
1753.465942 6586.000000
1754.907227 6411.000000
1756.347656 19534.000000
1757.787109 6238.000000
1759.225586 5297.000000
1760.663086 6080.000000
1762.100098 7674.000000
1763.536133 5793.000000
1764.971313 7137.000000
1766.405029 6239.000000
1767.838623 6540.000000
1769.271240 6708.000000
1770.703003 5767.000000
1772.133911 5879.000000
1773.563599 6386.000000
1774.992554 6221.000000
1776.421021 6284.000000
1777.848511 6762.000000
1779.274658 6282.000000
1780.700562 5549.000000
1782.125366 6898.000000
1783.549561 5580.000000
1784.972290 6677.000000
1786.394531 6532.000000
1787.816040 6919.000000
1789.236816 5964.000000
1790.656616 6160.000000
1792.075073 6202.000000
1793.493042 6889.000000
1794.910400 5554.000000
1796.326904 6105.000000
1797.741943 6608.000000
1799.156616 5872.000000
1800.570679 6615.000000
1801.983521 5956.000000
1803.395752 7075.000000
1804.806641 7156.000000
1806.217041 7788.000000
1807.626709 6543.000000
1809.035400 5961.000000
1810.442993 5434.000000
1811.850098 6416.000000
1813.256348 6380.000000
1814.661621 6719.000000
1816.065796 5970.000000
1817.469604 5929.000000
1818.872437 6248.000000
1820.274414 6096.000000
1821.675781 5902.000000
1823.075684 6428.000000
1824.474976 6579.000000
1825.873779 6601.000000
1827.271729 7453.000000
1828.668335 5753.000000
1830.064331 6800.000000
1831.459595 6007.000000
1832.854248 8194.000000
1834.247925 6047.000000
1835.640259 6891.000000
1837.032104 6473.000000
1838.423340 5895.000000
1839.813599 7160.000000
1841.202637 6130.000000
1842.591309 6063.000000
1843.979004 6034.000000
1845.365967 5867.000000
1846.751587 6876.000000
1848.136963 5869.000000
1849.521484 6399.000000
1850.905273 6329.000000
1852.287964 6379.000000
1853.669434 5380.000000
1855.050415 6538.000000
1856.430908 6374.000000
1857.810425 5747.000000
1859.188477 6022.000000
1860.566406 6352.000000
1861.943359 7869.000000
1863.319580 6096.000000
1864.694946 6103.000000
1866.068848 5681.000000
1867.442627 5693.000000
1868.815552 6271.000000
1870.187378 6021.000000
1871.558228 6887.000000
1872.928711 5447.000000
1874.298096 6074.000000
1875.666992 6090.000000
1877.034302 7179.000000
1878.401489 6139.000000
1879.767700 6054.000000
1881.133179 6812.000000
1882.497925 7509.000000
1883.861084 6806.000000
1885.224121 6966.000000
1886.586304 6409.000000
1887.947632 6497.000000
1889.307617 5651.000000
1890.667236 5800.000000
1892.026245 6189.000000
1893.384277 6698.000000
1894.741455 7323.000000
1896.097412 5963.000000
1897.453125 7649.000000
1898.807861 5879.000000
1900.161743 5617.000000
1901.514526 5951.000000
1902.866821 5991.000000
1904.218384 5971.000000
1905.569092 6955.000000
1906.918579 6563.000000
1908.267578 6682.000000
1909.615723 5858.000000
1910.963257 6215.000000
1912.310059 6322.000000
1913.655273 6871.000000
1915.000244 6176.000000
1916.344482 5472.000000
1917.687866 6530.000000
1919.029907 6041.000000
1920.371704 6654.000000
1921.712646 7000.000000
1923.052856 6249.000000
1924.392090 6453.000000
1925.730347 6290.000000
1927.067993 6556.000000
1928.404907 7065.000000
1929.740967 6814.000000
1931.075806 5630.000000
1932.410278 6773.000000
1933.744019 7296.000000
1935.076904 6294.000000
1936.408325 5781.000000
1937.739868 6428.000000
1939.070068 6722.000000
1940.399780 5829.000000
1941.728638 6157.000000
1943.056274 5859.000000
1944.383423 5113.000000
1945.709839 5832.000000
1947.035522 6595.000000
1948.359863 5838.000000
1949.683960 6755.000000
1951.007202 6390.000000
1952.329712 6448.000000
1953.651123 5858.000000
1954.971558 7529.000000
1956.291382 6090.000000
1957.610840 5568.000000
1958.929321 6808.000000
1960.246460 5933.000000
1961.563232 5850.000000
1962.879272 6677.000000
1964.194580 6652.000000
1965.508423 6280.000000
1966.822021 5722.000000
1968.134888 6297.000000
1969.446899 6098.000000
1970.758301 6029.000000
1972.068359 6280.000000
1973.377930 5856.000000
1974.686768 6243.000000
1975.994995 6688.000000
1977.301880 6118.000000
1978.608154 7284.000000
1979.914063 5592.000000
1981.218750 6487.000000
1982.522949 5964.000000
1983.825928 5713.000000
1985.128540 7588.000000
1986.430176 6133.000000
1987.731201 6887.000000
1989.030640 6061.000000
1990.330200 6670.000000
1991.628662 5352.000000
1992.926636 6103.000000
1994.223022 6147.000000
1995.519409 5806.000000
1996.814819 5596.000000
1998.109497 6540.000000
1999.403320 5731.000000
2000.695923 6570.000000
2001.988037 5833.000000
2003.279663 7257.000000
2004.570557 6473.000000
2005.859863 6182.000000
2007.148926 6885.000000
2008.437256 6002.000000
2009.724854 5991.000000
2011.011597 6690.000000
2012.297241 5653.000000
2013.582520 6371.000000
2014.866821 6081.000000
2016.150513 5619.000000
2017.432861 6128.000000
2018.714844 6519.000000
2019.996338 6803.000000
2021.276855 5886.000000
2022.556641 6106.000000
2023.835327 6776.000000
2025.113281 5922.000000
2026.390747 5922.000000
2027.667603 6369.000000
2028.942749 5909.000000
2030.218018 6653.000000
2031.492310 6309.000000
2032.765625 5964.000000
2034.038086 6023.000000
2035.310181 6187.000000
2036.581177 6962.000000
2037.851929 6610.000000
2039.121338 5981.000000
2040.389648 6807.000000
2041.657959 6654.000000
2042.925293 5964.000000
2044.191895 5993.000000
2045.457275 5678.000000
2046.722046 5581.500000
2047.986572 5485.000000
2049.250000 5893.000000
2050.512939 6474.000000
2051.773926 6217.000000
2053.035400 6100.000000
2054.295654 5903.000000
2055.555176 6718.000000
2056.813965 6333.000000
2058.071777 6918.000000
2059.329102 5932.000000
2060.585693 6027.000000
2061.840820 6544.000000
2063.095947 5694.000000
2064.350098 5616.000000
2065.603516 5644.000000
2066.856201 6810.000000
2068.107666 6293.000000
2069.358887 6409.000000
2070.609375 5640.000000
2071.859131 5493.000000
2073.107422 6568.000000
2074.355713 6655.000000
2075.603027 7415.000000
2076.849609 5613.000000
2078.095459 6018.000000
2079.340088 6985.000000
2080.584229 7595.000000
2081.827881 5523.000000
2083.070557 5991.000000
2084.312012 7028.000000
2085.553223 5995.000000
2086.793945 6386.000000
2088.033691 6766.000000
2089.272217 7102.000000
2090.510254 6301.000000
2091.747559 5806.000000
2092.984619 6633.000000
2094.220215 6192.000000
2095.455078 6269.000000
2096.689697 6058.000000
2097.923340 5661.000000
2099.156006 6167.000000
2100.387939 6932.000000
2101.619385 6478.000000
2102.849854 6837.000000
2104.079590 6039.000000
2105.309082 6002.000000
2106.536621 6109.000000
2107.764404 5997.000000
2108.991455 6435.000000
2110.217529 5567.000000
2111.442139 6401.000000
2112.666992 7027.000000
2113.890625 7107.000000
2115.113770 6254.000000
2116.335693 7575.000000
2117.557373 6026.000000
2118.778076 6775.000000
2119.998047 6030.000000
2121.217529 6148.000000
2122.435547 6662.000000
2123.653564 7028.000000
2124.870605 5763.000000
2126.087158 5896.000000
2127.302002 6645.000000
2128.517090 6489.000000
2129.731201 6940.000000
2130.944580 5678.000000
2132.157227 6116.000000
2133.368408 5810.000000
2134.579834 6510.000000
2135.790039 6581.000000
2136.999756 6016.000000
2138.208008 6196.000000
2139.416260 5717.000000
2140.623779 5944.000000
2141.830078 7766.000000
2143.035645 5881.000000
2144.240967 5696.000000
2145.445313 5595.000000
2146.648926 6369.000000
2147.852051 6237.000000
2149.053711 6475.000000
2150.255127 5320.000000
2151.455811 6402.000000
2152.655762 6190.000000
2153.854492 6019.000000
2155.052979 7014.000000
2156.250977 6193.000000
2157.447998 6057.000000
2158.644287 5196.000000
2159.839355 5370.000000
2161.034180 6140.000000
2162.228271 5575.000000
2163.421387 6119.000000
2164.613525 6957.000000
2165.805420 5885.000000
2166.996582 6384.000000
2168.186768 6366.000000
2169.376221 6507.000000
2170.565186 6931.000000
2171.753174 6315.000000
2172.940918 5725.000000
2174.127197 5960.000000
2175.312744 6579.000000
2176.498047 6031.000000
2177.682861 5834.000000
2178.866455 6407.000000
2180.049316 7544.000000
2181.231201 6347.000000
2182.412842 5946.000000
2183.593994 6592.000000
2184.773926 5726.000000
2185.952881 5588.000000
2187.131348 6414.000000
2188.309570 6981.000000
2189.486572 7177.000000
2190.662598 6717.000000
2191.838379 6085.000000
2193.013672 5625.000000
2194.187500 6675.000000
2195.360840 6227.000000
2196.533936 6174.000000
2197.705811 6530.000000
2198.877197 7135.000000
2200.048096 6358.000000
2201.217285 6878.000000
2202.386475 7617.000000
2203.555176 6269.000000
2204.722900 5902.000000
2205.889648 5701.000000
2207.055664 7192.000000
2208.221191 6722.000000
2209.386475 6050.000000
2210.550293 6748.000000
2211.713623 5591.000000
2212.875732 6177.000000
2214.038086 6197.000000
2215.199219 6708.000000
2216.359375 6756.000000
2217.519043 6319.000000
2218.678467 6542.000000
2219.836670 6382.000000
2220.993896 6369.000000
2222.150879 6824.000000
2223.307129 6662.000000
2224.462646 6829.000000
2225.617432 6273.000000
2226.771240 6471.000000
2227.924072 6053.000000
2229.077393 6948.000000
2230.228760 6190.000000
2231.379883 6195.000000
2232.530273 6530.000000
2233.680176 7719.000000
2234.829102 6357.000000
2235.977539 5225.000000
2237.124512 6802.000000
2238.271729 7072.000000
2239.417725 6066.000000
2240.563477 7318.000000
2241.707520 7370.000000
2242.851807 6776.000000
2243.995117 6197.000000
2245.137695 6033.000000
2246.279297 5792.000000
2247.420654 5820.000000
2248.561035 6468.000000
2249.700684 6422.000000
2250.839844 5847.000000
2251.977783 5861.000000
2253.115723 6256.000000
2254.252686 5325.000000
2255.388916 6313.000000
2256.524170 6190.000000
2257.658691 7222.000000
2258.792969 6424.000000
2259.926758 5546.000000
2261.059082 6203.000000
2262.190918 6832.000000
2263.322266 6256.000000
2264.452637 6509.000000
2265.582764 8181.000000
2266.711670 6723.000000
2267.840088 6096.000000
2268.968018 5604.000000
2270.094971 6162.000000
2271.221191 5987.000000
2272.346436 6786.000000
2273.471680 6524.000000
2274.596191 6476.000000
2275.719482 6017.000000
2276.842041 6323.000000
2277.964111 6229.000000
2279.085693 7449.000000
2280.206543 6425.000000
2281.326172 6466.000000
2282.445313 7091.000000
2283.564209 7719.000000
2284.682373 7311.000000
2285.799561 5918.000000
2286.915771 6504.000000
2288.031738 7006.000000
2289.146973 6962.000000
2290.261475 7387.000000
2291.374756 5869.000000
2292.488037 6356.000000
2293.600586 6009.000000
2294.712402 5389.000000
2295.823486 6755.000000
2296.933350 6458.000000
2298.042725 6140.000000
2299.151855 6707.000000
2300.260010 6367.000000
2301.367188 6875.000000
2302.474121 5904.000000
2303.580322 6365.000000
2304.686035 6619.000000
2305.790283 6582.000000
2306.894287 5451.000000
2307.997803 5781.000000
2309.100830 6567.000000
2310.202637 7491.000000
2311.303711 7433.000000
2312.404297 6631.000000
2313.504395 5598.000000
2314.603760 6458.000000
2315.701660 6614.000000
2316.800049 6987.000000
2317.896973 8302.000000
2318.993652 6964.000000
2320.089844 5752.000000
2321.184326 6880.000000
2322.278809 7630.000000
2323.372559 5864.000000
2324.466064 6093.000000
2325.557861 6537.000000
2326.649658 7196.000000
2327.740723 6109.000000
2328.831055 6325.000000
2329.920410 6943.000000
2331.009766 6047.000000
2332.097900 6305.000000
2333.185547 7042.000000
2334.272949 6539.000000
2335.358643 6747.000000
2336.444092 7750.000000
2337.529297 6379.000000
2338.613525 6769.000000
2339.696777 5998.000000
2340.779785 6442.000000
2341.861816 7120.000000
2342.943604 5959.000000
2344.024658 7450.000000
2345.104492 6689.000000
2346.183838 5692.000000
2347.262695 6821.000000
2348.341064 6566.000000
2349.417969 6341.000000
2350.494629 7030.000000
2351.571045 6036.000000
2352.646484 6475.000000
2353.720947 5961.000000
2354.795166 6302.000000
2355.868652 6809.000000
2356.941650 6201.000000
2358.013428 7062.000000
2359.084961 6279.000000
2360.155518 6836.000000
2361.225830 7490.000000
2362.295166 7575.000000
2363.363525 6857.000000
2364.431641 6758.000000
2365.499023 7073.000000
2366.565918 7256.000000
2367.632080 6103.000000
2368.697021 6874.000000
2369.761963 6964.000000
2370.826172 6362.000000
2371.889648 6884.000000
2372.951904 5819.000000
2374.014160 6388.000000
2375.075439 6365.000000
2376.136475 5965.000000
2377.196289 6337.000000
2378.255371 7998.000000
2379.314453 6521.000000
2380.372559 7643.000000
2381.429932 6939.000000
2382.486328 8087.000000
2383.542480 7841.000000
2384.598145 6250.000000
2385.653076 7131.000000
2386.706543 6778.000000
2387.760254 6543.000000
2388.812988 6407.000000
2389.865234 6836.000000
2390.916748 6190.000000
2391.967285 6657.000000
2393.017578 6587.000000
2394.066895 6410.000000
2395.116211 6248.000000
2396.164063 6944.000000
2397.211426 6975.000000
2398.258545 6379.000000
2399.304688 6676.000000
2400.350098 6152.000000
2401.394775 6769.000000
2402.439453 7754.000000
2403.482666 7450.000000
2404.525879 6624.000000
2405.567627 5920.000000
2406.609619 6726.000000
2407.650879 7156.000000
2408.691162 6180.000000
2409.730713 6464.000000
2410.769287 6373.000000
2411.808105 6048.000000
2412.845703 6617.000000
2413.883057 6889.000000
2414.919189 7376.000000
2415.955078 6242.000000
2416.990234 6320.000000
2418.024902 6706.000000
2419.058105 7246.000000
2420.091553 6585.000000
2421.124023 6725.000000
2422.156250 6893.000000
2423.187012 7093.000000
2424.217773 6429.000000
2425.248047 6838.000000
2426.277100 6930.000000
2427.306152 6615.000000
2428.333496 7395.000000
2429.361328 6763.000000
2430.387939 7352.000000
2431.414307 6960.000000
2432.439209 7746.000000
2433.464355 6619.000000
2434.488525 7115.000000
2435.512451 6773.000000
2436.535156 5821.000000
2437.557129 6328.000000
2438.578857 6627.000000
2439.599854 6695.000000
2440.620361 6007.000000
2441.639648 6578.000000
2442.658936 6600.000000
2443.677246 8482.000000
2444.695313 6331.000000
2445.711914 6438.000000
2446.728516 6568.000000
2447.744385 6029.000000
2448.760254 7004.000000
2449.774658 6930.000000
2450.788330 5616.000000
2451.801514 7269.000000
2452.814453 6030.000000
2453.826660 7228.000000
2454.837891 6725.000000
2455.848877 7717.000000
2456.859131 6371.000000
2457.868896 7596.000000
2458.877686 5949.000000
2459.885742 5971.000000
2460.893799 6318.000000
2461.900635 7387.000000
2462.907227 5464.000000
2463.912598 7738.000000
2464.917725 7035.000000
2465.922607 5844.000000
2466.926270 6511.000000
2467.929688 6408.000000
2468.932129 7633.000000
2469.934326 7395.000000
2470.936035 6869.000000
2471.936768 6594.000000
2472.936523 7073.000000
2473.936279 6778.000000
2474.935059 5651.000000
2475.933350 6566.000000
2476.930664 6956.000000
2477.927734 6114.000000
2478.924805 7009.000000
2479.920410 5858.000000
2480.916016 7164.000000
2481.909912 6741.000000
2482.903809 8121.000000
2483.897217 6838.000000
2484.890137 6681.000000
2485.882080 7540.000000
2486.873291 7318.000000
2487.864258 6846.000000
2488.854736 5881.000000
2489.844238 6638.000000
2490.833008 6501.000000
2491.821777 5601.000000
2492.809570 6793.000000
2493.796143 6655.000000
2494.782715 8093.000000
2495.768799 6827.000000
2496.754150 7098.000000
2497.738525 8351.000000
2498.722656 6054.000000
2499.706787 6922.000000
2500.689453 5798.000000
2501.671631 7025.000000
2502.653320 6867.000000
2503.634277 7320.000000
2504.614746 6496.000000
2505.594971 5776.000000
2506.573730 6394.000000
2507.552246 7598.000000
2508.530273 6813.000000
2509.507813 7132.000000
2510.484375 6061.000000
2511.460693 5996.000000
2512.436279 6461.000000
2513.411377 6239.000000
2514.385986 6413.000000
2515.359375 7651.000000
2516.332520 6833.000000
2517.305420 6955.000000
2518.277344 6147.000000
2519.248535 6851.000000
2520.219238 6955.000000
2521.189697 7826.000000
2522.159424 8115.000000
2523.128174 6118.000000
2524.096191 6119.000000
2525.064209 7718.000000
2526.031250 6256.000000
2526.998047 5571.000000
2527.963623 7273.000000
2528.929199 7023.000000
2529.894043 7764.000000
2530.858398 6324.000000
2531.821533 6366.000000
2532.784912 5910.000000
2533.747314 5999.000000
2534.709473 6688.000000
2535.670410 6361.000000
2536.630615 6201.000000
2537.591064 6180.000000
2538.550537 6787.000000
2539.509277 6857.000000
2540.467041 6786.000000
2541.425049 6227.000000
2542.382324 6789.000000
2543.338623 6098.000000
2544.294678 7143.000000
2545.249512 6324.000000
2546.204590 7758.000000
2547.158936 7086.000000
2548.112549 7142.500000
2549.065186 7199.000000
2550.017578 6733.000000
2550.969482 7012.000000
2551.920654 6425.000000
2552.871094 7693.000000
2553.821045 7079.000000
2554.770752 7434.000000
2555.719727 6628.000000
2556.668213 6270.000000
2557.615479 7190.000000
2558.562744 6335.000000
2559.509277 6564.000000
2560.455322 6820.000000
2561.400391 7464.000000
2562.345215 6744.000000
2563.289551 7194.000000
2564.233398 6893.000000
2565.176758 6660.000000
2566.118652 6608.000000
2567.060791 6592.000000
2568.002197 6236.000000
2568.942871 7183.000000
2569.882813 7333.000000
2570.822754 5757.000000
2571.761719 6192.000000
2572.700439 7561.000000
2573.638184 7179.000000
2574.575684 5463.000000
2575.512451 6987.000000
2576.448486 6797.000000
2577.384033 7563.000000
2578.318848 6426.000000
2579.253662 5998.000000
2580.187500 7142.000000
2581.120850 7267.000000
2582.053467 5838.000000
2582.985840 6985.000000
2583.917480 5460.000000
2584.848633 7085.000000
2585.779297 6994.000000
2586.708740 6917.000000
2587.638184 7191.000000
2588.567139 6525.000000
2589.495850 7690.000000
2590.422852 7412.000000
2591.350098 5910.000000
2592.276855 6778.000000
2593.202881 6322.000000
2594.128662 5612.000000
2595.053223 7581.000000
2595.977539 7636.000000
2596.901367 5368.000000
2597.824707 7377.000000
2598.747070 6268.000000
2599.669189 6890.000000
2600.590820 8329.000000
2601.511719 6425.000000
2602.431885 6007.000000
2603.351807 6364.000000
2604.271240 6401.000000
2605.190430 6542.000000
2606.108643 5838.000000
2607.025635 6038.000000
2607.942871 7256.000000
2608.859863 5931.000000
2609.775879 7616.000000
2610.690674 6664.000000
2611.605957 6673.000000
2612.520508 6597.000000
2613.434082 6567.000000
2614.347656 6424.000000
2615.260010 7616.000000
2616.172363 7138.000000
2617.083740 6747.000000
2617.994873 5682.000000
2618.905273 7265.000000
2619.815430 6700.000000
2620.724854 6200.000000
2621.633789 6770.000000
2622.541748 6269.000000
2623.449951 6886.000000
2624.357178 6644.000000
2625.263916 7045.000000
2626.169922 6009.000000
2627.075684 6674.000000
2627.980713 6432.000000
2628.885498 7824.000000
2629.789551 6499.000000
2630.692627 6387.000000
2631.595703 6444.000000
2632.497803 5632.000000
2633.399902 6744.000000
2634.301758 6950.000000
2635.201904 6810.000000
2636.102295 6432.000000
2637.001953 6461.000000
2637.901367 6061.000000
2638.799316 6945.000000
2639.697754 6853.000000
2640.595703 6412.000000
2641.492920 6091.000000
2642.388916 6182.000000
2643.284912 6719.000000
2644.180664 6098.000000
2645.075684 6472.000000
2645.970459 6698.000000
2646.863770 7349.000000
2647.757080 6370.000000
2648.650146 6800.000000
2649.542969 6464.000000
2650.434082 7477.000000
2651.325439 6471.000000
2652.216309 7684.000000
2653.106445 7357.000000
2653.996338 6620.000000
2654.885010 7331.000000
2655.773926 6690.000000
2656.662354 6545.000000
2657.549805 7322.000000
2658.436279 6545.000000
2659.323242 7187.000000
2660.209473 6840.000000
2661.095215 6815.000000
2661.979736 6545.000000
2662.864258 6447.000000
2663.748535 6287.000000
2664.632080 7096.000000
2665.515137 7907.000000
2666.397461 7350.000000
2667.279297 6235.000000
2668.160400 6602.000000
2669.041748 6120.000000
2669.921631 6578.000000
2670.801758 7429.000000
2671.681152 7223.000000
2672.560547 6376.000000
2673.439209 6161.000000
2674.316162 6428.000000
2675.193848 6866.000000
2676.070801 6410.000000
2676.947021 8124.000000
2677.822754 7215.000000
2678.697754 6236.000000
2679.572998 7785.000000
2680.447266 6997.000000
2681.321045 7364.000000
2682.194092 7154.000000
2683.066895 6289.000000
2683.939453 6222.000000
2684.811279 7030.000000
2685.682373 6561.000000
2686.553223 6909.000000
2687.423584 7142.000000
2688.293701 6704.000000
2689.162109 6357.000000
2690.031250 7351.000000
2690.899658 7195.000000
2691.767822 6772.000000
2692.635254 6969.000000
2693.501465 5843.000000
2694.368164 7135.000000
2695.233887 7411.000000
2696.099609 7188.000000
2696.963867 7974.000000
2697.828857 6630.000000
2698.692383 7319.000000
2699.556152 5826.000000
2700.418457 7541.000000
2701.281250 6833.000000
2702.143066 5964.000000
2703.004395 6862.000000
2703.865723 6676.000000
2704.725830 7418.000000
2705.585938 7319.000000
2706.445557 6597.000000
2707.304932 6884.000000
2708.162598 7125.000000
2709.020508 6860.000000
2709.878906 7355.000000
2710.736084 6739.000000
2711.592529 5932.000000
2712.448486 6899.000000
2713.304443 6104.000000
2714.159668 7030.000000
2715.014160 6135.000000
2715.868164 6796.000000
2716.722168 7326.000000
2717.575195 6296.000000
2718.428467 6517.000000
2719.280029 7719.000000
2720.132080 6780.000000
2720.983887 6400.000000
2721.834473 6553.000000
2722.685059 6382.000000
2723.535156 7131.000000
2724.384521 7008.000000
2725.233887 6993.000000
2726.082031 6670.000000
2726.929688 6656.000000
2727.777832 7023.000000
2728.624756 6901.000000
2729.472168 5510.000000
2730.318115 7520.000000
2731.163330 7069.000000
2732.009033 6442.000000
2732.853760 7119.000000
2733.698486 7381.000000
2734.541992 6925.000000
2735.385742 7874.000000
2736.228760 7209.000000
2737.071289 6058.000000
2737.912842 6211.000000
2738.754883 6778.000000
2739.595947 6960.000000
2740.436768 5815.000000
2741.277344 5997.000000
2742.116699 7763.000000
2742.956055 6813.000000
2743.795410 6948.000000
2744.633545 6795.000000
2745.471191 7862.000000
2746.308838 6346.000000
2747.145996 7230.000000
2747.982910 6197.000000
2748.819336 5998.000000
2749.654541 6640.000000
2750.489990 6292.000000
2751.324951 6381.000000
2752.159180 6250.000000
2752.993164 6905.000000
2753.826660 6857.000000
2754.660156 8080.000000
2755.492676 6763.000000
2756.324707 7308.000000
2757.156250 6830.000000
2757.987793 7154.000000
2758.818359 7228.000000
2759.649170 7275.000000
2760.478760 7269.000000
2761.308350 6812.000000
2762.137695 7285.000000
2762.966309 6861.000000
2763.794434 6790.000000
2764.622070 6950.000000
2765.449707 6697.000000
2766.276855 7955.000000
2767.103271 5843.000000
2767.929199 7476.000000
2768.754639 6857.000000
2769.579834 7834.000000
2770.405029 7067.000000
2771.229004 6790.000000
2772.052979 6504.000000
2772.876953 7714.000000
2773.699707 6680.000000
2774.522705 7034.000000
2775.344482 6893.000000
2776.166260 6976.000000
2776.988037 6573.000000
2777.808838 8048.000000
2778.628906 6637.000000
2779.449219 6998.000000
2780.269043 7352.000000
2781.088867 6523.000000
2781.906738 6021.000000
2782.725830 8070.000000
2783.543701 6533.000000
2784.361328 6728.000000
2785.178467 7183.000000
2785.995117 7347.000000
2786.811523 7236.000000
2787.627441 6335.000000
2788.443115 6032.000000
2789.257813 6426.000000
2790.072998 7046.000000
2790.887451 7168.000000
2791.701416 6595.000000
2792.515137 7465.000000
2793.327637 8841.000000
2794.140381 6932.000000
2794.952637 7464.000000
2795.764404 7215.000000
2796.575439 7359.000000
2797.387207 6562.000000
2798.197754 7276.000000
2799.008301 7097.000000
2799.817383 7403.000000
2800.627197 8215.000000
2801.436279 7825.000000
2802.245117 6661.000000
2803.053467 7218.000000
2803.860840 6247.000000
2804.668701 6602.000000
2805.475830 6770.000000
2806.282715 7019.000000
2807.088379 7225.000000
2807.894531 6694.000000
2808.699951 6520.000000
2809.505371 7384.000000
2810.310059 6239.000000
2811.113770 7643.000000
2811.917969 7552.000000
2812.721680 6393.000000
2813.525146 6169.000000
2814.327148 6647.000000
2815.129883 7346.000000
2815.931885 7825.000000
2816.733643 6155.000000
2817.534912 6571.000000
2818.335693 7218.000000
2819.135986 6525.000000
2819.936523 6751.000000
2820.736084 8166.000000
2821.535156 7207.000000
2822.334229 6709.000000
2823.133057 6863.000000
2823.931396 6403.000000
2824.728760 7048.000000
2825.526367 7418.000000
2826.323242 6679.000000
2827.120361 7458.000000
2827.916748 7943.000000
2828.712402 7080.000000
2829.508057 7361.000000
2830.303467 7551.000000
2831.098389 7416.000000
2831.892578 6674.000000
2832.686768 6909.000000
2833.480713 5674.000000
2834.274170 6914.000000
2835.066895 7228.000000
2835.859375 8116.000000
2836.651855 7630.000000
2837.444092 7756.000000
2838.235840 6433.000000
2839.026611 6860.000000
2839.817383 8924.000000
2840.608398 7464.000000
2841.398438 6284.000000
2842.187988 7662.000000
2842.977783 7212.000000
2843.766602 7400.000000
2844.555420 7857.000000
2845.344238 7785.000000
2846.132080 7572.000000
2846.919434 7212.000000
2847.707031 7581.000000
2848.494141 7355.000000
2849.280518 6646.000000
2850.066895 7429.000000
2850.853027 7168.000000
2851.638672 7571.000000
2852.423340 7195.000000
2853.208496 6869.000000
2853.993408 7498.000000
2854.777588 7188.000000
2855.561768 6922.000000
2856.344727 8239.000000
2857.127930 6839.000000
2857.910889 6784.000000
2858.693359 7772.000000
2859.475586 6328.000000
2860.257324 6651.000000
2861.038818 7647.000000
2861.820557 7589.000000
2862.601563 7696.000000
2863.381836 6580.000000
2864.161865 6711.000000
2864.941895 8230.000000
2865.721680 7451.000000
2866.500488 8088.000000
2867.279541 7772.000000
2868.058105 6811.000000
2868.836426 7057.000000
2869.614258 7270.000000
2870.391846 6908.000000
2871.169189 7541.000000
2871.946289 6986.000000
2872.722900 6438.000000
2873.499023 7508.000000
2874.275146 7149.000000
2875.050781 8355.000000
2875.826172 7260.000000
2876.601074 6645.000000
2877.375732 8060.000000
2878.150391 6719.000000
2878.924805 7906.000000
2879.698486 6804.000000
2880.471436 7431.000000
2881.245117 6816.000000
2882.017822 7623.000000
2882.790527 7912.000000
2883.562500 8280.000000
2884.334229 6234.000000
2885.106445 6868.000000
2885.877441 6975.000000
2886.647949 6213.000000
2887.418945 8452.000000
2888.189941 7453.000000
2888.960205 7976.000000
2889.729492 7607.000000
2890.499023 6947.000000
2891.268555 7261.000000
2892.037598 7362.000000
2892.806152 7984.000000
2893.574707 7691.000000
2894.342285 7018.000000
2895.110352 6571.000000
2895.877930 7457.000000
2896.645508 8441.000000
2897.411865 7451.000000
2898.179199 6604.000000
2898.945313 7270.000000
2899.711670 6967.000000
2900.476563 8343.000000
2901.241943 7114.000000
2902.007813 6496.000000
2902.772217 7808.000000
2903.536621 7947.000000
2904.301270 8479.000000
2905.064941 6648.000000
2905.829346 8449.000000
2906.593018 6724.000000
2907.355957 8418.000000
2908.118652 6558.000000
2908.881836 9148.000000
2909.644531 6990.000000
2910.406006 6840.000000
2911.167969 6840.000000
