scanname Analyse061
timestamp 2017-02-10 21:21:12
ccdbias 894.554199
ccdgain 3.473401
sigmaread 8.960639
laserwavenum -0.709324
wavenumcorrection -0.186360
scancount 1
totalexposurems 10000
singleexposurems 10000
measurementstate Unknown
scanmode Manual
snr 302.624908 10.486556 8.986257
replacelist 5
672 52645.000000 31258.000000
754 51731.000000 19046.000000
858 48271.000000 15511.000000
889 44207.000000 21312.000000
948 41765.000000 19388.000000
peaks 66
278.631104 0.721685 0.000000 1.475947 0.000188
285.091461 0.721736 0.000000 0.888217 0.000065
294.271576 0.723966 0.000000 0.655635 0.000030
334.381866 0.746313 0.000000 0.882291 0.000147
350.396606 0.748705 0.000000 0.618107 0.000023
360.563232 0.750079 0.000000 0.357107 0.000018
386.418396 0.752848 0.000000 1.450235 0.000310
459.763733 0.768002 0.000000 0.276232 0.000042
487.567413 0.781564 0.000000 0.720570 0.000100
534.875916 0.785246 0.000000 0.797557 0.000164
552.017273 0.823526 0.000000 0.501829 0.000229
559.795654 0.823969 0.000000 1.281496 0.000227
573.429504 0.830637 0.000000 0.354854 0.000080
582.689026 0.825169 0.000000 0.639127 0.000104
660.939941 0.857020 0.000000 1.258962 0.000121
670.676880 0.851668 0.000000 0.434610 0.000095
680.390503 0.855286 0.000000 0.342642 0.000042
715.901306 0.875837 0.000000 5.576813 0.001173
724.133301 0.857390 0.000000 1.365046 0.000057
742.879150 0.881512 0.000000 1.064857 0.000117
757.299805 0.906359 0.000000 5.906433 0.000679
777.471313 0.913698 0.000000 10.856413 0.002282
833.305298 0.908304 0.000000 0.321685 0.000152
843.938538 0.914270 0.000000 1.073064 0.000054
853.539795 0.940084 0.000000 1.181714 0.000299
868.955994 0.935099 0.000000 0.751819 0.000155
937.713257 1.011220 0.000000 0.794430 0.000425
954.434387 0.990738 0.000000 3.561450 0.001084
1013.704895 1.033488 0.000000 1.962348 0.000764
1027.000977 1.047224 0.000000 0.726680 0.000280
1044.376465 1.043564 0.000000 4.219501 0.001380
1104.534912 1.063844 0.000000 2.253315 0.000625
1119.276245 1.100231 0.000000 0.904642 0.000356
1134.708862 1.080566 0.000000 2.085336 0.000905
1150.391113 1.062959 0.000000 2.365009 0.000972
1174.520264 1.094486 0.000000 1.508938 0.000506
1187.310181 1.099080 0.000000 0.818041 0.000069
1211.215698 1.171515 0.000000 0.846823 0.000259
1222.783936 1.184803 0.000000 1.519422 0.000569
1232.268799 1.166969 0.000000 1.163776 0.000323
1260.124756 1.202527 0.000000 2.676183 0.001295
1279.416382 1.143412 0.000000 0.099236 0.000379
1314.076660 1.204030 0.000000 1.910995 0.000735
1332.013916 1.273432 0.000000 3.660609 0.001294
1348.108032 1.274376 0.000000 0.933313 0.000791
1389.397827 1.250156 0.000000 0.762448 0.000299
1415.484497 1.312283 0.000000 1.686348 0.000790
1434.260132 1.366316 0.000000 1.436412 0.000746
1447.320435 1.362717 0.000000 1.441926 0.000522
1460.025391 1.363316 0.000000 2.427353 0.001617
1489.984741 1.420514 0.000000 4.052786 0.002499
1514.849243 1.350770 0.000000 0.174970 0.000137
1532.648926 1.415077 0.000000 0.859170 0.000984
1558.257446 1.439744 0.000000 1.398911 0.000874
1578.210571 1.431102 0.000000 1.694841 0.001507
1597.857666 1.408221 0.000000 0.148178 0.000223
1616.271729 1.416447 0.000000 1.962759 0.001713
1668.834595 1.411335 0.000000 2.974329 0.002528
1689.383057 1.361973 0.000000 0.343032 0.000091
1700.962402 1.365501 0.000000 1.227058 0.001471
1710.795898 1.346414 0.000000 0.751254 0.000476
1755.868896 1.348217 0.000000 2.231476 0.002254
1778.639648 1.292875 0.000000 2.706258 0.002688
1798.064819 1.274029 0.000000 0.582217 0.000721
1812.736084 1.267414 0.000000 0.821415 0.000865
1852.623779 1.216310 0.000000 0.669952 0.000534
finalresult GLS_NoMatch 0
spectrum 2048
-96.892128 45926.000000
-94.265259 45926.000000
-91.640266 46370.000000
-89.017166 46214.000000
-86.395935 47090.000000
-83.776604 46736.000000
-81.159134 47056.000000
-78.543541 46743.000000
-75.929825 46943.000000
-73.317986 47412.000000
-70.708008 47223.000000
-68.099915 47353.000000
-65.493668 47427.000000
-62.889301 47434.000000
-60.286793 47311.000000
-57.686138 47802.000000
-55.087345 47223.000000
-52.490410 46513.000000
-49.895329 46989.000000
-47.302101 46878.000000
-44.710724 47168.000000
-42.121193 46690.000000
-39.533504 47541.000000
-36.947666 47357.000000
-34.363670 46881.000000
-31.781511 47759.000000
-29.201199 46987.000000
-26.622713 47651.000000
-24.046070 47247.000000
-21.471252 47095.000000
-18.898275 46783.000000
-16.327118 46791.000000
-13.757794 46490.000000
-11.190296 45370.000000
-8.624617 46939.000000
-6.060762 46703.000000
-3.498722 47093.000000
-0.938506 47224.000000
1.619902 46847.000000
4.176489 45850.000000
6.731271 46090.000000
9.284236 46394.000000
11.835401 45731.000000
14.384752 45815.000000
16.932308 45400.000000
19.478052 45945.000000
22.022003 46057.000000
24.564150 44857.000000
27.104500 44574.000000
29.643064 44196.000000
32.179832 44730.000000
34.714798 45127.000000
37.247986 43787.000000
39.779392 45049.000000
42.309006 44548.000000
44.836823 45608.000000
47.362881 44538.000000
49.887150 46962.000000
52.409649 46646.000000
54.930351 46269.000000
57.449299 46767.000000
59.966473 46689.000000
62.481869 46549.000000
64.995491 47632.000000
67.507355 47587.000000
70.017471 46835.000000
72.525795 46870.000000
75.032364 47466.000000
77.537186 47068.000000
80.040253 46998.000000
82.541542 47185.000000
85.041092 47401.000000
87.538887 47073.000000
90.034950 47713.000000
92.529236 46313.000000
95.021782 47651.000000
97.512611 46558.000000
100.001671 46278.000000
102.488983 47134.000000
104.974571 47250.000000
107.458420 47058.000000
109.940521 47708.000000
112.420898 46908.000000
114.899551 47336.000000
117.376480 47137.000000
119.851654 46325.000000
122.325119 46655.000000
124.796852 47680.000000
127.266876 46769.000000
129.735138 47274.000000
132.201736 47271.000000
134.666580 47837.000000
137.129730 47340.000000
139.591141 46199.000000
142.050858 46649.000000
144.508850 47201.000000
146.965149 47534.000000
149.419739 47700.000000
151.872604 46746.000000
154.323792 47139.000000
156.773285 46935.000000
159.221054 47424.000000
161.667114 46825.000000
164.111496 44825.000000
166.554199 47074.000000
168.995209 46775.000000
171.434509 47341.000000
173.872101 46266.000000
176.308060 46945.000000
178.742279 46644.000000
181.174820 46399.000000
183.605713 46798.000000
186.034882 46372.000000
188.462402 46834.000000
190.888245 47272.000000
193.312408 46843.000000
195.734909 46395.000000
198.155716 46148.000000
200.574860 47036.000000
202.992340 47520.000000
205.408127 46011.000000
207.822266 46462.000000
210.234772 47196.000000
212.645599 47467.000000
215.054749 47361.000000
217.462265 46165.000000
219.868073 47389.000000
222.272293 46952.000000
224.674805 46738.000000
227.075699 46629.000000
229.474945 47083.000000
231.872528 46709.000000
234.268448 46271.000000
236.662750 46984.000000
239.055389 47717.000000
241.446411 46782.000000
243.835770 46954.000000
246.223511 47141.000000
248.609604 46516.000000
250.994064 47474.000000
253.376877 45692.000000
255.758118 46897.000000
258.137665 46866.000000
260.515625 47132.000000
262.891907 46023.000000
265.266632 45907.000000
267.639709 45642.000000
270.011139 47321.000000
272.380920 47016.000000
274.749146 47685.000000
277.115723 47234.000000
279.480713 46761.000000
281.844086 47561.000000
284.205811 47280.000000
286.565948 46422.000000
288.924469 47596.000000
291.281403 46973.000000
293.636719 47163.000000
295.990448 47580.000000
298.342529 47536.000000
300.693054 47295.000000
303.041992 47154.000000
305.389282 46725.000000
307.735046 47205.000000
310.079132 47048.000000
312.421692 46239.000000
314.762634 46052.000000
317.101959 46310.000000
319.439728 46601.000000
321.775940 45395.000000
324.110504 47185.000000
326.443512 47053.000000
328.774963 47596.000000
331.104828 46917.000000
333.433105 47118.000000
335.759766 46290.000000
338.084930 47118.000000
340.408478 47261.000000
342.730469 47542.000000
345.050903 46040.000000
347.369720 45843.000000
349.686981 47563.000000
352.002716 47627.000000
354.316864 46511.000000
356.629425 47215.000000
358.940430 47178.000000
361.249908 46515.000000
363.557861 47174.000000
365.864197 47881.000000
368.168945 47085.000000
370.472229 47121.000000
372.773895 47201.000000
375.074066 47243.000000
377.372681 47254.000000
379.669739 47810.000000
381.965240 47422.000000
384.259216 47725.000000
386.551605 48338.000000
388.842499 47991.000000
391.131866 47361.000000
393.419647 47288.000000
395.705902 47083.000000
397.990662 46544.000000
400.273804 47490.000000
402.555511 47187.000000
404.835693 47395.000000
407.114288 46323.000000
409.391357 47164.000000
411.666901 46732.000000
413.940918 47082.000000
416.213501 47062.000000
418.484467 47271.000000
420.753937 47040.000000
423.021912 46385.000000
425.288330 46244.000000
427.553253 47171.000000
429.816711 47190.000000
432.078583 47045.000000
434.338989 47535.000000
436.597839 46880.000000
438.855225 47391.000000
441.111115 47868.000000
443.365509 47706.000000
445.618378 48110.000000
447.869690 46567.000000
450.119598 47470.000000
452.367920 47267.000000
454.614807 47939.000000
456.860229 47008.000000
459.104095 47018.000000
461.346466 46708.000000
463.587341 47907.000000
465.826813 46734.000000
468.064697 48052.000000
470.301147 47699.000000
472.536072 47516.000000
474.769531 46335.000000
477.001556 46841.000000
479.232056 47789.000000
481.461060 47037.000000
483.688599 47240.000000
485.914642 47557.000000
488.139252 46974.000000
490.362396 47629.000000
492.584076 47191.000000
494.804199 46823.000000
497.022919 47855.000000
499.240143 47213.000000
501.455994 47935.000000
503.670227 47350.000000
505.883148 47033.000000
508.094482 47090.000000
510.304382 46575.000000
512.512817 46993.000000
514.719910 46932.000000
516.925415 47127.000000
519.129517 46980.000000
521.332092 47310.000000
523.533264 46939.000000
525.733093 46853.000000
527.931396 46582.000000
530.128174 48216.000000
532.323608 47732.000000
534.517517 47973.000000
536.710083 46061.000000
538.901123 46888.000000
541.090759 47456.000000
543.278992 46529.000000
545.465698 46391.000000
547.650940 46715.000000
549.834900 47216.000000
552.017273 47092.000000
554.198303 47318.000000
556.377808 47441.000000
558.556030 47630.000000
560.732727 47455.000000
562.908020 47093.000000
565.081909 47075.000000
567.254333 47566.000000
569.425354 47469.000000
571.594910 47182.000000
573.763184 48218.000000
575.929932 47109.000000
578.095215 47255.000000
580.259094 47373.000000
582.421692 47797.000000
584.582764 47419.000000
586.742432 47865.000000
588.900757 47750.000000
591.057556 47394.000000
593.213013 46867.000000
595.367065 47734.000000
597.519775 47331.000000
599.670959 46188.000000
601.820801 46723.000000
603.969299 46793.000000
606.116211 47484.000000
608.261902 46993.000000
610.406189 47040.000000
612.549011 46846.000000
614.690369 47370.000000
616.830505 47081.000000
618.969116 45815.000000
621.106445 47748.000000
623.242310 46932.000000
625.376770 46631.000000
627.509766 46310.000000
629.641602 46889.000000
631.771973 46880.000000
633.900940 46797.000000
636.028442 46994.000000
638.154663 47267.000000
640.279358 46134.000000
642.402832 47164.000000
644.524963 46657.000000
646.645630 46587.000000
648.764954 46846.000000
650.882874 47772.000000
652.999451 47823.000000
655.114624 47063.000000
657.228455 46999.000000
659.340820 47671.000000
661.451965 47316.000000
663.561707 48019.000000
665.669983 47439.000000
667.777100 47202.000000
669.882751 46722.000000
671.986938 47640.000000
674.089905 47746.000000
676.191467 46422.000000
678.291687 48131.000000
680.390503 46736.000000
682.487976 47235.000000
684.584167 46511.000000
686.678894 47297.000000
688.772400 46431.000000
690.864563 46860.000000
692.955200 45493.000000
695.044617 46847.000000
697.132751 46949.000000
699.219421 47478.000000
701.304871 46767.000000
703.388794 48335.000000
705.471497 47605.000000
707.552917 47534.000000
709.632874 45888.000000
711.711609 47338.000000
713.788879 47886.000000
715.864868 46923.000000
717.939575 47429.000000
720.013000 46464.000000
722.084900 47217.000000
724.155640 46109.000000
726.225037 47690.000000
728.293030 46947.000000
730.359680 47052.000000
732.425110 46362.000000
734.489197 47718.000000
736.551941 47301.000000
738.613342 46899.000000
740.673462 46915.000000
742.732178 47389.000000
744.789673 46808.000000
746.845886 46950.000000
748.900696 46714.000000
750.954224 47150.000000
753.006348 45967.000000
755.057251 47687.000000
757.106934 46725.000000
759.155151 47155.000000
761.202148 47279.000000
763.247864 46383.000000
765.292175 48081.000000
767.335205 47670.000000
769.377014 38602.000000
771.417480 46479.000000
773.456543 47069.000000
775.494446 47327.000000
777.531006 47541.000000
779.566345 48104.000000
781.600342 47721.000000
783.632935 46563.000000
785.664368 47894.000000
787.694397 41894.000000
789.723145 47492.000000
791.750732 47161.000000
793.776978 47065.000000
795.801819 47572.000000
797.825562 47937.000000
799.847900 47149.000000
801.869019 47554.000000
803.888794 46810.000000
805.907288 48536.000000
807.924561 46795.000000
809.940430 46701.000000
811.955139 47725.000000
813.968506 47032.000000
815.980652 47168.000000
817.991577 47325.000000
820.001160 46798.000000
822.009521 48127.000000
824.016479 47712.000000
826.022217 47325.000000
828.026733 47634.000000
830.029968 47780.000000
832.031921 46946.000000
834.032593 47345.000000
836.032043 47562.000000
838.030151 47124.000000
840.027161 46453.000000
842.022766 47169.000000
844.017212 47361.000000
846.010315 47235.000000
848.002197 46568.000000
849.992737 47838.000000
851.981995 46689.000000
853.970215 47450.000000
855.957031 47670.000000
857.942627 47036.000000
859.926941 46211.000000
861.910156 47091.000000
863.891968 46956.000000
865.872559 47607.000000
867.851868 45672.000000
869.830017 46426.000000
871.806824 47190.000000
873.782349 47448.000000
875.756836 47217.000000
877.729858 47408.000000
879.701843 48016.000000
881.672485 47065.000000
883.641968 47303.000000
885.610107 47798.000000
887.577087 48205.000000
889.542725 47220.000000
891.507202 47573.000000
893.470459 47374.000000
895.432495 46849.000000
897.393250 47533.000000
899.352783 46980.000000
901.311035 46670.000000
903.268188 46983.000000
905.224182 47346.000000
907.178772 46526.000000
909.132141 46860.000000
911.084351 47017.000000
913.035339 46958.000000
914.985046 46371.000000
916.933594 47031.000000
918.880920 47248.000000
920.826965 47339.000000
922.771729 47405.000000
924.715454 47061.000000
926.658020 47377.000000
928.599304 47829.000000
930.539246 46882.000000
932.478088 47662.000000
934.415649 47845.000000
936.351990 47357.000000
938.287170 47586.000000
940.221069 47312.000000
942.153870 47441.000000
944.085449 46541.000000
946.015869 48165.000000
947.945068 46981.000000
949.872925 46357.000000
951.799744 46790.000000
953.725281 47423.000000
955.649536 48043.000000
957.572693 47402.000000
959.494690 46710.000000
961.415405 46087.000000
963.334961 46893.000000
965.253357 48077.000000
967.170715 46951.000000
969.086609 46996.000000
971.001404 47174.000000
972.914978 47390.000000
974.827393 46951.000000
976.738586 46849.000000
978.648621 47864.000000
980.557373 47197.000000
982.465088 47292.000000
984.371582 47015.000000
986.276855 47673.000000
988.181030 46560.000000
990.083984 47146.000000
991.985718 46516.000000
993.886292 46789.000000
995.785706 46791.000000
997.683899 48085.000000
999.580933 46695.000000
1001.476746 46864.000000
1003.371399 45590.000000
1005.264954 47709.000000
1007.157227 46258.000000
1009.048584 47201.000000
1010.938599 48004.000000
1012.827393 46723.000000
1014.715027 47010.000000
1016.601501 46316.000000
1018.486816 46591.000000
1020.370972 47324.000000
1022.253906 47429.000000
1024.135864 47132.000000
1026.016479 48132.000000
1027.895996 47502.000000
1029.774536 47228.000000
1031.651733 47901.000000
1033.527588 47149.000000
1035.402466 47436.000000
1037.276367 46715.000000
1039.148804 46261.000000
1041.020264 46599.000000
1042.890381 47790.000000
1044.759521 47840.000000
1046.627441 47550.000000
1048.494263 46198.000000
1050.359985 46618.000000
1052.224487 46805.000000
1054.087891 46836.000000
1055.949951 46819.000000
1057.811035 47481.000000
1059.671021 46837.000000
1061.529663 46661.000000
1063.387207 47475.000000
1065.243652 46514.000000
1067.098999 47273.000000
1068.953125 47562.000000
1070.806396 47018.000000
1072.658203 46903.000000
1074.509033 47140.000000
1076.358643 47170.000000
1078.207031 47508.000000
1080.054565 45315.000000
1081.900757 47774.000000
1083.745728 47053.000000
1085.589844 47892.000000
1087.432617 47815.000000
1089.274170 46713.000000
1091.114990 47744.000000
1092.954224 47455.000000
1094.792725 47233.000000
1096.629883 47262.000000
1098.465820 46414.000000
1100.300781 46627.000000
1102.134521 47819.000000
1103.967285 47595.000000
1105.798706 47080.000000
1107.629272 45952.000000
1109.458496 46666.000000
1111.286743 46774.000000
1113.113770 46067.000000
1114.939819 47716.000000
1116.764648 46852.000000
1118.588379 46032.000000
1120.410889 47112.000000
1122.232300 47338.000000
1124.052856 47320.000000
1125.871948 46611.000000
1127.690186 46096.000000
1129.507080 46283.000000
1131.323120 46517.000000
1133.137939 46669.000000
1134.951660 47618.000000
1136.764282 47371.000000
1138.575684 47458.000000
1140.386108 47027.000000
1142.195435 46391.000000
1144.003418 46264.000000
1145.810669 47174.000000
1147.616455 47204.000000
1149.421387 47791.000000
1151.225220 47766.000000
1153.027832 46992.000000
1154.829590 47043.000000
1156.629883 47000.000000
1158.429199 47013.000000
1160.227539 47213.000000
1162.024536 47684.000000
1163.820801 47277.000000
1165.615723 47021.000000
1167.409546 46882.000000
1169.202515 45339.000000
1170.994141 47404.000000
1172.784790 46586.000000
1174.574463 47150.000000
1176.362671 47195.000000
1178.150024 45631.000000
1179.936279 46196.000000
1181.721436 47312.000000
1183.505493 47101.000000
1185.288452 45349.000000
1187.070435 47191.000000
1188.851196 47105.000000
1190.630981 46769.000000
1192.409668 46111.000000
1194.187378 46374.000000
1195.963867 45871.000000
1197.739258 46437.000000
1199.513550 46429.000000
1201.286743 46285.000000
1203.059082 46480.000000
1204.830078 46170.000000
1206.600220 47367.000000
1208.369141 46805.000000
1210.136963 46613.000000
1211.903931 47167.000000
1213.669556 46996.000000
1215.434204 46015.000000
1217.197754 46385.000000
1218.960205 47006.000000
1220.721802 46206.000000
1222.482178 47084.000000
1224.241455 46762.000000
1225.999878 46890.000000
1227.757080 45879.000000
1229.513184 46581.000000
1231.268188 47435.000000
1233.022339 46972.000000
1234.775146 47204.000000
1236.526978 46942.000000
1238.277954 46930.000000
1240.027588 48043.000000
1241.776367 45901.000000
1243.523804 46501.000000
1245.270508 46352.000000
1247.015991 46485.000000
1248.760620 46461.000000
1250.503906 46205.000000
1252.246216 46286.000000
1253.987427 47596.000000
1255.727783 47890.000000
1257.467041 47114.000000
1259.205078 46335.000000
1260.942261 45715.000000
1262.678223 46756.000000
1264.413208 46543.000000
1266.147217 45717.000000
1267.880249 47018.000000
1269.612061 46763.000000
1271.342896 46476.000000
1273.072510 45685.000000
1274.801270 47010.000000
1276.528931 47084.000000
1278.255493 47325.000000
1279.981201 47312.000000
1281.705566 46406.000000
1283.429077 47660.000000
1285.151611 45969.000000
1286.873169 46245.000000
1288.593506 46756.000000
1290.312866 46204.000000
1292.031128 45584.000000
1293.748413 46409.000000
1295.464722 47026.000000
1297.179810 46376.000000
1298.893921 46599.000000
1300.607056 47008.000000
1302.319336 46303.000000
1304.030396 44384.000000
1305.740479 47416.000000
1307.449463 46390.000000
1309.157227 46037.000000
1310.864380 45766.000000
1312.570068 46895.000000
1314.275024 45791.000000
1315.979004 46567.000000
1317.681763 46707.000000
1319.383545 46119.000000
1321.084473 46626.000000
1322.784058 42875.000000
1324.482788 44986.500000
1326.180786 47098.000000
1327.877441 46118.000000
1329.572998 45420.000000
1331.267700 45714.000000
1332.961182 46810.000000
1334.653809 47144.000000
1336.345581 45133.000000
1338.036011 46240.000000
1339.725708 46012.000000
1341.414307 46460.000000
1343.101807 44860.000000
1344.788330 46889.000000
1346.473755 45820.000000
1348.158203 46624.000000
1349.841797 45285.000000
1351.524170 46139.000000
1353.205566 46594.000000
1354.886108 45996.000000
1356.565430 45852.000000
1358.244141 46675.000000
1359.921509 45913.000000
1361.597778 46795.000000
1363.273071 46965.000000
1364.947632 45956.000000
1366.620972 46022.000000
1368.293335 45689.000000
1369.964722 47254.000000
1371.635132 45702.000000
1373.304443 46261.000000
1374.972778 46704.000000
1376.640259 46378.000000
1378.306641 45852.000000
1379.972046 46200.000000
1381.636475 46474.000000
1383.299683 46376.000000
1384.962280 46564.000000
1386.623535 45963.000000
1388.283936 45680.000000
1389.943237 45848.000000
1391.601563 45824.000000
1393.259155 45375.000000
1394.915527 45722.000000
1396.571045 45164.000000
1398.225342 45839.000000
1399.878784 46313.000000
1401.531128 46021.000000
1403.182739 45620.000000
1404.833130 44884.000000
1406.482422 45771.000000
1408.130981 44510.000000
1409.778442 44037.000000
1411.424927 45679.000000
1413.070557 45580.000000
1414.715210 45854.000000
1416.358643 44805.000000
1418.001221 44702.000000
1419.642700 44966.000000
1421.283325 45185.000000
1422.922974 45240.000000
1424.561523 45622.000000
1426.199219 45049.000000
1427.835815 45383.000000
1429.471436 45646.000000
1431.106323 45239.000000
1432.740112 45673.000000
1434.372803 45473.000000
1436.004517 46045.000000
1437.635376 45465.000000
1439.265137 45518.000000
1440.893799 43910.000000
1442.521851 45690.000000
1444.148804 45462.000000
1445.774536 45462.000000
1447.399658 45535.000000
1449.023682 45184.000000
1450.646729 45741.000000
1452.268799 45708.000000
1453.889771 44416.000000
1455.509766 45481.000000
1457.129028 44829.000000
1458.746948 46094.000000
1460.364258 46161.000000
1461.980591 46228.000000
1463.595703 44426.000000
1465.209961 45383.000000
1466.823364 46361.000000
1468.435669 45985.000000
1470.047119 45281.000000
1471.657715 45144.000000
1473.267090 45502.000000
1474.875488 45454.000000
1476.483032 45239.000000
1478.089600 44765.000000
1479.695435 46104.000000
1481.300049 45083.000000
1482.903809 45717.000000
1484.506348 44474.000000
1486.108276 45719.000000
1487.708984 45672.000000
1489.308960 45518.000000
1490.907837 44910.000000
1492.505859 44728.000000
1494.102783 44498.000000
1495.698853 44831.000000
1497.293945 45231.000000
1498.888062 45672.000000
1500.481445 44596.000000
1502.073730 45587.000000
1503.664795 44906.000000
1505.255371 44181.000000
1506.844604 44492.000000
1508.433228 44751.000000
1510.020752 44270.000000
1511.607178 43972.000000
1513.192871 44559.000000
1514.777466 44060.000000
1516.361206 44363.000000
1517.943848 44572.000000
1519.525757 43904.000000
1521.106567 43806.000000
1522.686646 44355.000000
1524.265503 44118.000000
1525.843506 43795.000000
1527.420776 43837.000000
1528.996826 44364.000000
1530.572144 44133.000000
1532.146362 43643.000000
1533.719849 44498.000000
1535.292114 43918.000000
1536.863647 43456.000000
1538.434204 43374.000000
1540.003906 43442.000000
1541.572388 44247.000000
1543.140137 43000.000000
1544.707031 43985.000000
1546.272705 42729.000000
1547.837646 43543.000000
1549.401489 44481.000000
1550.964722 42005.000000
1552.526611 43074.000000
1554.087891 43413.000000
1555.648071 43714.000000
1557.207520 43626.000000
1558.765869 43235.000000
1560.323486 43056.000000
1561.880005 42357.000000
1563.435303 43445.000000
1564.989990 42913.000000
1566.543945 43706.000000
1568.096924 42969.000000
1569.648560 43666.000000
1571.199463 43075.000000
1572.749634 43079.000000
1574.298828 42876.000000
1575.846680 43499.000000
1577.394043 43729.000000
1578.940430 43498.000000
1580.485962 44142.000000
1582.030518 42513.000000
1583.573853 42847.000000
1585.116577 42461.000000
1586.658447 42696.000000
1588.199219 42320.000000
1589.739014 43210.000000
1591.278076 42254.000000
1592.816040 42995.000000
1594.353516 42768.000000
1595.889648 43072.000000
1597.424683 42228.000000
1598.959229 42592.000000
1600.492798 42773.000000
1602.025513 42777.000000
1603.556641 42477.000000
1605.087524 42565.000000
1606.617554 42988.000000
1608.146362 42565.000000
1609.674072 42442.000000
1611.201172 42655.000000
1612.727539 42851.000000
1614.252930 42313.000000
1615.777466 42722.000000
1617.300659 42753.000000
1618.823120 42857.000000
1620.344849 41891.000000
1621.865723 41394.000000
1623.385132 41661.500000
1624.904053 41929.000000
1626.422241 41278.000000
1627.939575 41358.000000
1629.455811 40743.000000
1630.970703 40011.000000
1632.485107 40094.000000
1633.998779 40939.000000
1635.511353 39603.000000
1637.022705 40434.000000
1638.533691 39814.000000
1640.043579 39824.000000
1641.552612 39839.000000
1643.060303 40247.000000
1644.567627 39640.000000
1646.074097 38600.000000
1647.579590 39281.000000
1649.084229 38461.000000
1650.587402 39069.000000
1652.089966 38504.000000
1653.592163 38735.000000
1655.093018 38158.000000
1656.592773 37137.000000
1658.091675 38678.000000
1659.590210 37996.000000
1661.087524 38145.000000
1662.584106 38517.000000
1664.079102 37782.000000
1665.573853 37881.000000
1667.067749 38996.000000
1668.560669 38513.000000
1670.052246 38033.000000
1671.543335 37553.000000
1673.033813 37078.000000
1674.523193 37101.000000
1676.011108 36007.000000
1677.498779 36026.000000
1678.985474 36726.000000
1680.471313 37288.000000
1681.956299 36454.000000
1683.439819 36194.000000
1684.923096 36013.000000
1686.405518 36383.000000
1687.886841 35953.000000
1689.366699 35945.000000
1690.846313 36640.000000
1692.325195 35513.000000
1693.803101 36078.000000
1695.280029 35930.000000
1696.755737 36215.000000
1698.231079 35921.000000
1699.705200 35665.000000
1701.178711 36481.000000
1702.650757 36428.000000
1704.122559 35307.000000
1705.593384 35794.000000
1707.063354 34979.000000
1708.531982 36778.000000
1710.000122 36132.000000
1711.467529 35578.000000
1712.933838 36461.000000
1714.399536 36134.000000
1715.863525 35796.000000
1717.327393 36053.000000
1718.790405 35148.000000
1720.252441 35646.000000
1721.713257 35308.000000
1723.173462 36435.000000
1724.632935 35449.000000
1726.091553 35749.000000
1727.549194 35735.000000
1729.005493 35512.000000
1730.461548 35621.000000
1731.916626 35239.000000
1733.370728 35603.000000
1734.823608 34722.000000
1736.276245 35504.000000
1737.727783 34550.000000
1739.178589 35290.000000
1740.628418 34625.000000
1742.076904 35256.000000
1743.525024 33799.000000
1744.972290 34435.000000
1746.418823 34236.000000
1747.863770 34053.000000
1749.308472 34736.000000
1750.752319 35046.000000
1752.195313 35593.000000
1753.636841 34839.000000
1755.078125 35358.000000
1756.518555 34932.500000
1757.958008 34507.000000
1759.396484 34077.000000
1760.833984 33342.000000
1762.270996 31900.000000
1763.707031 33410.000000
1765.142212 32058.000000
1766.575928 32963.000000
1768.009521 32609.000000
1769.442139 32159.000000
1770.873901 32851.000000
1772.304810 32651.000000
1773.734497 31677.000000
1775.163452 31563.000000
1776.591919 31126.000000
1778.019409 30471.000000
1779.445557 30710.000000
1780.871460 31405.000000
1782.296265 30383.000000
1783.720459 31661.000000
1785.143188 30531.000000
1786.565430 30545.000000
1787.986938 30086.000000
1789.407715 30810.000000
1790.827515 30447.000000
1792.245972 30449.000000
1793.663940 29699.000000
1795.081299 30868.000000
1796.497803 30385.000000
1797.912842 29973.000000
1799.327515 30630.000000
1800.741577 29905.000000
1802.154419 30540.000000
1803.566650 29573.000000
1804.977539 29422.000000
1806.387939 28649.000000
1807.797607 29686.000000
1809.206299 30019.000000
1810.613892 30558.000000
1812.020996 29712.000000
1813.427246 29930.000000
1814.832520 29608.000000
1816.236694 30289.000000
1817.640503 30203.000000
1819.043335 29891.000000
1820.445313 30084.000000
1821.846680 30284.000000
1823.246582 29799.000000
1824.645874 29766.000000
1826.044678 29689.000000
1827.442627 28872.000000
1828.839233 30365.000000
1830.235229 29223.000000
1831.630493 30083.000000
1833.025146 27886.000000
1834.418823 29879.000000
1835.811157 28870.000000
1837.203003 29154.000000
1838.594238 29538.000000
1839.984497 28284.000000
1841.373535 29207.000000
1842.762207 29040.000000
1844.149902 29051.000000
1845.536865 29169.000000
1846.922485 28024.000000
1848.307861 28903.000000
1849.692383 28243.000000
1851.076172 28197.000000
1852.458862 27898.000000
1853.840332 28652.000000
1855.221313 27447.000000
1856.601807 27594.000000
1857.981323 28127.000000
1859.359375 27905.000000
1860.737305 27727.000000
1862.114258 25997.000000
1863.490479 27392.000000
1864.865845 27034.000000
1866.239746 27270.000000
1867.613525 26946.000000
1868.986450 26579.000000
1870.358276 26848.000000
1871.729126 25832.000000
1873.099609 26993.000000
1874.468994 26472.000000
1875.837891 26501.000000
1877.205200 25497.000000
1878.572388 26347.000000
1879.938599 26382.000000
1881.304077 25893.000000
1882.668823 25410.000000
1884.031982 25883.000000
1885.395020 25434.000000
1886.757202 25744.000000
1888.118530 25399.000000
1889.478516 25863.000000
1890.838135 25786.000000
1892.197144 25708.000000
1893.555176 25284.000000
1894.912354 24853.000000
1896.268311 25725.000000
1897.624023 24416.000000
1898.978760 25385.000000
1900.332642 25519.000000
1901.685425 25350.000000
1903.037720 25542.000000
1904.389282 25635.000000
1905.739990 25038.000000
1907.089478 25319.000000
1908.438477 24943.000000
1909.786621 25397.000000
1911.134155 25134.000000
1912.480957 24980.000000
1913.826172 24697.000000
1915.171143 25199.000000
1916.515381 25682.000000
1917.858765 25104.000000
1919.200806 25483.000000
1920.542603 25082.000000
1921.883545 24673.000000
1923.223755 25152.000000
1924.562988 25028.000000
1925.901245 25073.000000
1927.238892 24988.000000
1928.575806 24627.000000
1929.911865 24676.000000
1931.246704 25332.000000
1932.581177 24714.000000
1933.914917 24051.000000
1935.247803 24438.000000
1936.579224 24632.000000
1937.910767 24352.000000
1939.240967 23956.000000
1940.570679 24367.000000
1941.899536 24299.000000
1943.227173 24243.000000
1944.554321 24541.000000
1945.880737 24483.000000
1947.206421 23950.000000
1948.530762 24202.000000
1949.854858 23695.000000
1951.178101 23898.000000
1952.500610 23853.000000
1953.822021 24051.000000
1955.142456 23145.000000
1956.462280 23581.000000
1957.781738 23713.000000
1959.100220 23038.000000
1960.417358 23223.000000
1961.734131 23062.000000
1963.050171 22902.000000
1964.365479 22979.000000
1965.679321 22980.000000
1966.992920 23215.000000
1968.305786 22721.000000
1969.617798 22860.000000
1970.929199 22827.000000
1972.239258 22531.000000
1973.548828 22515.000000
1974.857666 22126.000000
1976.165894 21972.000000
1977.472778 22066.000000
1978.779053 21723.000000
1980.084961 22266.000000
1981.389648 22160.000000
1982.693848 22096.000000
1983.996826 22096.000000
1985.299438 21665.000000
1986.601074 21891.000000
1987.902100 21387.000000
1989.201538 21340.000000
1990.501099 21212.000000
1991.799561 21247.000000
1993.097534 21135.000000
1994.393921 21102.000000
1995.690308 21059.000000
1996.985718 20924.000000
1998.280396 20658.000000
1999.574219 20710.000000
2000.866821 20409.000000
2002.158936 20566.000000
2003.450562 20491.000000
2004.741455 20348.000000
2006.030762 20259.000000
2007.319824 20315.000000
2008.608154 20216.000000
2009.895752 20433.000000
2011.182495 20296.000000
2012.468140 20066.000000
2013.753418 20101.000000
2015.037720 20160.000000
2016.321411 19958.000000
2017.603760 20016.000000
2018.885742 19907.000000
2020.167236 20009.000000
2021.447754 20124.000000
2022.727539 19809.000000
2024.006226 19780.000000
2025.284180 19815.000000
2026.561646 19861.000000
2027.838501 19889.000000
2029.113647 20127.000000
2030.388916 20077.000000
2031.663208 20165.000000
2032.936523 20106.000000
2034.208984 20105.000000
2035.481079 20234.000000
2036.752075 19922.000000
2038.022827 19950.000000
2039.292236 20045.000000
2040.560547 20094.000000
2041.828857 19991.000000
2043.096191 19853.000000
2044.362793 19720.000000
2045.628174 19802.000000
2046.892944 19721.000000
2048.157471 19694.000000
2049.420654 19566.000000
2050.683594 19588.000000
2051.944580 19417.000000
2053.206055 19290.000000
2054.466309 19099.000000
2055.725830 18979.000000
2056.984619 19041.000000
2058.242432 19114.000000
2059.499756 19012.000000
2060.756348 19034.000000
2062.011475 19031.000000
2063.266602 18927.000000
2064.520752 18960.000000
2065.774170 18796.000000
2067.026855 18685.000000
2068.278320 18678.000000
2069.529541 18562.000000
2070.780029 18772.000000
2072.029785 18864.000000
2073.278076 18595.000000
2074.526367 18489.000000
2075.773682 18084.000000
2077.020264 18245.000000
2078.266113 18136.000000
2079.510742 18094.000000
2080.754883 18035.000000
2081.998535 18032.000000
2083.241211 17861.000000
2084.482666 17913.000000
2085.723877 17805.000000
2086.964600 17774.000000
2088.204346 17644.000000
2089.442871 17535.000000
2090.680908 17518.000000
2091.918213 17502.000000
2093.155273 17304.000000
2094.390869 17391.000000
2095.625732 17266.000000
2096.860352 17372.000000
2098.093994 17580.000000
2099.326660 17152.000000
2100.558594 17270.000000
2101.790039 17148.000000
2103.020508 16920.000000
2104.250244 17109.000000
2105.479736 16823.000000
2106.707275 16936.000000
2107.935059 16620.000000
2109.162109 16527.000000
2110.388184 16758.000000
2111.612793 16451.000000
2112.837646 16409.000000
2114.061279 16373.000000
2115.284424 16574.000000
2116.506348 16552.000000
2117.728027 16523.000000
2118.948730 16530.000000
2120.168701 16651.000000
2121.388184 16667.000000
2122.606201 16660.000000
2123.824219 16483.000000
2125.041260 16616.000000
2126.257813 16742.000000
2127.472656 16577.000000
2128.687744 16524.000000
2129.901855 16590.000000
2131.115234 16435.000000
2132.327881 16152.000000
2133.539063 16314.000000
2134.750488 16220.000000
2135.960693 16275.000000
2137.170410 16246.000000
2138.378662 16352.000000
2139.586914 16372.000000
2140.794434 16160.000000
2142.000732 16013.000000
2143.206299 16097.000000
2144.411621 16121.000000
2145.615967 16231.000000
2146.819580 15897.000000
2148.022705 16078.000000
2149.224365 15889.000000
2150.425781 15982.000000
2151.626465 15845.000000
2152.826416 15833.000000
2154.025146 15777.000000
2155.223633 15777.000000
2156.421631 15899.000000
2157.618652 15626.000000
2158.814941 15415.000000
2160.010010 15303.000000
2161.204834 15215.000000
2162.398926 15007.000000
2163.592041 15091.000000
2164.784180 14785.000000
2165.976074 14938.000000
2167.167236 14819.000000
2168.357422 14547.000000
2169.546875 14438.000000
2170.735840 14383.000000
2171.923828 14384.000000
2173.111572 14365.000000
2174.297852 14222.000000
2175.483398 13957.000000
2176.668701 14026.000000
2177.853516 14088.000000
2179.037109 14018.000000
2180.219971 13884.000000
2181.401855 13993.000000
2182.583496 13961.000000
2183.764648 13823.000000
2184.944580 14040.000000
2186.123535 13908.000000
2187.302002 13723.000000
2188.480225 13687.000000
2189.657227 13769.000000
2190.833252 13816.000000
2192.009033 13832.000000
2193.184326 13818.000000
2194.358154 13717.000000
2195.531494 13758.000000
2196.704590 13825.000000
2197.876465 13900.000000
2199.047852 13880.000000
2200.218750 13950.000000
2201.387939 13796.000000
2202.557129 13721.000000
2203.725830 13740.000000
2204.893555 13885.000000
2206.060303 13745.000000
2207.226318 13628.000000
2208.391846 13601.000000
2209.557129 13651.000000
2210.720947 13513.000000
2211.884277 13706.000000
2213.046387 13560.000000
2214.208740 13421.000000
2215.369873 13494.000000
2216.530029 13439.000000
2217.689697 13320.000000
2218.849121 13307.000000
2220.007324 13359.000000
2221.164551 13212.000000
2222.321533 13189.000000
2223.477783 13200.000000
2224.633301 13074.000000
2225.788086 12990.000000
2226.941895 12952.000000
2228.094727 12950.000000
2229.248047 12824.000000
2230.399414 12804.000000
2231.550537 12743.000000
2232.700928 12728.000000
2233.850830 12637.000000
2234.999756 12708.000000
2236.148193 12716.000000
2237.295166 12774.000000
2238.442383 12505.000000
2239.588379 12507.000000
2240.734131 12248.000000
2241.878174 12141.000000
2243.022461 11912.000000
2244.165771 12046.000000
2245.308350 12066.000000
2246.449951 11932.000000
2247.591309 11909.000000
2248.731689 11809.000000
2249.871338 11684.000000
2251.010498 11620.000000
2252.148438 11723.000000
2253.286377 11598.000000
2254.423340 11590.000000
2255.559570 11479.000000
2256.694824 11636.000000
2257.829346 11522.000000
2258.963623 11571.000000
2260.097412 11873.000000
2261.229736 11902.000000
2262.361572 11528.000000
2263.492920 11339.000000
2264.623291 11182.000000
2265.753418 11050.000000
2266.882324 11040.000000
2268.010742 11013.000000
2269.138672 10958.000000
2270.265625 11087.000000
2271.391846 10963.000000
2272.517090 10900.000000
2273.642334 11049.000000
2274.766846 11083.000000
2275.890137 11109.000000
2277.012695 11062.000000
2278.134766 11005.000000
2279.256348 10925.000000
2280.377197 10931.000000
2281.496826 10989.000000
2282.615967 10745.000000
2283.734863 10614.000000
2284.853027 10475.000000
2285.970215 10643.000000
2287.086426 10643.000000
2288.202393 10650.000000
2289.317627 10707.000000
2290.432129 10633.000000
2291.545410 10765.000000
2292.658691 10681.000000
2293.771240 10755.000000
2294.883057 10827.000000
2295.994141 10758.000000
2297.104004 10685.000000
2298.213379 10786.000000
2299.322510 10699.000000
2300.430664 10705.000000
2301.537842 10777.000000
2302.644775 10802.000000
2303.750977 10684.000000
2304.856689 10677.000000
2305.960938 10573.000000
2307.064941 10613.000000
2308.168457 10572.000000
2309.271484 10508.000000
2310.373291 10522.000000
2311.474365 10314.000000
2312.574951 10331.000000
2313.675049 10363.000000
2314.774414 10261.000000
2315.872314 10197.000000
2316.970703 10156.000000
2318.067627 10214.000000
2319.164307 10166.000000
2320.260498 10097.000000
2321.354980 10023.000000
2322.449463 9831.000000
2323.543213 9965.000000
2324.636719 9824.000000
2325.728516 9935.000000
2326.820313 9878.000000
2327.911377 9939.000000
2329.001709 9910.000000
2330.091064 9796.000000
2331.180420 9811.000000
2332.268555 9783.000000
2333.356201 9807.000000
2334.443604 9744.000000
2335.529297 9757.000000
2336.614746 9391.000000
2337.699951 9554.000000
2338.784180 9335.000000
2339.867432 9408.000000
2340.950439 9341.000000
2342.032471 9766.000000
2343.114258 9297.000000
2344.195313 9193.000000
2345.275146 9128.000000
2346.354492 9169.000000
2347.433350 8992.000000
2348.511719 9053.000000
2349.588623 9030.000000
2350.665283 8893.000000
2351.741699 8939.000000
2352.817139 8849.000000
2353.891602 8947.000000
2354.965820 8820.000000
2356.039307 8739.000000
2357.112305 8685.000000
2358.184082 8691.000000
2359.255615 8678.000000
2360.326172 8624.000000
2361.396484 8485.000000
2362.465820 8521.000000
2363.534180 8485.000000
2364.602295 8543.000000
2365.669678 8448.000000
2366.736572 8425.000000
2367.802734 8426.000000
2368.867676 8258.000000
2369.932617 8234.000000
2370.996826 8263.000000
2372.060303 8306.000000
2373.122559 8309.000000
2374.184814 8291.000000
2375.246094 8331.000000
2376.307129 8115.000000
2377.366943 8200.000000
2378.426025 8218.000000
2379.485107 8282.000000
2380.543213 8145.000000
2381.600586 8214.000000
2382.656982 8101.000000
2383.713135 8116.000000
2384.768799 8043.000000
2385.823730 8009.000000
2386.877197 8000.000000
2387.930908 7910.000000
2388.983643 7992.000000
2390.035889 8095.000000
2391.087402 8129.000000
2392.137939 8124.000000
2393.188232 8004.000000
2394.237549 8195.000000
2395.286865 7986.000000
2396.334717 7854.000000
2397.382080 7980.000000
2398.429199 8016.000000
2399.475342 7923.000000
2400.520752 7883.000000
2401.565430 7931.000000
2402.610107 7744.000000
2403.653320 7873.000000
2404.696533 7887.000000
2405.738281 7942.000000
2406.780273 7862.000000
2407.821533 7891.000000
2408.861816 7887.000000
2409.901367 7934.000000
2410.939941 7876.000000
2411.978760 7948.000000
2413.016357 7758.000000
2414.053711 7786.000000
2415.089844 7760.000000
2416.125732 7773.000000
2417.160889 7695.000000
2418.195557 7768.000000
2419.228760 7711.000000
2420.262207 7740.000000
2421.294678 7726.000000
2422.326904 7705.000000
2423.357666 7568.000000
2424.388428 7686.000000
2425.418701 7424.000000
2426.447754 7535.000000
2427.476807 7313.000000
2428.504150 7380.000000
2429.531982 7324.000000
2430.558594 7276.000000
2431.584961 7302.000000
2432.609863 7226.000000
2433.635010 7145.000000
2434.659180 7155.000000
2435.683105 7012.000000
2436.705811 7121.000000
2437.727783 7049.000000
2438.749512 6986.000000
2439.770508 6975.000000
2440.791016 6915.000000
2441.810303 6837.000000
2442.829590 6814.000000
2443.847900 6775.000000
2444.865967 6790.000000
2445.882568 6730.000000
2446.899170 6641.000000
2447.915039 6807.000000
2448.930908 6750.000000
2449.945313 6815.000000
2450.958984 6705.000000
2451.972168 6639.000000
2452.985107 6598.000000
2453.997314 6555.000000
2455.008545 6625.000000
2456.019531 6662.000000
2457.029785 6639.000000
2458.039551 6451.000000
2459.048340 6425.000000
2460.056396 6466.000000
2461.064453 6445.000000
2462.071289 6478.000000
2463.077881 6265.000000
2464.083252 6249.000000
2465.088379 6375.000000
2466.093262 6426.000000
2467.096924 6412.000000
2468.100342 6159.000000
2469.102783 6229.000000
2470.104980 6354.000000
2471.106689 6315.000000
2472.107422 6248.000000
2473.107178 6209.000000
2474.106934 6131.000000
2475.105713 6255.000000
2476.104004 6174.000000
2477.101318 6164.000000
2478.098389 6137.000000
2479.095459 6135.000000
2480.091064 6177.000000
2481.086670 6129.000000
2482.080566 6128.000000
2483.074463 6162.000000
2484.067871 6170.000000
2485.060791 6130.000000
2486.052734 6159.000000
2487.043945 6148.000000
2488.034912 6057.000000
2489.025391 6164.000000
2490.014893 6119.000000
2491.003662 6127.000000
2491.992432 6100.000000
2492.980225 6178.000000
2493.966797 5952.000000
2494.953369 6006.000000
2495.939453 6003.000000
2496.924805 5964.000000
2497.909180 6089.000000
2498.893311 6136.000000
2499.877441 5997.000000
2500.860107 6129.000000
2501.842285 5992.000000
2502.823975 5966.000000
2503.804932 5940.000000
2504.785400 5845.000000
2505.765625 5933.000000
2506.744385 5904.000000
2507.722900 5927.000000
2508.700928 5813.000000
2509.678467 5786.000000
2510.655029 5878.000000
2511.631348 5789.000000
2512.606934 5771.000000
2513.582031 5850.000000
2514.556641 5772.000000
2515.530029 5744.000000
2516.503174 5742.000000
2517.476074 5614.000000
2518.447998 5632.000000
2519.419189 5728.000000
2520.389893 5601.000000
2521.360352 5608.000000
2522.330078 5461.000000
2523.298828 5469.000000
2524.266846 5513.000000
2525.234863 5402.000000
2526.201904 5429.000000
2527.168701 5417.000000
2528.134277 5346.000000
2529.099854 5342.000000
2530.064697 5324.000000
2531.029053 5358.000000
2531.992188 5291.000000
2532.955566 5317.000000
2533.917969 5272.000000
2534.880127 5279.000000
2535.841064 5408.000000
2536.801270 5253.000000
2537.761719 5197.000000
2538.721191 5396.000000
2539.679932 5341.000000
2540.637695 5169.000000
2541.595703 5082.000000
2542.552979 5139.000000
2543.509277 5041.000000
2544.465332 5045.000000
2545.420166 5071.000000
2546.375244 4928.000000
2547.329590 4830.000000
2548.283203 5410.000000
2549.235840 5054.000000
2550.188232 5073.000000
2551.140137 4983.000000
2552.091309 4936.000000
2553.041748 4889.000000
2553.991699 4839.000000
2554.941406 4834.000000
2555.890381 4886.000000
2556.838867 4784.000000
2557.786133 4878.000000
2558.733398 4729.000000
2559.679932 4804.000000
2560.625977 4825.000000
2561.571045 4764.000000
2562.515869 4648.000000
2563.460205 4742.000000
2564.404053 4621.000000
2565.347412 4726.000000
2566.289307 4703.000000
2567.231445 4624.000000
2568.172852 4593.000000
2569.113525 4658.000000
2570.053467 4628.000000
2570.993408 4665.000000
2571.932373 4696.000000
2572.871094 4590.000000
2573.808838 4528.000000
2574.746338 4513.000000
2575.683105 4466.000000
2576.619141 4545.000000
2577.554688 4712.000000
2578.489502 4604.000000
2579.424316 4635.000000
2580.358154 4668.000000
2581.291504 4470.000000
2582.224121 4612.000000
2583.156494 4536.000000
2584.088135 4513.000000
2585.019287 4484.000000
2585.949951 4420.000000
2586.879395 4441.000000
2587.808838 4423.000000
2588.737793 4458.000000
2589.666504 4332.000000
2590.593506 4575.000000
2591.520752 4443.000000
2592.447510 4366.000000
2593.373535 4407.000000
2594.299316 4492.000000
2595.223877 4486.000000
2596.148193 4379.000000
2597.072021 4440.000000
2597.995361 4341.000000
2598.917725 4505.000000
2599.839844 4391.000000
2600.761475 4343.000000
2601.682373 4401.000000
2602.602539 4246.000000
2603.522461 4339.000000
2604.441895 4349.000000
2605.361084 4374.000000
2606.279297 4329.000000
2607.196289 4264.000000
2608.113525 4238.000000
2609.030518 4179.000000
2609.946533 4281.000000
2610.861328 4251.000000
2611.776611 4265.000000
2612.691162 4039.000000
2613.604736 4214.000000
2614.518311 4074.000000
2615.430664 4105.000000
2616.343018 4115.000000
2617.254395 4110.000000
2618.165527 4117.000000
2619.075928 3764.000000
2619.986084 4046.000000
2620.895508 4026.000000
2621.804443 3989.000000
2622.712402 3957.000000
2623.620605 4011.000000
2624.527832 4052.000000
2625.434570 4017.000000
2626.340576 3978.000000
2627.246338 3933.000000
2628.151367 4063.000000
2629.056152 3877.000000
2629.960205 3985.000000
2630.863281 3935.000000
2631.766357 3858.000000
2632.668457 3962.000000
2633.570557 3786.000000
2634.472412 3819.000000
2635.372559 3863.000000
2636.272949 3804.000000
2637.172607 3801.000000
2638.072021 3864.000000
2638.969971 3823.000000
2639.868408 3697.000000
2640.766357 3695.000000
2641.663574 3699.000000
2642.559570 3703.000000
2643.455566 3599.000000
2644.351318 3674.000000
2645.246338 3510.000000
2646.141113 3662.000000
2647.034424 3578.000000
2647.927734 3587.000000
2648.820801 3492.000000
2649.713623 3619.000000
2650.604736 3516.000000
2651.496094 3649.000000
2652.386963 3506.000000
2653.277100 3371.000000
2654.166992 3503.000000
2655.055664 3444.000000
2655.944580 3467.000000
2656.833008 3500.000000
2657.720459 3409.000000
2658.606934 3363.000000
2659.493896 3413.000000
2660.380127 3507.000000
2661.265869 3340.000000
2662.150391 3422.000000
2663.034912 3414.000000
2663.919189 3443.000000
2664.802734 3499.000000
2665.685791 3391.000000
2666.568115 3417.000000
2667.449951 3509.000000
2668.331055 3419.000000
2669.212402 3359.000000
2670.092285 3430.000000
2670.972412 3479.000000
2671.851807 3338.000000
2672.731201 3506.000000
2673.609863 3318.000000
2674.486816 3424.000000
2675.364502 3429.000000
2676.241455 3345.000000
2677.117676 3308.000000
2677.993408 3392.000000
2678.868408 3353.000000
2679.743652 3301.000000
2680.617920 3229.000000
2681.491699 3320.000000
2682.364746 3176.000000
2683.237549 3217.000000
2684.110107 3246.000000
2684.981934 3278.000000
2685.853027 3328.000000
2686.723877 3327.000000
2687.594238 3145.000000
2688.464355 3175.000000
2689.332764 3124.000000
2690.201904 3100.000000
2691.070313 3202.000000
2691.938477 3070.000000
2692.805908 3077.000000
2693.672119 3112.000000
2694.538818 3072.000000
2695.404541 3179.000000
2696.270264 3084.000000
2697.134521 3503.000000
2697.999512 2980.000000
2698.863037 3036.000000
2699.726807 2993.000000
2700.589111 2891.000000
2701.451904 2911.000000
2702.313721 3008.000000
2703.175049 3015.000000
2704.036377 3129.000000
2704.896484 3069.000000
2705.756592 2931.000000
2706.616211 2987.000000
2707.475586 2875.000000
2708.333252 2854.000000
2709.191162 2886.000000
2710.049561 2890.000000
2710.906738 2910.000000
2711.763184 2818.000000
2712.619141 2804.000000
2713.475098 2944.000000
2714.330322 2881.000000
2715.184814 2948.000000
2716.038818 2836.000000
2716.892822 2848.000000
2717.745850 2764.000000
2718.599121 2803.000000
2719.450684 2868.000000
2720.302734 2836.000000
2721.154541 2768.000000
2722.005127 2803.000000
2722.855713 2807.000000
2723.705811 2724.000000
2724.555176 2724.000000
2725.404541 2788.000000
2726.252686 2731.000000
2727.100342 2751.000000
2727.948486 2725.000000
2728.795410 2720.000000
2729.642822 2599.000000
2730.488770 2659.000000
2731.333984 2654.000000
2732.179688 2689.000000
2733.024414 2599.000000
2733.869141 2738.000000
2734.712646 2747.000000
2735.556396 2716.000000
2736.399414 2610.000000
2737.241943 2727.000000
2738.083496 2628.000000
2738.925537 2618.000000
2739.766602 2604.000000
2740.607422 2660.000000
2741.447998 2594.000000
2742.287354 2640.000000
2743.126709 2643.000000
2743.966064 2649.000000
2744.804199 2636.000000
2745.641846 2675.000000
2746.479492 2555.000000
2747.316650 2587.000000
2748.153564 2706.000000
2748.989990 2632.000000
2749.825195 2699.000000
2750.660645 2671.000000
2751.495605 2597.000000
2752.329834 2611.000000
2753.163818 2568.000000
2753.997314 2534.000000
2754.830811 2591.000000
2755.663330 2573.000000
2756.495361 2526.000000
2757.326904 2503.000000
2758.158447 2532.000000
2758.989014 2522.000000
2759.819824 2409.000000
2760.649414 2524.000000
2761.479004 2498.000000
2762.308350 2523.000000
2763.136963 2492.000000
2763.965088 2379.000000
2764.792725 2424.000000
2765.620361 2488.000000
2766.447510 2394.000000
2767.273926 2449.000000
2768.099854 2435.000000
2768.925293 2356.000000
2769.750488 2387.000000
2770.575684 2296.000000
2771.399658 2391.000000
2772.223633 2282.000000
2773.047607 2279.000000
2773.870361 2273.000000
2774.693359 2532.000000
2775.515137 2322.000000
2776.336914 2360.000000
2777.158691 2190.000000
2777.979492 2363.000000
2778.799561 2160.000000
2779.619873 2216.000000
2780.439697 2224.000000
2781.259521 2208.000000
2782.077393 2242.000000
2782.896484 2213.000000
2783.714355 2304.000000
2784.531982 2279.000000
2785.349121 2291.000000
2786.165771 2220.000000
2786.982178 2215.000000
2787.798096 2200.000000
2788.613770 2187.000000
2789.428467 2127.000000
2790.243652 2209.000000
2791.058105 2207.000000
2791.872070 2168.000000
2792.685791 2127.000000
2793.498291 2126.000000
2794.311035 2093.000000
2795.123291 2175.000000
2795.935059 2096.000000
2796.746094 2073.000000
2797.557861 2227.000000
2798.368408 2059.000000
2799.178955 2027.000000
2799.988037 1935.000000
2800.797852 2069.000000
2801.606934 2099.000000
2802.415771 2215.000000
2803.224121 2106.000000
2804.031494 2011.000000
2804.839355 2126.000000
2805.646484 2055.000000
2806.453369 2099.000000
2807.259033 2027.000000
2808.065186 1961.000000
2808.870605 2040.000000
2809.676025 2042.000000
2810.480713 2074.000000
2811.284424 2023.000000
2812.088623 1926.000000
2812.892334 2123.000000
2813.695801 2023.000000
2814.497803 2013.000000
2815.300537 1930.000000
2816.102539 1979.000000
2816.904297 2022.000000
2817.705566 1951.000000
2818.506348 1926.000000
2819.306641 2051.000000
2820.107178 2050.000000
2820.906738 1949.000000
2821.705811 1874.000000
2822.504883 1879.000000
2823.303711 1969.000000
2824.102051 1919.000000
2824.899414 1891.000000
2825.697021 1976.000000
2826.493896 1882.000000
2827.291016 1970.000000
2828.087402 2019.000000
2828.883057 1890.000000
2829.678711 1876.000000
2830.474121 1715.000000
2831.269043 1803.000000
2832.063232 1798.000000
2832.857422 1928.000000
2833.651367 1840.000000
2834.444824 1909.000000
2835.237549 1790.000000
2836.030029 1955.000000
2836.822510 1861.000000
2837.614746 1835.000000
2838.406494 1759.000000
2839.197266 1844.000000
2839.988037 1959.000000
2840.779053 1786.000000
2841.569092 1918.000000
2842.358643 1842.000000
2843.148438 1843.000000
2843.937256 1865.000000
2844.726074 1667.000000
2845.514893 1773.000000
2846.302734 1769.000000
2847.090088 1815.000000
2847.877686 1682.000000
2848.664795 1777.000000
2849.451172 1699.000000
2850.237549 1821.000000
2851.023682 1750.000000
2851.809326 1647.000000
2852.593994 1697.000000
2853.379150 1650.000000
2854.164063 1798.000000
2854.948242 1757.000000
2855.732422 1781.000000
2856.515381 1655.000000
2857.298584 1840.000000
2858.081543 1688.000000
2858.864014 1657.000000
2859.646240 1725.000000
2860.427979 1666.000000
2861.209473 1651.000000
2861.991211 1669.000000
2862.772217 1727.000000
2863.552490 1670.000000
2864.332520 1652.000000
2865.112549 1722.000000
2865.892334 1687.000000
2866.671143 1613.000000
2867.450195 1780.000000
2868.228760 1840.000000
2869.007080 1724.000000
2869.784912 1665.000000
2870.562500 1758.000000
2871.339844 1673.000000
2872.116943 1668.000000
2872.893555 1836.000000
2873.669678 1587.000000
2874.445801 1837.000000
2875.221436 1747.000000
2875.996826 1776.000000
2876.771729 1719.000000
2877.546387 1669.000000
2878.321045 1693.000000
2879.095459 1686.000000
2879.869141 1697.000000
2880.642090 1738.000000
2881.415771 1659.000000
2882.188477 1698.000000
2882.961182 1792.000000
2883.733154 1629.000000
2884.504883 1644.000000
2885.277100 1663.000000
2886.048096 1632.000000
2886.818604 1616.000000
2887.589600 1661.000000
2888.360596 1656.000000
2889.130859 1665.000000
2889.900146 1697.000000
2890.669678 1543.000000
2891.439209 1657.000000
2892.208252 1555.000000
2892.976807 1574.000000
2893.745361 1582.000000
2894.512939 1734.000000
2895.281006 1682.000000
2896.048584 1611.000000
2896.816162 1549.000000
2897.582520 1581.000000
2898.349854 1605.000000
2899.115967 1488.000000
2899.882324 1579.000000
2900.647217 1562.000000
2901.412598 1618.000000
2902.178467 1579.000000
2902.942871 1603.000000
2903.707275 1526.000000
2904.471924 1544.000000
2905.235596 1571.000000
2906.000000 1478.000000
2906.763672 1537.000000
2907.526611 1621.000000
2908.289307 1523.000000
2909.052490 1430.000000
2909.815186 1340.000000
2910.576660 1454.000000
2911.338623 1454.000000
spectrumdark 2048
-96.892128 6105.000000
-94.265259 6105.000000
-91.640266 6037.000000
-89.017166 6448.000000
-86.395935 5780.000000
-83.776604 6235.000000
-81.159134 6039.000000
-78.543541 6399.000000
-75.929825 6265.000000
-73.317986 5833.000000
-70.708008 6095.000000
-68.099915 5978.000000
-65.493668 5962.000000
-62.889301 5978.000000
-60.286793 6091.000000
-57.686138 5611.000000
-55.087345 6188.000000
-52.490410 6897.000000
-49.895329 6452.000000
-47.302101 6494.000000
-44.710724 6234.000000
-42.121193 6685.000000
-39.533504 5839.000000
-36.947666 6037.000000
-34.363670 6476.000000
-31.781511 5661.000000
-29.201199 6363.000000
-26.622713 5674.000000
-24.046070 6102.000000
-21.471252 6220.000000
-18.898275 6482.000000
-16.327118 6470.000000
-13.757794 6736.000000
-11.190296 7832.000000
-8.624617 6220.000000
-6.060762 6420.000000
-3.498722 6013.000000
-0.938506 5805.000000
1.619902 6113.000000
4.176489 6937.000000
6.731271 6633.000000
9.284236 6190.000000
11.835401 6711.000000
14.384752 6454.000000
16.932308 6691.000000
19.478052 5978.000000
22.022003 5732.000000
24.564150 6667.000000
27.104500 6728.000000
29.643064 6871.000000
32.179832 6201.000000
34.714798 5772.000000
37.247986 7182.000000
39.779392 6264.000000
42.309006 7119.000000
44.836823 6455.000000
47.362881 7833.000000
49.887150 5660.000000
52.409649 6160.000000
54.930351 6690.000000
57.449299 6279.000000
59.966473 6450.000000
62.481869 6648.000000
64.995491 5581.000000
67.507355 5676.000000
70.017471 6490.000000
72.525795 6464.000000
75.032364 5948.000000
77.537186 6327.000000
80.040253 6396.000000
82.541542 6209.000000
85.041092 6060.000000
87.538887 6324.000000
90.034950 5718.000000
92.529236 7168.000000
95.021782 5782.000000
97.512611 6869.000000
100.001671 7169.000000
102.488983 6313.000000
104.974571 6173.000000
107.458420 6353.000000
109.940521 5739.000000
112.420898 6570.000000
114.899551 6134.000000
117.376480 6354.000000
119.851654 7154.000000
122.325119 6803.000000
124.796852 5785.000000
127.266876 6716.000000
129.735138 6204.000000
132.201736 6244.000000
134.666580 5659.000000
137.129730 6159.000000
139.591141 7280.000000
142.050858 6832.000000
144.508850 6325.000000
146.965149 5987.000000
149.419739 5807.000000
151.872604 6752.000000
154.323792 6344.000000
156.773285 6558.000000
159.221054 6090.000000
161.667114 6678.000000
164.111496 8672.000000
166.554199 6428.000000
168.995209 6740.000000
171.434509 6172.000000
173.872101 7213.000000
176.308060 6577.000000
178.742279 6905.000000
181.174820 7124.000000
183.605713 6713.000000
186.034882 7119.000000
188.462402 6659.000000
190.888245 6258.000000
193.312408 6648.000000
195.734909 7159.000000
198.155716 7374.000000
200.574860 6515.000000
202.992340 5996.000000
205.408127 7520.000000
207.822266 7063.000000
210.234772 6348.000000
212.645599 6035.000000
215.054749 6180.000000
217.462265 7349.000000
219.868073 6138.000000
222.272293 6557.000000
224.674805 6750.000000
227.075699 6917.000000
229.474945 6450.000000
231.872528 6829.000000
234.268448 7195.000000
236.662750 6528.000000
239.055389 5807.000000
241.446411 6716.000000
243.835770 6554.000000
246.223511 6351.000000
248.609604 6996.000000
250.994064 6027.000000
253.376877 7828.000000
255.758118 6596.000000
258.137665 6622.000000
260.515625 6436.000000
262.891907 7523.000000
265.266632 7581.000000
267.639709 7880.000000
270.011139 6152.000000
272.380920 6485.000000
274.749146 5831.000000
277.115723 6294.000000
279.480713 6764.000000
281.844086 5953.000000
284.205811 6203.000000
286.565948 7066.000000
288.924469 5908.000000
291.281403 6509.000000
293.636719 6314.000000
295.990448 5935.000000
298.342529 5997.000000
300.693054 6229.000000
303.041992 6338.000000
305.389282 6805.000000
307.735046 6310.000000
310.079132 6454.000000
312.421692 7290.000000
314.762634 7489.000000
317.101959 7187.000000
319.439728 6909.000000
321.775940 8093.000000
324.110504 6293.000000
326.443512 6442.000000
328.774963 5926.000000
331.104828 6595.000000
333.433105 6366.000000
335.759766 7207.000000
338.084930 6356.000000
340.408478 6256.000000
342.730469 5935.000000
345.050903 7481.000000
347.369720 7667.000000
349.686981 5965.000000
352.002716 5840.000000
354.316864 6999.000000
356.629425 6295.000000
358.940430 6318.000000
361.249908 7010.000000
363.557861 6337.000000
365.864197 5599.000000
368.168945 6427.000000
370.472229 6376.000000
372.773895 6269.000000
375.074066 6299.000000
377.372681 6270.000000
379.669739 5675.000000
381.965240 6085.000000
384.259216 5795.000000
386.551605 5162.000000
388.842499 5545.000000
391.131866 6166.000000
393.419647 6266.000000
395.705902 6450.000000
397.990662 6965.000000
400.273804 6038.000000
402.555511 6328.000000
404.835693 6105.000000
407.114288 7228.000000
409.391357 6347.000000
411.666901 6741.000000
413.940918 6420.000000
416.213501 6438.000000
418.484467 6240.000000
420.753937 6446.000000
423.021912 7114.000000
425.288330 7192.000000
427.553253 6305.000000
429.816711 6328.000000
432.078583 6452.000000
434.338989 5944.000000
436.597839 6632.000000
438.855225 6126.000000
441.111115 5612.000000
443.365509 5785.000000
445.618378 5420.000000
447.869690 6925.000000
450.119598 6064.000000
452.367920 6237.000000
454.614807 5587.000000
456.860229 6501.000000
459.104095 6482.000000
461.346466 6785.000000
463.587341 5594.000000
465.826813 6782.000000
468.064697 5463.000000
470.301147 5845.000000
472.536072 6015.000000
474.769531 7180.000000
477.001556 6668.000000
479.232056 5682.000000
481.461060 6447.000000
483.688599 6250.000000
485.914642 5909.000000
488.139252 6516.000000
490.362396 5885.000000
492.584076 6294.000000
494.804199 6649.000000
497.022919 5622.000000
499.240143 6292.000000
501.455994 5538.000000
503.670227 6116.000000
505.883148 6431.000000
508.094482 6404.000000
510.304382 6876.000000
512.512817 6465.000000
514.719910 6517.000000
516.925415 6374.000000
519.129517 6520.000000
521.332092 6180.000000
523.533264 6542.000000
525.733093 6666.000000
527.931396 6908.000000
530.128174 5293.000000
532.323608 5789.000000
534.517517 5561.000000
536.710083 7461.000000
538.901123 6612.000000
541.090759 6027.000000
543.278992 6946.000000
545.465698 7098.000000
547.650940 6770.000000
549.834900 6280.000000
552.017273 6383.000000
554.198303 6141.000000
556.377808 6025.000000
558.556030 5884.000000
560.732727 6013.000000
562.908020 6390.000000
565.081909 6451.000000
567.254333 5903.000000
569.425354 5992.000000
571.594910 6290.000000
573.763184 5252.000000
575.929932 6383.000000
578.095215 6263.000000
580.259094 6069.000000
582.421692 5680.000000
584.582764 6033.000000
586.742432 5607.000000
588.900757 5782.000000
591.057556 6087.000000
593.213013 6612.000000
595.367065 5746.000000
597.519775 6130.000000
599.670959 7277.000000
601.820801 6771.000000
603.969299 6685.000000
606.116211 6017.000000
608.261902 6509.000000
610.406189 6451.000000
612.549011 6662.000000
614.690369 6131.000000
616.830505 6390.000000
618.969116 7670.000000
621.106445 5731.000000
623.242310 6557.000000
625.376770 6823.000000
627.509766 7132.000000
629.641602 6577.000000
631.771973 6535.000000
633.900940 6670.000000
636.028442 6418.000000
638.154663 6205.000000
640.279358 7298.000000
642.402832 6315.000000
644.524963 6761.000000
646.645630 6837.000000
648.764954 6562.000000
650.882874 5656.000000
652.999451 5615.000000
655.114624 6362.000000
657.228455 6458.000000
659.340820 5797.000000
661.451965 6124.000000
663.561707 5422.000000
665.669983 6000.000000
667.777100 6232.000000
669.882751 6731.000000
671.986938 5829.000000
674.089905 5700.000000
676.191467 6969.000000
678.291687 5329.000000
680.390503 6711.000000
682.487976 6203.000000
684.584167 6945.000000
686.678894 6162.000000
688.772400 6974.000000
690.864563 6587.000000
692.955200 7943.000000
695.044617 6606.000000
697.132751 6485.000000
699.219421 5933.000000
701.304871 6675.000000
703.388794 5094.000000
705.471497 5865.000000
707.552917 5894.000000
709.632874 7551.000000
711.711609 6107.000000
713.788879 5541.000000
715.864868 6534.000000
717.939575 6020.000000
720.013000 6974.000000
722.084900 6262.000000
724.155640 7346.000000
726.225037 5733.000000
728.293030 6476.000000
730.359680 6412.000000
732.425110 7089.000000
734.489197 5760.000000
736.551941 6166.000000
738.613342 6508.000000
740.673462 6517.000000
742.732178 6042.000000
744.789673 6636.000000
746.845886 6492.000000
748.900696 6700.000000
750.954224 6270.000000
753.006348 7456.000000
755.057251 5749.000000
757.106934 6692.000000
759.155151 6273.000000
761.202148 6173.000000
763.247864 7052.000000
765.292175 5355.000000
767.335205 5776.000000
769.377014 14855.000000
771.417480 6942.000000
773.456543 6361.000000
775.494446 6082.000000
777.531006 5904.000000
779.566345 5346.000000
781.600342 5721.000000
783.632935 6894.000000
785.664368 5549.000000
787.694397 11536.000000
789.723145 5957.000000
791.750732 6239.000000
793.776978 6361.000000
795.801819 5854.000000
797.825562 5508.000000
799.847900 6310.000000
801.869019 5863.000000
803.888794 6639.000000
805.907288 4880.000000
807.924561 6632.000000
809.940430 6733.000000
811.955139 5654.000000
813.968506 6403.000000
815.980652 6261.000000
817.991577 6097.000000
820.001160 6587.000000
822.009521 5276.000000
824.016479 5703.000000
826.022217 6090.000000
828.026733 5767.000000
830.029968 5654.000000
832.031921 6456.000000
834.032593 6090.000000
836.032043 5884.000000
838.030151 6291.000000
840.027161 6948.000000
842.022766 6244.000000
844.017212 6077.000000
846.010315 6185.000000
848.002197 6815.000000
849.992737 5552.000000
851.981995 6693.000000
853.970215 5939.000000
855.957031 5755.000000
857.942627 6378.000000
859.926941 7185.000000
861.910156 6318.000000
863.891968 6398.000000
865.872559 5787.000000
867.851868 7700.000000
869.830017 6986.000000
871.806824 6196.000000
873.782349 5964.000000
875.756836 6187.000000
877.729858 5996.000000
879.701843 5373.000000
881.672485 6344.000000
883.641968 6089.000000
885.610107 5578.000000
887.577087 5192.000000
889.542725 6134.000000
891.507202 5809.000000
893.470459 5974.000000
895.432495 6496.000000
897.393250 5861.000000
899.352783 6381.000000
901.311035 6698.000000
903.268188 6389.000000
905.224182 6005.000000
907.178772 6839.000000
909.132141 6491.000000
911.084351 6352.000000
913.035339 6370.000000
914.985046 6999.000000
916.933594 6331.000000
918.880920 6151.000000
920.826965 6020.000000
922.771729 5988.000000
924.715454 6315.000000
926.658020 5995.000000
928.599304 5558.000000
930.539246 6468.000000
932.478088 5653.000000
934.415649 5495.000000
936.351990 5967.000000
938.287170 5792.000000
940.221069 6053.000000
942.153870 5914.000000
944.085449 6823.000000
946.015869 5211.000000
947.945068 6348.000000
949.872925 7006.000000
951.799744 6581.000000
953.725281 5922.000000
955.649536 5334.000000
957.572693 5969.000000
959.494690 6641.000000
961.415405 7259.000000
963.334961 6461.000000
965.253357 5285.000000
967.170715 6387.000000
969.086609 6354.000000
971.001404 6166.000000
972.914978 5939.000000
974.827393 6382.000000
976.738586 6439.000000
978.648621 5432.000000
980.557373 6152.000000
982.465088 6067.000000
984.371582 6304.000000
986.276855 5659.000000
988.181030 6789.000000
990.083984 6181.000000
991.985718 6815.000000
993.886292 6517.000000
995.785706 6518.000000
997.683899 5246.000000
999.580933 6591.000000
1001.476746 6435.000000
1003.371399 7687.000000
1005.264954 5577.000000
1007.157227 7029.000000
1009.048584 6099.000000
1010.938599 5319.000000
1012.827393 6579.000000
1014.715027 6291.000000
1016.601501 6918.000000
1018.486816 6702.000000
1020.370972 5959.000000
1022.253906 5851.000000
1024.135864 6198.000000
1026.016479 5164.000000
1027.895996 5808.000000
1029.774536 6066.000000
1031.651733 5395.000000
1033.527588 6144.000000
1035.402466 5860.000000
1037.276367 6541.000000
1039.148804 7024.000000
1041.020264 6682.000000
1042.890381 5460.000000
1044.759521 5449.000000
1046.627441 5742.000000
1048.494263 7072.000000
1050.359985 6693.000000
1052.224487 6468.000000
1054.087891 6446.000000
1055.949951 6453.000000
1057.811035 5820.000000
1059.671021 6458.000000
1061.529663 6625.000000
1063.387207 5821.000000
1065.243652 6723.000000
1067.098999 5985.000000
1068.953125 5733.000000
1070.806396 6250.000000
1072.658203 6350.000000
1074.509033 6134.000000
1076.358643 6107.000000
1078.207031 5754.000000
1080.054565 7953.000000
1081.900757 5504.000000
1083.745728 6188.000000
1085.589844 5394.000000
1087.432617 5433.000000
1089.274170 6535.000000
1091.114990 5484.000000
1092.954224 5788.000000
1094.792725 5988.000000
1096.629883 5954.000000
1098.465820 6771.000000
1100.300781 6569.000000
1102.134521 5380.000000
1103.967285 5612.000000
1105.798706 6148.000000
1107.629272 7218.000000
1109.458496 6514.000000
1111.286743 6392.000000
1113.113770 7076.000000
1114.939819 5424.000000
1116.764648 6297.000000
1118.588379 7173.000000
1120.410889 6081.000000
1122.232300 5849.000000
1124.052856 5880.000000
1125.871948 6551.000000
1127.690186 7090.000000
1129.507080 6871.000000
1131.323120 6666.000000
1133.137939 6488.000000
1134.951660 5539.000000
1136.764282 5813.000000
1138.575684 5683.000000
1140.386108 6140.000000
1142.195435 6760.000000
1144.003418 6911.000000
1145.810669 5934.000000
1147.616455 5927.000000
1149.421387 5332.000000
1151.225220 5361.000000
1153.027832 6122.000000
1154.829590 6069.000000
1156.629883 6094.000000
1158.429199 6069.000000
1160.227539 5866.000000
1162.024536 5488.000000
1163.820801 5847.000000
1165.615723 6040.000000
1167.409546 6242.000000
1169.202515 7736.000000
1170.994141 5624.000000
1172.784790 6487.000000
1174.574463 5940.000000
1176.362671 5881.000000
1178.150024 7460.000000
1179.936279 6852.000000
1181.721436 5751.000000
1183.505493 5956.000000
1185.288452 7651.000000
1187.070435 5844.000000
1188.851196 5892.000000
1190.630981 6278.000000
1192.409668 6912.000000
1194.187378 6663.000000
1195.963867 7132.000000
1197.739258 6561.000000
1199.513550 6553.000000
1201.286743 6653.000000
1203.059082 6471.000000
1204.830078 6728.000000
1206.600220 5570.000000
1208.369141 6103.000000
1210.136963 6303.000000
1211.903931 5771.000000
1213.669556 5884.000000
1215.434204 6888.000000
1217.197754 6575.000000
1218.960205 5915.000000
1220.721802 6726.000000
1222.482178 5860.000000
1224.241455 6192.000000
1225.999878 6022.000000
1227.757080 7047.000000
1229.513184 6356.000000
1231.268188 5489.000000
1233.022339 5964.000000
1234.775146 5757.000000
1236.526978 5970.000000
1238.277954 5980.000000
1240.027588 4902.000000
1241.776367 7028.000000
1243.523804 6462.000000
1245.270508 6564.000000
1247.015991 6432.000000
1248.760620 6437.000000
1250.503906 6745.000000
1252.246216 6640.000000
1253.987427 5321.000000
1255.727783 5021.000000
1257.467041 5763.000000
1259.205078 6554.000000
1260.942261 7129.000000
1262.678223 6111.000000
1264.413208 6359.000000
1266.147217 7158.000000
1267.880249 5908.000000
1269.612061 6150.000000
1271.342896 6422.000000
1273.072510 7195.000000
1274.801270 5904.000000
1276.528931 5729.000000
1278.255493 5537.000000
1279.981201 5545.000000
1281.705566 6386.000000
1283.429077 5160.000000
1285.151611 6858.000000
1286.873169 6567.000000
1288.593506 6079.000000
1290.312866 6605.000000
1292.031128 7213.000000
1293.748413 6385.000000
1295.464722 5738.000000
1297.179810 6363.000000
1298.893921 6143.000000
1300.607056 5730.000000
1302.319336 6434.000000
1304.030396 8329.000000
1305.740479 5270.000000
1307.449463 6286.000000
1309.157227 6656.000000
1310.864380 6925.000000
1312.570068 5795.000000
1314.275024 6845.000000
1315.979004 6125.000000
1317.681763 5980.000000
1319.383545 6531.000000
1321.084473 6023.000000
1322.784058 9758.000000
1324.482788 7645.000000
1326.180786 5532.000000
1327.877441 6467.000000
1329.572998 7134.000000
1331.267700 6808.000000
1332.961182 5701.000000
1334.653809 5360.000000
1336.345581 7374.000000
1338.036011 6248.000000
1339.725708 6516.000000
1341.414307 6070.000000
1343.101807 7633.000000
1344.788330 5601.000000
1346.473755 6692.000000
1348.158203 5956.000000
1349.841797 7268.000000
1351.524170 6359.000000
1353.205566 5918.000000
1354.886108 6532.000000
1356.565430 6673.000000
1358.244141 5864.000000
1359.921509 6595.000000
1361.597778 5737.000000
1363.273071 5564.000000
1364.947632 6554.000000
1366.620972 6460.000000
1368.293335 6799.000000
1369.964722 5150.000000
1371.635132 6721.000000
1373.304443 6136.000000
1374.972778 5672.000000
1376.640259 5970.000000
1378.306641 6469.000000
1379.972046 6131.000000
1381.636475 5837.000000
1383.299683 5924.000000
1384.962280 5713.000000
1386.623535 6275.000000
1388.283936 6547.000000
1389.943237 6378.000000
1391.601563 6412.000000
1393.259155 6843.000000
1394.915527 6447.000000
1396.571045 6983.000000
1398.225342 6293.000000
1399.878784 5776.000000
1401.531128 6067.000000
1403.182739 6463.000000
1404.833130 7139.000000
1406.482422 6250.000000
1408.130981 7456.000000
1409.778442 7887.000000
1411.424927 6203.000000
1413.070557 6246.000000
1414.715210 5956.000000
1416.358643 7000.000000
1418.001221 7063.000000
1419.642700 6798.000000
1421.283325 6544.000000
1422.922974 6445.000000
1424.561523 6045.000000
1426.199219 6626.000000
1427.835815 6277.000000
1429.471436 5981.000000
1431.106323 6359.000000
1432.740112 5906.000000
1434.372803 6121.000000
1436.004517 5587.000000
1437.635376 6138.000000
1439.265137 6083.000000
1440.893799 7712.000000
1442.521851 5954.000000
1444.148804 6215.000000
1445.774536 6212.000000
1447.399658 6139.000000
1449.023682 6504.000000
1450.646729 6000.000000
1452.268799 6003.000000
1453.889771 7321.000000
1455.509766 6275.000000
1457.129028 6912.000000
1458.746948 5633.000000
1460.364258 5580.000000
1461.980591 5527.000000
1463.595703 7251.000000
1465.209961 6208.000000
1466.823364 5170.000000
1468.435669 5561.000000
1470.047119 6222.000000
1471.657715 6370.000000
1473.267090 5960.000000
1474.875488 5960.000000
1476.483032 6186.000000
1478.089600 6645.000000
1479.695435 5268.000000
1481.300049 6217.000000
1482.903809 5536.000000
1484.506348 6744.000000
1486.108276 5522.000000
1487.708984 5476.000000
1489.308960 5635.000000
1490.907837 6249.000000
1492.505859 6444.000000
1494.102783 6673.000000
1495.698853 6333.000000
1497.293945 5959.000000
1498.888062 5523.000000
1500.481445 6524.000000
1502.073730 5495.000000
1503.664795 6119.000000
1505.255371 6787.000000
1506.844604 6458.000000
1508.433228 6105.000000
1510.020752 6522.000000
1511.607178 6795.000000
1513.192871 6194.000000
1514.777466 6625.000000
1516.361206 6266.000000
1517.943848 6052.000000
1519.525757 6606.000000
1521.106567 6656.000000
1522.686646 6011.000000
1524.265503 6225.000000
1525.843506 6377.000000
1527.420776 6292.000000
1528.996826 5685.000000
1530.572144 5895.000000
1532.146362 6271.000000
1533.719849 5435.000000
1535.292114 5945.000000
1536.863647 6339.000000
1538.434204 6419.000000
1540.003906 6254.000000
1541.572388 5403.000000
1543.140137 6591.000000
1544.707031 5598.000000
1546.272705 6798.000000
1547.837646 5957.000000
1549.401489 5015.000000
1550.964722 7422.000000
1552.526611 6316.000000
1554.087891 5977.000000
1555.648071 5679.000000
1557.207520 5715.000000
1558.765869 6120.000000
1560.323486 6268.000000
1561.880005 6995.000000
1563.435303 5898.000000
1564.989990 6370.000000
1566.543945 5596.000000
1568.096924 6328.000000
1569.648560 5630.000000
1571.199463 6196.000000
1572.749634 6184.000000
1574.298828 6372.000000
1575.846680 5744.000000
1577.394043 5472.000000
1578.940430 5701.000000
1580.485962 5048.000000
1582.030518 6644.000000
1583.573853 6324.000000
1585.116577 6665.000000
1586.658447 6394.000000
1588.199219 6732.000000
1589.739014 5812.000000
1591.278076 6717.000000
1592.816040 5950.000000
1594.353516 6156.000000
1595.889648 5789.000000
1597.424683 6617.000000
1598.959229 6247.000000
1600.492798 5973.000000
1602.025513 5976.000000
1603.556641 6282.000000
1605.087524 6202.000000
1606.617554 5731.000000
1608.146362 6111.000000
1609.674072 6189.000000
1611.201172 5980.000000
1612.727539 5772.000000
1614.252930 6266.000000
1615.777466 5791.000000
1617.300659 5750.000000
1618.823120 5585.000000
1620.344849 6508.000000
1621.865723 6989.000000
1623.385132 6571.000000
1624.904053 6153.000000
1626.422241 6110.000000
1627.939575 5880.000000
1629.455811 6371.000000
1630.970703 7015.000000
1632.485107 6747.000000
1633.998779 5729.000000
1635.511353 6941.000000
1637.022705 5979.000000
1638.533691 6427.000000
1640.043579 6254.000000
1641.552612 6126.000000
1643.060303 5582.000000
1644.567627 6074.000000
1646.074097 7042.000000
1647.579590 6232.000000
1649.084229 6857.000000
1650.587402 6145.000000
1652.089966 6573.000000
1653.592163 6237.000000
1655.093018 6652.000000
1656.592773 7595.000000
1658.091675 5934.000000
1659.590210 6474.000000
1661.087524 6251.000000
1662.584106 5848.000000
1664.079102 6503.000000
1665.573853 6336.000000
1667.067749 5188.000000
1668.560669 5647.000000
1670.052246 6048.500000
1671.543335 6450.000000
1673.033813 6045.000000
1674.523193 5900.000000
1676.011108 6954.000000
1677.498779 6860.000000
1678.985474 6001.000000
1680.471313 5315.000000
1681.956299 5977.000000
1683.439819 6120.000000
1684.923096 6184.000000
1686.405518 5819.000000
1687.886841 6194.000000
1689.366699 6198.000000
1690.846313 5425.000000
1692.325195 6553.000000
1693.803101 5970.000000
1695.280029 6052.000000
1696.755737 5740.000000
1698.231079 6038.000000
1699.705200 6279.000000
1701.178711 5472.000000
1702.650757 5577.000000
1704.122559 6820.000000
1705.593384 6328.000000
1707.063354 7086.000000
1708.531982 5149.000000
1710.000122 5762.000000
1711.467529 6405.000000
1712.933838 5472.000000
1714.399536 5809.000000
1715.863525 6195.000000
1717.327393 5972.000000
1718.790405 6895.000000
1720.252441 6336.000000
1721.713257 6591.000000
1723.173462 5403.000000
1724.632935 6369.000000
1726.091553 6042.000000
1727.549194 5985.000000
1729.005493 6239.000000
1730.461548 6043.000000
1731.916626 6450.000000
1733.370728 6020.000000
1734.823608 6822.000000
1736.276245 5922.000000
1737.727783 6795.000000
1739.178589 5932.000000
1740.628418 6541.000000
1742.076904 5888.000000
1743.525024 7289.000000
1744.972290 6515.000000
1746.418823 6637.000000
1747.863770 6743.000000
1749.308472 6068.000000
1750.752319 5859.000000
1752.195313 5483.000000
1753.636841 6543.000000
1755.078125 6287.000000
1756.518555 6287.000000
1757.958008 6287.000000
1759.396484 5215.000000
1760.833984 5998.000000
1762.270996 7482.000000
1763.707031 5853.000000
1765.142212 7162.000000
1766.575928 6142.000000
1768.009521 6448.000000
1769.442139 6689.000000
1770.873901 5695.000000
1772.304810 5657.000000
1773.734497 6345.000000
1775.163452 6112.000000
1776.591919 6259.000000
1778.019409 6634.000000
1779.445557 6210.000000
1780.871460 5651.000000
1782.296265 6892.000000
1783.720459 5550.000000
1785.143188 6620.000000
1786.565430 6528.000000
1787.986938 6818.000000
1789.407715 5912.000000
1790.827515 6152.000000
1792.245972 6121.000000
1793.663940 6824.000000
1795.081299 5480.000000
1796.497803 6000.000000
1797.912842 6501.000000
1799.327515 5806.000000
1800.741577 6577.000000
1802.154419 5956.000000
1803.566650 6933.000000
1804.977539 7071.000000
1806.387939 7728.000000
1807.797607 6451.000000
1809.206299 5913.000000
1810.613892 5407.000000
1812.020996 6431.000000
1813.427246 6340.000000
1814.832520 6658.000000
1816.236694 5891.000000
1817.640503 5927.000000
1819.043335 6231.000000
1820.445313 6008.000000
1821.846680 5840.000000
1823.246582 6386.000000
1824.645874 6479.000000
1826.044678 6559.000000
1827.442627 7320.000000
1828.839233 5624.000000
1830.235229 6716.000000
1831.630493 5899.000000
1833.025146 8070.000000
1834.418823 5969.000000
1835.811157 6793.000000
1837.203003 6389.000000
1838.594238 5871.000000
1839.984497 7073.000000
1841.373535 6022.000000
1842.762207 6047.000000
1844.149902 5983.000000
1845.536865 5758.000000
1846.922485 6847.000000
1848.307861 5880.000000
1849.692383 6359.000000
1851.076172 6295.000000
1852.458862 6408.000000
1853.840332 5387.000000
1855.221313 6516.000000
1856.601807 6323.000000
1857.981323 5710.000000
1859.359375 5932.000000
1860.737305 6195.000000
1862.114258 7841.000000
1863.490479 6047.000000
1864.865845 6024.000000
1866.239746 5597.000000
1867.613525 5810.000000
1868.986450 6186.000000
1870.358276 5895.000000
1871.729126 6896.000000
1873.099609 5398.000000
1874.468994 6041.000000
1875.837891 6085.000000
1877.205200 7210.000000
1878.572388 6057.000000
1879.938599 6040.000000
1881.304077 6770.000000
1882.668823 7458.000000
1884.031982 6688.000000
1885.395020 6930.000000
1886.757202 6297.000000
1888.118530 6440.000000
1889.478516 5573.000000
1890.838135 5785.000000
1892.197144 6077.000000
1893.555176 6662.000000
1894.912354 7209.000000
1896.268311 5931.000000
1897.624023 7538.000000
1898.978760 5810.000000
1900.332642 5525.000000
1901.685425 5871.000000
1903.037720 5855.000000
1904.389282 5937.000000
1905.739990 6908.000000
1907.089478 6474.000000
1908.438477 6667.000000
1909.786621 5766.000000
1911.134155 6099.000000
1912.480957 6225.000000
1913.826172 6785.000000
1915.171143 6042.000000
1916.515381 5456.000000
1917.858765 6454.000000
1919.200806 5983.000000
1920.542603 6642.000000
1921.883545 7005.000000
1923.223755 6169.000000
1924.562988 6316.000000
1925.901245 6355.000000
1927.238892 6536.000000
1928.575806 7022.000000
1929.911865 6695.000000
1931.246704 5601.000000
1932.581177 6635.000000
1933.914917 7185.000000
1935.247803 6205.000000
1936.579224 5735.000000
1937.910767 6287.000000
1939.240967 6658.000000
1940.570679 5818.000000
1941.899536 6071.000000
1943.227173 5823.000000
1944.554321 5002.000000
1945.880737 5797.000000
1947.206421 6513.000000
1948.530762 5715.000000
1949.854858 6714.000000
1951.178101 6328.000000
1952.500610 6379.000000
1953.822021 5791.000000
1955.142456 7394.000000
1956.462280 5973.000000
1957.781738 5568.000000
1959.100220 6810.000000
1960.417358 5830.000000
1961.734131 5877.000000
1963.050171 6566.000000
1964.365479 6580.000000
1965.679321 6317.000000
1966.992920 5624.000000
1968.305786 6238.000000
1969.617798 5981.000000
1970.929199 6080.000000
1972.239258 6303.000000
1973.548828 5840.000000
1974.857666 6156.000000
1976.165894 6559.000000
1977.472778 6137.000000
1978.779053 7246.000000
1980.084961 5525.000000
1981.389648 6317.000000
1982.693848 5927.000000
1983.996826 5678.000000
1985.299438 7525.000000
1986.601074 6151.000000
1987.902100 6783.000000
1989.201538 6039.000000
1990.501099 6572.000000
1991.799561 5250.000000
1993.097534 6074.000000
1994.393921 6146.000000
1995.690308 5795.000000
1996.985718 5589.000000
1998.280396 6428.000000
1999.574219 5680.000000
2000.866821 6580.000000
2002.158936 5750.000000
2003.450562 7099.000000
2004.741455 6364.000000
2006.030762 6261.000000
2007.319824 6792.000000
2008.608154 6020.000000
2009.895752 5983.000000
2011.182495 6625.000000
2012.468140 5914.000000
2013.753418 6349.000000
2015.037720 5977.000000
2016.321411 5611.000000
2017.603760 6083.000000
2018.885742 6465.000000
2020.167236 6727.000000
2021.447754 5839.000000
2022.727539 6054.000000
2024.006226 6730.000000
2025.284180 5742.000000
2026.561646 5883.000000
2027.838501 6306.000000
2029.113647 5736.000000
2030.388916 6584.000000
2031.663208 6025.000000
2032.936523 5911.000000
2034.208984 5917.000000
2035.481079 6105.000000
2036.752075 6980.000000
2038.022827 6603.000000
2039.292236 5978.000000
2040.560547 6731.000000
2041.828857 6575.000000
2043.096191 5932.000000
2044.362793 5946.000000
2045.628174 5669.000000
2046.892944 5490.000000
2048.157471 5410.000000
2049.420654 5897.000000
2050.683594 6396.000000
2051.944580 6170.000000
2053.206055 6121.000000
2054.466309 5865.000000
2055.725830 6419.000000
2056.984619 6284.000000
2058.242432 6929.000000
2059.499756 6142.000000
2060.756348 5983.000000
2062.011475 6494.000000
2063.266602 5636.000000
2064.520752 5559.000000
2065.774170 5620.000000
2067.026855 6846.000000
2068.278320 6240.000000
2069.529541 6296.000000
2070.780029 5607.000000
2072.029785 5416.000000
2073.278076 6492.000000
2074.526367 6500.000000
2075.773682 7401.000000
2077.020264 5562.000000
2078.266113 5993.000000
2079.510742 6920.000000
2080.754883 7572.000000
2081.998535 5502.000000
2083.241211 6081.000000
2084.482666 6842.000000
2085.723877 5900.000000
2086.964600 6333.000000
2088.204346 6689.000000
2089.442871 7074.000000
2090.680908 6196.000000
2091.918213 5761.000000
2093.155273 6579.000000
2094.390869 6095.000000
2095.625732 6241.000000
2096.860352 6056.000000
2098.093994 5562.000000
2099.326660 6082.000000
2100.558594 6887.000000
2101.790039 6366.000000
2103.020508 6745.000000
2104.250244 6008.000000
2105.479736 5977.000000
2106.707275 5939.000000
2107.935059 5957.000000
2109.162109 6295.000000
2110.388184 5464.000000
2111.612793 6406.000000
2112.837646 6926.000000
2114.061279 7086.000000
2115.284424 6175.000000
2116.506348 7473.000000
2117.728027 6060.000000
2118.948730 6861.000000
2120.168701 6004.000000
2121.388184 6107.000000
2122.606201 6535.000000
2123.824219 7080.000000
2125.041260 5735.000000
2126.257813 5725.000000
2127.472656 6535.000000
2128.687744 6346.000000
2129.901855 6928.000000
2131.115234 5651.000000
2132.327881 6051.000000
2133.539063 5814.000000
2134.750488 6620.000000
2135.960693 6741.000000
2137.170410 5986.000000
2138.378662 6126.000000
2139.586914 5589.000000
2140.794434 5893.000000
2142.000732 7447.000000
2143.206299 5856.000000
2144.411621 5664.000000
2145.615967 5399.000000
2146.819580 6302.000000
2148.022705 6131.000000
2149.224365 6581.000000
2150.425781 5277.000000
2151.626465 6267.000000
2152.826416 6025.000000
2154.025146 5982.000000
2155.223633 6911.000000
2156.421631 6131.000000
2157.618652 5918.000000
2158.814941 5170.000000
2160.010010 5252.000000
2161.204834 6098.000000
2162.398926 5586.000000
2163.592041 6041.000000
2164.784180 6909.000000
2165.976074 5868.000000
2167.167236 6272.000000
2168.357422 6288.000000
2169.546875 6434.000000
2170.735840 6794.000000
2171.923828 5928.000000
2173.111572 5705.000000
2174.297852 5869.000000
2175.483398 6572.000000
2176.668701 5968.000000
2177.853516 5753.000000
2179.037109 6358.000000
2180.219971 7502.000000
2181.401855 6277.000000
2182.583496 5968.000000
2183.764648 6547.000000
2184.944580 5613.000000
2186.123535 5572.000000
2187.302002 6350.000000
2188.480225 6884.000000
2189.657227 7147.000000
2190.833252 6663.000000
2192.009033 6065.000000
2193.184326 5629.000000
2194.358154 6697.000000
2195.531494 6194.000000
2196.704590 6066.000000
2197.876465 6394.000000
2199.047852 7051.000000
2200.218750 6339.000000
2201.387939 6885.000000
2202.557129 7541.000000
2203.725830 6305.000000
2204.893555 5922.000000
2206.060303 5666.000000
2207.226318 7131.000000
2208.391846 6723.000000
2209.557129 5919.000000
2210.720947 6749.000000
2211.884277 5388.000000
2213.046387 6199.000000
2214.208740 6167.000000
2215.369873 6663.000000
2216.530029 6630.000000
2217.689697 6296.000000
2218.849121 6611.000000
2220.007324 6306.000000
2221.164551 6262.000000
2222.321533 6769.000000
2223.477783 6588.000000
2224.633301 6743.000000
2225.788086 6276.000000
2226.941895 6437.000000
2228.094727 6043.000000
2229.248047 6872.000000
2230.399414 6195.000000
2231.550537 6189.000000
2232.700928 6526.000000
2233.850830 7638.000000
2234.999756 6288.000000
2236.148193 5230.000000
2237.295166 6618.000000
2238.442383 7100.000000
2239.588379 6020.000000
2240.734131 7249.000000
2241.878174 7284.000000
2243.022461 6804.000000
2244.165771 6133.000000
2245.308350 5977.000000
2246.449951 5767.000000
2247.591309 5781.000000
2248.731689 6368.000000
2249.871338 6426.000000
2251.010498 5871.000000
2252.148438 5819.000000
2253.286377 6154.000000
2254.423340 5284.000000
2255.559570 6321.000000
2256.694824 6086.000000
2257.829346 7227.000000
2258.963623 6393.000000
2260.097412 5368.000000
2261.229736 6098.000000
2262.361572 6808.000000
2263.492920 6219.000000
2264.623291 6495.000000
2265.753418 8045.000000
2266.882324 6636.000000
2268.010742 6028.000000
2269.138672 5515.000000
2270.265625 6071.000000
2271.391846 5955.000000
2272.517090 6665.000000
2273.642334 6525.000000
2274.766846 6383.000000
2275.890137 5871.000000
2277.012695 6362.000000
2278.134766 5954.000000
2279.256348 7423.000000
2280.377197 6402.000000
2281.496826 6359.000000
2282.615967 7116.000000
2283.734863 7688.000000
2284.853027 7278.000000
2285.970215 5872.000000
2287.086426 6366.000000
2288.202393 6949.000000
2289.317627 6857.000000
2290.432129 7345.000000
2291.545410 5797.000000
2292.658691 6365.000000
2293.771240 5975.000000
2294.883057 5354.000000
2295.994141 6718.000000
2297.104004 6415.000000
2298.213379 6210.000000
2299.322510 6682.000000
2300.430664 6337.000000
2301.537842 6760.000000
2302.644775 5886.000000
2303.750977 6201.000000
2304.856689 6577.000000
2305.960938 6571.000000
2307.064941 5437.000000
2308.168457 5712.000000
2309.271484 6539.000000
2310.373291 7430.000000
2311.474365 7363.000000
2312.574951 6574.000000
2313.675049 5489.000000
2314.774414 6346.000000
2315.872314 6544.000000
2316.970703 7015.000000
2318.067627 8156.000000
2319.164307 6898.000000
2320.260498 5789.000000
2321.354980 6816.000000
2322.449463 7583.000000
2323.543213 5784.000000
2324.636719 6024.000000
2325.728516 6358.000000
2326.820313 6917.000000
2327.911377 6034.000000
2329.001709 6281.000000
2330.091064 6980.000000
2331.180420 5980.000000
2332.268555 6291.000000
2333.356201 6820.000000
2334.443604 6490.000000
2335.529297 6664.000000
2336.614746 7792.000000
2337.699951 6307.000000
2338.784180 6728.000000
2339.867432 5917.000000
2340.950439 6401.000000
2342.032471 7257.000000
2343.114258 5966.000000
2344.195313 7405.000000
2345.275146 6630.000000
2346.354492 5667.000000
2347.433350 6775.000000
2348.511719 6549.000000
2349.588623 6279.000000
2350.665283 7008.000000
2351.741699 6026.000000
2352.817139 6474.000000
2353.891602 5922.000000
2354.965820 6271.000000
2356.039307 6768.000000
2357.112305 6281.000000
2358.184082 6956.000000
2359.255615 6272.000000
2360.326172 6798.000000
2361.396484 7505.000000
2362.465820 7499.000000
2363.534180 6829.000000
2364.602295 6745.000000
2365.669678 7092.000000
2366.736572 7127.000000
2367.802734 6031.000000
2368.867676 6890.000000
2369.932617 6954.000000
2370.996826 6309.000000
2372.060303 6875.000000
2373.122559 5750.000000
2374.184814 6397.000000
2375.246094 6265.000000
2376.307129 5906.000000
2377.366943 6270.000000
2378.426025 7912.000000
2379.485107 6423.000000
2380.543213 7619.000000
2381.600586 6896.000000
2382.656982 7996.000000
2383.713135 7769.000000
2384.768799 6243.000000
2385.823730 7071.000000
2386.877197 6732.000000
2387.930908 6537.000000
2388.983643 6327.000000
2390.035889 6698.000000
2391.087402 6147.000000
2392.137939 6524.000000
2393.188232 6526.000000
2394.237549 6127.000000
2395.286865 6181.000000
2396.334717 6935.000000
2397.382080 6965.000000
2398.429199 6277.000000
2399.475342 6698.000000
2400.520752 6159.000000
2401.565430 6767.000000
2402.610107 7711.000000
2403.653320 7450.000000
2404.696533 6568.000000
2405.738281 5743.000000
2406.780273 6706.000000
2407.821533 7087.000000
2408.861816 6080.000000
2409.901367 6316.000000
2410.939941 6271.000000
2411.978760 6016.000000
2413.016357 6535.000000
2414.053711 6845.000000
2415.089844 7368.000000
2416.125732 6174.000000
2417.160889 6233.000000
2418.195557 6623.000000
2419.228760 7171.000000
2420.262207 6429.000000
2421.294678 6641.000000
2422.326904 6735.000000
2423.357666 7047.000000
2424.388428 6319.000000
2425.418701 6890.000000
2426.447754 6843.000000
2427.476807 6727.000000
2428.504150 7350.000000
2429.531982 6702.000000
2430.558594 7276.000000
2431.584961 6906.000000
2432.609863 7755.000000
2433.635010 6624.000000
2434.659180 7117.000000
2435.683105 6732.000000
2436.705811 5752.000000
2437.727783 6334.000000
2438.749512 6676.000000
2439.770508 6674.000000
2440.791016 6005.000000
2441.810303 6457.000000
2442.829590 6644.000000
2443.847900 8437.000000
2444.865967 6277.000000
2445.882568 6434.000000
2446.899170 6551.000000
2447.915039 5933.000000
2448.930908 6942.000000
2449.945313 6795.000000
2450.958984 5508.000000
2451.972168 7246.000000
2452.985107 6007.000000
2453.997314 7233.000000
2455.008545 6683.000000
2456.019531 7628.000000
2457.029785 6316.000000
2458.039551 7587.000000
2459.048340 5871.000000
2460.056396 5906.000000
2461.064453 6308.000000
2462.071289 7304.000000
2463.077881 5475.000000
2464.083252 7463.000000
2465.088379 6881.000000
2466.093262 5813.000000
2467.096924 6441.000000
2468.100342 6406.000000
2469.102783 7579.000000
2470.104980 7323.000000
2471.106689 6795.000000
2472.107422 6547.000000
2473.107178 6969.000000
2474.106934 6766.000000
2475.105713 5647.000000
2476.104004 6558.000000
2477.101318 7007.000000
2478.098389 6115.000000
2479.095459 6940.000000
2480.091064 5811.000000
2481.086670 7068.000000
2482.080566 6699.000000
2483.074463 8051.000000
2484.067871 6912.000000
2485.060791 6730.000000
2486.052734 7396.000000
2487.043945 7211.000000
2488.034912 6698.000000
2489.025391 5812.000000
2490.014893 6541.000000
2491.003662 6468.000000
2491.992432 5618.000000
2492.980225 6736.000000
2493.966797 6632.000000
2494.953369 8054.000000
2495.939453 6760.000000
2496.924805 7060.000000
2497.909180 8020.000000
2498.893311 6045.000000
2499.877441 6916.000000
2500.860107 5709.000000
2501.842285 6937.000000
2502.823975 6832.000000
2503.804932 7234.000000
2504.785400 6509.000000
2505.765625 5703.000000
2506.744385 6302.000000
2507.722900 7525.000000
2508.700928 6756.000000
2509.678467 7087.000000
2510.655029 6002.000000
2511.631348 5968.000000
2512.606934 6398.000000
2513.582031 6205.000000
2514.556641 6454.000000
2515.530029 7521.000000
2516.503174 6748.000000
2517.476074 6901.000000
2518.447998 6094.000000
2519.419189 6733.000000
2520.389893 6882.000000
2521.360352 7853.000000
2522.330078 8010.000000
2523.298828 6068.000000
2524.266846 6138.000000
2525.234863 7744.000000
2526.201904 6266.000000
2527.168701 5529.000000
2528.134277 7253.000000
2529.099854 6988.000000
2530.064697 7713.000000
2531.029053 6252.000000
2531.992188 6290.000000
2532.955566 5846.000000
2533.917969 5980.000000
2534.880127 6635.000000
2535.841064 6285.000000
2536.801270 6109.000000
2537.761719 6173.000000
2538.721191 6696.000000
2539.679932 6823.000000
2540.637695 6698.000000
2541.595703 6222.000000
2542.552979 6782.000000
2543.509277 6088.000000
2544.465332 7095.000000
2545.420166 6192.000000
2546.375244 7717.000000
2547.329590 7088.000000
2548.283203 6381.000000
2549.235840 7142.000000
2550.188232 6673.000000
2551.140137 6887.000000
2552.091309 6372.000000
2553.041748 7642.000000
2553.991699 7293.000000
2554.941406 7391.000000
2555.890381 6543.000000
2556.838867 6248.000000
2557.786133 7032.000000
2558.733398 6279.000000
2559.679932 6502.000000
2560.625977 6626.000000
2561.571045 7405.000000
2562.515869 6693.000000
2563.460205 7138.000000
2564.404053 6824.000000
2565.347412 6608.000000
2566.289307 6611.000000
2567.231445 6531.000000
2568.172852 6140.000000
2569.113525 7156.000000
2570.053467 7225.000000
2570.993408 5683.000000
2571.932373 6102.000000
2572.871094 7524.000000
2573.808838 7157.000000
2574.746338 5454.000000
2575.683105 7023.000000
2576.619141 6780.000000
2577.554688 7420.000000
2578.489502 6263.000000
2579.424316 5908.000000
2580.358154 7019.000000
2581.291504 7136.000000
2582.224121 5840.000000
2583.156494 6886.000000
2584.088135 5413.000000
2585.019287 7054.000000
2585.949951 6968.000000
2586.879395 6872.000000
2587.808838 7265.000000
2588.737793 6431.000000
2589.666504 7572.000000
2590.593506 7169.000000
2591.520752 5932.000000
2592.447510 6843.000000
2593.373535 6255.000000
2594.299316 5624.000000
2595.223877 7598.000000
2596.148193 7612.000000
2597.072021 5326.000000
2597.995361 7303.000000
2598.917725 6192.000000
2599.839844 6857.000000
2600.761475 8300.000000
2601.682373 6336.000000
2602.602539 5782.000000
2603.522461 6364.000000
2604.441895 6379.000000
2605.361084 6373.000000
2606.279297 5793.000000
2607.196289 5981.000000
2608.113525 7236.000000
2609.030518 5866.000000
2609.946533 7522.000000
2610.861328 6626.000000
2611.776611 6574.000000
2612.691162 6589.000000
2613.604736 6484.000000
2614.518311 6157.000000
2615.430664 7629.000000
2616.343018 7024.000000
2617.254395 6790.000000
2618.165527 5700.000000
2619.075928 7427.000000
2619.986084 6647.000000
2620.895508 6152.000000
2621.804443 6604.000000
2622.712402 6225.000000
2623.620605 6779.000000
2624.527832 6591.000000
2625.434570 6992.000000
2626.340576 6064.000000
2627.246338 6571.000000
2628.151367 6470.000000
2629.056152 7822.000000
2629.960205 6421.000000
2630.863281 6341.000000
2631.766357 6439.000000
2632.668457 5572.000000
2633.570557 6740.000000
2634.472412 6918.000000
2635.372559 6638.000000
2636.272949 6407.000000
2637.172607 6424.000000
2638.072021 5920.000000
2638.969971 6836.000000
2639.868408 6721.000000
2640.766357 6411.000000
2641.663574 6048.000000
2642.559570 6125.000000
2643.455566 6712.000000
2644.351318 6043.000000
2645.246338 6455.000000
2646.141113 6560.000000
2647.034424 7079.000000
2647.927734 6232.000000
2648.820801 6755.000000
2649.713623 6415.000000
2650.604736 7421.000000
2651.496094 6346.000000
2652.386963 7645.000000
2653.277100 7379.000000
2654.166992 6498.000000
2655.055664 7306.000000
2655.944580 6596.000000
2656.833008 6579.000000
2657.720459 7335.000000
2658.606934 6452.000000
2659.493896 7080.000000
2660.380127 6760.000000
2661.265869 6811.000000
2662.150391 6466.000000
2663.034912 6368.000000
2663.919189 6164.000000
2664.802734 7024.000000
2665.685791 7783.000000
2666.568115 7276.000000
2667.449951 6144.000000
2668.331055 6576.000000
2669.212402 6116.000000
2670.092285 6539.000000
2670.972412 7356.000000
2671.851807 7264.000000
2672.731201 6137.000000
2673.609863 6137.000000
2674.486816 6422.000000
2675.364502 6713.000000
2676.241455 6376.000000
2677.117676 8107.000000
2677.993408 7110.000000
2678.868408 6240.000000
2679.743652 7771.000000
2680.617920 6985.000000
2681.491699 7291.000000
2682.364746 7032.000000
2683.237549 6209.000000
2684.110107 6110.000000
2684.981934 6919.000000
2685.853027 6490.000000
2686.723877 6821.000000
2687.594238 7091.000000
2688.464355 6677.000000
2689.332764 6314.000000
2690.201904 7408.000000
2691.070313 7098.000000
2691.938477 6662.000000
2692.805908 6903.000000
2693.672119 5817.000000
2694.538818 7144.000000
2695.404541 7345.000000
2696.270264 7156.000000
2697.134521 7954.000000
2697.999512 6546.000000
2698.863037 7228.000000
2699.726807 5851.000000
2700.589111 7437.000000
2701.451904 6908.000000
2702.313721 5921.000000
2703.175049 6913.000000
2704.036377 6639.000000
2704.896484 7319.000000
2705.756592 7340.000000
2706.616211 6547.000000
2707.475586 6846.000000
2708.333252 7134.000000
2709.191162 6851.000000
2710.049561 7344.000000
2710.906738 6731.000000
2711.763184 5988.000000
2712.619141 6853.000000
2713.475098 6046.000000
2714.330322 6932.000000
2715.184814 6063.000000
2716.038818 6765.000000
2716.892822 7258.000000
2717.745850 6292.000000
2718.599121 6588.000000
2719.450684 7667.000000
2720.302734 6691.000000
2721.154541 6224.000000
2722.005127 6457.000000
2722.855713 6412.000000
2723.705811 7090.000000
2724.555176 7007.000000
2725.404541 6932.000000
2726.252686 6586.000000
2727.100342 6516.000000
2727.948486 6992.000000
2728.795410 6815.000000
2729.642822 5533.000000
2730.488770 7476.000000
2731.333984 6984.000000
2732.179688 6429.000000
2733.024414 6959.000000
2733.869141 7246.000000
2734.712646 6828.000000
2735.556396 7744.000000
2736.399414 7130.000000
2737.241943 5970.000000
2738.083496 6221.000000
2738.925537 6749.000000
2739.766602 6909.000000
2740.607422 5745.000000
2741.447998 5945.000000
2742.287354 7738.000000
2743.126709 6795.000000
2743.966064 6918.000000
2744.804199 6819.000000
2745.641846 7787.000000
2746.479492 6317.000000
2747.316650 7146.000000
2748.153564 6128.000000
2748.989990 6026.000000
2749.825195 6518.000000
2750.660645 6246.000000
2751.495605 6337.000000
2752.329834 6221.000000
2753.163818 6924.000000
2753.997314 6793.000000
2754.830811 7960.000000
2755.663330 6791.000000
2756.495361 7266.000000
2757.326904 6801.000000
2758.158447 7098.000000
2758.989014 7168.000000
2759.819824 7227.000000
2760.649414 7244.000000
2761.479004 6666.000000
2762.308350 7257.000000
2763.136963 6837.000000
2763.965088 6738.000000
2764.792725 6880.000000
2765.620361 6605.000000
2766.447510 7882.000000
2767.273926 5754.000000
2768.099854 7404.000000
2768.925293 6869.000000
2769.750488 7763.000000
2770.575684 7089.000000
2771.399658 6780.000000
2772.223633 6525.000000
2773.047607 7667.000000
2773.870361 6679.000000
2774.693359 6743.000000
2775.515137 6856.000000
2776.336914 6879.000000
2777.158691 6506.000000
2777.979492 7890.000000
2778.799561 6562.000000
2779.619873 6977.000000
2780.439697 7262.000000
2781.259521 6473.000000
2782.077393 5916.000000
2782.896484 8044.000000
2783.714355 6479.000000
2784.531982 6749.000000
2785.349121 7191.000000
2786.165771 7237.000000
2786.982178 7152.000000
2787.798096 6246.000000
2788.613770 5898.000000
2789.428467 6402.000000
2790.243652 6958.000000
2791.058105 7116.000000
2791.872070 6565.000000
2792.685791 7388.000000
2793.498291 8772.000000
2794.311035 7033.000000
2795.123291 7380.000000
2795.935059 7203.000000
2796.746094 7397.000000
2797.557861 6413.000000
2798.368408 7202.000000
2799.178955 7044.000000
2799.988037 7379.000000
2800.797852 8159.000000
2801.606934 7774.000000
2802.415771 6544.000000
2803.224121 7160.000000
2804.031494 6162.000000
2804.839355 6442.000000
2805.646484 6876.000000
2806.453369 6944.000000
2807.259033 7141.000000
2808.065186 6705.000000
2808.870605 6429.000000
2809.676025 7320.000000
2810.480713 6196.000000
2811.284424 7646.000000
2812.088623 7594.000000
2812.892334 6287.000000
2813.695801 6081.000000
2814.497803 6584.000000
2815.300537 7360.000000
2816.102539 7833.000000
2816.904297 6150.000000
2817.705566 6538.000000
2818.506348 7228.000000
2819.306641 6473.000000
2820.107178 6590.000000
2820.906738 7948.000000
2821.705811 7176.000000
2822.504883 6485.000000
2823.303711 6823.000000
2824.102051 6349.000000
2824.899414 7052.000000
2825.697021 7360.000000
2826.493896 6702.000000
2827.291016 7362.000000
2828.087402 7986.000000
2828.883057 7012.000000
2829.678711 7361.000000
2830.474121 7641.000000
2831.269043 7477.000000
2832.063232 6708.000000
2832.857422 6805.000000
2833.651367 5671.000000
2834.444824 6827.000000
2835.237549 7194.000000
2836.030029 8085.000000
2836.822510 7606.000000
2837.614746 7463.000000
2838.406494 6462.000000
2839.197266 6792.000000
2839.988037 8778.000000
2840.779053 7453.000000
2841.569092 6187.000000
2842.358643 7612.000000
2843.148438 7141.000000
2843.937256 7285.000000
2844.726074 7799.000000
2845.514893 7614.000000
2846.302734 7544.000000
2847.090088 7102.000000
2847.877686 7519.000000
2848.664795 7335.000000
2849.451172 6628.000000
2850.237549 7373.000000
2851.023682 7177.000000
2851.809326 7491.000000
2852.593994 7139.000000
2853.379150 6889.000000
2854.164063 7427.000000
2854.948242 7114.000000
2855.732422 6859.000000
2856.515381 8294.000000
2857.298584 6766.000000
2858.081543 6758.000000
2858.864014 7781.000000
2859.646240 6275.000000
2860.427979 6604.000000
2861.209473 7577.000000
2861.991211 7476.000000
2862.772217 7574.000000
2863.552490 6535.000000
2864.332520 6684.000000
2865.112549 8163.000000
2865.892334 7424.000000
2866.671143 8105.000000
2867.450195 7559.000000
2868.228760 6652.000000
2869.007080 6986.000000
2869.784912 7205.000000
2870.562500 6902.000000
2871.339844 7502.000000
2872.116943 6977.000000
2872.893555 6340.000000
2873.669678 7542.000000
2874.445801 7092.000000
2875.221436 8272.000000
2875.996826 7135.000000
2876.771729 6613.000000
2877.546387 7973.000000
2878.321045 6681.000000
2879.095459 7793.000000
2879.869141 6750.000000
2880.642090 7083.000000
2881.415771 6750.000000
2882.188477 7531.000000
2882.961182 7779.000000
2883.733154 8225.000000
2884.504883 6219.000000
2885.277100 6756.000000
2886.048096 6859.000000
2886.818604 6147.000000
2887.589600 8267.000000
2888.360596 7354.000000
2889.130859 7965.000000
2889.900146 7594.000000
2890.669678 7003.000000
2891.439209 7203.000000
2892.208252 7401.000000
2892.976807 7886.000000
2893.745361 7688.000000
2894.512939 6910.000000
2895.281006 6566.000000
2896.048584 7434.000000
2896.816162 8388.000000
2897.582520 7372.000000
2898.349854 6468.000000
2899.115967 7289.000000
2899.882324 6956.000000
2900.647217 8305.000000
2901.412598 6961.000000
2902.178467 6420.000000
2902.942871 7719.000000
2903.707275 7725.000000
2904.471924 8451.000000
2905.235596 6655.000000
2906.000000 8457.000000
2906.763672 6703.000000
2907.526611 8358.000000
2908.289307 6507.000000
2909.052490 8978.000000
2909.815186 6982.000000
2910.576660 6839.000000
2911.338623 6839.000000
