scanname Analyse090
timestamp 2017-02-10 22:15:12
ccdbias 953.673828
ccdgain 3.473401
sigmaread 8.960639
laserwavenum -0.338742
wavenumcorrection 0.184222
scancount 1
totalexposurems 10000
singleexposurems 10000
measurementstate Unknown
scanmode Manual
snr 322.487091 10.178750 8.641191
replacelist 4
672 53477.000000 31023.000000
754 53429.000000 16298.000000
889 53185.000000 21203.000000
948 52963.000000 19397.000000
peaks 92
278.146027 0.720024 0.000000 1.395521 0.000181
284.493225 0.719705 0.000000 0.788881 0.000060
294.800568 0.722298 0.000000 0.524658 0.000026
303.812103 0.723958 0.000000 0.173631 0.000023
329.935730 0.741454 0.000000 0.831191 0.000141
342.709473 0.745018 0.000000 0.714202 0.000033
349.277100 0.748228 0.000000 0.672870 0.000025
360.461212 0.749451 0.000000 0.293117 0.000016
385.957855 0.751501 0.000000 1.432856 0.000308
459.075439 0.765625 0.000000 0.213139 0.000039
487.348663 0.780495 0.000000 0.769673 0.000103
493.228058 0.776531 0.000000 0.153884 0.000038
534.712463 0.782875 0.000000 0.529933 0.000135
559.379822 0.823849 0.000000 1.329478 0.000232
582.502075 0.824163 0.000000 0.617685 0.000102
660.109070 0.855672 0.000000 0.770458 0.000125
671.506287 0.851956 0.000000 0.757840 0.000126
715.588745 0.875756 0.000000 5.586728 0.001175
724.478943 0.857727 0.000000 1.293378 0.000055
741.916016 0.880487 0.000000 1.032816 0.000114
756.894226 0.905485 0.000000 5.846865 0.000673
778.990723 0.908664 0.000000 8.275119 0.001296
825.651672 0.915374 0.000000 1.082021 0.000054
832.833252 0.908674 0.000000 0.287913 0.000146
854.776184 0.941075 0.000000 1.010816 0.000272
868.014587 0.934886 0.000000 0.647985 0.000143
937.243774 1.013229 0.000000 0.901918 0.000451
953.998047 0.990920 0.000000 3.509277 0.001072
1004.894409 1.033374 0.000000 0.980269 0.000110
1013.551208 1.036653 0.000000 1.996576 0.000774
1019.936157 1.038290 0.000000 1.018496 0.000156
1026.727539 1.049489 0.000000 0.584109 0.000253
1044.005859 1.046347 0.000000 4.185019 0.001372
1104.272095 1.068542 0.000000 2.261451 0.000628
1117.422363 1.109369 0.000000 2.347749 0.000673
1134.492432 1.087169 0.000000 2.336514 0.000981
1150.071655 1.069665 0.000000 2.437941 0.000996
1174.533691 1.102584 0.000000 1.339099 0.000468
1186.715820 1.108376 0.000000 0.949268 0.000077
1211.600464 1.184587 0.000000 0.764156 0.000245
1222.225952 1.196077 0.000000 1.498462 0.000566
1232.080566 1.177912 0.000000 1.221923 0.000335
1259.797974 1.216537 0.000000 2.932957 0.001391
1281.187378 1.160377 0.000000 0.307851 0.000453
1312.521240 1.225176 0.000000 1.717474 0.000682
1330.289551 1.289735 0.000000 2.973298 0.001575
1347.548218 1.297374 0.000000 0.705689 0.000703
1389.500610 1.280234 0.000000 0.685970 0.000285
1414.408447 1.365952 0.000000 2.954039 0.001782
1428.330933 1.386798 0.000000 1.406978 0.000192
1434.017700 1.419901 0.000000 1.559011 0.000801
1446.771606 1.413906 0.000000 1.471985 0.000538
1459.795166 1.411626 0.000000 2.253675 0.001557
1489.723267 1.489338 0.000000 4.081852 0.002560
1518.714355 1.435156 0.000000 0.174673 0.000140
1532.662231 1.524883 0.000000 1.044974 0.001115
1558.060913 1.573816 0.000000 1.480806 0.000940
1563.317261 1.566033 0.000000 0.838459 0.000170
1577.900757 1.564044 0.000000 1.409419 0.001396
1598.418823 1.555684 0.000000 0.302518 0.000282
1617.015625 1.609438 0.000000 12.940611 0.008469
1635.149780 1.626247 0.000000 5.488404 0.001508
1651.312744 1.628761 0.000000 0.183961 0.000126
1669.834839 1.745662 0.000000 1.726313 0.001890
1686.047485 1.768405 0.000000 0.691095 0.000746
1698.941406 1.787571 0.000000 1.014282 0.001474
1711.621216 1.765357 0.000000 1.193560 0.001040
1751.344971 1.794901 0.000000 0.826624 0.000884
1762.180176 1.821843 0.000000 0.798764 0.000596
1778.663574 1.948932 0.000000 5.398776 0.005419
1795.657227 1.953667 0.000000 0.949172 0.000729
1809.603149 1.964295 0.000000 1.693497 0.001601
1856.189697 2.009140 0.000000 2.231194 0.002094
1872.260254 2.074787 0.000000 1.288052 0.001009
1890.011353 2.130708 0.000000 1.521079 0.002649
1901.909180 2.134071 0.000000 1.530076 0.001784
1912.535278 2.114379 0.000000 0.668940 0.000727
1942.659058 2.137760 0.000000 0.892648 0.000625
1975.302612 2.179007 0.000000 0.563870 0.000375
1991.670532 2.226755 0.000000 1.179037 0.002717
2013.308228 2.235190 0.000000 0.940246 0.001084
2024.422729 2.224468 0.000000 0.847500 0.001027
2045.913818 2.156464 0.000000 0.740928 0.002306
2062.697510 2.140399 0.000000 0.438100 0.001972
2094.648926 2.114983 0.000000 0.799991 0.000771
2108.644043 2.126823 0.000000 0.838316 0.001736
2131.558838 2.098031 0.000000 1.807732 0.004320
2140.728271 2.071112 0.000000 0.428929 0.000850
2160.136475 2.034079 0.000000 1.292995 0.003651
2175.326172 2.016618 0.000000 0.812250 0.001278
2194.728027 2.009442 0.000000 0.970076 0.001468
2249.991699 1.898056 0.000000 0.533022 0.000578
finalresult GLS_NoMatch 0
spectrum 2048
-97.262711 47297.000000
-94.635841 47297.000000
-92.010849 47383.000000
-89.387749 47076.000000
-86.766518 47662.000000
-84.147186 47259.000000
-81.529716 47405.000000
-78.914124 47129.000000
-76.300407 47244.000000
-73.688568 47616.000000
-71.078590 47346.000000
-68.470497 47495.000000
-65.864250 47513.000000
-63.259884 47432.000000
-60.657375 47348.000000
-58.056721 47903.000000
-55.457928 47290.000000
-52.860992 46586.000000
-50.265911 47012.000000
-47.672684 46987.000000
-45.081306 47278.000000
-42.491776 46788.000000
-39.904087 47624.000000
-37.318249 47412.000000
-34.734253 47079.000000
-32.152092 47847.000000
-29.571781 47169.000000
-26.993296 47816.000000
-24.416653 47403.000000
-21.841835 47329.000000
-19.268858 47059.000000
-16.697701 47050.000000
-14.128376 46768.000000
-11.560878 45803.000000
-8.995198 47174.000000
-6.431345 47022.000000
-3.869304 47536.000000
-1.309088 47731.000000
1.249320 47394.000000
3.805907 46552.000000
6.360689 46856.000000
8.913654 47548.000000
11.464819 46802.000000
14.014171 47000.000000
16.561726 46791.000000
19.107470 47544.000000
21.651421 47748.000000
24.193567 46887.000000
26.733917 46716.000000
29.272482 46685.000000
31.809250 47348.000000
34.344215 47767.000000
36.877403 46281.000000
39.408810 47167.000000
41.938423 46350.000000
44.466240 47072.000000
46.992298 45645.000000
49.516567 47778.000000
52.039066 47285.000000
54.559769 46715.000000
57.078716 47196.000000
59.595890 47053.000000
62.111286 46860.000000
64.624908 47890.000000
67.136772 47813.000000
69.646889 47000.000000
72.155212 47022.000000
74.661781 47591.000000
77.166603 47156.000000
79.669670 47031.000000
82.170959 47229.000000
84.670509 47344.000000
87.168304 47154.000000
89.664368 47747.000000
92.158653 46311.000000
94.651199 47698.000000
97.142029 46560.000000
99.631088 46240.000000
102.118401 47159.000000
104.603989 47306.000000
107.087837 47132.000000
109.569939 47684.000000
112.050316 46932.000000
114.528969 47225.000000
117.005898 47109.000000
119.481071 46252.000000
121.954536 46672.000000
124.426270 47549.000000
126.896294 46702.000000
129.364563 47197.000000
131.831161 47177.000000
134.296005 47768.000000
136.759155 47250.000000
139.220566 46333.000000
141.680283 46679.000000
144.138275 47107.000000
146.594574 47503.000000
149.049164 47651.000000
151.502029 46638.000000
153.953217 47098.000000
156.402710 46843.000000
158.850479 47350.000000
161.296539 46886.000000
163.740921 44748.000000
166.183624 47092.000000
168.624634 46778.000000
171.063934 47232.000000
173.501526 46356.000000
175.937485 46903.000000
178.371704 46543.000000
180.804245 46400.000000
183.235138 46915.000000
185.664307 46824.000000
188.091827 46794.000000
190.517670 47178.000000
192.941833 46903.000000
195.364334 46330.000000
197.785141 46060.000000
200.204285 47024.000000
202.621765 47505.000000
205.037552 45819.000000
207.451691 46413.000000
209.864197 47120.000000
212.275024 47435.000000
214.684174 47237.000000
217.091690 46141.000000
219.497498 47287.000000
221.901718 47011.000000
224.304230 46781.000000
226.705124 46649.000000
229.104370 47089.000000
231.501953 46619.000000
233.897873 46223.000000
236.292175 46958.000000
238.684814 47710.000000
241.075836 46721.000000
243.465195 46973.000000
245.852936 47102.000000
248.239029 46499.000000
250.623489 47399.000000
253.006302 45621.000000
255.387543 46809.000000
257.767059 46795.000000
260.145020 47043.000000
262.521301 45914.000000
264.896027 45958.000000
267.269104 45590.000000
269.640533 47282.000000
272.010315 47067.000000
274.378540 47475.000000
276.745117 47091.000000
279.110107 46684.000000
281.473480 47408.000000
283.835205 47278.000000
286.195343 46265.000000
288.553864 47393.000000
290.910797 46885.000000
293.266113 47016.000000
295.619843 47539.000000
297.971924 47541.000000
300.322449 47155.000000
302.671387 47178.000000
305.018677 46675.000000
307.364441 47066.000000
309.708527 47017.000000
312.051086 46146.000000
314.392029 45937.000000
316.731354 46330.000000
319.069122 46589.000000
321.405334 45373.000000
323.739899 47220.000000
326.072906 46999.000000
328.404358 47467.000000
330.734222 46921.000000
333.062500 47126.000000
335.389160 46216.000000
337.714325 47205.000000
340.037872 47282.000000
342.359863 47494.000000
344.680298 45952.000000
346.999115 45821.000000
349.316376 47515.000000
351.632111 47656.000000
353.946259 46576.000000
356.258820 47108.000000
358.569824 47077.000000
360.879303 46450.000000
363.187256 47093.000000
365.493591 47833.000000
367.798340 47141.000000
370.101624 47071.000000
372.403290 47260.000000
374.703461 47167.000000
377.002075 47254.000000
379.299133 47781.000000
381.594635 47389.000000
383.888611 47593.000000
386.181000 48274.000000
388.471893 47852.000000
390.761261 47293.000000
393.049042 47234.000000
395.335297 46937.000000
397.620056 46617.000000
399.903198 47476.000000
402.184906 47033.000000
404.465088 47372.000000
406.743683 46307.000000
409.020752 47047.000000
411.296295 46768.000000
413.570313 47001.000000
415.842896 47136.000000
418.113861 47294.000000
420.383331 47034.000000
422.651306 46323.000000
424.917725 46207.000000
427.182648 47183.000000
429.446106 47119.000000
431.707977 46940.000000
433.968384 47453.000000
436.227234 46754.000000
438.484619 47381.000000
440.740509 47802.000000
442.994904 47728.000000
445.247772 48001.000000
447.499084 46517.000000
449.748993 47366.000000
451.997314 47220.000000
454.244202 47756.000000
456.489624 46942.000000
458.733490 46993.000000
460.975861 46712.000000
463.216736 47797.000000
465.456207 46812.000000
467.694092 48012.000000
469.930542 47666.000000
472.165466 47348.000000
474.398926 46150.000000
476.630951 46736.000000
478.861450 47799.000000
481.090454 46967.000000
483.317993 47115.000000
485.544037 47460.000000
487.768646 46915.000000
489.991791 47610.000000
492.213470 47042.000000
494.433594 46782.000000
496.652313 47812.000000
498.869537 47222.000000
501.085388 47983.000000
503.299622 47323.000000
505.512543 47012.000000
507.723877 47047.000000
509.933777 46579.000000
512.142273 46926.000000
514.349365 46898.000000
516.554871 47079.000000
518.758972 46895.000000
520.961548 47234.000000
523.162720 46885.000000
525.362549 46811.000000
527.560852 46510.000000
529.757629 48053.000000
531.953064 47683.000000
534.146973 47863.000000
536.339539 45878.000000
538.530579 46712.000000
540.720215 47431.000000
542.908447 46561.000000
545.095154 46282.000000
547.280396 46693.000000
549.464355 47271.000000
551.646729 47086.000000
553.827759 47315.000000
556.007263 47368.000000
558.185486 47559.000000
560.362183 47507.000000
562.537476 47087.000000
564.711365 46986.000000
566.883789 47505.000000
569.054810 47461.000000
571.224365 47119.000000
573.392639 48178.000000
575.559387 47025.000000
577.724670 47150.000000
579.888550 47353.000000
582.051147 47721.000000
584.212219 47403.000000
586.371887 47878.000000
588.530212 47640.000000
590.687012 47289.000000
592.842468 46894.000000
594.996521 47697.000000
597.149231 47372.000000
599.300415 46184.000000
601.450256 46646.000000
603.598755 46767.000000
605.745667 47486.000000
607.891357 46959.000000
610.035645 47031.000000
612.178467 46791.000000
614.319824 47262.000000
616.459961 46996.000000
618.598572 45879.000000
620.735901 47689.000000
622.871765 46873.000000
625.006226 46568.000000
627.139221 46299.000000
629.271057 46894.000000
631.401428 46866.000000
633.530396 46682.000000
635.657898 46969.000000
637.784119 47345.000000
639.908813 46156.000000
642.032288 47107.000000
644.154419 46668.000000
646.275085 46662.000000
648.394409 46950.000000
650.512329 47820.000000
652.628906 47770.000000
654.744080 47000.000000
656.857910 46935.000000
658.970276 47572.000000
661.081421 47329.000000
663.191162 48032.000000
665.299438 46865.000000
667.406555 47153.000000
669.512207 46728.000000
671.616394 47766.000000
673.719360 47712.000000
675.820923 46493.000000
677.921143 48126.000000
680.019958 46651.000000
682.117432 47225.000000
684.213623 46488.000000
686.308350 47229.000000
688.401855 46452.000000
690.494019 46909.000000
692.584656 45513.000000
694.674072 46783.000000
696.762207 47013.000000
698.848877 47439.000000
700.934326 46733.000000
703.018250 48441.000000
705.100952 47521.000000
707.182373 47475.000000
709.262329 45822.000000
711.341064 47295.000000
713.418335 47942.000000
715.494324 46846.000000
717.569031 47382.000000
719.642456 46591.000000
721.714355 47218.000000
723.785095 46124.000000
725.854492 47731.000000
727.922485 47007.000000
729.989136 47050.000000
732.054565 46444.000000
734.118652 47720.000000
736.181396 47338.000000
738.242798 46893.000000
740.302917 46788.000000
742.361633 47383.000000
744.419128 46828.000000
746.475342 46969.000000
748.530151 46750.000000
750.583679 47051.000000
752.635803 45978.000000
754.686707 47631.000000
756.736389 46738.000000
758.784607 47063.000000
760.831604 47257.000000
762.877319 46301.000000
764.921631 48013.000000
766.964661 47687.000000
769.006470 38555.000000
771.046936 46530.000000
773.085999 47053.000000
775.123901 47411.000000
777.160461 47437.000000
779.195801 48090.000000
781.229797 47665.000000
783.262390 46597.000000
785.293823 47974.000000
787.323853 41799.000000
789.352600 47352.000000
791.380188 47138.000000
793.406433 47158.000000
795.431274 47596.000000
797.455017 47911.000000
799.477356 47056.000000
801.498474 47503.000000
803.518250 46751.000000
805.536743 48601.000000
807.554016 46749.000000
809.569885 46656.000000
811.584595 47766.000000
813.597961 47014.000000
815.610107 47233.000000
817.621033 47443.000000
819.630615 46899.000000
821.638977 48187.000000
823.645935 47724.000000
825.651672 47370.000000
827.656189 47722.000000
829.659424 47786.000000
831.661377 46997.000000
833.662048 47339.000000
835.661499 47556.000000
837.659607 47104.000000
839.656616 46411.000000
841.652222 47186.000000
843.646667 47618.000000
845.639771 47263.000000
847.631653 46569.000000
849.622192 47882.000000
851.611450 46628.000000
853.599670 47512.000000
855.586487 47669.000000
857.572083 47037.000000
859.556396 46232.000000
861.539612 47133.000000
863.521423 47097.000000
865.502014 47507.000000
867.481323 45698.000000
869.459473 46236.000000
871.436279 47298.000000
873.411804 47426.000000
875.386292 47254.000000
877.359314 47368.000000
879.331299 47948.000000
881.301941 46951.000000
883.271423 47361.000000
885.239563 47840.000000
887.206543 48249.000000
889.172180 47316.000000
891.136658 47690.000000
893.099915 47447.000000
895.061951 46925.000000
897.022705 47655.000000
898.982239 47071.000000
900.940491 46789.000000
902.897644 47105.000000
904.853638 47442.000000
906.808228 46630.000000
908.761597 46939.000000
910.713806 46999.000000
912.664795 47033.000000
914.614502 46332.000000
916.563049 47117.000000
918.510376 47283.000000
920.456421 47278.000000
922.401184 47381.000000
924.344910 47173.000000
926.287476 47522.000000
928.228760 47849.000000
930.168701 46952.000000
932.107544 47711.000000
934.045105 47953.000000
935.981445 47515.000000
937.916626 47665.000000
939.850525 47315.000000
941.783325 47534.000000
943.714905 46638.000000
945.645325 48210.000000
947.574524 46975.000000
949.502380 46429.000000
951.429199 46777.000000
953.354736 47465.000000
955.278992 48017.000000
957.202148 47422.000000
959.124146 46702.000000
961.044861 46066.000000
962.964417 46994.000000
964.882813 48099.000000
966.800171 47015.000000
968.716064 47044.000000
970.630859 47240.000000
972.544434 47416.000000
974.456848 46946.000000
976.368042 46891.000000
978.278076 47908.000000
980.186829 47275.000000
982.094543 47344.000000
984.001038 47067.000000
985.906311 47734.000000
987.810486 46705.000000
989.713440 47243.000000
991.615173 46552.000000
993.515747 46805.000000
995.415161 46876.000000
997.313354 48187.000000
999.210388 46906.000000
1001.106201 46993.000000
1003.000854 45894.000000
1004.894409 47820.000000
1006.786682 46267.000000
1008.678040 47316.000000
1010.568054 48058.000000
1012.456848 46860.000000
1014.344482 47121.000000
1016.230957 46578.000000
1018.116272 46764.000000
1020.000427 47431.000000
1021.883362 47552.000000
1023.765259 47213.000000
1025.645874 48255.000000
1027.525391 47645.000000
1029.403931 47359.000000
1031.281128 48008.000000
1033.156982 47203.000000
1035.031860 47498.000000
1036.905762 46855.000000
1038.778198 46421.000000
1040.649658 46723.000000
1042.519775 47883.000000
1044.388916 47956.000000
1046.256836 47663.000000
1048.123657 46442.000000
1049.989380 46698.000000
1051.853882 46969.000000
1053.717285 46981.000000
1055.579346 46894.000000
1057.440430 47577.000000
1059.300415 46993.000000
1061.159058 46819.000000
1063.016602 47683.000000
1064.873047 46723.000000
1066.728394 47506.000000
1068.582520 47617.000000
1070.435791 47166.000000
1072.287598 47047.000000
1074.138428 47246.000000
1075.988037 47329.000000
1077.836426 47635.000000
1079.683960 45459.000000
1081.530151 47859.000000
1083.375122 47192.000000
1085.219238 47962.000000
1087.062012 47986.000000
1088.903564 46887.000000
1090.744385 47990.000000
1092.583618 47647.000000
1094.422119 47401.000000
1096.259277 47328.000000
1098.095215 46658.000000
1099.930176 46828.000000
1101.763916 48034.000000
1103.596680 47755.000000
1105.428101 47273.000000
1107.258667 46185.000000
1109.087891 46912.000000
1110.916138 47008.000000
1112.743164 46357.000000
1114.569214 48089.000000
1116.394043 47086.000000
1118.217773 46308.000000
1120.040283 47341.000000
1121.861694 47561.000000
1123.682251 47485.000000
1125.501343 46804.000000
1127.319580 46360.000000
1129.136475 46589.000000
1130.952515 46710.000000
1132.767334 46974.000000
1134.581055 47876.000000
1136.393677 47616.000000
1138.205078 47809.000000
1140.015503 47311.000000
1141.824829 46576.000000
1143.632813 46451.000000
1145.440063 47471.000000
1147.245850 47562.000000
1149.050781 48058.000000
1150.854614 47980.000000
1152.657227 47331.000000
1154.458984 47358.000000
1156.259277 47360.000000
1158.058594 47280.000000
1159.856934 47561.000000
1161.653931 47938.000000
1163.450195 47516.000000
1165.245117 47376.000000
1167.038940 47141.000000
1168.831909 45713.000000
1170.623535 47712.000000
1172.414185 46959.000000
1174.203857 47448.000000
1175.992065 47554.000000
1177.779419 46021.000000
1179.565674 46704.000000
1181.350830 47646.000000
1183.134888 47460.000000
1184.917847 45745.000000
1186.699829 47586.000000
1188.480591 47575.000000
1190.260376 47064.000000
1192.039063 46548.000000
1193.816772 46747.000000
1195.593262 46200.000000
1197.368652 46907.000000
1199.142944 46959.000000
1200.916138 46836.000000
1202.688477 46801.000000
1204.459473 46704.000000
1206.229614 47678.000000
1207.998535 47365.000000
1209.766357 47104.000000
1211.533325 47673.000000
1213.298950 47600.000000
1215.063599 46528.000000
1216.827148 46862.000000
1218.589600 47540.000000
1220.351196 46698.000000
1222.111572 47451.000000
1223.870850 47176.000000
1225.629272 47348.000000
1227.386475 46311.000000
1229.142578 46959.000000
1230.897583 47906.000000
1232.651733 47404.000000
1234.404541 47609.000000
1236.156372 47370.000000
1237.907349 47471.000000
1239.656982 48445.000000
1241.405762 46437.000000
1243.153198 46922.000000
1244.899902 46765.000000
1246.645386 46918.000000
1248.390015 46954.000000
1250.133301 46661.000000
1251.875610 46733.000000
1253.616821 48078.000000
1255.357178 48368.000000
1257.096436 47629.000000
1258.834473 46814.000000
1260.571655 46326.000000
1262.307617 47289.000000
1264.042603 46996.000000
1265.776611 46185.000000
1267.509644 47423.000000
1269.241455 47208.000000
1270.972290 46910.000000
1272.701904 46172.000000
1274.430664 47478.000000
1276.158325 47758.000000
1277.884888 47849.000000
1279.610596 47888.000000
1281.334961 47009.000000
1283.058472 48184.000000
1284.781006 46587.000000
1286.502563 46861.000000
1288.222900 47253.000000
1289.942261 46731.000000
1291.660522 46159.000000
1293.377808 46998.000000
1295.094116 47726.000000
1296.809204 47071.000000
1298.523315 47382.000000
1300.236450 47607.000000
1301.948730 47019.000000
1303.659790 45148.000000
1305.369873 48166.000000
1307.078857 47093.000000
1308.786621 46759.000000
1310.493774 46397.000000
1312.199463 47679.000000
1313.904419 46513.000000
1315.608398 47285.000000
1317.311157 47459.000000
1319.012939 46839.000000
1320.713867 47490.000000
1322.413452 44157.000000
1324.112183 46007.500000
1325.810181 47858.000000
1327.506836 46958.000000
1329.202393 46311.000000
1330.897095 46637.000000
1332.590576 47709.000000
1334.283203 48064.000000
1335.974976 46037.000000
1337.665405 47179.000000
1339.355103 46831.000000
1341.043701 47305.000000
1342.731201 45848.000000
1344.417725 47758.000000
1346.103149 46635.000000
1347.787598 47502.000000
1349.471191 46121.000000
1351.153564 46980.000000
1352.834961 47467.000000
1354.515503 46878.000000
1356.194824 46681.000000
1357.873535 47466.000000
1359.550903 46837.000000
1361.227173 47654.000000
1362.902466 47776.000000
1364.577026 46866.000000
1366.250366 46904.000000
1367.922729 46678.000000
1369.594116 48264.000000
1371.264526 46643.000000
1372.933838 47275.000000
1374.602173 47699.000000
1376.269653 47467.000000
1377.936035 46892.000000
1379.601440 47298.000000
1381.265869 47510.000000
1382.929077 47499.000000
1384.591675 47670.000000
1386.252930 47056.000000
1387.913330 46736.000000
1389.572632 46968.000000
1391.230957 46909.000000
1392.888550 46556.000000
1394.544922 46881.000000
1396.200439 46367.000000
1397.854736 47105.000000
1399.508179 47531.000000
1401.160522 47172.000000
1402.812134 46923.000000
1404.462524 46241.000000
1406.111816 47134.000000
1407.760376 45839.000000
1409.407837 45571.000000
1411.054321 47334.000000
1412.699951 47178.000000
1414.344604 47396.000000
1415.988037 46423.000000
1417.630615 46347.000000
1419.272095 46500.000000
1420.912720 46887.000000
1422.552368 46911.000000
1424.190918 47309.000000
1425.828613 46751.000000
1427.465210 47043.000000
1429.100830 47377.000000
1430.735718 47049.000000
1432.369507 47486.000000
1434.002197 47313.000000
1435.633911 47706.000000
1437.264771 47257.000000
1438.894531 47342.000000
1440.523193 45659.000000
1442.151245 47399.000000
1443.778198 47083.000000
1445.403931 47222.000000
1447.029053 47305.000000
1448.653076 46938.000000
1450.276123 47349.000000
1451.898193 47445.000000
1453.519165 46016.000000
1455.139160 47105.000000
1456.758423 46496.000000
1458.376343 47703.000000
1459.993652 47770.000000
1461.609985 47837.000000
1463.225098 46158.000000
1464.839355 47152.000000
1466.452759 48206.000000
1468.065063 47819.000000
1469.676514 47023.000000
1471.287109 47015.000000
1472.896484 47397.000000
1474.504883 47376.000000
1476.112427 47307.000000
1477.718994 46642.000000
1479.324829 48054.000000
1480.929443 47106.000000
1482.533203 47819.000000
1484.135742 46601.000000
1485.737671 47876.000000
1487.338379 47828.000000
1488.938354 47717.000000
1490.537231 47155.000000
1492.135254 46911.000000
1493.732178 46765.000000
1495.328247 47084.000000
1496.923340 47345.000000
1498.517456 47846.000000
1500.110840 46853.000000
1501.703125 47822.000000
1503.294189 47192.000000
1504.884766 46587.000000
1506.473999 46860.000000
1508.062622 47197.000000
1509.650146 46828.000000
1511.236572 46497.000000
1512.822266 47134.000000
1514.406860 46748.000000
1515.990601 47186.000000
1517.573242 47276.000000
1519.155151 46746.000000
1520.735962 46764.000000
1522.316040 47247.000000
1523.894897 47105.000000
1525.472900 46940.000000
1527.050171 47065.000000
1528.626221 47656.000000
1530.201538 47435.000000
1531.775757 47122.000000
1533.349243 47913.000000
1534.921509 47385.000000
1536.493042 46907.000000
1538.063599 46963.000000
1539.633301 46964.000000
1541.201782 47963.000000
1542.769531 46737.000000
1544.336426 47711.000000
1545.902100 46513.000000
1547.467041 47412.000000
1549.030884 48235.000000
1550.594116 45910.000000
1552.156006 47070.000000
1553.717285 47393.000000
1555.277466 47584.000000
1556.836914 47630.000000
1558.395264 47521.000000
1559.952881 47064.000000
1561.509399 46343.000000
1563.064697 47504.000000
1564.619385 47072.000000
1566.173340 47646.000000
1567.726318 47032.000000
1569.277954 47619.000000
1570.828857 47328.000000
1572.379028 47105.000000
1573.928223 46992.000000
1575.476074 47519.000000
1577.023438 47762.000000
1578.569824 47620.000000
1580.115356 48210.000000
1581.659912 46695.000000
1583.203247 47029.000000
1584.745972 46709.000000
1586.287842 46943.000000
1587.828613 46548.000000
1589.368408 47481.000000
1590.907471 46615.000000
1592.445435 47379.000000
1593.982910 47135.000000
1595.519043 47463.000000
1597.054077 46646.000000
1598.588623 47099.000000
1600.122192 47318.000000
1601.654907 47258.000000
1603.186035 47011.000000
1604.716919 47048.000000
1606.246948 47502.000000
1607.775757 47196.000000
1609.303467 47220.000000
1610.830566 47287.000000
1612.356934 47460.000000
1613.882324 47037.000000
1615.406860 47545.000000
1616.930054 47568.000000
1618.452515 47685.000000
1619.974243 46744.000000
1621.495117 46273.000000
1623.014526 37734.000000
1624.533447 47157.000000
1626.051636 47295.000000
1627.568970 47325.000000
1629.085205 46938.000000
1630.600098 46260.000000
1632.114502 46502.000000
1633.628174 47537.000000
1635.140747 46602.000000
1636.652100 47337.000000
1638.163086 46849.000000
1639.672974 47016.000000
1641.182007 47018.000000
1642.689697 47547.000000
1644.197021 47086.000000
1645.703491 46070.000000
1647.208984 46977.000000
1648.713623 46381.000000
1650.216797 47042.000000
1651.719360 46588.000000
1653.221558 46864.000000
1654.722412 46502.000000
1656.222168 45717.000000
1657.721069 47160.000000
1659.219604 46609.000000
1660.716919 46957.000000
1662.213501 47199.000000
1663.708496 46618.000000
1665.203247 46808.000000
1666.697144 47969.000000
1668.190063 47570.000000
1669.681641 47161.000000
1671.172729 46752.000000
1672.663208 47084.000000
1674.152588 47143.000000
1675.640503 46137.000000
1677.128174 46304.000000
1678.614868 47033.000000
1680.100708 47764.000000
1681.585693 47026.000000
1683.069214 46859.000000
1684.552490 46935.000000
1686.034912 47227.000000
1687.516235 46891.000000
1688.996094 46895.000000
1690.475708 47523.000000
1691.954590 46511.000000
1693.432495 47058.000000
1694.909424 47009.000000
1696.385132 47358.000000
1697.860474 47067.000000
1699.334595 46774.000000
1700.808105 47616.000000
1702.280151 47471.000000
1703.751953 46243.000000
1705.222778 46730.000000
1706.692749 45981.000000
1708.161377 47967.000000
1709.629517 47206.000000
1711.096924 46802.000000
1712.563232 47640.000000
1714.028931 47362.000000
1715.492920 46895.000000
1716.956787 47108.000000
1718.419800 46032.000000
1719.881836 46720.000000
1721.342651 46495.000000
1722.802856 47615.000000
1724.262329 47407.000000
1725.720947 47012.000000
1727.178589 47060.000000
1728.634888 46790.000000
1730.090942 47062.000000
1731.546021 46549.000000
1733.000122 47016.000000
1734.453003 46201.000000
1735.905640 47047.000000
1737.357178 46296.000000
1738.807983 47122.000000
1740.257813 46448.000000
1741.706299 47102.000000
1743.154419 45699.000000
1744.601685 46475.000000
1746.048218 46412.000000
1747.493164 46301.000000
1748.937866 46909.000000
1750.381714 47170.000000
1751.824707 47558.000000
1753.266235 46389.000000
1754.707520 46654.000000
1756.147949 46625.000000
1757.587402 46596.000000
1759.025879 47695.000000
1760.463379 46817.000000
1761.900391 45332.000000
1763.336426 46951.000000
1764.771606 45761.000000
1766.205322 46698.000000
1767.638916 46446.000000
1769.071533 46171.000000
1770.503296 46977.000000
1771.934204 47041.000000
1773.363892 46441.000000
1774.792847 46627.000000
1776.221313 46461.000000
1777.648804 45989.000000
1779.074951 46482.000000
1780.500854 47122.000000
1781.925659 45803.000000
1783.349854 47157.000000
1784.772583 46111.000000
1786.194824 46139.000000
1787.616333 45755.000000
1789.037109 46782.000000
1790.456909 46707.000000
1791.875366 46529.000000
1793.293335 45826.000000
1794.710693 47130.000000
1796.127197 46648.000000
1797.542236 46142.000000
1798.956909 46731.000000
1800.370972 45981.000000
1801.783813 46604.000000
1803.196045 45649.000000
1804.606934 45520.000000
1806.017334 44895.000000
1807.427002 46214.000000
1808.835693 46667.000000
1810.243286 47214.000000
1811.650391 46217.000000
1813.056641 46246.000000
1814.461914 45952.000000
1815.866089 46591.000000
1817.269897 46641.000000
1818.672729 46333.000000
1820.074707 46560.000000
1821.476074 46700.000000
1822.875977 46210.000000
1824.275269 45950.000000
1825.674072 45921.000000
1827.072021 45099.000000
1828.468628 46784.000000
1829.864624 45761.000000
1831.259888 46611.000000
1832.654541 44334.000000
1834.048218 46406.000000
1835.440552 45648.000000
1836.832397 46026.000000
1838.223633 46539.000000
1839.613892 45324.000000
1841.002930 46381.000000
1842.391602 46279.000000
1843.779297 46359.000000
1845.166260 46485.000000
1846.551880 45428.000000
1847.937256 46341.000000
1849.321777 45857.000000
1850.705566 45893.000000
1852.088257 45818.000000
1853.469727 46772.000000
1854.850708 45597.000000
1856.231201 45794.000000
1857.610718 46422.000000
1858.988770 46171.000000
1860.366699 45787.000000
1861.743652 44189.000000
1863.119873 45929.000000
1864.495239 45916.000000
1865.869141 46366.000000
1867.242920 46189.000000
1868.615845 45702.000000
1869.987671 45938.000000
1871.358521 44999.000000
1872.729004 46443.000000
1874.098389 45774.000000
1875.467285 45692.000000
1876.834595 44648.000000
1878.201782 45759.000000
1879.567993 45855.000000
1880.933472 45056.000000
1882.298218 44300.000000
1883.661377 45016.000000
1885.024414 44843.000000
1886.386597 45330.000000
1887.747925 45248.000000
1889.107910 45984.000000
1890.467529 45848.000000
1891.826538 45514.000000
1893.184570 44981.000000
1894.541748 44391.000000
1895.897705 45725.000000
1897.253418 44036.000000
1898.608154 45793.000000
1899.962036 46023.000000
1901.314819 45673.000000
1902.667114 45681.000000
1904.018677 45639.000000
1905.369385 44754.000000
1906.718872 45110.000000
1908.067871 44987.000000
1909.416016 45814.000000
1910.763550 45518.000000
1912.110352 45340.000000
1913.455566 44827.000000
1914.800537 45486.000000
1916.144775 46092.000000
1917.488159 45061.000000
1918.830200 45507.000000
1920.171997 44850.000000
1921.512939 44571.000000
1922.853149 45301.000000
1924.192383 45170.000000
1925.530640 45135.000000
1926.868286 44980.000000
1928.205200 44407.000000
1929.541260 44626.000000
1930.876099 45768.000000
1932.210571 44562.000000
1933.544312 44089.000000
1934.877197 44941.000000
1936.208618 45427.000000
1937.540161 44816.000000
1938.870361 44483.000000
1940.200073 45281.000000
1941.528931 44957.000000
1942.856567 45175.000000
1944.183716 45999.000000
1945.510132 45169.000000
1946.835815 44446.000000
1948.160156 45147.000000
1949.484253 44267.000000
1950.807495 44493.000000
1952.130005 44342.000000
1953.451416 44871.000000
1954.771851 43206.000000
1956.091675 44541.000000
1957.411133 44979.000000
1958.729614 43573.000000
1960.046753 44513.000000
1961.363525 44436.000000
1962.679565 43679.000000
1963.994873 43545.000000
1965.308716 43782.000000
1966.622314 44282.000000
1967.935181 43584.000000
1969.247192 43861.000000
1970.558594 43678.000000
1971.868652 43391.000000
1973.178223 43680.000000
1974.487061 43325.000000
1975.795288 42854.000000
1977.102173 43247.000000
1978.408447 42034.000000
1979.714355 43684.000000
1981.019043 42770.000000
1982.323242 43263.000000
1983.626221 43317.000000
1984.928833 41428.000000
1986.230469 42740.000000
1987.531494 41959.000000
1988.830933 42637.000000
1990.130493 41843.000000
1991.428955 43152.000000
1992.726929 42216.000000
1994.023315 42199.000000
1995.319702 42461.000000
1996.615112 42525.000000
1997.909790 41633.000000
1999.203613 42335.000000
2000.496216 41417.000000
2001.788330 42194.000000
2003.079956 40655.000000
2004.370850 41306.000000
2005.660156 41358.000000
2006.949219 40790.000000
2008.237549 41544.000000
2009.525146 41351.000000
2010.811890 40760.000000
2012.097534 41680.000000
2013.382813 40955.000000
2014.667114 41301.000000
2015.950806 41547.000000
2017.233154 41063.000000
2018.515137 40713.000000
2019.796631 40350.000000
2021.077148 41198.000000
2022.356934 41002.000000
2023.635620 40278.000000
2024.913574 41214.000000
2026.191040 41037.000000
2027.467896 40743.000000
2028.743042 41231.000000
2030.018311 40356.000000
2031.292603 40888.000000
2032.565918 40962.000000
2033.838379 40814.000000
2035.110474 40619.000000
2036.381470 39680.000000
2037.652222 39904.000000
2038.921631 40393.000000
2040.189941 39520.000000
2041.458252 39491.000000
2042.725586 40055.000000
2043.992188 39788.000000
2045.257568 40130.000000
2046.522339 40008.000000
2047.786865 40159.000000
2049.050049 39611.000000
2050.312988 39011.000000
2051.573975 39127.000000
2052.835449 39045.000000
2054.095703 39093.000000
2055.355225 38497.000000
2056.614014 38611.000000
2057.871826 37898.000000
2059.129150 38514.000000
2060.385742 38554.000000
2061.640869 38034.000000
2062.895996 38802.000000
2064.150146 38752.000000
2065.403564 38700.000000
2066.656250 37393.000000
2067.907715 38064.000000
2069.158936 37852.000000
2070.409424 38412.000000
2071.659180 38528.000000
2072.907471 37827.000000
2074.155762 37419.000000
2075.403076 36352.000000
2076.649658 38107.000000
2077.895508 37433.000000
2079.140137 36435.000000
2080.384277 35790.000000
2081.627930 37724.000000
2082.870605 36974.000000
2084.112061 36117.000000
2085.353271 37007.000000
2086.593994 36617.000000
2087.833740 36056.000000
2089.072266 35615.000000
2090.310303 36363.000000
2091.547607 36578.000000
2092.784668 35707.000000
2094.020264 36225.000000
2095.255127 36042.000000
2096.489746 36167.000000
2097.723389 36492.000000
2098.956055 35986.000000
2100.187988 35111.000000
2101.419434 35416.000000
2102.649902 34910.000000
2103.879639 35480.000000
2105.109131 35323.000000
2106.336670 35222.000000
2107.564453 35131.000000
2108.791504 34808.000000
2110.017578 35685.000000
2111.242188 34867.000000
2112.467041 34432.000000
2113.690674 34253.000000
2114.913818 35020.000000
2116.135742 33779.000000
2117.357422 35266.000000
2118.578125 34424.000000
2119.798096 35114.000000
2121.017578 35091.000000
2122.235596 34614.000000
2123.453613 34099.000000
2124.670654 35160.000000
2125.887207 35112.000000
2127.102051 34430.000000
2128.317139 34556.000000
2129.531250 34026.000000
2130.744629 34843.000000
2131.957275 34416.000000
2133.168457 34704.000000
2134.379883 34035.000000
2135.590088 33713.000000
2136.799805 34490.000000
2138.008057 34120.000000
2139.216309 34571.000000
2140.423828 34277.000000
2141.630127 32759.000000
2142.835693 34019.000000
2144.041016 34032.000000
2145.245361 34149.000000
2146.448975 33450.000000
2147.652100 33430.000000
2148.853760 32997.000000
2150.055176 34016.000000
2151.255859 32943.000000
2152.455811 33055.000000
2153.654541 32927.000000
2154.853027 31905.000000
2156.051025 32341.000000
2157.248047 32231.000000
2158.444336 32739.000000
2159.639404 32541.000000
2160.834229 31642.000000
2162.028320 32097.000000
2163.221436 31635.000000
2164.413574 30679.000000
2165.605469 31434.000000
2166.796631 30883.000000
2167.986816 30771.000000
2169.176270 30371.000000
2170.365234 29882.000000
2171.553223 30240.000000
2172.740967 30462.000000
2173.927246 30214.000000
2175.112793 29529.000000
2176.298096 30076.000000
2177.482910 30208.000000
2178.666504 29900.000000
2179.849365 28776.000000
2181.031250 29869.000000
2182.212891 30011.000000
2183.394043 29351.000000
2184.573975 30148.000000
2185.752930 30252.000000
2186.931396 29626.000000
2188.109619 29107.000000
2189.286621 28915.000000
2190.462646 29316.000000
2191.638428 29780.000000
2192.813721 30244.000000
2193.987549 29283.000000
2195.160889 29874.000000
2196.333984 29935.000000
2197.505859 29836.000000
2198.677246 29173.000000
2199.848145 29885.000000
2201.017334 29220.000000
2202.186523 28513.000000
2203.355225 29575.000000
2204.522949 29797.000000
2205.689697 29957.000000
2206.855713 28473.000000
2208.021240 28893.000000
2209.186523 29373.000000
2210.350342 28514.000000
2211.513672 29766.000000
2212.675781 28950.000000
2213.838135 28994.000000
2214.999268 28470.000000
2216.159424 28436.000000
2217.319092 28639.000000
2218.478516 28275.000000
2219.636719 28496.000000
2220.793945 28385.000000
2221.950928 27943.000000
2223.107178 28057.000000
2224.262695 27715.000000
2225.417480 28060.000000
2226.571289 27801.000000
2227.724121 28066.000000
2228.877441 27161.000000
2230.028809 27753.000000
2231.179932 27739.000000
2232.330322 27358.000000
2233.480225 26196.000000
2234.629150 27262.000000
2235.777588 28039.000000
2236.924561 26569.000000
2238.071777 26375.000000
2239.217773 26999.000000
2240.363525 25895.000000
2241.507568 25621.000000
2242.651855 25715.000000
2243.795166 25887.000000
2244.937744 25779.000000
2246.079346 25798.000000
2247.220703 25790.000000
2248.361084 25445.000000
2249.500732 25197.000000
2250.639893 25423.000000
2251.777832 25284.000000
2252.915771 25016.000000
2254.052734 25687.000000
2255.188965 25133.000000
2256.324219 25294.000000
2257.458740 24528.000000
2258.593018 25152.000000
2259.726807 25891.000000
2260.859131 25574.000000
2261.990967 24760.000000
2263.122314 24697.000000
2264.252686 24535.000000
2265.382813 23373.000000
2266.511719 23972.000000
2267.640137 23948.000000
2268.768066 24134.000000
2269.895020 23767.000000
2271.021240 23971.000000
2272.146484 23837.000000
2273.271729 24044.000000
2274.396240 23999.000000
2275.519531 24181.000000
2276.642090 23925.000000
2277.764160 24298.000000
2278.885742 23544.000000
2280.006592 24029.000000
2281.126221 24018.000000
2282.245361 23613.000000
2283.364258 23116.000000
2284.482422 22872.000000
2285.599609 23555.000000
2286.715820 23360.000000
2287.831787 23151.000000
2288.947021 23311.000000
2290.061523 23132.000000
2291.174805 23830.000000
2292.288086 23448.000000
2293.400635 23673.000000
2294.512451 24018.000000
2295.623535 23564.000000
2296.733398 23763.000000
2297.842773 23935.000000
2298.951904 23751.000000
2300.060059 23856.000000
2301.167236 23715.000000
2302.274170 23850.000000
2303.380371 23639.000000
2304.486084 23406.000000
2305.590332 23316.000000
2306.694336 23401.000000
2307.797852 23423.000000
2308.900879 23226.000000
2310.002686 22872.000000
2311.103760 22771.000000
2312.204346 22886.000000
2313.304443 22899.000000
2314.403809 22787.000000
2315.501709 22693.000000
2316.600098 22734.000000
2317.697021 22279.000000
2318.793701 22539.000000
2319.889893 22646.000000
2320.984375 22146.000000
2322.078857 21907.000000
2323.172607 22018.000000
2324.266113 21721.000000
2325.357910 21976.000000
2326.449707 21647.000000
2327.540771 21855.000000
2328.631104 21723.000000
2329.720459 21639.000000
2330.809814 21880.000000
2331.897949 21697.000000
2332.985596 21597.000000
2334.072998 21477.000000
2335.158691 21398.000000
2336.244141 20927.000000
2337.329346 21205.000000
2338.413574 20753.000000
2339.496826 21005.000000
2340.579834 20748.000000
2341.661865 20294.000000
2342.743652 20630.000000
2343.824707 20406.000000
2344.904541 20225.000000
2345.983887 20355.000000
2347.062744 20124.000000
2348.141113 20183.000000
2349.218018 20120.000000
2350.294678 20126.000000
2351.371094 19958.000000
2352.446533 19824.000000
2353.520996 19869.000000
2354.595215 19661.000000
2355.668701 19459.000000
2356.741699 19444.000000
2357.813477 19325.000000
2358.885010 19410.000000
2359.955566 19239.000000
2361.025879 19242.000000
2362.095215 19076.000000
2363.163574 19066.000000
2364.231689 19089.000000
2365.299072 19045.000000
2366.365967 19053.000000
2367.432129 18923.000000
2368.497070 18727.000000
2369.562012 18469.000000
2370.626221 18477.000000
2371.689697 18590.000000
2372.751953 18598.000000
2373.814209 18843.000000
2374.875488 18549.000000
2375.936523 18446.000000
2376.996338 18541.000000
2378.055420 18375.000000
2379.114502 18390.000000
2380.172607 18490.000000
2381.229980 18516.000000
2382.286377 18129.000000
2383.342529 18170.000000
2384.398193 18211.000000
2385.453125 18151.000000
2386.506592 17969.000000
2387.560303 17879.000000
2388.613037 17955.000000
2389.665283 18117.000000
2390.716797 18154.000000
2391.767334 18242.000000
2392.817627 18014.000000
2393.866943 18213.000000
2394.916260 18153.000000
2395.964111 17957.000000
2397.011475 17812.000000
2398.058594 17867.000000
2399.104736 18027.000000
2400.150146 17747.000000
2401.194824 17906.000000
2402.239502 17593.000000
2403.282715 17578.000000
2404.325928 17701.000000
2405.367676 17803.000000
2406.409668 17808.000000
2407.450928 17723.000000
2408.491211 17756.000000
2409.530762 17930.000000
2410.569336 17610.000000
2411.608154 17669.000000
2412.645752 17593.000000
2413.683105 17587.000000
2414.719238 17648.000000
2415.755127 17572.000000
2416.790283 17441.000000
2417.824951 17426.000000
2418.858154 17362.000000
2419.891602 17352.000000
2420.924072 17341.000000
2421.956299 17173.000000
2422.987061 17088.000000
2424.017822 17104.000000
2425.048096 17096.000000
2426.077148 16903.000000
2427.106201 16786.000000
2428.133545 16751.000000
2429.161377 16721.000000
2430.187988 16473.000000
2431.214355 16610.000000
2432.239258 16299.000000
2433.264404 16378.000000
2434.288574 16130.000000
2435.312500 16315.000000
2436.335205 15944.000000
2437.357178 16115.000000
2438.378906 15896.000000
2439.399902 15937.000000
2440.420410 15825.000000
2441.439697 15636.000000
2442.458984 15470.000000
2443.477295 15233.000000
2444.495361 15366.000000
2445.511963 15354.000000
2446.528564 15296.000000
2447.544434 15343.000000
2448.560303 15270.000000
2449.574707 15172.000000
2450.588379 15217.000000
2451.601563 15067.000000
2452.614502 15106.000000
2453.626709 14936.000000
2454.637939 14972.000000
2455.648926 14959.000000
2456.659180 14970.000000
2457.668945 14645.000000
2458.677734 14881.000000
2459.685791 14804.000000
2460.693848 14746.000000
2461.700684 14591.000000
2462.707275 14535.000000
2463.712646 14250.000000
2464.717773 14388.000000
2465.722656 14368.000000
2466.726318 14310.000000
2467.729736 14406.000000
2468.732178 14479.000000
2469.734375 14592.000000
2470.736084 14444.000000
2471.736816 14203.000000
2472.736572 14127.000000
2473.736328 14118.000000
2474.735107 14145.000000
2475.733398 14088.000000
2476.730713 14053.000000
2477.727783 14247.000000
2478.724854 14140.000000
2479.720459 13955.000000
2480.716064 13892.000000
2481.709961 14286.000000
2482.703857 14070.000000
2483.697266 13985.000000
2484.690186 13974.000000
2485.682129 13912.000000
2486.673340 13896.000000
2487.664307 13965.000000
2488.654785 13986.000000
2489.644287 14012.000000
2490.633057 14167.000000
2491.621826 14016.000000
2492.609619 13874.000000
2493.596191 14000.000000
2494.582764 13820.000000
2495.568848 13870.000000
2496.554199 13915.000000
2497.538574 13841.000000
2498.522705 13932.000000
2499.506836 13844.000000
2500.489502 13755.000000
2501.471680 13759.000000
2502.453369 13701.000000
2503.434326 13607.000000
2504.414795 13668.000000
2505.395020 13701.000000
2506.373779 13613.000000
2507.352295 13526.000000
2508.330322 13486.000000
2509.307861 13431.000000
2510.284424 13454.000000
2511.260742 13430.000000
2512.236328 13504.000000
2513.211426 13432.000000
2514.186035 13158.000000
2515.159424 13141.000000
2516.132568 13048.000000
2517.105469 13116.000000
2518.077393 13001.000000
2519.048584 12820.000000
2520.019287 12818.000000
2520.989746 12672.000000
2521.959473 12707.000000
2522.928223 12514.000000
2523.896240 12556.000000
2524.864258 12580.000000
2525.831299 12433.000000
2526.798096 12613.000000
2527.763672 12411.000000
2528.729248 12477.000000
2529.694092 12300.000000
2530.658447 12262.000000
2531.621582 12211.000000
2532.584961 12266.000000
2533.547363 12149.000000
2534.509521 12213.000000
2535.470459 12368.000000
2536.430664 12303.000000
2537.391113 12167.000000
2538.350586 12234.000000
2539.309326 12306.000000
2540.267090 12067.000000
2541.225098 11858.000000
2542.182373 11731.000000
2543.138672 11709.000000
2544.094727 11812.000000
2545.049561 11609.000000
2546.004639 11368.000000
2546.958984 11446.000000
2547.912598 11425.000000
2548.865234 11224.000000
2549.817627 11363.000000
2550.769531 11500.000000
2551.720703 11289.000000
2552.671143 11206.000000
2553.621094 11100.000000
2554.570801 11159.000000
2555.519775 11161.000000
2556.468262 11210.000000
2557.415527 11024.000000
2558.362793 10968.000000
2559.309326 10914.000000
2560.255371 11009.000000
2561.200439 10863.000000
2562.145264 10988.000000
2563.089600 10831.000000
2564.033447 10980.000000
2564.976807 10750.000000
2565.918701 10874.000000
2566.860840 10633.000000
2567.802246 10638.000000
2568.742920 10753.000000
2569.682861 10711.000000
2570.622803 10764.000000
2571.561768 10658.000000
2572.500488 10653.000000
2573.438232 10627.000000
2574.375732 10578.000000
2575.312500 10616.000000
2576.248535 10837.000000
2577.184082 10646.000000
2578.118896 10743.000000
2579.053711 10808.000000
2579.987549 10596.000000
2580.920898 10737.000000
2581.853516 10688.000000
2582.785889 10614.000000
2583.717529 10688.000000
2584.648682 10547.000000
2585.579346 10506.000000
2586.508789 10503.000000
2587.438232 10435.000000
2588.367188 10452.000000
2589.295898 10391.000000
2590.222900 10432.000000
2591.150146 10390.000000
2592.076904 10294.000000
2593.002930 10405.000000
2593.928711 10390.000000
2594.853271 10212.000000
2595.777588 10240.000000
2596.701416 10295.000000
2597.624756 10358.000000
2598.547119 10344.000000
2599.469238 10220.000000
2600.390869 10072.000000
2601.311768 10243.000000
2602.231934 10400.000000
2603.151855 10192.000000
2604.071289 9996.000000
2604.990479 10020.000000
2605.908691 10070.000000
2606.825684 10044.000000
2607.742920 9901.000000
2608.659912 9844.000000
2609.575928 9705.000000
2610.490723 9700.000000
2611.406006 9744.000000
2612.320557 9786.000000
2613.234131 9756.000000
2614.147705 9694.000000
2615.060059 9592.000000
2615.972412 9697.000000
2616.883789 9576.000000
2617.794922 9600.000000
2618.705322 9437.000000
2619.615479 9525.000000
2620.524902 9338.000000
2621.433838 9333.000000
2622.341797 9291.000000
2623.250000 9262.000000
2624.157227 9274.000000
2625.063965 9161.000000
2625.969971 9146.000000
2626.875732 9190.000000
2627.780762 9127.000000
2628.685547 9060.000000
2629.589600 9022.000000
2630.492676 9048.000000
2631.395752 8924.000000
2632.297852 8915.000000
2633.199951 8932.000000
2634.101807 8992.000000
2635.001953 8741.000000
2635.902344 8804.000000
2636.802002 8898.000000
2637.701416 8837.000000
2638.599365 8573.000000
2639.497803 8686.000000
2640.395752 8535.000000
2641.292969 8656.000000
2642.188965 8691.000000
2643.084961 8523.000000
2643.980713 8537.000000
2644.875732 8510.000000
2645.770508 8297.000000
2646.663818 8491.000000
2647.557129 8345.000000
2648.450195 8253.000000
2649.343018 8263.000000
2650.234131 8354.000000
2651.125488 8449.000000
2652.016357 8105.000000
2652.906494 8122.000000
2653.796387 8225.000000
2654.685059 8036.000000
2655.573975 8162.000000
2656.462402 8075.000000
2657.349854 7971.000000
2658.236328 8010.000000
2659.123291 7971.000000
2660.009521 7932.000000
2660.895264 7897.000000
2661.779785 7953.000000
2662.664307 8133.000000
2663.548584 8001.000000
2664.432129 8048.000000
2665.315186 8102.000000
2666.197510 8082.000000
2667.079346 8074.000000
2667.960449 8047.000000
2668.841797 8103.000000
2669.721680 8123.000000
2670.601807 8092.000000
2671.481201 8028.000000
2672.360596 7981.000000
2673.239258 8063.000000
2674.116211 7913.000000
2674.993896 7977.000000
2675.870850 7880.000000
2676.747070 7835.000000
2677.622803 7849.000000
2678.497803 7897.000000
2679.373047 7750.000000
2680.247314 7877.000000
2681.121094 7630.000000
2681.994141 7734.000000
2682.866943 7562.000000
2683.739502 7767.000000
2684.611328 7535.000000
2685.482422 7489.000000
2686.353271 7525.000000
2687.223633 7561.000000
2688.093750 7433.000000
2688.962158 7495.000000
2689.831299 7490.000000
2690.699707 7430.000000
2691.567871 7482.000000
2692.435303 7258.000000
2693.301514 7458.000000
2694.168213 7249.000000
2695.033936 7327.000000
2695.899658 7267.000000
2696.763916 7168.000000
2697.628906 7217.000000
2698.492432 7090.000000
2699.356201 7145.000000
2700.218506 7150.000000
2701.081299 7016.000000
2701.943115 7194.000000
2702.804443 7060.000000
2703.665771 7214.000000
2704.525879 6904.000000
2705.385986 7101.000000
2706.245605 6937.000000
2707.104980 6805.000000
2707.962646 6856.000000
2708.820557 6844.000000
2709.678955 6882.000000
2710.536133 6831.000000
2711.392578 6846.000000
2712.248535 6744.000000
2713.104492 6687.000000
2713.959717 6776.000000
2714.814209 6666.000000
2715.668213 6688.000000
2716.522217 6697.000000
2717.375244 6603.000000
2718.228516 6664.000000
2719.080078 6544.000000
2719.932129 6487.000000
2720.783936 6515.000000
2721.634521 6650.000000
2722.485107 6551.000000
2723.335205 6551.000000
2724.184570 6410.000000
2725.033936 6425.000000
2725.882080 6455.000000
2726.729736 6459.000000
2727.577881 6342.000000
2728.424805 6392.000000
2729.272217 6519.000000
2730.118164 6418.000000
2730.963379 6330.000000
2731.809082 6444.000000
2732.653809 6408.000000
2733.498535 6294.000000
2734.342041 6275.000000
2735.185791 6416.000000
2736.028809 6288.000000
2736.871338 6341.000000
2737.712891 6349.000000
2738.554932 6271.000000
2739.395996 6311.000000
2740.236816 6269.000000
2741.077393 6274.000000
2741.916748 6186.000000
2742.756104 6289.000000
2743.595459 6127.000000
2744.433594 6263.000000
2745.271240 6171.000000
2746.108887 6212.000000
2746.946045 6206.000000
2747.782959 6182.000000
2748.619385 6170.000000
2749.454590 6122.000000
2750.290039 6119.000000
2751.125000 6172.000000
2751.959229 6120.000000
2752.793213 6047.000000
2753.626709 6068.000000
2754.460205 6026.000000
2755.292725 6024.000000
2756.124756 5940.000000
2756.956299 6010.000000
2757.787842 6017.000000
2758.618408 6105.000000
2759.449219 5835.000000
2760.278809 5888.000000
2761.108398 5960.000000
2761.937744 5875.000000
2762.766357 5838.000000
2763.594482 5873.000000
2764.422119 5892.000000
2765.249756 5757.000000
2766.076904 5794.000000
2766.903320 5724.000000
2767.729248 5645.000000
2768.554688 5724.000000
2769.379883 5510.000000
2770.205078 5659.000000
2771.029053 5617.000000
2771.853027 5646.000000
2772.677002 5439.000000
2773.499756 5432.000000
2774.322754 5378.000000
2775.144531 5455.000000
2775.966309 5396.000000
2776.788086 5386.000000
2777.608887 5287.000000
2778.428955 5375.000000
2779.249268 5291.000000
2780.069092 5268.000000
2780.888916 5169.000000
2781.706787 5243.000000
2782.525879 5295.000000
2783.343750 5387.000000
2784.161377 5364.000000
2784.978516 5319.000000
2785.795166 5142.000000
2786.611572 5054.000000
2787.427490 5169.000000
2788.243164 5127.000000
2789.057861 5018.000000
2789.873047 5097.000000
2790.687500 5000.000000
2791.501465 5027.000000
2792.315186 5059.000000
2793.127686 4883.000000
2793.940430 4881.000000
2794.752686 5057.000000
2795.564453 5074.000000
2796.375488 5067.000000
2797.187256 5015.000000
2797.997803 5063.000000
2798.808350 5050.000000
2799.617432 4968.000000
2800.427246 5039.000000
2801.236328 4957.000000
2802.045166 4835.000000
2802.853516 5020.000000
2803.660889 4840.000000
2804.468750 4901.000000
2805.275879 4903.000000
2806.082764 4894.000000
2806.888428 4937.000000
2807.694580 4820.000000
2808.500000 4831.000000
2809.305420 4871.000000
2810.110107 4979.000000
2810.913818 4803.000000
2811.718018 4744.000000
2812.521729 4846.000000
2813.325195 4782.000000
2814.127197 4749.000000
2814.929932 4745.000000
2815.731934 4684.000000
2816.533691 4676.000000
2817.334961 4760.000000
2818.135742 4751.000000
2818.936035 4638.000000
2819.736572 4644.000000
2820.536133 4612.000000
2821.335205 4655.000000
2822.134277 4593.000000
2822.933105 4680.000000
2823.731445 4565.000000
2824.528809 4720.000000
2825.326416 4535.000000
2826.123291 4593.000000
2826.920410 4537.000000
2827.716797 4345.000000
2828.512451 4504.000000
2829.308105 4474.000000
2830.103516 4362.000000
2830.898438 4461.000000
2831.692627 4542.000000
2832.486816 4560.000000
2833.280762 4541.000000
2834.074219 4315.000000
2834.866943 4403.000000
2835.659424 4389.000000
2836.451904 4409.000000
2837.244141 4453.000000
2838.035889 4418.000000
2838.826660 4243.000000
2839.617432 4271.000000
2840.408447 4290.000000
2841.198486 4346.000000
2841.988037 4316.000000
2842.777832 4190.000000
2843.566650 4193.000000
2844.355469 4192.000000
2845.144287 4265.000000
2845.932129 4112.000000
2846.719482 4203.000000
2847.507080 4102.000000
2848.294189 4104.000000
2849.080566 4177.000000
2849.866943 4148.000000
2850.653076 4127.000000
2851.438721 4107.000000
2852.223389 4080.000000
2853.008545 4194.000000
2853.793457 4140.000000
2854.577637 4083.000000
2855.361816 4115.000000
2856.144775 4029.000000
2856.927979 4128.000000
2857.710938 4033.000000
2858.493408 3962.000000
2859.275635 4085.000000
2860.057373 3923.000000
2860.838867 4000.000000
2861.620605 3939.000000
2862.401611 3917.000000
2863.181885 3931.000000
2863.961914 3985.000000
2864.741943 3920.000000
2865.521729 3903.000000
2866.300537 4018.000000
2867.079590 4022.000000
2867.858154 4053.000000
2868.636475 4007.000000
2869.414307 4050.000000
2870.191895 4120.000000
2870.969238 4028.000000
2871.746338 4170.000000
2872.522949 4118.000000
2873.299072 4152.000000
2874.075195 4197.000000
2874.850830 4031.000000
2875.626221 4181.000000
2876.401123 4139.000000
2877.175781 4012.000000
2877.950439 4063.000000
2878.724854 4086.000000
2879.498535 4093.000000
2880.271484 3901.000000
2881.045166 4117.000000
2881.817871 4018.000000
2882.590576 3952.000000
2883.362549 3902.000000
2884.134277 3946.000000
2884.906494 3921.000000
2885.677490 3908.000000
2886.447998 3876.000000
2887.218994 3876.000000
2887.989990 3929.000000
2888.760254 3862.000000
2889.529541 3788.000000
2890.299072 3945.000000
2891.068604 3916.000000
2891.837646 3866.000000
2892.606201 3737.000000
2893.374756 3837.000000
2894.142334 3893.000000
2894.910400 3756.000000
2895.677979 3840.000000
2896.445557 3771.000000
2897.211914 3699.000000
2897.979248 3586.000000
2898.745361 3564.000000
2899.511719 3668.000000
2900.276611 3705.000000
2901.041992 3622.000000
2901.807861 3624.000000
2902.572266 3677.000000
2903.336670 3696.000000
2904.101318 3613.000000
2904.864990 3703.000000
2905.629395 3428.000000
2906.393066 3489.000000
2907.156006 3560.000000
2907.918701 3562.000000
2908.681885 3467.000000
2909.444580 3451.000000
2910.206055 3466.000000
2910.968018 3466.000000
spectrumdark 2048
-97.262711 6180.000000
-94.635841 6180.000000
-92.010849 6118.000000
-89.387749 6461.000000
-86.766518 5870.000000
-84.147186 6278.000000
-81.529716 6121.000000
-78.914124 6413.000000
-76.300407 6267.000000
-73.688568 5865.000000
-71.078590 6149.000000
-68.470497 5998.000000
-65.864250 6031.000000
-63.259884 6046.000000
-60.657375 6179.000000
-58.056721 5615.000000
-55.457928 6216.000000
-52.860992 6915.000000
-50.265911 6513.000000
-47.672684 6551.000000
-45.081306 6278.000000
-42.491776 6784.000000
-39.904087 5927.000000
-37.318249 6127.000000
-34.734253 6482.000000
-32.152092 5725.000000
-29.571781 6372.000000
-26.993296 5735.000000
-24.416653 6143.000000
-21.841835 6245.000000
-19.268858 6494.000000
-16.697701 6501.000000
-14.128376 6827.000000
-11.560878 7762.000000
-8.995198 6363.000000
-6.431345 6521.000000
-3.869304 5999.000000
-1.309088 5851.000000
1.249320 6168.000000
3.805907 6967.000000
6.360689 6691.000000
8.913654 5987.000000
11.464819 6759.000000
14.014171 6493.000000
16.561726 6771.000000
19.107470 6006.000000
21.651421 5766.000000
24.193567 6655.000000
26.733917 6814.000000
29.272482 6867.000000
31.809250 6217.000000
34.344215 5793.000000
36.877403 7219.000000
39.408810 6337.000000
41.938423 7179.000000
44.466240 6498.000000
46.992298 7883.000000
49.516567 5751.000000
52.039066 6247.000000
54.559769 6775.000000
57.078716 6317.000000
59.595890 6439.000000
62.111286 6655.000000
64.624908 5678.000000
67.136772 5763.000000
69.646889 6507.000000
72.155212 6570.000000
74.661781 5943.000000
77.166603 6397.000000
79.669670 6482.000000
82.170959 6302.000000
84.670509 6208.000000
87.168304 6346.000000
89.664368 5779.000000
92.158653 7212.000000
94.651199 5816.000000
97.142029 6945.000000
99.631088 7232.000000
102.118401 6386.000000
104.603989 6269.000000
107.087837 6393.000000
109.569939 5838.000000
112.050316 6589.000000
114.528969 6301.000000
117.005898 6442.000000
119.481071 7295.000000
121.954536 6833.000000
124.426270 5970.000000
126.896294 6802.000000
129.364563 6261.000000
131.831161 6314.000000
134.296005 5755.000000
136.759155 6241.000000
139.220566 7196.000000
141.680283 6842.000000
144.138275 6412.000000
146.594574 6031.000000
149.049164 5875.000000
151.502029 6860.000000
153.953217 6416.000000
156.402710 6664.000000
158.850479 6158.000000
161.296539 6627.000000
163.740921 8757.000000
166.183624 6452.000000
168.624634 6773.000000
171.063934 6264.000000
173.501526 7182.000000
175.937485 6627.000000
178.371704 6985.000000
180.804245 7130.000000
183.235138 6661.000000
185.664307 6732.000000
188.091827 6759.000000
190.517670 6379.000000
192.941833 6669.000000
195.364334 7195.000000
197.785141 7425.000000
200.204285 6526.000000
202.621765 6038.000000
205.037552 7718.000000
207.451691 7106.000000
209.864197 6402.000000
212.275024 6097.000000
214.684174 6281.000000
217.091690 7413.000000
219.497498 6224.000000
221.901718 6509.000000
224.304230 6755.000000
226.705124 6931.000000
229.104370 6503.000000
231.501953 6880.000000
233.897873 7302.000000
236.292175 6575.000000
238.684814 5866.000000
241.075836 6799.000000
243.465195 6577.000000
245.852936 6405.000000
248.239029 7011.000000
250.623489 6137.000000
253.006302 7955.000000
255.387543 6683.000000
257.767059 6719.000000
260.145020 6482.000000
262.521301 7602.000000
264.896027 7542.000000
267.269104 7927.000000
269.640533 6235.000000
272.010315 6472.000000
274.378540 5981.000000
276.745117 6417.000000
279.110107 6767.000000
281.473480 6091.000000
283.835205 6229.000000
286.195343 7191.000000
288.553864 6139.000000
290.910797 6602.000000
293.266113 6482.000000
295.619843 6003.000000
297.971924 5991.000000
300.322449 6342.000000
302.671387 6341.000000
305.018677 6821.000000
307.364441 6438.000000
309.708527 6503.000000
312.051086 7353.000000
314.392029 7606.000000
316.731354 7191.000000
319.069122 6956.000000
321.405334 8147.000000
323.739899 6278.000000
326.072906 6536.000000
328.404358 6063.000000
330.734222 6589.000000
333.062500 6346.000000
335.389160 7285.000000
337.714325 6337.000000
340.037872 6226.000000
342.359863 6039.000000
344.680298 7557.000000
346.999115 7682.000000
349.316376 6014.000000
351.632111 5840.000000
353.946259 6954.000000
356.258820 6402.000000
358.569824 6461.000000
360.879303 7088.000000
363.187256 6408.000000
365.493591 5676.000000
367.798340 6376.000000
370.101624 6454.000000
372.403290 6281.000000
374.703461 6360.000000
377.002075 6289.000000
379.299133 5753.000000
381.594635 6129.000000
383.888611 5978.000000
386.181000 5217.000000
388.471893 5643.000000
390.761261 6223.000000
393.049042 6271.000000
395.335297 6561.000000
397.620056 6926.000000
399.903198 6023.000000
402.184906 6415.000000
404.465088 6151.000000
406.743683 7246.000000
409.020752 6468.000000
411.296295 6714.000000
413.570313 6515.000000
415.842896 6402.000000
418.113861 6217.000000
420.383331 6476.000000
422.651306 7161.000000
424.917725 7286.000000
427.182648 6321.000000
429.446106 6359.000000
431.707977 6533.000000
433.968384 6019.000000
436.227234 6717.000000
438.484619 6095.000000
440.740509 5710.000000
442.994904 5823.000000
445.247772 5499.000000
447.499084 6962.000000
449.748993 6155.000000
451.997314 6297.000000
454.244202 5707.000000
456.489624 6523.000000
458.733490 6489.000000
460.975861 6827.000000
463.216736 5710.000000
465.456207 6718.000000
467.694092 5542.000000
469.930542 5810.000000
472.165466 6119.000000
474.398926 7372.000000
476.630951 6745.000000
478.861450 5713.000000
481.090454 6517.000000
483.317993 6399.000000
485.544037 6045.000000
487.768646 6595.000000
489.991791 5919.000000
492.213470 6491.000000
494.433594 6743.000000
496.652313 5710.000000
498.869537 6267.000000
501.085388 5551.000000
503.299622 6191.000000
505.512543 6499.000000
507.723877 6485.000000
509.933777 6947.000000
512.142273 6551.000000
514.349365 6591.000000
516.554871 6431.000000
518.758972 6574.000000
520.961548 6238.000000
523.162720 6602.000000
525.362549 6663.000000
527.560852 6934.000000
529.757629 5401.000000
531.953064 5785.000000
534.146973 5580.000000
536.339539 7567.000000
538.530579 6773.000000
540.720215 6046.000000
542.908447 6935.000000
545.095154 7225.000000
547.280396 6842.000000
549.464355 6215.000000
551.646729 6436.000000
553.827759 6226.000000
556.007263 6099.000000
558.185486 5904.000000
560.362183 6030.000000
562.537476 6405.000000
564.711365 6496.000000
566.883789 5966.000000
569.054810 6025.000000
571.224365 6336.000000
573.392639 5327.000000
575.559387 6480.000000
577.724670 6321.000000
579.888550 6135.000000
582.051147 5745.000000
584.212219 6083.000000
586.371887 5645.000000
588.530212 5854.000000
590.687012 6195.000000
592.842468 6599.000000
594.996521 5779.000000
597.149231 6151.000000
599.300415 7285.000000
601.450256 6838.000000
603.598755 6775.000000
605.745667 6002.000000
607.891357 6567.000000
610.035645 6447.000000
612.178467 6709.000000
614.319824 6218.000000
616.459961 6485.000000
618.598572 7618.000000
620.735901 5791.000000
622.871765 6619.000000
625.006226 6945.000000
627.139221 7215.000000
629.271057 6616.000000
631.401428 6647.000000
633.530396 6819.000000
635.657898 6526.000000
637.784119 6123.000000
639.908813 7325.000000
642.032288 6383.000000
644.154419 6839.000000
646.275085 6865.000000
648.394409 6547.000000
650.512329 5667.000000
652.628906 5727.000000
654.744080 6466.000000
656.857910 6503.000000
658.970276 5910.000000
661.081421 6138.000000
663.191162 5443.000000
665.299438 6616.000000
667.406555 6343.000000
669.512207 6773.000000
671.616394 5701.000000
673.719360 5771.000000
675.820923 7009.000000
677.921143 5387.000000
680.019958 6791.000000
682.117432 6286.000000
684.213623 7011.000000
686.308350 6287.000000
688.401855 7035.000000
690.494019 6607.000000
692.584656 7981.000000
694.674072 6699.000000
696.762207 6527.000000
698.848877 6051.000000
700.934326 6775.000000
703.018250 5095.000000
705.100952 5963.000000
707.182373 6018.000000
709.262329 7643.000000
711.341064 6210.000000
713.418335 5607.000000
715.494324 6651.000000
717.569031 6117.000000
719.642456 6919.000000
721.714355 6269.000000
723.785095 7379.000000
725.854492 5779.000000
727.922485 6531.000000
729.989136 6443.000000
732.054565 7043.000000
734.118652 5754.000000
736.181396 6147.000000
738.242798 6599.000000
740.302917 6666.000000
742.361633 6083.000000
744.419128 6645.000000
746.475342 6498.000000
748.530151 6707.000000
750.583679 6417.000000
752.635803 7498.000000
754.686707 5815.000000
756.736389 6697.000000
758.784607 6375.000000
760.831604 6211.000000
762.877319 7136.000000
764.921631 5419.000000
766.964661 5795.000000
769.006470 14934.000000
771.046936 6927.000000
773.085999 6397.000000
775.123901 6110.000000
777.160461 6015.000000
779.195801 5389.000000
781.229797 5818.000000
783.262390 6927.000000
785.293823 5528.000000
787.323853 11694.000000
789.352600 6139.000000
791.380188 6357.000000
793.406433 6350.000000
795.431274 5893.000000
797.455017 5548.000000
799.477356 6410.000000
801.498474 5967.000000
803.518250 6677.000000
805.536743 4938.000000
807.554016 6769.000000
809.569885 6861.000000
811.584595 5754.000000
813.597961 6474.000000
815.610107 6265.000000
817.621033 6078.000000
819.630615 6591.000000
821.638977 5329.000000
823.645935 5748.000000
825.651672 6078.000000
827.656189 5757.000000
829.659424 5694.000000
831.661377 6463.000000
833.662048 6141.000000
835.661499 5933.000000
837.659607 6342.000000
839.656616 7057.000000
841.652222 6279.000000
843.646667 5859.000000
845.639771 6191.000000
847.631653 6900.000000
849.622192 5602.000000
851.611450 6831.000000
853.599670 5942.000000
855.586487 5747.000000
857.572083 6437.000000
859.556396 7232.000000
861.539612 6342.000000
863.521423 6376.000000
865.502014 5950.000000
867.481323 7763.000000
869.459473 7200.000000
871.436279 6164.000000
873.411804 6032.000000
875.386292 6225.000000
877.359314 6114.000000
879.331299 5465.000000
881.301941 6513.000000
883.271423 6128.000000
885.239563 5651.000000
887.206543 5240.000000
889.172180 6134.000000
891.136658 5791.000000
893.099915 6028.000000
895.061951 6526.000000
897.022705 5824.000000
898.982239 6425.000000
900.940491 6706.000000
902.897644 6373.000000
904.853638 6053.000000
906.808228 6860.000000
908.761597 6554.000000
910.713806 6456.000000
912.664795 6411.000000
914.614502 7139.000000
916.563049 6356.000000
918.510376 6184.000000
920.456421 6192.000000
922.401184 6095.000000
924.344910 6314.000000
926.287476 5949.000000
928.228760 5641.000000
930.168701 6492.000000
932.107544 5766.000000
934.045105 5549.000000
935.981445 5967.000000
937.916626 5851.000000
939.850525 6149.000000
941.783325 5920.000000
943.714905 6818.000000
945.645325 5258.000000
947.574524 6474.000000
949.502380 7011.000000
951.429199 6696.000000
953.354736 5988.000000
955.278992 5432.000000
957.202148 6053.000000
959.124146 6755.000000
961.044861 7376.000000
962.964417 6505.000000
964.882813 5344.000000
966.800171 6455.000000
968.716064 6394.000000
970.630859 6208.000000
972.544434 6018.000000
974.456848 6472.000000
976.368042 6562.000000
978.278076 5549.000000
980.186829 6189.000000
982.094543 6132.000000
984.001038 6389.000000
985.906311 5761.000000
987.810486 6750.000000
989.713440 6214.000000
991.615173 6896.000000
993.515747 6651.000000
995.415161 6643.000000
997.313354 5292.000000
999.210388 6556.000000
1001.106201 6512.000000
1003.000854 7595.000000
1004.894409 5658.000000
1006.786682 7184.000000
1008.678040 6144.000000
1010.568054 5404.000000
1012.456848 6611.000000
1014.344482 6352.000000
1016.230957 6889.000000
1018.116272 6688.000000
1020.000427 5985.000000
1021.883362 5902.000000
1023.765259 6233.000000
1025.645874 5199.000000
1027.525391 5828.000000
1029.403931 6110.000000
1031.281128 5481.000000
1033.156982 6274.000000
1035.031860 5951.000000
1036.905762 6612.000000
1038.778198 7073.000000
1040.649658 6735.000000
1042.519775 5532.000000
1044.388916 5502.000000
1046.256836 5788.000000
1048.123657 7003.000000
1049.989380 6742.000000
1051.853882 6469.000000
1053.717285 6468.000000
1055.579346 6557.000000
1057.440430 5906.000000
1059.300415 6468.000000
1061.159058 6654.000000
1063.016602 5816.000000
1064.873047 6715.000000
1066.728394 5964.000000
1068.582520 5833.000000
1070.435791 6289.000000
1072.287598 6392.000000
1074.138428 6178.000000
1075.988037 6116.000000
1077.836426 5822.000000
1079.683960 7987.000000
1081.530151 5584.000000
1083.375122 6249.000000
1085.219238 5517.000000
1087.062012 5464.000000
1088.903564 6574.000000
1090.744385 5496.000000
1092.583618 5839.000000
1094.422119 6070.000000
1096.259277 6117.000000
1098.095215 6813.000000
1099.930176 6665.000000
1101.763916 5451.000000
1103.596680 5716.000000
1105.428101 6202.000000
1107.258667 7266.000000
1109.087891 6551.000000
1110.916138 6490.000000
1112.743164 7145.000000
1114.569214 5409.000000
1116.394043 6372.000000
1118.217773 7142.000000
1120.040283 6096.000000
1121.861694 5899.000000
1123.682251 5955.000000
1125.501343 6628.000000
1127.319580 7092.000000
1129.136475 6885.000000
1130.952515 6722.000000
1132.767334 6479.000000
1134.581055 5628.000000
1136.393677 5845.000000
1138.205078 5655.000000
1140.015503 6153.000000
1141.824829 6859.000000
1143.632813 6989.000000
1145.440063 5971.000000
1147.245850 5895.000000
1149.050781 5378.000000
1150.854614 5434.000000
1152.657227 6122.000000
1154.458984 6098.000000
1156.259277 6091.000000
1158.058594 6164.000000
1159.856934 5908.000000
1161.653931 5504.000000
1163.450195 5917.000000
1165.245117 6087.000000
1167.038940 6344.000000
1168.831909 7757.000000
1170.623535 5744.000000
1172.414185 6523.000000
1174.203857 6035.000000
1175.992065 5873.000000
1177.779419 7455.000000
1179.565674 6772.000000
1181.350830 5819.000000
1183.134888 6015.000000
1184.917847 7726.000000
1186.699829 5891.000000
1188.480591 5921.000000
1190.260376 6402.000000
1192.039063 6943.000000
1193.816772 6720.000000
1195.593262 7275.000000
1197.368652 6582.000000
1199.142944 6529.000000
1200.916138 6647.000000
1202.688477 6661.000000
1204.459473 6738.000000
1206.229614 5752.000000
1207.998535 6099.000000
1209.766357 6358.000000
1211.533325 5775.000000
1213.298950 5877.000000
1215.063599 6921.000000
1216.827148 6583.000000
1218.589600 5893.000000
1220.351196 6731.000000
1222.111572 5959.000000
1223.870850 6270.000000
1225.629272 6075.000000
1227.386475 7139.000000
1229.142578 6523.000000
1230.897583 5575.000000
1232.651733 6045.000000
1234.404541 5814.000000
1236.156372 6051.000000
1237.907349 5974.000000
1239.656982 4994.000000
1241.405762 7002.000000
1243.153198 6524.000000
1244.899902 6650.000000
1246.645386 6504.000000
1248.390015 6469.000000
1250.133301 6797.000000
1251.875610 6716.000000
1253.616821 5380.000000
1255.357178 5073.000000
1257.096436 5834.000000
1258.834473 6590.000000
1260.571655 7129.000000
1262.307617 6124.000000
1264.042603 6446.000000
1265.776611 7241.000000
1267.509644 6041.000000
1269.241455 6238.000000
1270.972290 6497.000000
1272.701904 7257.000000
1274.430664 5942.000000
1276.158325 5679.000000
1277.884888 5604.000000
1279.610596 5602.000000
1281.334961 6474.000000
1283.058472 5273.000000
1284.781006 6911.000000
1286.502563 6577.000000
1288.222900 6196.000000
1289.942261 6720.000000
1291.660522 7299.000000
1293.377808 6458.000000
1295.094116 5735.000000
1296.809204 6396.000000
1298.523315 6132.000000
1300.236450 5842.000000
1301.948730 6461.000000
1303.659790 8306.000000
1305.369873 5281.000000
1307.078857 6336.000000
1308.786621 6708.000000
1310.493774 7047.000000
1312.199463 5761.000000
1313.904419 6922.000000
1315.608398 6185.000000
1317.311157 5992.000000
1319.012939 6594.000000
1320.713867 5966.000000
1322.413452 9337.000000
1324.112183 7468.500000
1325.810181 5600.000000
1327.506836 6469.000000
1329.202393 7169.000000
1330.897095 6811.000000
1332.590576 5762.000000
1334.283203 5377.000000
1335.974976 7430.000000
1337.665405 6286.000000
1339.355103 6622.000000
1341.043701 6121.000000
1342.731201 7595.000000
1344.417725 5660.000000
1346.103149 6796.000000
1347.787598 5933.000000
1349.471191 7299.000000
1351.153564 6499.000000
1352.834961 5981.000000
1354.515503 6565.000000
1356.194824 6746.000000
1357.873535 5951.000000
1359.550903 6602.000000
1361.227173 5763.000000
1362.902466 5618.000000
1364.577026 6584.000000
1366.250366 6515.000000
1367.922729 6725.000000
1369.594116 5146.000000
1371.264526 6789.000000
1372.933838 6165.000000
1374.602173 5719.000000
1376.269653 6007.000000
1377.936035 6552.000000
1379.601440 6170.000000
1381.265869 5886.000000
1382.929077 5898.000000
1384.591675 5770.000000
1386.252930 6381.000000
1387.913330 6653.000000
1389.572632 6472.000000
1391.230957 6525.000000
1392.888550 6857.000000
1394.544922 6566.000000
1396.200439 7067.000000
1397.854736 6328.000000
1399.508179 5878.000000
1401.160522 6246.000000
1402.812134 6508.000000
1404.462524 7175.000000
1406.111816 6273.000000
1407.760376 7560.000000
1409.407837 7865.000000
1411.054321 6152.000000
1412.699951 6298.000000
1414.344604 6047.000000
1415.988037 7008.000000
1417.630615 7102.000000
1419.272095 6932.000000
1420.912720 6545.000000
1422.552368 6499.000000
1424.190918 6069.000000
1425.828613 6648.000000
1427.465210 6381.000000
1429.100830 6019.000000
1430.735718 6343.000000
1432.369507 5923.000000
1434.002197 6093.000000
1435.633911 5734.000000
1437.264771 6147.000000
1438.894531 6090.000000
1440.523193 7751.000000
1442.151245 6014.000000
1443.778198 6277.000000
1445.403931 6247.000000
1447.029053 6148.000000
1448.653076 6502.000000
1450.276123 6069.000000
1451.898193 6023.000000
1453.519165 7431.000000
1455.139160 6325.000000
1456.758423 6928.000000
1458.376343 5698.000000
1459.993652 5644.000000
1461.609985 5590.000000
1463.225098 7258.000000
1464.839355 6260.000000
1466.452759 5229.000000
1468.065063 5632.000000
1469.676514 6372.000000
1471.287109 6373.000000
1472.896484 5996.000000
1474.504883 6026.000000
1476.112427 6136.000000
1477.718994 6772.000000
1479.324829 5363.000000
1480.929443 6316.000000
1482.533203 5573.000000
1484.135742 6829.000000
1485.737671 5532.000000
1487.338379 5554.000000
1488.938354 5680.000000
1490.537231 6278.000000
1492.135254 6486.000000
1493.732178 6648.000000
1495.328247 6348.000000
1496.923340 6061.000000
1498.517456 5537.000000
1500.110840 6501.000000
1501.703125 5592.000000
1503.294189 6192.000000
1504.884766 6794.000000
1506.473999 6510.000000
1508.062622 6163.000000
1509.650146 6533.000000
1511.236572 6892.000000
1512.822266 6244.000000
1514.406860 6620.000000
1515.990601 6219.000000
1517.573242 6119.000000
1519.155151 6632.000000
1520.735962 6612.000000
1522.316040 6101.000000
1523.894897 6274.000000
1525.472900 6387.000000
1527.050171 6304.000000
1528.626221 5713.000000
1530.201538 5934.000000
1531.775757 6233.000000
1533.349243 5442.000000
1534.921509 5957.000000
1536.493042 6427.000000
1538.063599 6392.000000
1539.633301 6403.000000
1541.201782 5420.000000
1542.769531 6635.000000
1544.336426 5654.000000
1545.902100 6833.000000
1547.467041 5951.000000
1549.030884 5148.000000
1550.594116 7466.000000
1552.156006 6344.000000
1553.717285 6007.000000
1555.277466 5794.000000
1556.836914 5768.000000
1558.395264 5856.000000
1559.952881 6305.000000
1561.509399 7014.000000
1563.064697 5861.000000
1564.619385 6329.000000
1566.173340 5701.000000
1567.726318 6335.000000
1569.277954 5752.000000
1570.828857 6023.000000
1572.379028 6230.000000
1573.928223 6358.000000
1575.476074 5807.000000
1577.023438 5561.000000
1578.569824 5686.000000
1580.115356 5120.000000
1581.659912 6673.000000
1583.203247 6323.000000
1584.745972 6638.000000
1586.287842 6421.000000
1587.828613 6752.000000
1589.368408 5827.000000
1590.907471 6698.000000
1592.445435 5968.000000
1593.982910 6190.000000
1595.519043 5877.000000
1597.054077 6711.000000
1598.588623 6268.000000
1600.122192 6008.000000
1601.654907 6065.000000
1603.186035 6314.000000
1604.716919 6290.000000
1606.246948 5801.000000
1607.775757 6133.000000
1609.303467 6146.000000
1610.830566 6072.000000
1612.356934 5864.000000
1613.882324 6330.000000
1615.406860 5830.000000
1616.930054 5789.000000
1618.452515 5645.000000
1619.974243 6576.000000
1621.495117 7009.000000
1623.014526 15592.000000
1624.533447 6182.000000
1626.051636 6046.000000
1627.568970 5960.000000
1629.085205 6343.000000
1630.600098 7081.000000
1632.114502 6817.000000
1633.628174 5785.000000
1635.140747 6721.000000
1636.652100 5962.000000
1638.163086 6434.000000
1639.672974 6251.000000
1641.182007 6203.000000
1642.689697 5703.000000
1644.197021 6129.000000
1645.703491 7157.000000
1647.208984 6270.000000
1648.713623 6846.000000
1650.216797 6194.000000
1651.719360 6619.000000
1653.221558 6347.000000
1654.722412 6708.000000
1656.222168 7517.000000
1657.721069 6020.000000
1659.219604 6558.000000
1660.716919 6246.000000
1662.213501 5953.000000
1663.708496 6551.000000
1665.203247 6377.000000
1666.697144 5229.000000
1668.190063 5621.000000
1669.681641 6032.000000
1671.172729 6443.000000
1672.663208 6091.000000
1674.152588 5978.000000
1675.640503 6998.000000
1677.128174 6851.000000
1678.614868 6130.000000
1680.100708 5414.000000
1681.585693 6097.000000
1683.069214 6268.000000
1684.552490 6203.000000
1686.034912 5900.000000
1687.516235 6241.000000
1688.996094 6227.000000
1690.475708 5604.000000
1691.954590 6622.000000
1693.432495 6037.000000
1694.909424 6119.000000
1696.385132 5783.000000
1697.860474 6092.000000
1699.334595 6381.000000
1700.808105 5487.000000
1702.280151 5634.000000
1703.751953 6879.000000
1705.222778 6397.000000
1706.692749 7174.000000
1708.161377 5191.000000
1709.629517 5909.000000
1711.096924 6351.000000
1712.563232 5494.000000
1714.028931 5741.000000
1715.492920 6218.000000
1716.956787 6015.000000
1718.419800 7047.000000
1719.881836 6369.000000
1721.342651 6615.000000
1722.802856 5508.000000
1724.262329 5715.000000
1725.720947 6111.000000
1727.178589 6047.000000
1728.634888 6278.000000
1730.090942 6021.000000
1731.546021 6543.000000
1733.000122 6038.000000
1734.453003 6870.000000
1735.905640 6021.000000
1737.357178 6758.000000
1738.807983 5923.000000
1740.257813 6605.000000
1741.706299 5960.000000
1743.154419 7314.000000
1744.601685 6517.000000
1746.048218 6626.000000
1747.493164 6738.000000
1748.937866 6164.000000
1750.381714 5824.000000
1751.824707 5487.000000
1753.266235 6576.000000
1754.707520 6348.000000
1756.147949 6354.000000
1757.587402 6360.000000
1759.025879 5243.000000
1760.463379 6089.000000
1761.900391 7560.000000
1763.336426 5955.000000
1764.771606 7132.000000
1766.205322 6182.000000
1767.638916 6439.000000
1769.071533 6665.000000
1770.503296 5867.000000
1771.934204 5785.000000
1773.363892 6352.000000
1774.792847 6167.000000
1776.221313 6315.000000
1777.648804 6743.000000
1779.074951 6274.000000
1780.500854 5617.000000
1781.925659 6938.000000
1783.349854 5623.000000
1784.772583 6650.000000
1786.194824 6609.000000
1787.616333 6967.000000
1789.037109 5929.000000
1790.456909 5998.000000
1791.875366 6169.000000
1793.293335 6842.000000
1794.710693 5550.000000
1796.127197 6019.000000
1797.542236 6533.000000
1798.956909 5938.000000
1800.370972 6700.000000
1801.783813 6088.000000
1803.196045 7042.000000
1804.606934 7174.000000
1806.017334 7800.000000
1807.427002 6432.000000
1808.835693 5969.000000
1810.243286 5404.000000
1811.650391 6388.000000
1813.056641 6381.000000
1814.461914 6685.000000
1815.866089 6042.000000
1817.269897 6004.000000
1818.672729 6265.000000
1820.074707 6055.000000
1821.476074 5882.000000
1822.875977 6377.000000
1824.275269 6621.000000
1825.674072 6667.000000
1827.072021 7451.000000
1828.468628 5724.000000
1829.864624 6782.000000
1831.259888 5923.000000
1832.654541 8190.000000
1834.048218 6091.000000
1835.440552 6836.000000
1836.832397 6425.000000
1838.223633 5894.000000
1839.613892 7121.000000
1841.002930 6014.000000
1842.391602 6085.000000
1843.779297 5991.000000
1845.166260 5829.000000
1846.551880 6874.000000
1847.937256 5965.000000
1849.321777 6399.000000
1850.705566 6315.000000
1852.088257 6394.000000
1853.469727 5401.000000
1854.850708 6611.000000
1856.231201 6351.000000
1857.610718 5735.000000
1858.988770 5957.000000
1860.366699 6311.000000
1861.743652 7887.000000
1863.119873 6158.000000
1864.495239 6062.000000
1865.869141 5631.000000
1867.242920 5759.000000
1868.615845 6238.000000
1869.987671 5996.000000
1871.358521 6925.000000
1872.729004 5467.000000
1874.098389 6094.000000
1875.467285 6168.000000
1876.834595 7221.000000
1878.201782 6086.000000
1879.567993 5994.000000
1880.933472 6784.000000
1882.298218 7500.000000
1883.661377 6786.000000
1885.024414 6896.000000
1886.386597 6381.000000
1887.747925 6460.000000
1889.107910 5680.000000
1890.467529 5833.000000
1891.826538 6168.000000
1893.184570 6694.000000
1894.541748 7285.000000
1895.897705 5968.000000
1897.253418 7655.000000
1898.608154 5856.000000
1899.962036 5652.000000
1901.314819 5987.000000
1902.667114 5961.000000
1904.018677 6003.000000
1905.369385 6901.000000
1906.718872 6553.000000
1908.067871 6690.000000
1909.416016 5802.000000
1910.763550 6115.000000
1912.110352 6327.000000
1913.455566 6807.000000
1914.800537 6132.000000
1916.144775 5512.000000
1917.488159 6522.000000
1918.830200 6087.000000
1920.171997 6738.000000
1921.512939 6977.000000
1922.853149 6240.000000
1924.192383 6340.000000
1925.530640 6310.000000
1926.868286 6477.000000
1928.205200 6978.000000
1929.541260 6757.000000
1930.876099 5581.000000
1932.210571 6757.000000
1933.544312 7238.000000
1934.877197 6281.000000
1936.208618 5779.000000
1937.540161 6354.000000
1938.870361 6683.000000
1940.200073 5821.000000
1941.528931 6151.000000
1942.856567 5878.000000
1944.183716 5077.000000
1945.510132 5827.000000
1946.835815 6506.000000
1948.160156 5810.000000
1949.484253 6600.000000
1950.807495 6355.000000
1952.130005 6454.000000
1953.451416 5833.000000
1954.771851 7445.000000
1956.091675 6061.000000
1957.411133 5558.000000
1958.729614 6896.000000
1960.046753 5875.000000
1961.363525 5879.000000
1962.679565 6562.000000
1963.994873 6653.000000
1965.308716 6313.000000
1966.622314 5683.000000
1967.935181 6327.000000
1969.247192 6001.000000
1970.558594 6074.000000
1971.868652 6287.000000
1973.178223 5899.000000
1974.487061 6190.000000
1975.795288 6630.000000
1977.102173 6133.000000
1978.408447 7282.000000
1979.714355 5583.000000
1981.019043 6412.000000
1982.323242 5901.000000
1983.626221 5727.000000
1984.928833 7601.000000
1986.230469 6187.000000
1987.531494 6825.000000
1988.830933 6055.000000
1990.130493 6698.000000
1991.428955 5330.000000
1992.726929 6163.000000
1994.023315 6118.000000
1995.319702 5795.000000
1996.615112 5613.000000
1997.909790 6492.000000
1999.203613 5739.000000
2000.496216 6569.000000
2001.788330 5758.000000
2003.079956 7202.000000
2004.370850 6497.000000
2005.660156 6338.000000
2006.949219 6807.000000
2008.237549 5992.000000
2009.525146 6040.000000
2010.811890 6666.000000
2012.097534 5704.000000
2013.382813 6331.000000
2014.667114 5972.000000
2015.950806 5640.000000
2017.233154 6077.000000
2018.515137 6472.000000
2019.796631 6814.000000
2021.077148 5909.000000
2022.356934 6037.000000
2023.635620 6783.000000
2024.913574 5869.000000
2026.191040 5956.000000
2027.467896 6299.000000
2028.743042 5803.000000
2030.018311 6631.000000
2031.292603 6067.000000
2032.565918 5937.000000
2033.838379 5982.000000
2035.110474 6130.000000
2036.381470 6959.000000
2037.652222 6619.000000
2038.921631 5986.000000
2040.189941 6724.000000
2041.458252 6640.000000
2042.725586 5931.000000
2043.992188 6031.000000
2045.257568 5628.000000
2046.522339 5640.000000
2047.786865 5416.000000
2049.050049 5866.000000
2050.312988 6391.000000
2051.573975 6177.000000
2052.835449 6108.000000
2054.095703 5949.000000
2055.355225 6469.000000
2056.614014 6306.000000
2057.871826 6914.000000
2059.129150 6181.000000
2060.385742 6066.000000
2061.640869 6514.000000
2062.895996 5677.000000
2064.150146 5620.000000
2065.403564 5647.000000
2066.656250 6892.000000
2067.907715 6208.000000
2069.158936 6323.000000
2070.409424 5665.000000
2071.659180 5479.000000
2072.907471 6160.000000
2074.155762 6457.000000
2075.403076 7435.000000
2076.649658 5563.000000
2077.895508 6090.000000
2079.140137 7080.000000
2080.384277 7666.000000
2081.627930 5554.000000
2082.870605 6146.000000
2084.112061 6969.000000
2085.353271 6036.000000
2086.593994 6300.000000
2087.833740 6808.000000
2089.072266 7105.000000
2090.310303 6230.000000
2091.547607 5861.000000
2092.784668 6660.000000
2094.020264 6140.000000
2095.255127 6214.000000
2096.489746 6064.000000
2097.723389 5631.000000
2098.956055 6089.000000
2100.187988 6904.000000
2101.419434 6425.000000
2102.649902 6769.000000
2103.879639 6023.000000
2105.109131 5983.000000
2106.336670 6013.000000
2107.564453 5983.000000
2108.791504 6350.000000
2110.017578 5494.000000
2111.242188 6422.000000
2112.467041 6955.000000
2113.690674 7143.000000
2114.913818 6268.000000
2116.135742 7548.000000
2117.357422 5964.000000
2118.578125 6807.000000
2119.798096 6058.000000
2121.017578 6137.000000
2122.235596 6645.000000
2123.453613 7069.000000
2124.670654 5810.000000
2125.887207 5876.000000
2127.102051 6610.000000
2128.317139 6378.000000
2129.531250 6770.000000
2130.744629 5717.000000
2131.957275 6076.000000
2133.168457 5836.000000
2134.379883 6581.000000
2135.590088 6888.000000
2136.799805 5958.000000
2138.008057 6229.000000
2139.216309 5653.000000
2140.423828 5887.000000
2141.630127 7456.000000
2142.835693 5941.000000
2144.041016 5731.000000
2145.245361 5595.000000
2146.448975 6346.000000
2147.652100 6256.000000
2148.853760 6575.000000
2150.055176 5327.000000
2151.255859 6314.000000
2152.455811 6113.000000
2153.654541 6117.000000
2154.853027 7023.000000
2156.051025 6246.000000
2157.248047 6000.000000
2158.444336 5190.000000
2159.639404 5307.000000
2160.834229 6174.000000
2162.028320 5633.000000
2163.221436 6052.000000
2164.413574 6940.000000
2165.605469 5938.000000
2166.796631 6289.000000
2167.986816 6298.000000
2169.176270 6484.000000
2170.365234 6785.000000
2171.553223 6209.000000
2172.740967 5770.000000
2173.927246 5949.000000
2175.112793 6621.000000
2176.298096 6035.000000
2177.482910 5898.000000
2178.666504 6329.000000
2179.849365 7503.000000
2181.031250 6307.000000
2182.212891 5967.000000
2183.394043 6593.000000
2184.573975 5763.000000
2185.752930 5610.000000
2186.931396 6350.000000
2188.109619 6970.000000
2189.286621 7170.000000
2190.462646 6679.000000
2191.638428 6088.000000
2192.813721 5613.000000
2193.987549 6696.000000
2195.160889 6181.000000
2196.333984 6171.000000
2197.505859 6385.000000
2198.677246 7134.000000
2199.848145 6353.000000
2201.017334 6959.000000
2202.186523 7599.000000
2203.355225 6295.000000
2204.522949 5865.000000
2205.689697 5671.000000
2206.855713 7194.000000
2208.021240 6687.000000
2209.186523 6023.000000
2210.350342 6766.000000
2211.513672 5427.000000
2212.675781 6153.000000
2213.838135 6170.000000
2214.999268 6694.000000
2216.159424 6656.000000
2217.319092 6355.000000
2218.478516 6651.000000
2219.636719 6348.000000
2220.793945 6344.000000
2221.950928 6797.000000
2223.107178 6603.000000
2224.262695 6790.000000
2225.417480 6289.000000
2226.571289 6405.000000
2227.724121 6043.000000
2228.877441 6963.000000
2230.028809 6257.000000
2231.179932 6179.000000
2232.330322 6555.000000
2233.480225 7663.000000
2234.629150 6295.000000
2235.777588 5222.000000
2236.924561 6855.000000
2238.071777 7055.000000
2239.217773 6139.000000
2240.363525 7291.000000
2241.507568 7341.000000
2242.651855 6742.000000
2243.795166 6210.000000
2244.937744 6034.000000
2246.079346 5802.000000
2247.220703 5870.000000
2248.361084 6417.000000
2249.500732 6477.000000
2250.639893 5860.000000
2251.777832 5873.000000
2252.915771 6212.000000
2254.052734 5302.000000
2255.188965 6311.000000
2256.324219 6184.000000
2257.458740 7310.000000
2258.593018 6429.000000
2259.726807 5468.000000
2260.859131 6134.000000
2261.990967 6825.000000
2263.122314 6328.000000
2264.252686 6575.000000
2265.382813 8173.000000
2266.511719 6748.000000
2267.640137 6115.000000
2268.768066 5597.000000
2269.895020 6178.000000
2271.021240 5994.000000
2272.146484 6732.000000
2273.271729 6535.000000
2274.396240 6427.000000
2275.519531 5945.000000
2276.642090 6405.000000
2277.764160 5937.000000
2278.885742 7394.000000
2280.006592 6387.000000
2281.126221 6470.000000
2282.245361 7183.000000
2283.364258 7667.000000
2284.482422 7265.000000
2285.599609 5862.000000
2286.715820 6489.000000
2287.831787 7038.000000
2288.947021 6883.000000
2290.061523 7471.000000
2291.174805 5825.000000
2292.288086 6355.000000
2293.400635 6049.000000
2294.512451 5422.000000
2295.623535 6795.000000
2296.733398 6387.000000
2297.842773 6199.000000
2298.951904 6702.000000
2300.060059 6348.000000
2301.167236 6763.000000
2302.274170 5922.000000
2303.380371 6254.000000
2304.486084 6625.000000
2305.590332 6484.000000
2306.694336 5439.000000
2307.797852 5837.000000
2308.900879 6557.000000
2310.002686 7415.000000
2311.103760 7369.000000
2312.204346 6603.000000
2313.304443 5514.000000
2314.403809 6371.000000
2315.501709 6578.000000
2316.600098 7062.000000
2317.697021 8211.000000
2318.793701 6880.000000
2319.889893 5830.000000
2320.984375 6929.000000
2322.078857 7553.000000
2323.172607 5838.000000
2324.266113 6161.000000
2325.357910 6385.000000
2326.449707 6915.000000
2327.540771 6162.000000
2328.631104 6325.000000
2329.720459 6926.000000
2330.809814 5995.000000
2331.897949 6339.000000
2332.985596 6841.000000
2334.072998 6567.000000
2335.158691 6753.000000
2336.244141 7827.000000
2337.329346 6367.000000
2338.413574 6843.000000
2339.496826 5975.000000
2340.579834 6394.000000
2341.661865 7483.000000
2342.743652 6078.000000
2343.824707 7443.000000
2344.904541 6659.000000
2345.983887 5705.000000
2347.062744 6786.000000
2348.141113 6589.000000
2349.218018 6307.000000
2350.294678 6955.000000
2351.371094 6063.000000
2352.446533 6513.000000
2353.520996 5943.000000
2354.595215 6326.000000
2355.668701 6799.000000
2356.741699 6234.000000
2357.813477 7046.000000
2358.885010 6327.000000
2359.955566 6788.000000
2361.025879 7534.000000
2362.095215 7505.000000
2363.163574 6860.000000
2364.231689 6782.000000
2365.299072 7125.000000
2366.365967 7156.000000
2367.432129 6063.000000
2368.497070 6869.000000
2369.562012 7017.000000
2370.626221 6339.000000
2371.689697 6969.000000
2372.751953 5799.000000
2373.814209 6286.000000
2374.875488 6307.000000
2375.936523 5915.000000
2376.996338 6290.000000
2378.055420 7947.000000
2379.114502 6561.000000
2380.172607 7562.000000
2381.229980 6938.000000
2382.286377 8077.000000
2383.342529 7847.000000
2384.398193 6259.000000
2385.453125 7081.000000
2386.506592 6844.000000
2387.560303 6574.000000
2388.613037 6295.000000
2389.665283 6739.000000
2390.716797 6187.000000
2391.767334 6625.000000
2392.817627 6548.000000
2393.866943 6207.000000
2394.916260 6223.000000
2395.964111 6934.000000
2397.011475 7055.000000
2398.058594 6337.000000
2399.104736 6626.000000
2400.150146 6218.000000
2401.194824 6729.000000
2402.239502 7774.000000
2403.282715 7471.000000
2404.325928 6553.000000
2405.367676 5748.000000
2406.409668 6718.000000
2407.450928 7156.000000
2408.491211 6142.000000
2409.530762 6410.000000
2410.569336 6448.000000
2411.608154 5976.000000
2412.645752 6565.000000
2413.683105 6909.000000
2414.719238 7256.000000
2415.755127 6249.000000
2416.790283 6297.000000
2417.824951 6950.000000
2418.858154 7230.000000
2419.891602 6525.000000
2420.924072 6666.000000
2421.956299 6847.000000
2422.987061 7085.000000
2424.017822 6468.000000
2425.048096 6846.000000
2426.077148 6836.000000
2427.106201 6714.000000
2428.133545 7423.000000
2429.161377 6736.000000
2430.187988 7296.000000
2431.214355 6908.000000
2432.239258 7765.000000
2433.264404 6583.000000
2434.288574 7117.000000
2435.312500 6684.000000
2436.335205 5856.000000
2437.357178 6382.000000
2438.378906 6670.000000
2439.399902 6662.000000
2440.420410 6065.000000
2441.439697 6528.000000
2442.458984 6636.000000
2443.477295 8516.000000
2444.495361 6341.000000
2445.511963 6474.000000
2446.528564 6609.000000
2447.544434 6057.000000
2448.560303 7048.000000
2449.574707 6914.000000
2450.588379 5544.000000
2451.601563 7283.000000
2452.614502 6043.000000
2453.626709 7224.000000
2454.637939 6696.000000
2455.648926 7712.000000
2456.659180 6367.000000
2457.668945 7682.000000
2458.677734 5924.000000
2459.685791 5961.000000
2460.693848 6313.000000
2461.700684 7355.000000
2462.707275 5476.000000
2463.712646 7468.000000
2464.717773 6922.000000
2465.722656 5834.000000
2466.726318 6531.000000
2467.729736 6373.000000
2468.732178 7593.000000
2469.734375 7365.000000
2470.736084 6892.000000
2471.736816 6611.000000
2472.736572 6919.000000
2473.736328 6739.000000
2474.735107 5718.000000
2475.733398 6624.000000
2476.730713 7091.000000
2477.727783 6214.000000
2478.724854 6955.000000
2479.720459 5848.000000
2480.716064 7177.000000
2481.709961 6647.000000
2482.703857 8105.000000
2483.697266 6850.000000
2484.690186 6837.000000
2485.682129 7475.000000
2486.673340 7286.000000
2487.664307 6758.000000
2488.654785 5864.000000
2489.644287 6603.000000
2490.633057 6507.000000
2491.621826 5776.000000
2492.609619 6857.000000
2493.596191 6569.000000
2494.582764 8094.000000
2495.568848 6766.000000
2496.554199 7133.000000
2497.538574 8430.000000
2498.522705 6098.000000
2499.506836 6872.000000
2500.489502 5777.000000
2501.471680 6942.000000
2502.453369 6817.000000
2503.434326 7357.000000
2504.414795 6557.000000
2505.395020 5723.000000
2506.373779 6305.000000
2507.352295 7599.000000
2508.330322 6762.000000
2509.307861 7071.000000
2510.284424 6091.000000
2511.260742 5999.000000
2512.236328 6466.000000
2513.211426 6264.000000
2514.186035 6471.000000
2515.159424 7490.000000
2516.132568 6755.000000
2517.105469 6917.000000
2518.077393 6096.000000
2519.048584 6882.000000
2520.019287 6956.000000
2520.989746 7810.000000
2521.959473 8079.000000
2522.928223 6129.000000
2523.896240 6117.000000
2524.864258 7741.000000
2525.831299 6368.000000
2526.798096 5499.000000
2527.763672 7339.000000
2528.729248 7026.000000
2529.694092 7791.000000
2530.658447 6317.000000
2531.621582 6434.000000
2532.584961 5982.000000
2533.547363 5965.000000
2534.509521 6694.000000
2535.470459 6402.000000
2536.430664 6164.000000
2537.391113 6197.000000
2538.350586 6778.000000
2539.309326 6861.000000
2540.267090 6697.000000
2541.225098 6308.000000
2542.182373 6742.000000
2543.138672 6176.000000
2544.094727 7035.000000
2545.049561 6243.000000
2546.004639 7764.000000
2546.958984 7037.000000
2547.912598 7049.000000
2548.865234 7318.000000
2549.817627 6754.000000
2550.769531 6937.000000
2551.720703 6430.000000
2552.671143 7643.000000
2553.621094 7333.000000
2554.570801 7368.000000
2555.519775 6710.000000
2556.468262 6240.000000
2557.415527 7138.000000
2558.362793 6275.000000
2559.309326 6629.000000
2560.255371 6741.000000
2561.200439 7449.000000
2562.145264 6764.000000
2563.089600 7179.000000
2564.033447 6863.000000
2564.976807 6679.000000
2565.918701 6602.000000
2566.860840 6636.000000
2567.802246 6227.000000
2568.742920 7166.000000
2569.682861 7311.000000
2570.622803 5653.000000
2571.561768 6200.000000
2572.500488 7526.000000
2573.438232 7204.000000
2574.375732 5498.000000
2575.312500 6995.000000
2576.248535 6808.000000
2577.184082 7540.000000
2578.118896 6448.000000
2579.053711 5953.000000
2579.987549 7039.000000
2580.920898 7133.000000
2581.853516 5881.000000
2582.785889 6893.000000
2583.717529 5459.000000
2584.648682 7027.000000
2585.579346 6998.000000
2586.508789 6891.000000
2587.438232 7203.000000
2588.367188 6490.000000
2589.295898 7422.000000
2590.222900 7284.000000
2591.150146 5966.000000
2592.076904 6863.000000
2593.002930 6344.000000
2593.928711 5604.000000
2594.853271 7668.000000
2595.777588 7693.000000
2596.701416 5459.000000
2597.624756 7281.000000
2598.547119 6277.000000
2599.469238 6920.000000
2600.390869 8362.000000
2601.311768 6458.000000
2602.231934 5754.000000
2603.151855 6342.000000
2604.071289 6452.000000
2604.990479 6452.000000
2605.908691 5908.000000
2606.825684 5960.000000
2607.742920 7320.000000
2608.659912 5849.000000
2609.575928 7572.000000
2610.490723 6672.000000
2611.406006 6708.000000
2612.320557 6505.000000
2613.234131 6523.000000
2614.147705 6141.000000
2615.060059 7621.000000
2615.972412 7044.000000
2616.883789 6790.000000
2617.794922 5666.000000
2618.705322 7214.000000
2619.615479 6662.000000
2620.524902 6164.000000
2621.433838 6696.000000
2622.341797 6317.000000
2623.250000 6913.000000
2624.157227 6681.000000
2625.063965 7108.000000
2625.969971 5980.000000
2626.875732 6634.000000
2627.780762 6567.000000
2628.685547 7863.000000
2629.589600 6509.000000
2630.492676 6480.000000
2631.395752 6405.000000
2632.297852 5622.000000
2633.199951 6755.000000
2634.101807 7046.000000
2635.001953 6800.000000
2635.902344 6491.000000
2636.802002 6392.000000
2637.701416 6034.000000
2638.599365 6944.000000
2639.497803 6709.000000
2640.395752 6423.000000
2641.292969 6121.000000
2642.188965 6172.000000
2643.084961 6916.000000
2643.980713 6078.000000
2644.875732 6462.000000
2645.770508 6710.000000
2646.663818 7072.000000
2647.557129 6273.000000
2648.450195 6813.000000
2649.343018 6525.000000
2650.234131 7501.000000
2651.125488 6369.000000
2652.016357 7675.000000
2652.906494 7310.000000
2653.796387 6571.000000
2654.685059 7366.000000
2655.573975 6598.000000
2656.462402 6662.000000
2657.349854 7377.000000
2658.236328 6518.000000
2659.123291 7113.000000
2660.009521 6852.000000
2660.895264 6849.000000
2661.779785 6527.000000
2662.664307 6380.000000
2663.548584 6215.000000
2664.432129 7152.000000
2665.315186 7787.000000
2666.197510 7350.000000
2667.079346 6201.000000
2667.960449 6630.000000
2668.841797 6113.000000
2669.721680 6607.000000
2670.601807 7328.000000
2671.481201 7243.000000
2672.360596 6293.000000
2673.239258 6198.000000
2674.116211 6459.000000
2674.993896 6796.000000
2675.870850 6466.000000
2676.747070 8094.000000
2677.622803 7197.000000
2678.497803 6271.000000
2679.373047 7764.000000
2680.247314 6928.000000
2681.121094 7401.000000
2681.994141 6995.000000
2682.866943 6266.000000
2683.739502 6109.000000
2684.611328 7024.000000
2685.482422 6618.000000
2686.353271 6866.000000
2687.223633 7116.000000
2688.093750 6699.000000
2688.962158 6320.000000
2689.831299 7393.000000
2690.699707 7133.000000
2691.567871 6640.000000
2692.435303 6950.000000
2693.301514 5849.000000
2694.168213 7142.000000
2695.033936 7355.000000
2695.899658 7257.000000
2696.763916 7921.000000
2697.628906 6630.000000
2698.492432 7252.000000
2699.356201 5883.000000
2700.218506 7442.000000
2701.081299 6819.000000
2701.943115 5876.000000
2702.804443 6868.000000
2703.665771 6699.000000
2704.525879 7477.000000
2705.385986 7294.000000
2706.245605 6600.000000
2707.104980 6924.000000
2707.962646 7203.000000
2708.820557 6919.000000
2709.678955 7332.000000
2710.536133 6788.000000
2711.392578 6001.000000
2712.248535 6858.000000
2713.104492 6195.000000
2713.959717 6956.000000
2714.814209 6192.000000
2715.668213 6854.000000
2716.522217 7332.000000
2717.375244 6290.000000
2718.228516 6452.000000
2719.080078 7797.000000
2719.932129 6809.000000
2720.783936 6292.000000
2721.634521 6508.000000
2722.485107 6441.000000
2723.335205 7143.000000
2724.184570 7023.000000
2725.033936 7049.000000
2725.882080 6717.000000
2726.729736 6634.000000
2727.577881 7010.000000
2728.424805 6886.000000
2729.272217 5562.000000
2730.118164 7462.000000
2730.963379 7017.000000
2731.809082 6437.000000
2732.653809 6944.000000
2733.498535 7364.000000
2734.342041 6933.000000
2735.185791 7751.000000
2736.028809 7239.000000
2736.871338 6092.000000
2737.712891 6244.000000
2738.554932 6838.000000
2739.395996 6895.000000
2740.236816 5802.000000
2741.077393 5940.000000
2741.916748 7748.000000
2742.756104 6869.000000
2743.595459 6982.000000
2744.433594 6852.000000
2745.271240 7809.000000
2746.108887 6376.000000
2746.946045 7106.000000
2747.782959 6232.000000
2748.619385 6081.000000
2749.454590 6695.000000
2750.290039 6345.000000
2751.125000 6312.000000
2751.959229 6309.000000
2752.793213 6939.000000
2753.626709 6875.000000
2754.460205 7974.000000
2755.292725 6797.000000
2756.124756 7355.000000
2756.956299 6854.000000
2757.787842 7102.000000
2758.618408 7176.000000
2759.449219 7311.000000
2760.278809 7322.000000
2761.108398 6721.000000
2761.937744 7288.000000
2762.766357 6865.000000
2763.594482 6827.000000
2764.422119 6897.000000
2765.249756 6722.000000
2766.076904 7961.000000
2766.903320 5790.000000
2767.729248 7447.000000
2768.554688 6854.000000
2769.379883 7872.000000
2770.205078 7103.000000
2771.029053 6784.000000
2771.853027 6543.000000
2772.677002 7681.000000
2773.499756 6396.000000
2774.322754 6883.000000
2775.144531 6952.000000
2775.966309 7030.000000
2776.788086 6503.000000
2777.608887 8021.000000
2778.428955 6543.000000
2779.249268 7044.000000
2780.069092 7301.000000
2780.888916 6530.000000
2781.706787 5982.000000
2782.525879 8070.000000
2783.343750 6568.000000
2784.161377 6814.000000
2784.978516 7188.000000
2785.795166 7245.000000
2786.611572 7232.000000
2787.427490 6273.000000
2788.243164 5973.000000
2789.057861 6437.000000
2789.873047 6978.000000
2790.687500 7213.000000
2791.501465 6646.000000
2792.315186 7414.000000
2793.127686 8863.000000
2793.940430 7109.000000
2794.752686 7450.000000
2795.564453 7228.000000
2796.375488 7380.000000
2797.187256 6550.000000
2797.997803 7234.000000
2798.808350 7028.000000
2799.617432 7437.000000
2800.427246 8292.000000
2801.236328 7797.000000
2802.045166 6660.000000
2802.853516 7209.000000
2803.660889 6254.000000
2804.468750 6449.000000
2805.275879 6974.000000
2806.082764 6864.000000
2806.888428 7190.000000
2807.694580 6720.000000
2808.500000 6518.000000
2809.305420 7324.000000
2810.110107 6149.000000
2810.913818 7612.000000
2811.718018 7481.000000
2812.521729 6372.000000
2813.325195 6084.000000
2814.127197 6379.000000
2814.929932 7341.000000
2815.731934 7811.000000
2816.533691 6232.000000
2817.334961 6568.000000
2818.135742 7278.000000
2818.936035 6591.000000
2819.736572 6666.000000
2820.536133 8045.000000
2821.335205 7221.000000
2822.134277 6521.000000
2822.933105 6951.000000
2823.731445 6408.000000
2824.528809 7063.000000
2825.326416 7454.000000
2826.123291 6699.000000
2826.920410 7398.000000
2827.716797 8109.000000
2828.512451 7026.000000
2829.308105 7349.000000
2830.103516 7659.000000
2830.898438 7489.000000
2831.692627 6643.000000
2832.486816 6832.000000
2833.280762 5694.000000
2834.074219 6927.000000
2834.866943 7158.000000
2835.659424 8198.000000
2836.451904 7656.000000
2837.244141 7501.000000
2838.035889 6419.000000
2838.826660 6844.000000
2839.617432 8900.000000
2840.408447 7533.000000
2841.198486 6274.000000
2841.988037 7706.000000
2842.777832 7225.000000
2843.566650 7377.000000
2844.355469 7818.000000
2845.144287 7712.000000
2845.932129 7549.000000
2846.719482 7199.000000
2847.507080 7514.000000
2848.294189 7384.000000
2849.080566 6701.000000
2849.866943 7462.000000
2850.653076 7290.000000
2851.438721 7505.000000
2852.223389 7233.000000
2853.008545 6883.000000
2853.793457 7469.000000
2854.577637 7176.000000
2855.361816 6998.000000
2856.144775 8326.000000
2856.927979 6850.000000
2857.710938 6810.000000
2858.493408 7745.000000
2859.275635 6261.000000
2860.057373 6700.000000
2860.838867 7600.000000
2861.620605 7552.000000
2862.401611 7730.000000
2863.181885 6618.000000
2863.961914 6801.000000
2864.741943 8177.000000
2865.521729 7584.000000
2866.300537 8177.000000
2867.079590 7676.000000
2867.858154 6851.000000
2868.636475 7043.000000
2869.414307 7261.000000
2870.191895 6926.000000
2870.969238 7577.000000
2871.746338 6971.000000
2872.522949 6442.000000
2873.299072 7543.000000
2874.075195 7204.000000
2874.850830 8339.000000
2875.626221 7190.000000
2876.401123 6685.000000
2877.175781 8042.000000
2877.950439 6712.000000
2878.724854 7859.000000
2879.498535 6789.000000
2880.271484 7275.000000
2881.045166 6740.000000
2881.817871 7592.000000
2882.590576 7870.000000
2883.362549 8294.000000
2884.134277 6290.000000
2884.906494 6793.000000
2885.677490 6888.000000
2886.447998 6197.000000
2887.218994 8337.000000
2887.989990 7428.000000
2888.760254 8047.000000
2889.529541 7700.000000
2890.299072 6942.000000
2891.068604 7259.000000
2891.837646 7353.000000
2892.606201 7942.000000
2893.374756 7736.000000
2894.142334 6965.000000
2894.910400 6647.000000
2895.677979 7466.000000
2896.445557 8336.000000
2897.211914 7392.000000
2897.979248 6614.000000
2898.745361 7334.000000
2899.511719 6980.000000
2900.276611 8273.000000
2901.041992 6949.000000
2901.807861 6497.000000
2902.572266 7680.000000
2903.336670 7716.000000
2904.101318 8423.000000
2904.864990 6603.000000
2905.629395 8562.000000
2906.393066 6721.000000
2907.156006 8352.000000
2907.918701 6522.000000
2908.681885 8950.000000
2909.444580 7009.000000
2910.206055 6834.000000
2910.968018 6834.000000
