scanname Analyse080
timestamp 2017-02-10 21:57:11
ccdbias 954.639648
ccdgain 3.473401
sigmaread 8.960639
laserwavenum -0.582129
wavenumcorrection -0.059165
scancount 1
totalexposurems 10000
singleexposurems 10000
measurementstate Unknown
scanmode Manual
snr 200.164566 5.422305 4.275735
replacelist 3
374 37096.000000 15159.000000
383 36674.000000 11718.000000
672 36150.000000 31245.000000
peaks 27
276.078705 0.591180 0.000000 1.356011 0.000165
292.615326 0.582456 0.000000 0.239278 0.000023
333.805725 0.585682 0.000000 0.734017 0.000121
340.252655 0.583253 0.000000 0.462163 0.000024
347.897675 0.585532 0.000000 0.416960 0.000017
387.303375 0.599027 0.000000 1.508693 0.000290
442.359253 0.583560 0.000000 0.459985 0.000046
449.605164 0.584538 0.000000 0.137173 0.000022
496.565582 0.585739 0.000000 0.345755 0.000044
533.759399 0.580357 0.000000 0.791656 0.000146
567.875427 0.582707 0.000000 0.599899 0.000032
578.040833 0.583512 0.000000 0.317155 0.000024
675.562012 0.568920 0.000000 0.772748 0.000163
715.948486 0.567091 0.000000 4.166987 0.000782
766.951111 0.575793 0.000000 3.091201 0.000659
785.785583 0.561731 0.000000 1.614556 0.000416
830.812500 0.544738 0.000000 0.510534 0.000068
875.716797 0.610738 0.000000 3.035563 0.000722
934.271484 0.526499 0.000000 0.346390 0.000064
1045.374756 0.534511 0.000000 1.646068 0.000544
1088.050659 0.527654 0.000000 1.417238 0.000228
1117.046875 0.503211 0.000000 0.101774 0.000021
1152.351196 0.493027 0.000000 0.054905 0.000075
1277.590576 0.473923 0.000000 0.209660 0.000107
1322.580200 0.579328 0.000000 16.430573 0.004990
1454.910767 0.516394 0.000000 7.570984 0.002951
1651.256226 0.416567 0.000000 0.571817 0.000077
finalresult GLS_NoMatch 0
spectrum 2048
-97.019325 45332.000000
-94.392456 45332.000000
-91.767464 45909.000000
-89.144363 45896.000000
-86.523132 46778.000000
-83.903801 46624.000000
-81.286331 46825.000000
-78.670738 46607.000000
-76.057022 46904.000000
-73.445183 47320.000000
-70.835205 47115.000000
-68.227112 47250.000000
-65.620865 47274.000000
-63.016495 47288.000000
-60.413986 47229.000000
-57.813332 47721.000000
-55.214539 47117.000000
-52.617603 46444.000000
-50.022522 46872.000000
-47.429295 46849.000000
-44.837917 47094.000000
-42.248386 46602.000000
-39.660698 47441.000000
-37.074860 47272.000000
-34.490864 46811.000000
-31.908707 47567.000000
-29.328394 46904.000000
-26.749908 47578.000000
-24.173265 47193.000000
-21.598448 46914.000000
-19.025471 46658.000000
-16.454313 46672.000000
-13.884989 46381.000000
-11.317491 45358.000000
-8.751811 46764.000000
-6.187957 46464.000000
-3.625917 46812.000000
-1.065701 46890.000000
1.492707 46396.000000
4.049294 45433.000000
6.604076 45289.000000
9.157042 45361.000000
11.708206 43869.000000
14.257558 42971.000000
16.805113 41462.000000
19.350857 41155.000000
21.894808 39871.000000
24.436954 37181.000000
26.977304 33985.000000
29.515869 30324.000000
32.052639 25706.000000
34.587605 20313.000000
37.120792 12846.000000
39.652199 8471.000000
42.181812 7803.000000
44.709629 7284.000000
47.235687 6491.000000
49.759956 5796.000000
52.282455 5046.000000
54.803158 4745.000000
57.322105 4932.000000
59.839279 6166.000000
62.354675 8053.000000
64.868294 8384.000000
67.380157 7897.000000
69.890274 6028.000000
72.398598 4225.000000
74.905167 3518.000000
77.409988 2807.000000
79.913055 2349.000000
82.414345 2167.000000
84.913895 2082.000000
87.411690 1992.000000
89.907753 1998.000000
92.402039 2242.000000
94.894585 2430.000000
97.385414 2579.000000
99.874474 2436.000000
102.361786 1961.000000
104.847374 1688.000000
107.331223 1556.000000
109.813324 1462.000000
112.293701 1304.000000
114.772354 1234.000000
117.249283 1343.000000
119.724457 1188.000000
122.197922 1320.000000
124.669655 1368.000000
127.139679 1528.000000
129.607941 1623.000000
132.074539 1816.000000
134.539383 2003.000000
137.002533 2435.000000
139.463943 2885.000000
141.923660 3386.000000
144.381653 4256.000000
146.837952 5181.000000
149.292542 6730.000000
151.745407 8230.000000
154.196594 9989.000000
156.646088 12084.000000
159.093857 14553.000000
161.539917 17399.000000
163.984299 19441.000000
166.427002 23005.000000
168.868011 24521.000000
171.307312 26071.000000
173.744904 25875.000000
176.180862 27023.000000
178.615082 27002.000000
181.047623 26941.000000
183.478516 27681.000000
185.907684 27862.000000
188.335205 28363.000000
190.761047 29368.000000
193.185211 29870.000000
195.607712 30610.000000
198.028519 32029.000000
200.447662 34501.000000
202.865143 35940.000000
205.280930 35341.000000
207.695068 36680.000000
210.107574 38006.000000
212.518402 38967.000000
214.927551 39405.000000
217.335068 38942.000000
219.740875 40744.000000
222.145096 40824.000000
224.547607 41085.000000
226.948502 40995.000000
229.347748 41535.000000
231.745331 41052.000000
234.141251 40692.000000
236.535553 41354.000000
238.928192 41854.000000
241.319214 40745.000000
243.708572 40897.000000
246.096313 40900.000000
248.482407 40080.000000
250.866867 40827.000000
253.249680 38902.000000
255.630920 39930.000000
258.010468 39652.000000
260.388428 39597.000000
262.764709 38350.000000
265.139435 38271.000000
267.512512 37809.000000
269.883942 39112.000000
272.253723 38794.000000
274.621948 39176.000000
276.988525 38658.000000
279.353516 38146.000000
281.716888 38800.000000
284.078613 38385.000000
286.438751 37465.000000
288.797272 38529.000000
291.154205 37911.000000
293.509521 37985.000000
295.863251 38321.000000
298.215332 38225.000000
300.565857 37818.000000
302.914795 37786.000000
305.262085 37213.000000
307.607849 37642.000000
309.951935 37499.000000
312.294495 36533.000000
314.635437 36332.000000
316.974762 36625.000000
319.312531 36672.000000
321.648743 35518.000000
323.983307 37254.000000
326.316315 36953.000000
328.647766 37370.000000
330.977631 36776.000000
333.305908 37041.000000
335.632568 36172.000000
337.957733 37022.000000
340.281281 37043.000000
342.603271 37385.000000
344.923706 35845.000000
347.242523 35652.000000
349.559784 37224.000000
351.875519 37378.000000
354.189667 36183.000000
356.502228 36931.000000
358.813232 37000.000000
361.122711 36259.000000
363.430664 37016.000000
365.737000 37670.000000
368.041748 37026.000000
370.345032 36975.000000
372.646698 37242.000000
374.946869 37181.000000
377.245483 37295.000000
379.542542 37840.000000
381.838043 37479.000000
384.132019 37840.000000
386.424408 38498.000000
388.715302 38317.000000
391.004669 37679.000000
393.292450 37702.000000
395.578705 37601.000000
397.863464 37024.000000
400.146606 37995.000000
402.428314 37634.000000
404.708496 37832.000000
406.987091 36605.000000
409.264160 37476.000000
411.539703 37045.000000
413.813721 37236.000000
416.086304 37308.000000
418.357269 37214.000000
420.626740 37184.000000
422.894714 36466.000000
425.161133 36252.000000
427.426056 37091.000000
429.689514 36940.000000
431.951385 36771.000000
434.211792 37164.000000
436.470642 36292.000000
438.728027 36870.000000
440.983917 37036.000000
443.238312 36846.000000
445.491180 37181.000000
447.742493 35553.000000
449.992401 36372.000000
452.240723 35944.000000
454.487610 36513.000000
456.733032 35709.000000
458.976898 35682.000000
461.219269 35335.000000
463.460144 36368.000000
465.699615 35290.000000
467.937500 36590.000000
470.173950 35996.000000
472.408875 35866.000000
474.642334 34652.000000
476.874359 35180.000000
479.104858 36088.000000
481.333862 35344.000000
483.561401 35489.000000
485.787445 35864.000000
488.012054 35165.000000
490.235199 35961.000000
492.456879 35340.000000
494.677002 35257.000000
496.895721 36251.000000
499.112946 35582.000000
501.328796 36278.000000
503.543030 35756.000000
505.755951 35430.000000
507.967285 35490.000000
510.177185 35055.000000
512.385620 35431.000000
514.592712 35296.000000
516.798218 35368.000000
519.002319 35095.000000
521.204895 35482.000000
523.406067 34966.000000
525.605896 34789.000000
527.804199 34364.000000
530.000977 35754.000000
532.196411 35331.000000
534.390320 35592.000000
536.582886 33766.000000
538.773926 34528.000000
540.963562 35088.000000
543.151794 33993.000000
545.338501 33571.000000
547.523743 33532.000000
549.707703 33824.000000
551.890076 33444.000000
554.071106 33546.000000
556.250610 33518.000000
558.428833 33644.000000
560.605530 33452.000000
562.780823 33036.000000
564.954712 33041.000000
567.127136 33417.000000
569.298157 33288.000000
571.467712 32997.000000
573.635986 34052.000000
575.802734 33042.000000
577.968018 33155.000000
580.131897 33331.000000
582.294495 33670.000000
584.455566 33557.000000
586.615234 33968.000000
588.773560 33878.000000
590.930359 33653.000000
593.085815 33300.000000
595.239868 34226.000000
597.392578 33948.000000
599.543762 32985.000000
601.693604 33366.000000
603.842102 33332.000000
605.989014 33801.000000
608.134705 33540.000000
610.278992 33558.000000
612.421814 33127.000000
614.563171 33804.000000
616.703308 33482.000000
618.841919 32224.000000
620.979248 33997.000000
623.115112 33094.000000
625.249573 32759.000000
627.382568 32363.000000
629.514404 32672.000000
631.644775 32590.000000
633.773743 32164.000000
635.901245 32258.000000
638.027466 32369.000000
640.152161 31264.000000
642.275635 32068.000000
644.397766 31436.000000
646.518433 31268.000000
648.637756 31326.000000
650.755676 32024.000000
652.872253 31883.000000
654.987427 31164.000000
657.101257 31024.000000
659.213623 31600.000000
661.324768 31272.000000
663.434509 32006.000000
665.542786 30941.000000
667.649902 31288.000000
669.755554 30744.000000
671.859741 31531.000000
673.962708 31905.000000
676.064270 30778.000000
678.164490 32480.000000
680.263306 31328.000000
682.360779 31946.000000
684.456970 31378.000000
686.551697 32024.000000
688.645203 31240.000000
690.737366 31689.000000
692.828003 30412.000000
694.917419 31544.000000
697.005554 31477.000000
699.092224 31716.000000
701.177673 30898.000000
703.261597 32257.000000
705.344299 31439.000000
707.425720 31302.000000
709.505676 29457.000000
711.584412 30669.000000
713.661682 31118.000000
715.737671 30241.000000
717.812378 30772.000000
719.885803 29966.000000
721.957703 30729.000000
724.028442 29551.000000
726.097839 30749.000000
728.165833 29881.000000
730.232483 29903.000000
732.297913 29071.000000
734.362000 30245.000000
736.424744 29707.000000
738.486145 29493.000000
740.546265 29273.000000
742.604980 29790.000000
744.662476 29227.000000
746.718689 29335.000000
748.773499 29091.000000
750.827026 29423.000000
752.879150 28369.000000
754.930054 29862.000000
756.979736 28994.000000
759.027954 29397.000000
761.074951 29631.000000
763.120667 28889.000000
765.164978 30749.000000
767.208008 30612.000000
769.249817 30132.500000
771.290283 29653.000000
773.329346 29139.000000
775.367249 29334.000000
777.403809 29524.000000
779.439148 30234.000000
781.473145 30129.000000
783.505737 29271.000000
785.537170 30855.000000
787.567200 30545.500000
789.595947 30236.000000
791.623535 29510.000000
793.649780 29482.000000
795.674622 29981.000000
797.698364 30309.000000
799.720703 29595.000000
801.741821 30096.000000
803.761597 29288.000000
805.780090 30985.000000
807.797363 29258.000000
809.813232 29065.000000
811.827942 29868.000000
813.841309 29015.000000
815.853455 28974.000000
817.864380 28908.000000
819.873962 28310.000000
821.882324 29253.000000
823.889282 28771.000000
825.895020 28472.000000
827.899536 28713.000000
829.902771 28785.000000
831.904724 27981.000000
833.905396 28358.000000
835.904846 28472.000000
837.902954 28191.000000
839.899963 27558.000000
841.895569 28170.000000
843.890015 28179.000000
845.883118 28081.000000
847.875000 27349.000000
849.865540 28480.000000
851.854797 27299.000000
853.843018 28161.000000
855.829834 28437.000000
857.815430 27969.000000
859.799744 27444.000000
861.782959 28579.000000
863.764771 28670.000000
865.745361 29550.000000
867.724670 28115.000000
869.702820 29092.000000
871.679626 30277.000000
873.655151 30684.000000
875.629639 30912.000000
877.602661 31126.000000
879.574646 31617.000000
881.545288 30349.000000
883.514771 30184.000000
885.482910 30087.000000
887.449890 29796.000000
889.415527 28574.000000
891.380005 28579.000000
893.343262 28185.000000
895.305298 27591.000000
897.266052 28132.000000
899.225586 27497.000000
901.183838 27114.000000
903.140991 27355.000000
905.096985 27626.000000
907.051575 26729.000000
909.004944 27015.000000
910.957153 26923.000000
912.908142 26803.000000
914.857849 25955.000000
916.806396 26434.000000
918.753723 26387.000000
920.699768 26190.000000
922.644531 25938.000000
924.588257 25495.000000
926.530823 25436.000000
928.472107 25509.000000
930.412048 24648.000000
932.350891 24908.000000
934.288452 25050.000000
936.224792 24780.000000
938.159973 24730.000000
940.093872 24701.000000
942.026672 24753.000000
943.958252 24101.000000
945.888672 25167.000000
947.817871 24556.000000
949.745728 24205.000000
951.672546 24386.000000
953.598083 24518.000000
955.522339 25126.000000
957.445496 25103.000000
959.367493 24751.000000
961.288208 24379.000000
963.207764 24776.000000
965.126160 25703.000000
967.043518 25046.000000
968.959412 25150.000000
970.874207 25279.000000
972.787781 25563.000000
974.700195 25206.000000
976.611389 25056.000000
978.521423 25681.000000
980.430176 25194.000000
982.337891 25238.000000
984.244385 24961.000000
986.149658 25464.000000
988.053833 24613.000000
989.956787 25032.000000
991.858521 24675.000000
993.759094 25054.000000
995.658508 24560.000000
997.556702 25242.000000
999.453735 24356.000000
1001.349548 24294.000000
1003.244202 23260.000000
1005.137756 24145.000000
1007.030029 23131.000000
1008.921387 23357.000000
1010.811401 23629.000000
1012.700195 23240.000000
1014.587830 23197.000000
1016.474304 22983.000000
1018.359619 22947.000000
1020.243774 23070.000000
1022.126709 23195.000000
1024.008667 23065.000000
1025.889282 23311.000000
1027.768799 23435.000000
1029.647339 23217.000000
1031.524536 23622.000000
1033.400391 23313.000000
1035.275269 23746.000000
1037.149170 23766.000000
1039.021606 23662.000000
1040.893066 23700.000000
1042.763184 24230.000000
1044.632324 24384.000000
1046.500244 24704.000000
1048.367065 24116.000000
1050.232788 24316.000000
1052.097290 24433.000000
1053.960693 24249.000000
1055.822754 24167.000000
1057.683838 24388.000000
1059.543823 24017.000000
1061.402466 23738.000000
1063.260010 24423.000000
1065.116455 23894.000000
1066.971802 24360.000000
1068.825928 24450.000000
1070.679199 24255.000000
1072.531006 24367.000000
1074.381836 24603.000000
1076.231445 24748.000000
1078.079834 25257.000000
1079.927368 23546.000000
1081.773560 24990.000000
1083.618530 24511.000000
1085.462646 24852.000000
1087.305420 24810.000000
1089.146973 24197.000000
1090.987793 24444.000000
1092.827026 23974.000000
1094.665527 23943.000000
1096.502686 23712.000000
1098.338623 23097.000000
1100.173584 22620.000000
1102.007324 22457.000000
1103.840088 22421.000000
1105.671509 22619.000000
1107.502075 22439.000000
1109.331299 22064.000000
1111.159546 21589.000000
1112.986572 21243.000000
1114.812622 21630.000000
1116.637451 21590.000000
1118.461182 21328.000000
1120.283691 21693.000000
1122.105103 21510.000000
1123.925659 21573.000000
1125.744751 21587.000000
1127.562988 21504.000000
1129.379883 21558.000000
1131.195923 21591.000000
1133.010742 21678.000000
1134.824463 21963.000000
1136.637085 21787.000000
1138.448486 21948.000000
1140.258911 22142.000000
1142.068237 21953.000000
1143.876221 21967.000000
1145.683472 22222.000000
1147.489258 22040.000000
1149.294189 22092.000000
1151.098022 22153.000000
1152.900635 22051.000000
1154.702393 22140.000000
1156.502686 22132.000000
1158.302002 21884.000000
1160.100342 21802.000000
1161.897339 21786.000000
1163.693604 21408.000000
1165.488525 21267.000000
1167.282349 21108.000000
1169.075317 20609.000000
1170.866943 20676.000000
1172.657593 20384.000000
1174.447266 20371.000000
1176.235474 20527.000000
1178.022827 20242.000000
1179.809082 20236.000000
1181.594238 20364.000000
1183.378296 20358.000000
1185.161255 20022.000000
1186.943237 20201.000000
1188.723999 20227.000000
1190.503784 20044.000000
1192.282471 20005.000000
1194.060181 19957.000000
1195.836670 19779.000000
1197.612061 19486.000000
1199.386353 19337.000000
1201.159546 19083.000000
1202.931885 19074.000000
1204.702881 19007.000000
1206.473022 19017.000000
1208.241943 18898.000000
1210.009766 18930.000000
1211.776733 18695.000000
1213.542358 18803.000000
1215.307007 18814.000000
1217.070557 18731.000000
1218.833008 18832.000000
1220.594604 18619.000000
1222.354980 18641.000000
1224.114258 18468.000000
1225.872681 18671.000000
1227.629883 18581.000000
1229.385986 18850.000000
1231.140991 19010.000000
1232.895142 18908.000000
1234.647949 19066.000000
1236.399780 18983.000000
1238.150757 19095.000000
1239.900391 19189.000000
1241.649170 19093.000000
1243.396606 19412.000000
1245.143311 19242.000000
1246.888794 19427.000000
1248.633423 19305.000000
1250.376709 19351.000000
1252.119019 19265.000000
1253.860229 19301.000000
1255.600586 19166.000000
1257.339844 18830.000000
1259.077881 18241.000000
1260.815063 18099.000000
1262.551025 18290.000000
1264.286011 18496.000000
1266.020020 18796.000000
1267.753052 19162.000000
1269.484863 19109.000000
1271.215698 19299.000000
1272.945313 19160.000000
1274.674072 19575.000000
1276.401733 19577.000000
1278.128296 19694.000000
1279.854004 19578.000000
1281.578369 19492.000000
1283.301880 19517.000000
1285.024414 18957.000000
1286.745972 19064.000000
1288.466309 19159.000000
1290.185669 19072.000000
1291.903931 18765.000000
1293.621216 18906.000000
1295.337524 18855.000000
1297.052612 18898.000000
1298.766724 18728.000000
1300.479858 18801.000000
1302.192139 18469.000000
1303.903198 18115.000000
1305.613281 18139.000000
1307.322266 18167.000000
1309.030029 17861.000000
1310.737183 17865.000000
1312.442871 17826.000000
1314.147827 17750.000000
1315.851807 18011.000000
1317.554565 18213.000000
1319.256348 18979.000000
1320.957275 23279.000000
1322.656860 23181.000000
1324.355591 20343.500000
1326.053589 17506.000000
1327.750244 17426.000000
1329.445801 17437.000000
1331.140503 17241.000000
1332.833984 17150.000000
1334.526611 17132.000000
1336.218384 16825.000000
1337.908813 17013.000000
1339.598511 17050.000000
1341.287109 17009.000000
1342.974609 16772.000000
1344.661133 16717.000000
1346.346558 16890.000000
1348.031006 16983.000000
1349.714600 16738.000000
1351.396973 16979.000000
1353.078369 16994.000000
1354.758911 17228.000000
1356.438232 17321.000000
1358.116943 17589.000000
1359.794312 17441.000000
1361.470581 17716.000000
1363.145874 17732.000000
1364.820435 17642.000000
1366.493774 17615.000000
1368.166138 17570.000000
1369.837524 17712.000000
1371.507935 17600.000000
1373.177246 17605.000000
1374.845581 17594.000000
1376.513062 17564.000000
1378.179443 17596.000000
1379.844849 17475.000000
1381.509277 17386.000000
1383.172485 17221.000000
1384.835083 17255.000000
1386.496338 16899.000000
1388.156738 16835.000000
1389.816040 16796.000000
1391.474365 16649.000000
1393.131958 16666.000000
1394.788330 16738.000000
1396.443848 16609.000000
1398.098145 16669.000000
1399.751587 16775.000000
1401.403931 16844.000000
1403.055542 16875.000000
1404.705933 16605.000000
1406.355225 16202.000000
1408.003784 15910.000000
1409.651245 15817.000000
1411.297729 15566.000000
1412.943359 15806.000000
1414.588013 15416.000000
1416.231445 15436.000000
1417.874023 15462.000000
1419.515503 15400.000000
1421.156128 15389.000000
1422.795776 15508.000000
1424.434326 15473.000000
1426.072021 15192.000000
1427.708618 15085.000000
1429.344238 15354.000000
1430.979126 15212.000000
1432.612915 15126.000000
1434.245605 15088.000000
1435.877319 15082.000000
1437.508179 15113.000000
1439.137939 15095.000000
1440.766602 15235.000000
1442.394653 15193.000000
1444.021606 15468.000000
1445.647339 15470.000000
1447.272461 15525.000000
1448.896484 15886.000000
1450.519531 16091.000000
1452.141602 16413.000000
1453.762573 16628.000000
1455.382568 16723.000000
1457.001831 16655.000000
1458.619751 19718.000000
1460.237061 12547.000000
1461.853394 16256.000000
1463.468506 15646.000000
1465.082764 15658.000000
1466.696167 15784.000000
1468.308472 15861.000000
1469.919922 15652.000000
1471.530518 15396.000000
1473.139893 15485.000000
1474.748291 15408.000000
1476.355835 15354.000000
1477.962402 15244.000000
1479.568237 15437.000000
1481.172852 15297.000000
1482.776611 15081.000000
1484.379150 14717.000000
1485.981079 14319.000000
1487.581787 14278.000000
1489.181763 14089.000000
1490.780640 13806.000000
1492.378662 13989.000000
1493.975586 13867.000000
1495.571655 14299.000000
1497.166748 14910.000000
1498.760864 14617.000000
1500.354248 14522.000000
1501.946533 14574.000000
1503.537598 14425.000000
1505.128174 14260.000000
1506.717407 14210.000000
1508.306030 14152.000000
1509.893555 13936.000000
1511.479980 13942.000000
1513.065674 13889.000000
1514.650269 13776.000000
1516.234009 13804.000000
1517.816650 13761.000000
1519.398560 13681.000000
1520.979370 13829.000000
1522.559448 13584.000000
1524.138306 13588.000000
1525.716309 13370.000000
1527.293579 13346.000000
1528.869629 13153.000000
1530.444946 13004.000000
1532.019165 13137.000000
1533.592651 13148.000000
1535.164917 13061.000000
1536.736450 13111.000000
1538.307007 13083.000000
1539.876709 13041.000000
1541.445190 13007.000000
1543.012939 12898.000000
1544.579834 13003.000000
1546.145508 12755.000000
1547.710449 12758.000000
1549.274292 12765.000000
1550.837524 12561.000000
1552.399414 12727.000000
1553.960693 12705.000000
1555.520874 12629.000000
1557.080322 12546.000000
1558.638672 12446.000000
1560.196289 12402.000000
1561.752808 12502.000000
1563.308105 12390.000000
1564.862793 12536.000000
1566.416748 12676.000000
1567.969727 12605.000000
1569.521362 12764.000000
1571.072266 12687.000000
1572.622437 12619.000000
1574.171631 12565.000000
1575.719482 12854.000000
1577.266846 12704.000000
1578.813232 12650.000000
1580.358765 12759.000000
1581.903320 12694.000000
1583.446655 12775.000000
1584.989380 12784.000000
1586.531250 12696.000000
1588.072021 12694.000000
1589.611816 12809.000000
1591.150879 12707.000000
1592.688843 12651.000000
1594.226318 12620.000000
1595.762451 12725.000000
1597.297485 12743.000000
1598.832031 12470.000000
1600.365601 12571.000000
1601.898315 12599.000000
1603.429443 12710.000000
1604.960327 12729.000000
1606.490356 12572.000000
1608.019165 12486.000000
1609.546875 12542.000000
1611.073975 12701.000000
1612.600342 13023.000000
1614.125732 12660.000000
1615.650269 12773.000000
1617.173462 12607.000000
1618.695923 12681.000000
1620.217651 12727.000000
1621.738525 12960.000000
1623.257935 11901.000000
1624.776855 12499.000000
1626.295044 12602.000000
1627.812378 12498.000000
1629.328613 12476.000000
1630.843506 12489.000000
1632.357910 12414.000000
1633.871582 12189.000000
1635.384155 12264.000000
1636.895508 12324.000000
1638.406494 12238.000000
1639.916382 12221.000000
1641.425415 12246.000000
1642.933105 12079.000000
1644.440430 12023.000000
1645.946899 11900.000000
1647.452393 11861.000000
1648.957031 11952.000000
1650.460205 11751.000000
1651.962769 11971.000000
1653.464966 11895.000000
1654.965820 11734.000000
1656.465576 11524.000000
1657.964478 11610.000000
1659.463013 11422.000000
1660.960327 11439.000000
1662.456909 11323.000000
1663.951904 11408.000000
1665.446655 11119.000000
1666.940552 11143.000000
1668.433472 12207.000000
1669.925049 9127.000000
1671.416138 10864.000000
1672.906616 10881.000000
1674.395996 10735.000000
1675.883911 10614.000000
1677.371582 10754.000000
1678.858276 10925.000000
1680.344116 10839.000000
1681.829102 10679.000000
1683.312622 10561.000000
1684.795898 10332.000000
1686.278320 10525.000000
1687.759644 10522.000000
1689.239502 10257.000000
1690.719116 10318.000000
1692.197998 10232.000000
1693.675903 9927.000000
1695.152832 10276.000000
1696.628540 10446.000000
1698.103882 10076.000000
1699.578003 10157.000000
1701.051514 10118.000000
1702.523560 10207.000000
1703.995361 10100.000000
1705.466187 10103.000000
1706.936157 10070.000000
1708.404785 10168.000000
1709.872925 10102.000000
1711.340332 10111.000000
1712.806641 10198.000000
1714.272339 10092.000000
1715.736328 10012.000000
1717.200195 10035.000000
1718.663208 10017.000000
1720.125244 10115.000000
1721.586060 9997.000000
1723.046265 10068.000000
1724.505737 10049.000000
1725.964355 10102.000000
1727.421997 9946.000000
1728.878296 9987.000000
1730.334351 9899.000000
1731.789429 9918.000000
1733.243530 9897.000000
1734.696411 9779.000000
1736.149048 9765.000000
1737.600586 9661.000000
1739.051392 9652.000000
1740.501221 9759.000000
1741.949707 9682.000000
1743.397827 9546.000000
1744.845093 9571.000000
1746.291626 9492.000000
1747.736572 9415.000000
1749.181274 9495.000000
1750.625122 9364.000000
1752.068115 9409.000000
1753.509644 9300.000000
1754.950928 9707.000000
1756.391357 8374.000000
1757.830811 9305.000000
1759.269287 9239.000000
1760.706787 9075.000000
1762.143799 8933.000000
1763.579834 9021.000000
1765.015015 9162.000000
1766.448730 9014.000000
1767.882324 9277.000000
1769.314941 9053.000000
1770.746704 9261.000000
1772.177612 9104.000000
1773.607300 9064.000000
1775.036255 8861.000000
1776.464722 8691.000000
1777.892212 8346.000000
1779.318359 7969.000000
1780.744263 8604.000000
1782.169067 8514.000000
1783.593262 8582.000000
1785.015991 8527.000000
1786.438232 8474.000000
1787.859741 8331.000000
1789.280518 8399.000000
1790.700317 8447.000000
1792.118774 8345.000000
1793.536743 8128.000000
1794.954102 8346.000000
1796.370605 8238.000000
1797.785645 8255.000000
1799.200317 8197.000000
1800.614380 8280.000000
1802.027222 8217.000000
1803.439453 8076.000000
1804.850342 8087.000000
1806.260742 8222.000000
1807.670410 8132.000000
1809.079102 8051.000000
1810.486694 8229.000000
1811.893799 8187.000000
1813.300049 8089.000000
1814.705322 8076.000000
1816.109497 8179.000000
1817.513306 8283.000000
1818.916138 8150.000000
1820.318115 8150.000000
1821.719482 8099.000000
1823.119385 8149.000000
1824.518677 8035.000000
1825.917480 7992.000000
1827.315430 8056.000000
1828.712036 8045.000000
1830.108032 7906.000000
1831.503296 8114.000000
1832.897949 7916.000000
1834.291626 7993.000000
1835.683960 8050.000000
1837.075806 7955.000000
1838.467041 7993.000000
1839.857300 7983.000000
1841.246338 8011.000000
1842.635010 7877.000000
1844.022705 7866.000000
1845.409668 7798.000000
1846.795288 7770.000000
1848.180664 7837.000000
1849.565186 7710.000000
1850.948975 7749.000000
1852.331665 7680.000000
1853.713135 7620.000000
1855.094116 7641.000000
1856.474609 7553.000000
1857.854126 7629.000000
1859.232178 7484.000000
1860.610107 7597.000000
1861.987061 7481.000000
1863.363281 7367.000000
1864.738647 7425.000000
1866.112549 7303.000000
1867.486328 7297.000000
1868.859253 7150.000000
1870.231079 7187.000000
1871.601929 7242.000000
1872.972412 7309.000000
1874.341797 7110.000000
1875.710693 7161.000000
1877.078003 7102.000000
1878.445190 6932.000000
1879.811401 6987.000000
1881.176880 7076.000000
1882.541626 6989.000000
1883.904785 7013.000000
1885.267822 6971.000000
1886.630005 6855.000000
1887.991333 6965.000000
1889.351318 6910.000000
1890.710938 7038.000000
1892.069946 6974.000000
1893.427979 6934.000000
1894.785156 6775.000000
1896.141113 6769.000000
1897.496826 6667.000000
1898.851563 6844.000000
1900.205444 6748.000000
1901.558228 6774.000000
1902.910522 6866.000000
1904.262085 6793.000000
1905.612793 6816.000000
1906.962280 6819.000000
1908.311279 6841.000000
1909.659424 6777.000000
1911.006958 6835.000000
1912.353760 6705.000000
1913.698975 6782.000000
1915.043945 6901.000000
1916.388184 6974.000000
1917.731567 6807.000000
1919.073608 6718.000000
1920.415405 6767.000000
1921.756348 6650.000000
1923.096558 6728.000000
1924.435791 6845.000000
1925.774048 6660.000000
1927.111694 6658.000000
1928.448608 6720.000000
1929.784668 6831.000000
1931.119507 6811.000000
1932.453979 6788.000000
1933.787720 6625.000000
1935.120605 6645.000000
1936.452026 6622.000000
1937.783569 6554.000000
1939.113770 6597.000000
1940.443481 6625.000000
1941.772339 6545.000000
1943.099976 6544.000000
1944.427124 6560.000000
1945.753540 6690.000000
1947.079224 6566.000000
1948.403564 6587.000000
1949.727661 6436.000000
1951.050903 6417.000000
1952.373413 6561.000000
1953.694824 6363.000000
1955.015259 6531.000000
1956.335083 6417.000000
1957.654541 6302.000000
1958.973022 6213.000000
1960.290161 6293.000000
1961.606934 6202.000000
1962.922974 6078.000000
1964.238281 6308.000000
1965.552124 6222.000000
1966.865723 6123.000000
1968.178589 6167.000000
1969.490601 6364.000000
1970.802002 6063.000000
1972.112061 6100.000000
1973.421631 6023.000000
1974.730469 6110.000000
1976.038696 6000.000000
1977.345581 5961.000000
1978.651855 5900.000000
1979.957764 5950.000000
1981.262451 5928.000000
1982.566650 6064.000000
1983.869629 5865.000000
1985.172241 5955.000000
1986.473877 5957.000000
1987.774902 5856.000000
1989.074341 5824.000000
1990.373901 5759.000000
1991.672363 5711.000000
1992.970337 5643.000000
1994.266724 5727.000000
1995.563110 5593.000000
1996.858521 5677.000000
1998.153198 5527.000000
1999.447021 5598.000000
2000.739624 5434.000000
2002.031738 5577.000000
2003.323364 5561.000000
2004.614258 5502.000000
2005.903564 5468.000000
2007.192627 5583.000000
2008.480957 5458.000000
2009.768555 5515.000000
2011.055298 5533.000000
2012.340942 5368.000000
2013.626221 5493.000000
2014.910522 5359.000000
2016.194214 5443.000000
2017.476563 5426.000000
2018.758545 5508.000000
2020.040039 5409.000000
2021.320557 5466.000000
2022.600342 5257.000000
2023.879028 5324.000000
2025.156982 5367.000000
2026.434448 5270.000000
2027.711304 5283.000000
2028.986450 5382.000000
2030.261719 5485.000000
2031.536011 5433.000000
2032.809326 5480.000000
2034.081787 5442.000000
2035.353882 5548.000000
2036.624878 5486.000000
2037.895630 5474.000000
2039.165039 5355.000000
2040.433350 5464.000000
2041.701660 5345.000000
2042.968994 5392.000000
2044.235596 5412.000000
2045.500977 5322.000000
2046.765747 5385.000000
2048.030273 5303.000000
2049.293457 5240.000000
2050.556396 5323.000000
2051.817383 5296.000000
2053.078857 5298.000000
2054.339111 5270.000000
2055.598633 5244.000000
2056.857422 5245.000000
2058.115234 5188.000000
2059.372559 5131.000000
2060.629150 5227.000000
2061.884277 4981.000000
2063.139404 5142.000000
2064.393555 5159.000000
2065.646973 5069.000000
2066.899658 5038.000000
2068.151123 5127.000000
2069.402344 4951.000000
2070.652832 5041.000000
2071.902588 5005.000000
2073.150879 4664.000000
2074.399170 5035.000000
2075.646484 5173.000000
2076.893066 5022.000000
2078.138916 4918.000000
2079.383545 4920.000000
2080.627686 4926.000000
2081.871338 4861.000000
2083.114014 4880.000000
2084.355469 4836.000000
2085.596680 4855.000000
2086.837402 4908.000000
2088.077148 4691.000000
2089.315674 4875.000000
2090.553711 4791.000000
2091.791016 4722.000000
2093.028076 4692.000000
2094.263672 4721.000000
2095.498535 4795.000000
2096.733154 4787.000000
2097.966797 4787.000000
2099.199463 4720.000000
2100.431396 4626.000000
2101.662842 4678.000000
2102.893311 4605.000000
2104.123047 4594.000000
2105.352539 4601.000000
2106.580078 4656.000000
2107.807861 4424.000000
2109.034912 4463.000000
2110.260986 4528.000000
2111.485596 4438.000000
2112.710449 4388.000000
2113.934082 4460.000000
2115.157227 4538.000000
2116.379150 4349.000000
2117.600830 4456.000000
2118.821533 4453.000000
2120.041504 4580.000000
2121.260986 4537.000000
2122.479004 4497.000000
2123.697021 4476.000000
2124.914063 4638.000000
2126.130615 4508.000000
2127.345459 4519.000000
2128.560547 4571.000000
2129.774658 4460.000000
2130.988037 4427.000000
2132.200684 4333.000000
2133.411865 4487.000000
2134.623291 4373.000000
2135.833496 4224.000000
2137.043213 4367.000000
2138.251465 4401.000000
2139.459717 4423.000000
2140.667236 4413.000000
2141.873535 4365.000000
2143.079102 4397.000000
2144.284424 4255.000000
2145.488770 4343.000000
2146.692383 4306.000000
2147.895508 4365.000000
2149.097168 4430.000000
2150.298584 4250.000000
2151.499268 4314.000000
2152.699219 4443.000000
2153.897949 4342.000000
2155.096436 4212.000000
2156.294434 4213.000000
2157.491455 4125.000000
2158.687744 4099.000000
2159.882813 4055.000000
2161.077637 4080.000000
2162.271729 4102.000000
2163.464844 4014.000000
2164.656982 3975.000000
2165.848877 4042.000000
2167.040039 4023.000000
2168.230225 3900.000000
2169.419678 3961.000000
2170.608643 3846.000000
2171.796631 3923.000000
2172.984375 3830.000000
2174.170654 3829.000000
2175.356201 3670.000000
2176.541504 3784.000000
2177.726318 3738.000000
2178.909912 3836.000000
2180.092773 3746.000000
2181.274658 3788.000000
2182.456299 3789.000000
2183.637451 3760.000000
2184.817383 3796.000000
2185.996338 3940.000000
2187.174805 3789.000000
2188.353027 3747.000000
2189.530029 3719.000000
2190.706055 3703.000000
2191.881836 3769.000000
2193.057129 3783.000000
2194.230957 3754.000000
2195.404297 3667.000000
2196.577393 3830.000000
2197.749268 3730.000000
2198.920654 3790.000000
2200.091553 3756.000000
2201.260742 3609.000000
2202.429932 3712.000000
2203.598633 3679.000000
2204.766357 3713.000000
2205.933105 3692.000000
2207.099121 3771.000000
2208.264648 3687.000000
2209.429932 3650.000000
2210.593750 3679.000000
2211.757080 3668.000000
2212.919189 3690.000000
2214.081543 3747.000000
2215.242676 3568.000000
2216.402832 3641.000000
2217.562500 3560.000000
2218.721924 3557.000000
2219.880127 3522.000000
2221.037354 3585.000000
2222.194336 3578.000000
2223.350586 3572.000000
2224.506104 3426.000000
2225.660889 3584.000000
2226.814697 3490.000000
2227.967529 3464.000000
2229.120850 3520.000000
2230.272217 3409.000000
2231.423340 3448.000000
2232.573730 3435.000000
2233.723633 3436.000000
2234.872559 3376.000000
2236.020996 3394.000000
2237.167969 3371.000000
2238.315186 3378.000000
2239.461182 3343.000000
2240.606934 3289.000000
2241.750977 3344.000000
2242.895264 3114.000000
2244.038574 3231.000000
2245.181152 3217.000000
2246.322754 3198.000000
2247.464111 3208.000000
2248.604492 3063.000000
2249.744141 3053.000000
2250.883301 3134.000000
2252.021240 3085.000000
2253.159180 3139.000000
2254.296143 3126.000000
2255.432373 3149.000000
2256.567627 3119.000000
2257.702148 3158.000000
2258.836426 3034.000000
2259.970215 3181.000000
2261.102539 3253.000000
2262.234375 3062.000000
2263.365723 3025.000000
2264.496094 2933.000000
2265.626221 2951.000000
2266.755127 2885.000000
2267.883545 2860.000000
2269.011475 2882.000000
2270.138428 2977.000000
2271.264648 2918.000000
2272.389893 2989.000000
2273.515137 2888.000000
2274.639648 2992.000000
2275.762939 2955.000000
2276.885498 2947.000000
2278.007568 2939.000000
2279.129150 2987.000000
2280.250000 2848.000000
2281.369629 2858.000000
2282.488770 2945.000000
2283.607666 2851.000000
2284.725830 2715.000000
2285.843018 2823.000000
2286.959229 2835.000000
2288.075195 2834.000000
2289.190430 2858.000000
2290.304932 2835.000000
2291.418213 2903.000000
2292.531494 2895.000000
2293.644043 2860.000000
2294.755859 2960.000000
2295.866943 2781.000000
2296.976807 2854.000000
2298.086182 2895.000000
2299.195313 2891.000000
2300.303467 2943.000000
2301.410645 2899.000000
2302.517578 2885.000000
2303.623779 2914.000000
2304.729492 2902.000000
2305.833740 2850.000000
2306.937744 2835.000000
2308.041260 2838.000000
2309.144287 2748.000000
2310.246094 2732.000000
2311.347168 2917.000000
2312.447754 2865.000000
2313.547852 2705.000000
2314.647217 2696.000000
2315.745117 2747.000000
2316.843506 2783.000000
2317.940430 2741.000000
2319.037109 2682.000000
2320.133301 2648.000000
2321.227783 2657.000000
2322.322266 2662.000000
2323.416016 2517.000000
2324.509521 2655.000000
2325.601318 2581.000000
2326.693115 2742.000000
2327.784180 2636.000000
2328.874512 2730.000000
2329.963867 2643.000000
2331.053223 2674.000000
2332.141357 2620.000000
2333.229004 2621.000000
2334.316406 2547.000000
2335.402100 2606.000000
2336.487549 2511.000000
2337.572754 2441.000000
2338.656982 2485.000000
2339.740234 2530.000000
2340.823242 2516.000000
2341.905273 2931.000000
2342.987061 2481.000000
2344.068115 2467.000000
2345.147949 2344.000000
2346.227295 2561.000000
2347.306152 2419.000000
2348.384521 2343.000000
2349.461426 2399.000000
2350.538086 2352.000000
2351.614502 2338.000000
2352.689941 2374.000000
2353.764404 2390.000000
2354.838623 2478.000000
2355.912109 2424.000000
2356.985107 2531.000000
2358.056885 2304.000000
2359.128418 2344.000000
2360.198975 2312.000000
2361.269287 2303.000000
2362.338623 2334.000000
2363.406982 2329.000000
2364.475098 2288.000000
2365.542480 2295.000000
2366.609375 2203.000000
2367.675537 2324.000000
2368.740479 2234.000000
2369.805420 2184.000000
2370.869629 2273.000000
2371.933105 2146.000000
2372.995361 2223.000000
2374.057617 2280.000000
2375.118896 2213.000000
2376.179932 2178.000000
2377.239746 2180.000000
2378.298828 2185.000000
2379.357910 2228.000000
2380.416016 2174.000000
2381.473389 2201.000000
2382.529785 2200.000000
2383.585938 2119.000000
2384.641602 2101.000000
2385.696533 2156.000000
2386.750000 2125.000000
2387.803711 2064.000000
2388.856445 2190.000000
2389.908691 1946.000000
2390.960205 2140.000000
2392.010742 2189.000000
2393.061035 2147.000000
2394.110352 2160.000000
2395.159668 2093.000000
2396.207520 2105.000000
2397.254883 2159.000000
2398.302002 2159.000000
2399.348145 2044.000000
2400.393555 2069.000000
2401.438232 2066.000000
2402.482910 2090.000000
2403.526123 2153.000000
2404.569336 2091.000000
2405.611084 2102.000000
2406.653076 2093.000000
2407.694336 2180.000000
2408.734619 2122.000000
2409.774170 2150.000000
2410.812744 2055.000000
2411.851563 2114.000000
2412.889160 2075.000000
2413.926514 2017.000000
2414.962646 2176.000000
2415.998535 2107.000000
2417.033691 2077.000000
2418.068359 2129.000000
2419.101563 1994.000000
2420.135010 2039.000000
2421.167480 2030.000000
2422.199707 2057.000000
2423.230469 1902.000000
2424.261230 1939.000000
2425.291504 1979.000000
2426.320557 2089.000000
2427.349609 2045.000000
2428.376953 2021.000000
2429.404785 2014.000000
2430.431396 1938.000000
2431.457764 1937.000000
2432.482666 1857.000000
2433.507813 1918.000000
2434.531982 1887.000000
2435.555908 1951.000000
2436.578613 1907.000000
2437.600586 1889.000000
2438.622314 1856.000000
2439.643311 1798.000000
2440.663818 1913.000000
2441.683105 1883.000000
2442.702393 1803.000000
2443.720703 1712.000000
2444.738770 1855.000000
2445.755371 1770.000000
2446.771973 1746.000000
2447.787842 1834.000000
2448.803711 1780.000000
2449.818115 1883.000000
2450.831787 1761.000000
2451.844971 1781.000000
2452.857910 1716.000000
2453.870117 1668.000000
2454.881348 1733.000000
2455.892334 1690.000000
2456.902588 1661.000000
2457.912354 1788.000000
2458.921143 1684.000000
2459.929199 1610.000000
2460.937256 1687.000000
2461.944092 1687.000000
2462.950684 1703.000000
2463.956055 1659.000000
2464.961182 1573.000000
2465.966064 1678.000000
2466.969727 1694.000000
2467.973145 1618.000000
2468.975586 1594.000000
2469.977783 1759.000000
2470.979492 1696.000000
2471.980225 1712.000000
2472.979980 1493.000000
2473.979736 1608.000000
2474.978516 1641.000000
2475.976807 1572.000000
2476.974121 1615.000000
2477.971191 1575.000000
2478.968262 1688.000000
2479.963867 1542.000000
2480.959473 1647.000000
2481.953369 1609.000000
2482.947266 1622.000000
2483.940674 1655.000000
2484.933594 1703.000000
2485.925537 1565.000000
2486.916748 1698.000000
2487.907715 1640.000000
2488.898193 1570.000000
2489.887695 1529.000000
2490.876465 1634.000000
2491.865234 1684.000000
2492.853027 1595.000000
2493.839600 1612.000000
2494.826172 1665.000000
2495.812256 1609.000000
2496.797607 1636.000000
2497.781982 1514.000000
2498.766113 1595.000000
2499.750244 1639.000000
2500.732910 1582.000000
2501.715088 1636.000000
2502.696777 1596.000000
2503.677734 1498.000000
2504.658203 1638.000000
2505.638428 1575.000000
2506.617188 1637.000000
2507.595703 1540.000000
2508.573730 1488.000000
2509.551270 1544.000000
2510.527832 1553.000000
2511.504150 1474.000000
2512.479736 1640.000000
2513.454834 1591.000000
2514.429443 1529.000000
2515.402832 1454.000000
2516.375977 1473.000000
2517.348877 1568.000000
2518.320801 1446.000000
2519.291992 1522.000000
2520.262695 1483.000000
2521.233154 1438.000000
2522.202881 1512.000000
2523.171631 1452.000000
2524.139648 1469.000000
2525.107666 1514.000000
2526.074707 1432.000000
2527.041504 1441.000000
2528.007080 1356.000000
2528.972656 1450.000000
2529.937500 1468.000000
2530.901855 1357.000000
2531.864990 1414.000000
2532.828369 1336.000000
2533.790771 1383.000000
2534.752930 1363.000000
2535.713867 1442.000000
2536.674072 1357.000000
2537.634521 1420.000000
2538.593994 1427.000000
2539.552734 1397.000000
2540.510498 1337.000000
2541.468506 1309.000000
2542.425781 1289.000000
2543.382080 1245.000000
2544.338135 1358.000000
2545.292969 1307.000000
2546.248047 1341.000000
2547.202393 1358.000000
2548.156006 702.000000
2549.108643 1201.000000
2550.061035 1326.000000
2551.012939 1315.000000
2551.964111 1365.000000
2552.914551 1384.000000
2553.864502 1281.000000
2554.814209 1316.000000
2555.763184 1222.000000
2556.711670 1303.000000
2557.658936 1351.000000
2558.606201 1229.000000
2559.552734 1273.000000
2560.498779 1196.000000
2561.443848 1261.000000
2562.388672 1166.000000
2563.333008 1207.000000
2564.276855 1222.000000
2565.220215 1135.000000
2566.162109 1198.000000
2567.104248 1253.000000
2568.045654 1225.000000
2568.986328 1209.000000
2569.926270 1234.000000
2570.866211 1231.000000
2571.805176 1239.000000
2572.743896 1129.000000
2573.681641 1193.000000
2574.619141 1288.000000
2575.555908 1254.000000
2576.491943 1341.000000
2577.427490 1189.000000
2578.362305 1282.000000
2579.297119 1203.000000
2580.230957 1112.000000
2581.164307 1251.000000
2582.096924 1274.000000
2583.029297 1155.000000
2583.960938 1249.000000
2584.892090 1219.000000
2585.822754 1173.000000
2586.752197 1152.000000
2587.681641 1227.000000
2588.610596 1138.000000
2589.539307 1262.000000
2590.466309 1118.000000
2591.393555 1207.000000
2592.320313 1245.000000
2593.246338 1196.000000
2594.172119 1200.000000
2595.096680 1140.000000
2596.020996 1171.000000
2596.944824 1209.000000
2597.868164 1160.000000
2598.790527 1131.000000
2599.712646 1108.000000
2600.634277 1075.000000
2601.555176 1199.000000
2602.475342 1107.000000
2603.395264 1153.000000
2604.314697 1184.000000
2605.233887 1137.000000
2606.152100 1078.000000
2607.069092 1145.000000
2607.986328 1134.000000
2608.903320 1051.000000
2609.819336 1091.000000
2610.734131 1133.000000
2611.649414 1133.000000
2612.563965 1179.000000
2613.477539 1051.000000
2614.391113 1170.000000
2615.303467 1058.000000
2616.215820 1157.000000
2617.127197 1018.000000
2618.038330 1138.000000
2618.948730 1160.000000
2619.858887 979.000000
2620.768311 1054.000000
2621.677246 1009.000000
2622.585205 1011.000000
2623.493408 981.000000
2624.400635 986.000000
2625.307373 1060.000000
2626.213379 954.000000
2627.119141 1050.000000
2628.024170 1125.000000
2628.928955 1084.000000
2629.833008 899.000000
2630.736084 1103.000000
2631.639160 1161.000000
2632.541260 974.000000
2633.443359 1000.000000
2634.345215 1042.000000
2635.245361 1023.000000
2636.145752 1013.000000
2637.045410 960.000000
2637.944824 921.000000
2638.842773 956.000000
2639.741211 1078.000000
2640.639160 1045.000000
2641.536377 872.000000
2642.432373 1015.000000
2643.328369 1031.000000
2644.224121 951.000000
2645.119141 934.000000
2646.013916 948.000000
2646.907227 969.000000
2647.800537 974.000000
2648.693604 950.000000
2649.586426 955.000000
2650.477539 965.000000
2651.368896 1050.000000
2652.259766 1020.000000
2653.149902 1004.000000
2654.039795 861.000000
2654.928467 930.000000
2655.817383 904.000000
2656.705811 909.000000
2657.593262 959.000000
2658.479736 937.000000
2659.366699 971.000000
2660.252930 912.000000
2661.138672 865.000000
2662.023193 891.000000
2662.907715 923.000000
2663.791992 923.000000
2664.675537 972.000000
2665.558594 1014.000000
2666.440918 910.000000
2667.322754 1094.000000
2668.203857 1022.000000
2669.085205 993.000000
2669.965088 888.000000
2670.845215 868.000000
2671.724609 940.000000
2672.604004 941.000000
2673.482666 898.000000
2674.359619 952.000000
2675.237305 883.000000
2676.114258 941.000000
2676.990479 922.000000
2677.866211 951.000000
2678.741211 860.000000
2679.616455 869.000000
2680.490723 806.000000
2681.364502 855.000000
2682.237549 927.000000
2683.110352 939.000000
2683.982910 866.000000
2684.854736 864.000000
2685.725830 902.000000
2686.596680 830.000000
2687.467041 934.000000
2688.337158 820.000000
2689.205566 796.000000
2690.074707 840.000000
2690.943115 869.000000
2691.811279 808.000000
2692.678711 752.000000
2693.544922 911.000000
2694.411621 881.000000
2695.277344 886.000000
2696.143066 817.000000
2697.007324 892.000000
2697.872314 835.000000
2698.735840 959.000000
2699.599609 797.000000
2700.461914 819.000000
2701.324707 864.000000
2702.186523 775.000000
2703.047852 746.000000
2703.909180 837.000000
2704.769287 774.000000
2705.629395 876.000000
2706.489014 817.000000
2707.348389 868.000000
2708.206055 774.000000
2709.063965 749.000000
2709.922363 780.000000
2710.779541 866.000000
2711.635986 823.000000
2712.491943 773.000000
2713.347900 894.000000
2714.203125 857.000000
2715.057617 712.000000
2715.911621 829.000000
2716.765625 771.000000
2717.618652 835.000000
2718.471924 775.000000
2719.323486 836.000000
2720.175537 810.000000
2721.027344 806.000000
2721.877930 739.000000
2722.728516 786.000000
2723.578613 865.000000
2724.427979 779.000000
2725.277344 787.000000
2726.125488 737.000000
2726.973145 743.000000
2727.821289 742.000000
2728.668213 849.000000
2729.515625 747.000000
2730.361572 851.000000
2731.206787 853.000000
2732.052490 711.000000
2732.897217 710.000000
2733.741943 786.000000
2734.585449 799.000000
2735.429199 829.000000
2736.272217 774.000000
2737.114746 856.000000
2737.956299 840.000000
2738.798340 801.000000
2739.639404 757.000000
2740.480225 728.000000
2741.320801 773.000000
2742.160156 863.000000
2742.999512 757.000000
2743.838867 791.000000
2744.677002 752.000000
2745.514648 826.000000
2746.352295 734.000000
2747.189453 731.000000
2748.026367 713.000000
2748.862793 736.000000
2749.697998 836.000000
2750.533447 728.000000
2751.368408 821.000000
2752.202637 723.000000
2753.036621 777.000000
2753.870117 649.000000
2754.703613 715.000000
2755.536133 658.000000
2756.368164 690.000000
2757.199707 749.000000
2758.031250 766.000000
2758.861816 670.000000
2759.692627 728.000000
2760.522217 769.000000
2761.351807 646.000000
2762.181152 725.000000
2763.009766 724.000000
2763.837891 561.000000
2764.665527 802.000000
2765.493164 652.000000
2766.320313 679.000000
2767.146729 604.000000
2767.972656 675.000000
2768.798096 576.000000
2769.623291 668.000000
2770.448486 669.000000
2771.272461 604.000000
2772.096436 653.000000
2772.920410 540.000000
2773.743164 637.000000
2774.566162 618.000000
2775.387939 705.000000
2776.209717 687.000000
2777.031494 708.000000
2777.852295 574.000000
2778.672363 627.000000
2779.492676 594.000000
2780.312500 590.000000
2781.132324 608.000000
2781.950195 612.000000
2782.769287 653.000000
2783.587158 612.000000
2784.404785 679.000000
2785.221924 639.000000
2786.038574 604.000000
2786.854980 570.000000
2787.670898 613.000000
2788.486572 651.000000
2789.301270 566.000000
2790.116455 561.000000
2790.930908 572.000000
2791.744873 702.000000
2792.558594 534.000000
2793.371094 516.000000
2794.183838 607.000000
2794.996094 604.000000
2795.807861 597.000000
2796.618896 560.000000
2797.430664 552.000000
2798.241211 585.000000
2799.051758 611.000000
2799.860840 554.000000
2800.670654 609.000000
2801.479736 577.000000
2802.288574 582.000000
2803.096924 542.000000
2803.904297 617.000000
2804.712158 439.000000
2805.519287 651.000000
2806.326172 605.000000
2807.131836 727.000000
2807.937988 586.000000
2808.743408 518.000000
2809.548828 533.000000
2810.353516 567.000000
2811.157227 526.000000
2811.961426 683.000000
2812.765137 615.000000
2813.568604 598.000000
2814.370605 626.000000
2815.173340 643.000000
2815.975342 505.000000
2816.777100 638.000000
2817.578369 623.000000
2818.379150 552.000000
2819.179443 699.000000
2819.979980 665.000000
2820.779541 445.000000
2821.578613 478.000000
2822.377686 629.000000
2823.176514 553.000000
2823.974854 503.000000
2824.772217 638.000000
2825.569824 588.000000
2826.366699 566.000000
2827.163818 501.000000
2827.960205 630.000000
2828.755859 556.000000
2829.551514 704.000000
2830.346924 531.000000
2831.141846 634.000000
2831.936035 547.000000
2832.730225 620.000000
2833.524170 584.000000
2834.317627 619.000000
2835.110352 619.000000
2835.902832 661.000000
2836.695313 531.000000
2837.487549 520.000000
2838.279297 657.000000
2839.070068 562.000000
2839.860840 545.000000
2840.651855 562.000000
2841.441895 632.000000
2842.231445 650.000000
2843.021240 597.000000
2843.810059 509.000000
2844.598877 584.000000
2845.387695 571.000000
2846.175537 543.000000
2846.962891 635.000000
2847.750488 543.000000
2848.537598 667.000000
2849.323975 655.000000
2850.110352 562.000000
2850.896484 567.000000
2851.682129 626.000000
2852.466797 502.000000
2853.251953 575.000000
2854.036865 611.000000
2854.821045 559.000000
2855.605225 620.000000
2856.388184 560.000000
2857.171387 587.000000
2857.954346 535.000000
2858.736816 618.000000
2859.519043 588.000000
2860.300781 535.000000
2861.082275 618.000000
2861.864014 542.000000
2862.645020 604.000000
2863.425293 639.000000
2864.205322 578.000000
2864.985352 681.000000
2865.765137 576.000000
2866.543945 567.000000
2867.322998 554.000000
2868.101563 595.000000
2868.879883 738.000000
2869.657715 684.000000
2870.435303 646.000000
2871.212646 720.000000
2871.989746 742.000000
2872.766357 719.000000
2873.542480 711.000000
2874.318604 837.000000
2875.094238 697.000000
2875.869629 755.000000
2876.644531 762.000000
2877.419189 714.000000
2878.193848 847.000000
2878.968262 926.000000
2879.741943 737.000000
2880.514893 801.000000
2881.288574 888.000000
2882.061279 799.000000
2882.833984 860.000000
2883.605957 770.000000
2884.377686 806.000000
2885.149902 920.000000
2885.920898 857.000000
2886.691406 784.000000
2887.462402 765.000000
2888.233398 857.000000
2889.003662 756.000000
2889.772949 761.000000
2890.542480 805.000000
2891.312012 758.000000
2892.081055 790.000000
2892.849609 832.000000
2893.618164 833.000000
2894.385742 935.000000
2895.153809 833.000000
2895.921387 931.000000
2896.688965 833.000000
2897.455322 762.000000
2898.222656 787.000000
2898.988770 778.000000
2899.755127 727.000000
2900.520020 817.000000
2901.285400 759.000000
2902.051270 713.000000
2902.815674 695.000000
2903.580078 753.000000
2904.344727 795.000000
2905.108398 786.000000
2905.872803 717.000000
2906.636475 830.000000
2907.399414 819.000000
2908.162109 647.000000
2908.925293 735.000000
2909.687988 690.000000
2910.449463 687.000000
2911.211426 687.000000
spectrumdark 2048
-97.019325 6218.000000
-94.392456 6218.000000
-91.767464 6120.000000
-89.144363 6460.000000
-86.523132 5859.000000
-83.903801 6221.000000
-81.286331 6140.000000
-78.670738 6484.000000
-76.057022 6232.000000
-73.445183 5902.000000
-70.835205 6115.000000
-68.227112 6032.000000
-65.620865 6013.000000
-63.016495 6056.000000
-60.413986 6152.000000
-57.813332 5659.000000
-55.214539 6288.000000
-52.617603 6963.000000
-50.022522 6524.000000
-47.429295 6533.000000
-44.837917 6271.000000
-42.248386 6800.000000
-39.660698 5918.000000
-37.074860 6080.000000
-34.490864 6538.000000
-31.908707 5743.000000
-29.328394 6409.000000
-26.749908 5721.000000
-24.173265 6080.000000
-21.598448 6285.000000
-19.025471 6535.000000
-16.454313 6503.000000
-13.884989 6798.000000
-11.317491 7756.000000
-8.751811 6266.000000
-6.187957 6458.000000
-3.625917 6047.000000
-1.065701 5864.000000
1.492707 6213.000000
4.049294 6924.000000
6.604076 6692.000000
9.157042 6034.000000
11.708206 6724.000000
14.257558 6495.000000
16.805113 6700.000000
19.350857 6016.000000
21.894808 5792.000000
24.436954 6709.000000
26.977304 6875.000000
29.515869 6961.000000
32.052639 6249.000000
34.587605 5749.000000
37.120792 7311.000000
39.652199 6346.000000
42.181812 7151.000000
44.709629 6563.000000
47.235687 7882.000000
49.759956 5718.000000
52.282455 6276.000000
54.803158 6743.000000
57.322105 6275.000000
59.839279 6516.000000
62.354675 6688.000000
64.868294 5753.000000
67.380157 5767.000000
69.890274 6603.000000
72.398598 6556.000000
74.905167 5992.000000
77.409988 6439.000000
79.913055 6495.000000
82.414345 6331.000000
84.913895 6148.000000
87.411690 6349.000000
89.907753 5807.000000
92.402039 7262.000000
94.894585 5883.000000
97.385414 6989.000000
99.874474 7174.000000
102.361786 6398.000000
104.847374 6225.000000
107.331223 6414.000000
109.813324 5807.000000
112.293701 6636.000000
114.772354 6277.000000
117.249283 6527.000000
119.724457 7316.000000
122.197922 6818.000000
124.669655 5916.000000
127.139679 6786.000000
129.607941 6314.000000
132.074539 6344.000000
134.539383 5757.000000
137.002533 6241.000000
139.463943 7244.000000
141.923660 6929.000000
144.381653 6401.000000
146.837952 6055.000000
149.292542 5895.000000
151.745407 6849.000000
154.196594 6402.000000
156.646088 6695.000000
159.093857 6127.000000
161.539917 6571.000000
163.984299 8746.000000
166.427002 6389.000000
168.868011 6826.000000
171.307312 6334.000000
173.744904 7298.000000
176.180862 6588.000000
178.615082 6974.000000
181.047623 7257.000000
183.478516 6733.000000
185.907684 6821.000000
188.335205 6760.000000
190.761047 6344.000000
193.185211 6742.000000
195.607712 7238.000000
198.028519 7378.000000
200.447662 6537.000000
202.865143 6068.000000
205.280930 7600.000000
207.695068 7121.000000
210.107574 6416.000000
212.518402 6102.000000
214.927551 6360.000000
217.335068 7456.000000
219.740875 6190.000000
222.145096 6536.000000
224.547607 6681.000000
226.948502 6988.000000
229.347748 6501.000000
231.745331 6952.000000
234.141251 7289.000000
236.535553 6502.000000
238.928192 5881.000000
241.319214 6831.000000
243.708572 6572.000000
246.096313 6367.000000
248.482407 7008.000000
250.866867 6167.000000
253.249680 7862.000000
255.630920 6661.000000
258.010468 6690.000000
260.388428 6564.000000
262.764709 7646.000000
265.139435 7561.000000
267.512512 7806.000000
269.883942 6277.000000
272.253723 6444.000000
274.621948 5921.000000
276.988525 6330.000000
279.353516 6749.000000
281.716888 6038.000000
284.078613 6280.000000
286.438751 7186.000000
288.797272 6016.000000
291.154205 6503.000000
293.509521 6412.000000
295.863251 5989.000000
298.215332 6033.000000
300.565857 6364.000000
302.914795 6398.000000
305.262085 6889.000000
307.607849 6463.000000
309.951935 6502.000000
312.294495 7408.000000
314.635437 7577.000000
316.974762 7219.000000
319.312531 7035.000000
321.648743 8108.000000
323.983307 6309.000000
326.316315 6474.000000
328.647766 6022.000000
330.977631 6634.000000
333.305908 6396.000000
335.632568 7231.000000
337.957733 6388.000000
340.281281 6297.000000
342.603271 5980.000000
344.923706 7545.000000
347.242523 7730.000000
349.559784 6080.000000
351.875519 5842.000000
354.189667 7048.000000
356.502228 6394.000000
358.813232 6313.000000
361.122711 7097.000000
363.430664 6404.000000
365.737000 5685.000000
368.041748 6384.000000
370.345032 6519.000000
372.646698 6271.000000
374.946869 6384.000000
377.245483 6303.000000
379.542542 5784.000000
381.838043 6154.000000
384.132019 5906.000000
386.424408 5305.000000
388.715302 5591.000000
391.004669 6301.000000
393.292450 6349.000000
395.578705 6508.000000
397.863464 7079.000000
400.146606 6114.000000
402.428314 6410.000000
404.708496 6166.000000
406.987091 7401.000000
409.264160 6507.000000
411.539703 6821.000000
413.813721 6520.000000
416.086304 6461.000000
418.357269 6459.000000
420.626740 6487.000000
422.894714 7135.000000
425.161133 7328.000000
427.426056 6351.000000
429.689514 6363.000000
431.951385 6483.000000
434.211792 5991.000000
436.470642 6740.000000
438.728027 6082.000000
440.983917 5730.000000
443.238312 5822.000000
445.491180 5450.000000
447.742493 6976.000000
449.992401 6104.000000
452.240723 6377.000000
454.487610 5724.000000
456.733032 6525.000000
458.976898 6580.000000
461.219269 6841.000000
463.460144 5751.000000
465.699615 6768.000000
467.937500 5447.000000
470.173950 5996.000000
472.408875 6162.000000
474.642334 7343.000000
476.874359 6736.000000
479.104858 5714.000000
481.333862 6472.000000
483.561401 6344.000000
485.787445 5974.000000
488.012054 6640.000000
490.235199 5920.000000
492.456879 6505.000000
494.677002 6709.000000
496.895721 5665.000000
499.112946 6320.000000
501.328796 5620.000000
503.543030 6178.000000
505.755951 6559.000000
507.967285 6522.000000
510.177185 6977.000000
512.385620 6589.000000
514.592712 6625.000000
516.798218 6467.000000
519.002319 6645.000000
521.204895 6206.000000
523.406067 6607.000000
525.605896 6722.000000
527.804199 6991.000000
530.000977 5451.000000
532.196411 5849.000000
534.390320 5618.000000
536.582886 7540.000000
538.773926 6710.000000
540.963562 5999.000000
543.151794 6963.000000
545.338501 7173.000000
547.523743 6893.000000
549.707703 6257.000000
551.890076 6475.000000
554.071106 6218.000000
556.250610 6090.000000
558.428833 5878.000000
560.605530 6062.000000
562.780823 6459.000000
564.954712 6420.000000
567.127136 5916.000000
569.298157 6085.000000
571.467712 6352.000000
573.635986 5306.000000
575.802734 6484.000000
577.968018 6384.000000
580.131897 6135.000000
582.294495 5788.000000
584.455566 6008.000000
586.615234 5645.000000
588.773560 5845.000000
590.930359 6211.000000
593.085815 6656.000000
595.239868 5761.000000
597.392578 6215.000000
599.543762 7238.000000
601.693604 6775.000000
603.842102 6725.000000
605.989014 6142.000000
608.134705 6478.000000
610.278992 6500.000000
612.421814 6979.000000
614.563171 6219.000000
616.703308 6512.000000
618.841919 7772.000000
620.979248 5748.000000
623.115112 6618.000000
625.249573 6903.000000
627.382568 7189.000000
629.514404 6641.000000
631.644775 6588.000000
633.773743 6817.000000
635.901245 6558.000000
638.027466 6239.000000
640.152161 7307.000000
642.275635 6376.000000
644.397766 6871.000000
646.518433 6864.000000
648.637756 6614.000000
650.755676 5711.000000
652.872253 5717.000000
654.987427 6494.000000
657.101257 6553.000000
659.213623 5812.000000
661.324768 6147.000000
663.434509 5434.000000
665.542786 6648.000000
667.649902 6323.000000
669.755554 6873.000000
671.859741 5995.000000
673.962708 5724.000000
676.064270 7012.000000
678.164490 5375.000000
680.263306 6782.000000
682.360779 6258.000000
684.456970 6968.000000
686.551697 6260.000000
688.645203 7043.000000
690.737366 6652.000000
692.828003 7992.000000
694.917419 6684.000000
697.005554 6532.000000
699.092224 6067.000000
701.177673 6725.000000
703.261597 5152.000000
705.344299 5917.000000
707.425720 5980.000000
709.505676 7690.000000
711.584412 6198.000000
713.661682 5560.000000
715.737671 6651.000000
717.812378 6149.000000
719.885803 7040.000000
721.957703 6321.000000
724.028442 7357.000000
726.097839 5847.000000
728.165833 6518.000000
730.232483 6417.000000
732.297913 7146.000000
734.362000 5795.000000
736.424744 6234.000000
738.486145 6473.000000
740.546265 6667.000000
742.604980 6069.000000
744.662476 6634.000000
746.718689 6528.000000
748.773499 6754.000000
750.827026 6382.000000
752.879150 7498.000000
754.930054 5837.000000
756.979736 6692.000000
759.027954 6361.000000
761.074951 6200.000000
763.120667 7081.000000
765.164978 5366.000000
767.208008 5828.000000
769.249817 6382.500000
771.290283 6937.000000
773.329346 6410.000000
775.367249 6173.000000
777.403809 6029.000000
779.439148 5451.000000
781.473145 5779.000000
783.505737 6944.000000
785.537170 5551.000000
787.567200 5832.500000
789.595947 6114.000000
791.623535 6335.000000
793.649780 6380.000000
795.674622 5863.000000
797.698364 5548.000000
799.720703 6385.000000
801.741821 5918.000000
803.761597 6725.000000
805.780090 4947.000000
807.797363 6753.000000
809.813232 6895.000000
811.827942 5796.000000
813.841309 6439.000000
815.853455 6330.000000
817.864380 6127.000000
819.873962 6551.000000
821.882324 5388.000000
823.889282 5774.000000
825.895020 6101.000000
827.899536 5806.000000
829.902771 5666.000000
831.904724 6529.000000
833.905396 6145.000000
835.904846 5982.000000
837.902954 6380.000000
839.899963 7008.000000
841.895569 6254.000000
843.890015 6139.000000
845.883118 6220.000000
847.875000 6885.000000
849.865540 5637.000000
851.854797 6837.000000
853.843018 6027.000000
855.829834 5801.000000
857.815430 6523.000000
859.799744 7295.000000
861.782959 6306.000000
863.764771 6427.000000
865.745361 5886.000000
867.724670 7798.000000
869.702820 7091.000000
871.679626 6157.000000
873.655151 6063.000000
875.629639 6193.000000
877.602661 6068.000000
879.574646 5470.000000
881.545288 6387.000000
883.514771 6102.000000
885.482910 5571.000000
887.449890 5268.000000
889.415527 6113.000000
891.380005 5874.000000
893.343262 6004.000000
895.305298 6530.000000
897.266052 5860.000000
899.225586 6458.000000
901.183838 6788.000000
903.140991 6412.000000
905.096985 6032.000000
907.051575 6964.000000
909.004944 6620.000000
910.957153 6497.000000
912.908142 6444.000000
914.857849 7141.000000
916.806396 6384.000000
918.753723 6184.000000
920.699768 6111.000000
922.644531 6080.000000
924.588257 6334.000000
926.530823 6004.000000
928.472107 5617.000000
930.412048 6462.000000
932.350891 5773.000000
934.288452 5477.000000
936.224792 5945.000000
938.159973 5907.000000
940.093872 6088.000000
942.026672 5918.000000
943.958252 6882.000000
945.888672 5303.000000
947.817871 6439.000000
949.745728 7065.000000
951.672546 6656.000000
953.598083 6052.000000
955.522339 5434.000000
957.445496 6015.000000
959.367493 6814.000000
961.288208 7353.000000
963.207764 6485.000000
965.126160 5361.000000
967.043518 6478.000000
968.959412 6461.000000
970.874207 6186.000000
972.787781 5931.000000
974.700195 6430.000000
976.611389 6516.000000
978.521423 5502.000000
980.430176 6240.000000
982.337891 6174.000000
984.244385 6428.000000
986.149658 5728.000000
988.053833 6817.000000
989.956787 6261.000000
991.858521 6869.000000
993.759094 6333.000000
995.658508 6605.000000
997.556702 5303.000000
999.453735 6606.000000
1001.349548 6566.000000
1003.244202 7710.000000
1005.137756 5634.000000
1007.030029 7167.000000
1008.921387 6152.000000
1010.811401 5408.000000
1012.700195 6577.000000
1014.587830 6421.000000
1016.474304 6914.000000
1018.359619 6736.000000
1020.243774 6025.000000
1022.126709 5923.000000
1024.008667 6231.000000
1025.889282 5280.000000
1027.768799 5848.000000
1029.647339 6166.000000
1031.524536 5407.000000
1033.400391 6199.000000
1035.275269 5968.000000
1037.149170 6629.000000
1039.021606 7065.000000
1040.893066 6782.000000
1042.763184 5531.000000
1044.632324 5569.000000
1046.500244 5799.000000
1048.367065 7022.000000
1050.232788 6760.000000
1052.097290 6458.000000
1053.960693 6498.000000
1055.822754 6483.000000
1057.683838 5885.000000
1059.543823 6528.000000
1061.402466 6757.000000
1063.260010 5788.000000
1065.116455 6811.000000
1066.971802 5991.000000
1068.825928 5868.000000
1070.679199 6343.000000
1072.531006 6368.000000
1074.381836 6231.000000
1076.231445 6150.000000
1078.079834 5788.000000
1079.927368 7991.000000
1081.773560 5669.000000
1083.618530 6226.000000
1085.462646 5477.000000
1087.305420 5612.000000
1089.146973 6614.000000
1090.987793 5499.000000
1092.827026 5832.000000
1094.665527 6071.000000
1096.502686 6088.000000
1098.338623 6857.000000
1100.173584 6642.000000
1102.007324 5384.000000
1103.840088 5715.000000
1105.671509 6165.000000
1107.502075 7334.000000
1109.331299 6604.000000
1111.159546 6521.000000
1112.986572 7218.000000
1114.812622 5447.000000
1116.637451 6369.000000
1118.461182 7169.000000
1120.283691 6123.000000
1122.105103 5844.000000
1123.925659 5914.000000
1125.744751 6599.000000
1127.562988 7078.000000
1129.379883 6851.000000
1131.195923 6741.000000
1133.010742 6509.000000
1134.824463 5558.000000
1136.637085 5865.000000
1138.448486 5774.000000
1140.258911 6182.000000
1142.068237 6758.000000
1143.876221 6964.000000
1145.683472 6035.000000
1147.489258 5993.000000
1149.294189 5440.000000
1151.098022 5489.000000
1152.900635 6212.000000
1154.702393 6107.000000
1156.502686 6015.000000
1158.302002 6161.000000
1160.100342 5907.000000
1161.897339 5485.000000
1163.693604 5975.000000
1165.488525 6115.000000
1167.282349 6398.000000
1169.075317 7826.000000
1170.866943 5823.000000
1172.657593 6535.000000
1174.447266 5998.000000
1176.235474 5897.000000
1178.022827 7513.000000
1179.809082 6879.000000
1181.594238 5783.000000
1183.378296 5972.000000
1185.161255 7726.000000
1186.943237 5882.000000
1188.723999 5979.000000
1190.503784 6394.000000
1192.282471 6988.000000
1194.060181 6740.000000
1195.836670 7176.000000
1197.612061 6603.000000
1199.386353 6572.000000
1201.159546 6724.000000
1202.931885 6645.000000
1204.702881 6728.000000
1206.473022 5658.000000
1208.241943 6177.000000
1210.009766 6404.000000
1211.776733 5967.000000
1213.542358 5968.000000
1215.307007 7024.000000
1217.070557 6643.000000
1218.833008 6005.000000
1220.594604 6746.000000
1222.354980 5949.000000
1224.114258 6345.000000
1225.872681 6106.000000
1227.629883 7106.000000
1229.385986 6428.000000
1231.140991 5551.000000
1232.895142 6030.000000
1234.647949 5829.000000
1236.399780 6048.000000
1238.150757 6085.000000
1239.900391 5006.000000
1241.649170 7088.000000
1243.396606 6458.000000
1245.143311 6653.000000
1246.888794 6494.000000
1248.633423 6505.000000
1250.376709 6824.000000
1252.119019 6676.000000
1253.860229 5394.000000
1255.600586 5072.000000
1257.339844 5791.000000
1259.077881 6641.000000
1260.815063 7128.000000
1262.551025 6117.000000
1264.286011 6488.000000
1266.020020 7322.000000
1267.753052 5971.000000
1269.484863 6265.000000
1271.215698 6499.000000
1272.945313 7332.000000
1274.674072 5945.000000
1276.401733 5738.000000
1278.128296 5574.000000
1279.854004 5626.000000
1281.578369 6460.000000
1283.301880 5231.000000
1285.024414 6981.000000
1286.745972 6689.000000
1288.466309 6213.000000
1290.185669 6620.000000
1291.903931 7287.000000
1293.621216 6502.000000
1295.337524 5783.000000
1297.052612 6386.000000
1298.766724 6205.000000
1300.479858 5775.000000
1302.192139 6512.000000
1303.903198 8350.000000
1305.613281 5277.000000
1307.322266 6307.000000
1309.030029 6743.000000
1310.737183 7057.000000
1312.442871 5821.000000
1314.147827 6987.000000
1315.851807 6230.000000
1317.554565 6079.000000
1319.256348 6610.000000
1320.957275 6043.000000
1322.656860 9774.000000
1324.355591 7656.500000
1326.053589 5539.000000
1327.750244 6504.000000
1329.445801 7195.000000
1331.140503 6873.000000
1332.833984 5779.000000
1334.526611 5455.000000
1336.218384 7492.000000
1337.908813 6311.000000
1339.598511 6590.000000
1341.287109 6182.000000
1342.974609 7663.000000
1344.661133 5741.000000
1346.346558 6775.000000
1348.031006 5917.000000
1349.714600 7349.000000
1351.396973 6371.000000
1353.078369 6031.000000
1354.758911 6567.000000
1356.438232 6719.000000
1358.116943 5914.000000
1359.794312 6651.000000
1361.470581 5786.000000
1363.145874 5642.000000
1364.820435 6586.000000
1366.493774 6532.000000
1368.166138 6830.000000
1369.837524 5197.000000
1371.507935 6788.000000
1373.177246 6188.000000
1374.845581 5733.000000
1376.513062 5996.000000
1378.179443 6315.000000
1379.844849 6197.000000
1381.509277 5905.000000
1383.172485 5974.000000
1384.835083 5721.000000
1386.496338 6387.000000
1388.156738 6638.000000
1389.816040 6447.000000
1391.474365 6537.000000
1393.131958 6910.000000
1394.788330 6491.000000
1396.443848 7053.000000
1398.098145 6386.000000
1399.751587 5870.000000
1401.403931 6165.000000
1403.055542 6503.000000
1404.705933 7223.000000
1406.355225 6344.000000
1408.003784 7576.000000
1409.651245 7934.000000
1411.297729 6230.000000
1412.943359 6275.000000
1414.588013 6113.000000
1416.231445 7064.000000
1417.874023 7184.000000
1419.515503 6933.000000
1421.156128 6478.000000
1422.795776 6590.000000
1424.434326 6020.000000
1426.072021 6664.000000
1427.708618 6394.000000
1429.344238 5969.000000
1430.979126 6396.000000
1432.612915 5904.000000
1434.245605 6232.000000
1435.877319 5712.000000
1437.508179 6206.000000
1439.137939 6113.000000
1440.766602 7837.000000
1442.394653 6024.000000
1444.021606 6225.000000
1445.647339 6257.000000
1447.272461 6247.000000
1448.896484 6538.000000
1450.519531 6084.000000
1452.141602 6054.000000
1453.762573 7426.000000
1455.382568 6370.000000
1457.001831 6973.000000
1458.619751 5717.000000
1460.237061 19140.000000
1461.853394 5552.000000
1463.468506 7336.000000
1465.082764 6299.000000
1466.696167 5227.000000
1468.308472 5605.000000
1469.919922 6269.000000
1471.530518 6396.000000
1473.139893 6018.000000
1474.748291 5970.000000
1476.355835 6255.000000
1477.962402 6807.000000
1479.568237 5312.000000
1481.172852 6353.000000
1482.776611 5504.000000
1484.379150 6794.000000
1485.981079 5595.000000
1487.581787 5544.000000
1489.181763 5671.000000
1490.780640 6260.000000
1492.378662 6553.000000
1493.975586 6730.000000
1495.571655 6373.000000
1497.166748 6043.000000
1498.760864 5584.000000
1500.354248 6534.000000
1501.946533 5596.000000
1503.537598 6231.000000
1505.128174 6862.000000
1506.717407 6520.000000
1508.306030 6225.000000
1509.893555 6584.000000
1511.479980 6879.000000
1513.065674 6292.000000
1514.650269 6665.000000
1516.234009 6235.000000
1517.816650 6232.000000
1519.398560 6678.000000
1520.979370 6641.000000
1522.559448 6163.000000
1524.138306 6231.000000
1525.716309 6445.000000
1527.293579 6304.000000
1528.869629 5703.000000
1530.444946 5990.000000
1532.019165 6342.000000
1533.592651 5502.000000
1535.164917 5956.000000
1536.736450 6438.000000
1538.307007 6465.000000
1539.876709 6317.000000
1541.445190 5445.000000
1543.012939 6605.000000
1544.579834 5636.000000
1546.145508 6850.000000
1547.710449 5983.000000
1549.274292 5087.000000
1550.837524 7554.000000
1552.399414 6368.000000
1553.960693 5993.000000
1555.520874 5750.000000
1557.080322 5839.000000
1558.638672 5984.000000
1560.196289 6340.000000
1561.752808 7043.000000
1563.308105 5920.000000
1564.862793 6378.000000
1566.416748 5644.000000
1567.969727 6364.000000
1569.521362 5691.000000
1571.072266 5921.000000
1572.622437 6309.000000
1574.171631 6448.000000
1575.719482 5768.000000
1577.266846 5567.000000
1578.813232 5822.000000
1580.358765 5090.000000
1581.903320 6693.000000
1583.446655 6413.000000
1584.989380 6703.000000
1586.531250 6477.000000
1588.072021 6793.000000
1589.611816 5854.000000
1591.150879 6762.000000
1592.688843 5947.000000
1594.226318 6171.000000
1595.762451 5934.000000
1597.297485 6760.000000
1598.832031 6344.000000
1600.365601 5966.000000
1601.898315 6143.000000
1603.429443 6353.000000
1604.960327 6269.000000
1606.490356 5824.000000
1608.019165 6181.000000
1609.546875 6235.000000
1611.073975 6058.000000
1612.600342 5802.000000
1614.125732 6288.000000
1615.650269 5818.000000
1617.173462 5815.000000
1618.695923 5645.000000
1620.217651 6592.000000
1621.738525 6897.000000
1623.257935 15609.000000
1624.776855 6174.000000
1626.295044 6059.000000
1627.812378 5988.000000
1629.328613 6431.000000
1630.843506 7071.000000
1632.357910 6812.000000
1633.871582 5814.000000
1635.384155 6880.000000
1636.895508 6043.000000
1638.406494 6499.000000
1639.916382 6276.000000
1641.425415 6209.000000
1642.933105 5609.000000
1644.440430 6171.000000
1645.946899 7211.000000
1647.452393 6321.000000
1648.957031 6886.000000
1650.460205 6198.000000
1651.962769 6534.000000
1653.464966 6287.000000
1654.965820 6662.000000
1656.465576 7616.000000
1657.964478 5956.000000
1659.463013 6520.000000
1660.960327 6298.000000
1662.456909 6009.000000
1663.951904 6464.000000
1665.446655 6365.000000
1666.940552 5225.000000
1668.433472 5772.000000
1669.925049 20738.000000
1671.416138 6492.000000
1672.906616 6095.000000
1674.395996 6010.000000
1675.883911 7072.000000
1677.371582 6888.000000
1678.858276 6052.000000
1680.344116 5418.000000
1681.829102 6088.000000
1683.312622 6120.000000
1684.795898 6388.000000
1686.278320 5905.000000
1687.759644 6281.000000
1689.239502 6269.000000
1690.719116 5625.000000
1692.197998 6612.000000
1693.675903 6042.000000
1695.152832 6178.000000
1696.628540 5787.000000
1698.103882 6087.000000
1699.578003 6372.000000
1701.051514 5556.000000
1702.523560 5605.000000
1703.995361 6866.000000
1705.466187 6479.000000
1706.936157 7184.000000
1708.404785 5229.000000
1709.872925 5931.000000
1711.340332 6433.000000
1712.806641 5490.000000
1714.272339 5800.000000
1715.736328 6238.000000
1717.200195 5983.000000
1718.663208 6987.000000
1720.125244 6413.000000
1721.586060 6720.000000
1723.046265 5485.000000
1724.505737 5699.000000
1725.964355 6154.000000
1727.421997 6043.000000
1728.878296 6264.000000
1730.334351 6127.000000
1731.789429 6454.000000
1733.243530 6068.000000
1734.696411 6911.000000
1736.149048 6045.000000
1737.600586 6935.000000
1739.051392 6025.000000
1740.501221 6568.000000
1741.949707 5963.000000
1743.397827 7374.000000
1744.845093 6570.000000
1746.291626 6667.000000
1747.736572 6736.000000
1749.181274 6155.000000
1750.625122 6040.000000
1752.068115 5617.000000
1753.509644 6611.000000
1754.950928 6376.000000
1756.391357 19463.000000
1757.830811 6320.000000
1759.269287 5294.000000
1760.706787 6087.000000
1762.143799 7601.000000
1763.579834 5866.000000
1765.015015 7148.000000
1766.448730 6261.000000
1767.882324 6459.000000
1769.314941 6727.000000
1770.746704 5801.000000
1772.177612 5797.000000
1773.607300 6371.000000
1775.036255 6171.000000
1776.464722 6334.000000
1777.892212 6703.000000
1779.318359 6310.000000
1780.744263 5615.000000
1782.169067 6971.000000
1783.593262 5593.000000
1785.015991 6715.000000
1786.438232 6544.000000
1787.859741 6947.000000
1789.280518 5975.000000
1790.700317 6195.000000
1792.118774 6167.000000
1793.536743 6956.000000
1794.954102 5546.000000
1796.370605 6043.000000
1797.785645 6602.000000
1799.200317 5927.000000
1800.614380 6508.000000
1802.027222 6028.000000
1803.439453 7059.000000
1804.850342 7156.000000
1806.260742 7754.000000
1807.670410 6505.000000
1809.079102 6052.000000
1810.486694 5410.000000
1811.893799 6468.000000
1813.300049 6424.000000
1814.705322 6823.000000
1816.109497 5972.000000
1817.513306 5956.000000
1818.916138 6333.000000
1820.318115 6116.000000
1821.719482 5887.000000
1823.119385 6405.000000
1824.518677 6540.000000
1825.917480 6631.000000
1827.315430 7501.000000
1828.712036 5879.000000
1830.108032 6770.000000
1831.503296 5949.000000
1832.897949 8162.000000
1834.291626 6098.000000
1835.683960 6854.000000
1837.075806 6445.000000
1838.467041 5910.000000
1839.857300 7089.000000
1841.246338 6060.000000
1842.635010 6112.000000
1844.022705 6014.000000
1845.409668 5897.000000
1846.795288 6971.000000
1848.180664 5897.000000
1849.565186 6437.000000
1850.948975 6316.000000
1852.331665 6378.000000
1853.713135 5479.000000
1855.094116 6595.000000
1856.474609 6390.000000
1857.854126 5685.000000
1859.232178 5984.000000
1860.610107 6318.000000
1861.987061 7883.000000
1863.363281 6152.000000
1864.738647 6111.000000
1866.112549 5693.000000
1867.486328 5733.000000
1868.859253 6258.000000
1870.231079 5988.000000
1871.601929 6911.000000
1872.972412 5427.000000
1874.341797 6054.000000
1875.710693 6132.000000
1877.078003 7252.000000
1878.445190 6147.000000
1879.811401 6018.000000
1881.176880 6756.000000
1882.541626 7533.000000
1883.904785 6844.000000
1885.267822 6919.000000
1886.630005 6408.000000
1887.991333 6516.000000
1889.351318 5675.000000
1890.710938 5825.000000
1892.069946 6110.000000
1893.427979 6636.000000
1894.785156 7348.000000
1896.141113 5986.000000
1897.496826 7791.000000
1898.851563 5896.000000
1900.205444 5624.000000
1901.558228 5913.000000
1902.910522 5957.000000
1904.262085 5963.000000
1905.612793 6937.000000
1906.962280 6597.000000
1908.311279 6706.000000
1909.659424 5862.000000
1911.006958 6162.000000
1912.353760 6322.000000
1913.698975 6891.000000
1915.043945 6049.000000
1916.388184 5480.000000
1917.731567 6552.000000
1919.073608 6057.000000
1920.415405 6795.000000
1921.756348 7095.000000
1923.096558 6217.000000
1924.435791 6329.000000
1925.774048 6318.000000
1927.111694 6546.000000
1928.448608 7090.000000
1929.784668 6743.000000
1931.119507 5578.000000
1932.453979 6793.000000
1933.787720 7336.000000
1935.120605 6296.000000
1936.452026 5783.000000
1937.783569 6364.000000
1939.113770 6610.000000
1940.443481 5781.000000
1941.772339 6097.000000
1943.099976 5919.000000
1944.427124 5064.000000
1945.753540 5844.000000
1947.079224 6587.000000
1948.403564 5770.000000
1949.727661 6659.000000
1951.050903 6360.000000
1952.373413 6400.000000
1953.694824 5831.000000
1955.015259 7364.000000
1956.335083 6058.000000
1957.654541 5645.000000
1958.973022 6881.000000
1960.290161 5891.000000
1961.606934 5860.000000
1962.922974 6693.000000
1964.238281 6590.000000
1965.552124 6350.000000
1966.865723 5710.000000
1968.178589 6257.000000
1969.490601 6030.000000
1970.802002 6161.000000
1972.112061 6336.000000
1973.421631 5956.000000
1974.730469 6167.000000
1976.038696 6608.000000
1977.345581 6151.000000
1978.651855 7300.000000
1979.957764 5656.000000
1981.262451 6502.000000
1982.566650 5960.000000
1983.869629 5759.000000
1985.172241 7585.000000
1986.473877 6172.000000
1987.774902 6808.000000
1989.074341 6052.000000
1990.373901 6686.000000
1991.672363 5330.000000
1992.970337 6140.000000
1994.266724 6145.000000
1995.563110 5888.000000
1996.858521 5585.000000
1998.153198 6568.000000
1999.447021 5741.000000
2000.739624 6599.000000
2002.031738 5773.000000
2003.323364 7183.000000
2004.614258 6516.000000
2005.903564 6318.000000
2007.192627 6835.000000
2008.480957 6055.000000
2009.768555 6026.000000
2011.055298 6652.000000
2012.340942 5716.000000
2013.626221 6299.000000
2014.910522 6115.000000
2016.194214 5660.000000
2017.476563 6077.000000
2018.758545 6516.000000
2020.040039 6827.000000
2021.320557 5914.000000
2022.600342 6129.000000
2023.879028 6830.000000
2025.156982 5905.000000
2026.434448 5927.000000
2027.711304 6389.000000
2028.986450 5815.000000
2030.261719 6696.000000
2031.536011 6155.000000
2032.809326 5895.000000
2034.081787 5982.000000
2035.353882 6131.000000
2036.624878 6968.000000
2037.895630 6615.000000
2039.165039 6039.000000
2040.433350 6752.000000
2041.701660 6694.000000
2042.968994 5980.000000
2044.235596 6035.000000
2045.500977 5706.000000
2046.765747 5788.000000
2048.030273 5436.000000
2049.293457 5892.000000
2050.556396 6519.000000
2051.817383 6200.000000
2053.078857 6089.000000
2054.339111 5905.000000
2055.598633 6481.000000
2056.857422 6331.000000
2058.115234 7021.000000
2059.372559 6279.000000
2060.629150 6015.000000
2061.884277 6598.000000
2063.139404 5679.000000
2064.393555 5655.000000
2065.646973 5687.000000
2066.899658 6911.000000
2068.151123 6312.000000
2069.402344 6347.000000
2070.652832 5647.000000
2071.902588 5539.000000
2073.150879 6534.000000
2074.399170 6536.000000
2075.646484 7407.000000
2076.893066 5599.000000
2078.138916 6147.000000
2079.383545 7024.000000
2080.627686 7644.000000
2081.871338 5519.000000
2083.114014 6087.000000
2084.355469 7014.000000
2085.596680 6045.000000
2086.837402 6393.000000
2088.077148 6882.000000
2089.315674 7059.000000
2090.553711 6213.000000
2091.791016 5854.000000
2093.028076 6654.000000
2094.263672 6125.000000
2095.498535 6198.000000
2096.733154 6102.000000
2097.966797 5641.000000
2099.199463 6105.000000
2100.431396 6926.000000
2101.662842 6445.000000
2102.893311 6809.000000
2104.123047 6039.000000
2105.352539 6006.000000
2106.580078 6017.000000
2107.807861 6055.000000
2109.034912 6354.000000
2110.260986 5550.000000
2111.485596 6412.000000
2112.710449 7070.000000
2113.934082 7062.000000
2115.157227 6257.000000
2116.379150 7584.000000
2117.600830 6028.000000
2118.821533 6856.000000
2120.041504 6036.000000
2121.260986 6170.000000
2122.479004 6649.000000
2123.697021 7093.000000
2124.914063 5756.000000
2126.130615 5808.000000
2127.345459 6596.000000
2128.560547 6342.000000
2129.774658 7018.000000
2130.988037 5757.000000
2132.200684 6140.000000
2133.411865 5832.000000
2134.623291 6545.000000
2135.833496 6901.000000
2137.043213 6030.000000
2138.251465 6197.000000
2139.459717 5740.000000
2140.667236 5963.000000
2141.873535 7694.000000
2143.079102 5885.000000
2144.284424 5730.000000
2145.488770 5568.000000
2146.692383 6358.000000
2147.895508 6265.000000
2149.097168 6575.000000
2150.298584 5373.000000
2151.499268 6332.000000
2152.699219 6045.000000
2153.897949 6019.000000
2155.096436 6999.000000
2156.294434 6202.000000
2157.491455 6044.000000
2158.687744 5246.000000
2159.882813 5399.000000
2161.077637 6194.000000
2162.271729 5569.000000
2163.464844 6084.000000
2164.656982 6984.000000
2165.848877 5975.000000
2167.040039 6349.000000
2168.230225 6414.000000
2169.419678 6468.000000
2170.608643 6837.000000
2171.796631 6079.000000
2172.984375 5842.000000
2174.170654 5976.000000
2175.356201 6644.000000
2176.541504 6059.000000
2177.726318 5930.000000
2178.909912 6392.000000
2180.092773 7609.000000
2181.274658 6381.000000
2182.456299 6038.000000
2183.637451 6625.000000
2184.817383 5741.000000
2185.996338 5507.000000
2187.174805 6330.000000
2188.353027 6932.000000
2189.530029 7287.000000
2190.706055 6775.000000
2191.881836 6138.000000
2193.057129 5640.000000
2194.230957 6680.000000
2195.404297 6230.000000
2196.577393 6158.000000
2197.749268 6513.000000
2198.920654 7069.000000
2200.091553 6364.000000
2201.260742 6961.000000
2202.429932 7672.000000
2203.598633 6403.000000
2204.766357 5894.000000
2205.933105 5740.000000
2207.099121 7126.000000
2208.264648 6741.000000
2209.429932 6034.000000
2210.593750 6776.000000
2211.757080 5436.000000
2212.919189 6256.000000
2214.081543 6222.000000
2215.242676 6712.000000
2216.402832 6741.000000
2217.562500 6377.000000
2218.721924 6668.000000
2219.880127 6397.000000
2221.037354 6368.000000
2222.194336 6847.000000
2223.350586 6618.000000
2224.506104 6873.000000
2225.660889 6250.000000
2226.814697 6452.000000
2227.967529 6051.000000
2229.120850 6905.000000
2230.272217 6238.000000
2231.423340 6260.000000
2232.573730 6549.000000
2233.723633 7699.000000
2234.872559 6355.000000
2236.020996 5216.000000
2237.167969 6857.000000
2238.315186 7098.000000
2239.461182 6107.000000
2240.606934 7318.000000
2241.750977 7301.000000
2242.895264 6810.000000
2244.038574 6213.000000
2245.181152 6031.000000
2246.322754 5788.000000
2247.464111 5910.000000
2248.604492 6505.000000
2249.744141 6531.000000
2250.883301 5854.000000
2252.021240 5868.000000
2253.159180 6221.000000
2254.296143 5339.000000
2255.432373 6395.000000
2256.567627 6177.000000
2257.702148 7265.000000
2258.836426 6498.000000
2259.970215 5494.000000
2261.102539 6139.000000
2262.234375 6830.000000
2263.365723 6318.000000
2264.496094 6532.000000
2265.626221 8132.000000
2266.755127 6751.000000
2267.883545 6152.000000
2269.011475 5605.000000
2270.138428 6117.000000
2271.264648 5977.000000
2272.389893 6723.000000
2273.515137 6545.000000
2274.639648 6438.000000
2275.762939 5982.000000
2276.885498 6411.000000
2278.007568 6006.000000
2279.129150 7395.000000
2280.250000 6504.000000
2281.369629 6468.000000
2282.488770 7115.000000
2283.607666 7748.000000
2284.725830 7302.000000
2285.843018 5929.000000
2286.959229 6473.000000
2288.075195 7027.000000
2289.190430 6885.000000
2290.304932 7404.000000
2291.418213 5782.000000
2292.531494 6366.000000
2293.644043 6071.000000
2294.755859 5378.000000
2295.866943 6825.000000
2296.976807 6505.000000
2298.086182 6192.000000
2299.195313 6683.000000
2300.303467 6305.000000
2301.410645 6814.000000
2302.517578 5990.000000
2303.623779 6272.000000
2304.729492 6574.000000
2305.833740 6519.000000
2306.937744 5468.000000
2308.041260 5805.000000
2309.144287 6604.000000
2310.246094 7500.000000
2311.347168 7262.000000
2312.447754 6593.000000
2313.547852 5566.000000
2314.647217 6404.000000
2315.745117 6593.000000
2316.843506 7004.000000
2317.940430 8247.000000
2319.037109 6948.000000
2320.133301 5865.000000
2321.227783 6907.000000
2322.322266 7633.000000
2323.416016 5895.000000
2324.509521 6037.000000
2325.601318 6502.000000
2326.693115 7019.000000
2327.784180 6167.000000
2328.874512 6279.000000
2329.963867 6926.000000
2331.053223 6092.000000
2332.141357 6414.000000
2333.229004 6850.000000
2334.316406 6579.000000
2335.402100 6768.000000
2336.487549 7769.000000
2337.572754 6388.000000
2338.656982 6825.000000
2339.740234 5951.000000
2340.823242 6493.000000
2341.905273 7150.000000
2342.987061 6033.000000
2344.068115 7498.000000
2345.147949 6730.000000
2346.227295 5642.000000
2347.306152 6856.000000
2348.384521 6674.000000
2349.461426 6284.000000
2350.538086 7048.000000
2351.614502 6084.000000
2352.689941 6457.000000
2353.764404 5988.000000
2354.838623 6288.000000
2355.912109 6809.000000
2356.985107 6129.000000
2358.056885 7067.000000
2359.128418 6344.000000
2360.198975 6816.000000
2361.269287 7559.000000
2362.338623 7523.000000
2363.406982 6826.000000
2364.475098 6808.000000
2365.542480 7093.000000
2366.609375 7186.000000
2367.675537 6074.000000
2368.740479 6876.000000
2369.805420 7040.000000
2370.869629 6331.000000
2371.933105 7001.000000
2372.995361 5765.000000
2374.057617 6304.000000
2375.118896 6384.000000
2376.179932 5958.000000
2377.239746 6323.000000
2378.298828 7923.000000
2379.357910 6512.000000
2380.416016 7636.000000
2381.473389 6956.000000
2382.529785 8078.000000
2383.585938 7850.000000
2384.641602 6312.000000
2385.696533 7129.000000
2386.750000 6781.000000
2387.803711 6584.000000
2388.856445 6285.000000
2389.908691 6892.000000
2390.960205 6191.000000
2392.010742 6699.000000
2393.061035 6553.000000
2394.110352 6274.000000
2395.159668 6324.000000
2396.207520 6938.000000
2397.254883 7022.000000
2398.302002 6374.000000
2399.348145 6740.000000
2400.393555 6205.000000
2401.438232 6801.000000
2402.482910 7725.000000
2403.526123 7477.000000
2404.569336 6593.000000
2405.611084 5774.000000
2406.653076 6710.000000
2407.694336 7134.000000
2408.734619 6107.000000
2409.774170 6419.000000
2410.812744 6417.000000
2411.851563 6105.000000
2412.889160 6597.000000
2413.926514 6942.000000
2414.962646 7323.000000
2415.998535 6258.000000
2417.033691 6290.000000
2418.068359 6679.000000
2419.101563 7300.000000
2420.135010 6535.000000
2421.167480 6728.000000
2422.199707 6885.000000
2423.230469 7170.000000
2424.261230 6473.000000
2425.291504 6846.000000
2426.320557 6904.000000
2427.349609 6651.000000
2428.376953 7396.000000
2429.404785 6730.000000
2430.431396 7325.000000
2431.457764 6989.000000
2432.482666 7839.000000
2433.507813 6616.000000
2434.531982 7145.000000
2435.555908 6679.000000
2436.578613 5834.000000
2437.600586 6415.000000
2438.622314 6657.000000
2439.643311 6767.000000
2440.663818 6043.000000
2441.683105 6540.000000
2442.702393 6594.000000
2443.720703 8495.000000
2444.738770 6291.000000
2445.755371 6546.000000
2446.771973 6628.000000
2447.787842 6041.000000
2448.803711 7023.000000
2449.818115 6786.000000
2450.831787 5596.000000
2451.844971 7256.000000
2452.857910 6058.000000
2453.870117 7311.000000
2454.881348 6733.000000
2455.892334 7720.000000
2456.902588 6429.000000
2457.912354 7621.000000
2458.921143 5971.000000
2459.929199 6067.000000
2460.937256 6341.000000
2461.944092 7410.000000
2462.950684 5483.000000
2463.956055 7435.000000
2464.961182 7030.000000
2465.966064 5899.000000
2466.969727 6592.000000
2467.973145 6439.000000
2468.975586 7659.000000
2469.977783 7388.000000
2470.979492 6878.000000
2471.980225 6604.000000
2472.979980 7002.000000
2473.979736 6802.000000
2474.978516 5689.000000
2475.976807 6649.000000
2476.974121 7065.000000
2477.971191 6236.000000
2478.968262 7017.000000
2479.963867 5879.000000
2480.959473 7231.000000
2481.953369 6771.000000
2482.947266 8089.000000
2483.940674 6895.000000
2484.933594 6767.000000
2485.925537 7507.000000
2486.916748 7250.000000
2487.907715 6787.000000
2488.898193 5931.000000
2489.887695 6639.000000
2490.876465 6603.000000
2491.865234 5712.000000
2492.853027 6863.000000
2493.839600 6555.000000
2494.826172 8015.000000
2495.812256 6802.000000
2496.797607 7140.000000
2497.781982 8502.000000
2498.766113 6127.000000
2499.750244 6890.000000
2500.732910 5800.000000
2501.715088 7025.000000
2502.696777 6921.000000
2503.677734 7334.000000
2504.658203 6537.000000
2505.638428 5813.000000
2506.617188 6334.000000
2507.595703 7639.000000
2508.573730 6821.000000
2509.551270 7134.000000
2510.527832 6135.000000
2511.504150 6004.000000
2512.479736 6418.000000
2513.454834 6239.000000
2514.429443 6512.000000
2515.402832 7578.000000
2516.375977 6840.000000
2517.348877 6860.000000
2518.320801 6174.000000
2519.291992 6856.000000
2520.262695 6985.000000
2521.233154 7809.000000
2522.202881 8129.000000
2523.171631 6133.000000
2524.139648 6180.000000
2525.107666 7830.000000
2526.074707 6315.000000
2527.041504 5578.000000
2528.007080 7359.000000
2528.972656 7049.000000
2529.937500 7816.000000
2530.901855 6422.000000
2531.864990 6417.000000
2532.828369 5962.000000
2533.790771 6031.000000
2534.752930 6773.000000
2535.713867 6409.000000
2536.674072 6210.000000
2537.634521 6193.000000
2538.593994 6802.000000
2539.552734 6875.000000
2540.510498 6746.000000
2541.468506 6265.000000
2542.425781 6814.000000
2543.382080 6197.000000
2544.338135 7087.000000
2545.292969 6288.000000
2546.248047 7835.000000
2547.202393 6977.000000
2548.156006 7023.000000
2549.108643 7366.000000
2550.061035 6761.000000
2551.012939 7022.000000
2551.964111 6390.000000
2552.914551 7647.000000
2553.864502 7309.000000
2554.814209 7395.000000
2555.763184 6697.000000
2556.711670 6268.000000
2557.658936 7087.000000
2558.606201 6383.000000
2559.552734 6570.000000
2560.498779 6862.000000
2561.443848 7481.000000
2562.388672 6795.000000
2563.333008 7238.000000
2564.276855 6876.000000
2565.220215 6761.000000
2566.162109 6679.000000
2567.104248 6610.000000
2568.045654 6249.000000
2568.986328 7152.000000
2569.926270 7354.000000
2570.866211 5707.000000
2571.805176 6184.000000
2572.743896 7583.000000
2573.681641 7233.000000
2574.619141 5493.000000
2575.555908 7018.000000
2576.491943 6809.000000
2577.427490 7539.000000
2578.362305 6410.000000
2579.297119 5971.000000
2580.230957 7168.000000
2581.164307 7150.000000
2582.096924 5867.000000
2583.029297 7013.000000
2583.960938 5491.000000
2584.892090 7041.000000
2585.822754 7073.000000
2586.752197 6966.000000
2587.681641 7258.000000
2588.610596 6571.000000
2589.539307 7394.000000
2590.466309 7363.000000
2591.393555 5933.000000
2592.320313 6877.000000
2593.246338 6298.000000
2594.172119 5673.000000
2595.096680 7714.000000
2596.020996 7662.000000
2596.944824 5383.000000
2597.868164 7304.000000
2598.790527 6339.000000
2599.712646 7021.000000
2600.634277 8384.000000
2601.555176 6458.000000
2602.475342 6049.000000
2603.395264 6399.000000
2604.314697 6435.000000
2605.233887 6493.000000
2606.152100 5901.000000
2607.069092 6063.000000
2607.986328 7299.000000
2608.903320 5967.000000
2609.819336 7630.000000
2610.734131 6650.000000
2611.649414 6655.000000
2612.563965 6547.000000
2613.477539 6610.000000
2614.391113 6121.000000
2615.303467 7685.000000
2616.215820 7071.000000
2617.127197 6859.000000
2618.038330 5632.000000
2618.948730 7242.000000
2619.858887 6775.000000
2620.768311 6207.000000
2621.677246 6686.000000
2622.585205 6269.000000
2623.493408 6908.000000
2624.400635 6707.000000
2625.307373 7083.000000
2626.213379 6084.000000
2627.119141 6679.000000
2628.024170 6485.000000
2628.928955 7850.000000
2629.833008 6631.000000
2630.736084 6397.000000
2631.639160 6402.000000
2632.541260 5730.000000
2633.443359 6764.000000
2634.345215 7010.000000
2635.245361 6750.000000
2636.145752 6437.000000
2637.045410 6440.000000
2637.944824 6100.000000
2638.842773 6989.000000
2639.741211 6780.000000
2640.639160 6415.000000
2641.536377 6180.000000
2642.432373 6196.000000
2643.328369 6735.000000
2644.224121 6133.000000
2645.119141 6502.000000
2646.013916 6660.000000
2646.907227 7121.000000
2647.800537 6366.000000
2648.693604 6831.000000
2649.586426 6517.000000
2650.477539 7512.000000
2651.368896 6366.000000
2652.259766 7589.000000
2653.149902 7326.000000
2654.039795 6611.000000
2654.928467 7328.000000
2655.817383 6649.000000
2656.705811 6598.000000
2657.593262 7345.000000
2658.479736 6547.000000
2659.366699 7113.000000
2660.252930 6862.000000
2661.138672 6893.000000
2662.023193 6578.000000
2662.907715 6414.000000
2663.791992 6282.000000
2664.675537 7049.000000
2665.558594 7854.000000
2666.440918 7376.000000
2667.322754 6188.000000
2668.203857 6605.000000
2669.085205 6110.000000
2669.965088 6649.000000
2670.845215 7409.000000
2671.724609 7228.000000
2672.604004 6298.000000
2673.482666 6220.000000
2674.359619 6434.000000
2675.237305 6835.000000
2676.114258 6416.000000
2676.990479 8129.000000
2677.866211 7201.000000
2678.741211 6317.000000
2679.616455 7747.000000
2680.490723 7073.000000
2681.364502 7399.000000
2682.237549 7030.000000
2683.110352 6219.000000
2683.982910 6146.000000
2684.854736 6999.000000
2685.725830 6538.000000
2686.596680 6940.000000
2687.467041 7114.000000
2688.337158 6757.000000
2689.205566 6403.000000
2690.074707 7444.000000
2690.943115 7076.000000
2691.811279 6733.000000
2692.678711 6998.000000
2693.544922 5883.000000
2694.411621 7204.000000
2695.277344 7433.000000
2696.143066 7202.000000
2697.007324 7984.000000
2697.872314 6654.000000
2698.735840 7208.000000
2699.599609 5922.000000
2700.461914 7492.000000
2701.324707 6844.000000
2702.186523 5992.000000
2703.047852 6944.000000
2703.909180 6801.000000
2704.769287 7504.000000
2705.629395 7325.000000
2706.489014 6649.000000
2707.348389 6893.000000
2708.206055 7222.000000
2709.063965 6972.000000
2709.922363 7383.000000
2710.779541 6774.000000
2711.635986 6043.000000
2712.491943 6900.000000
2713.347900 6060.000000
2714.203125 6970.000000
2715.057617 6236.000000
2715.911621 6819.000000
2716.765625 7360.000000
2717.618652 6281.000000
2718.471924 6476.000000
2719.323486 7737.000000
2720.175537 6786.000000
2721.027344 6329.000000
2721.877930 6606.000000
2722.728516 6465.000000
2723.578613 7166.000000
2724.427979 7073.000000
2725.277344 7027.000000
2726.125488 6677.000000
2726.973145 6643.000000
2727.821289 7057.000000
2728.668213 6847.000000
2729.515625 5602.000000
2730.361572 7486.000000
2731.206787 7051.000000
2732.052490 6503.000000
2732.897217 7022.000000
2733.741943 7360.000000
2734.585449 6912.000000
2735.429199 7763.000000
2736.272217 7079.000000
2737.114746 6032.000000
2737.956299 6200.000000
2738.798340 6825.000000
2739.639404 6923.000000
2740.480225 5838.000000
2741.320801 5952.000000
2742.160156 7765.000000
2742.999512 6891.000000
2743.838867 6970.000000
2744.677002 6824.000000
2745.514648 7837.000000
2746.352295 6442.000000
2747.189453 7166.000000
2748.026367 6245.000000
2748.862793 6060.000000
2749.697998 6646.000000
2750.533447 6360.000000
2751.368408 6345.000000
2752.202637 6334.000000
2753.036621 6916.000000
2753.870117 6896.000000
2754.703613 8009.000000
2755.536133 6883.000000
2756.368164 7296.000000
2757.199707 6873.000000
2758.031250 7112.000000
2758.861816 7339.000000
2759.692627 7267.000000
2760.522217 7340.000000
2761.351807 6734.000000
2762.181152 7340.000000
2763.009766 6850.000000
2763.837891 6914.000000
2764.665527 6925.000000
2765.493164 6701.000000
2766.320313 7968.000000
2767.146729 5852.000000
2767.972656 7548.000000
2768.798096 7026.000000
2769.623291 7803.000000
2770.448486 7097.000000
2771.272461 6885.000000
2772.096436 6573.000000
2772.920410 7732.000000
2773.743164 6662.000000
2774.566162 6882.000000
2775.387939 6946.000000
2776.209717 6970.000000
2777.031494 6489.000000
2777.852295 8032.000000
2778.672363 6585.000000
2779.492676 7081.000000
2780.312500 7308.000000
2781.132324 6482.000000
2781.950195 5996.000000
2782.769287 8103.000000
2783.587158 6571.000000
2784.404785 6793.000000
2785.221924 7145.000000
2786.038574 7329.000000
2786.854980 7278.000000
2787.670898 6326.000000
2788.486572 5966.000000
2789.301270 6503.000000
2790.116455 7054.000000
2790.930908 7240.000000
2791.744873 6609.000000
2792.558594 7508.000000
2793.371094 8851.000000
2794.183838 7016.000000
2794.996094 7485.000000
2795.807861 7278.000000
2796.618896 7405.000000
2797.430664 6595.000000
2798.241211 7281.000000
2799.051758 7023.000000
2799.860840 7457.000000
2800.670654 8322.000000
2801.479736 7818.000000
2802.288574 6698.000000
2803.096924 7242.000000
2803.904297 6250.000000
2804.712158 6636.000000
2805.519287 6916.000000
2806.326172 7036.000000
2807.131836 7141.000000
2807.937988 6673.000000
2808.743408 6549.000000
2809.548828 7429.000000
2810.353516 6276.000000
2811.157227 7738.000000
2811.961426 7507.000000
2812.765137 6379.000000
2813.568604 6146.000000
2814.370605 6328.000000
2815.173340 7325.000000
2815.975342 7875.000000
2816.777100 6150.000000
2817.578369 6613.000000
2818.379150 7309.000000
2819.179443 6482.000000
2819.979980 6683.000000
2820.779541 8168.000000
2821.578613 7239.000000
2822.377686 6534.000000
2823.176514 7017.000000
2823.974854 6422.000000
2824.772217 7073.000000
2825.569824 7498.000000
2826.366699 6709.000000
2827.163818 7435.000000
2827.960205 7972.000000
2828.755859 7095.000000
2829.551514 7377.000000
2830.346924 7619.000000
2831.141846 7458.000000
2831.936035 6689.000000
2832.730225 6847.000000
2833.524170 5711.000000
2834.317627 6874.000000
2835.110352 7193.000000
2835.902832 8123.000000
2836.695313 7715.000000
2837.487549 7563.000000
2838.279297 6461.000000
2839.070068 6810.000000
2839.860840 8923.000000
2840.651855 7574.000000
2841.441895 6250.000000
2842.231445 7682.000000
2843.021240 7204.000000
2843.810059 7419.000000
2844.598877 7804.000000
2845.387695 7813.000000
2846.175537 7569.000000
2846.962891 7232.000000
2847.750488 7574.000000
2848.537598 7345.000000
2849.323975 6678.000000
2850.110352 7490.000000
2850.896484 7268.000000
2851.682129 7596.000000
2852.466797 7250.000000
2853.251953 6960.000000
2854.036865 7533.000000
2854.821045 7208.000000
2855.605225 7000.000000
2856.388184 8305.000000
2857.171387 6852.000000
2857.954346 6830.000000
2858.736816 7796.000000
2859.519043 6316.000000
2860.300781 6715.000000
2861.082275 7661.000000
2861.864014 7521.000000
2862.645020 7700.000000
2863.425293 6617.000000
2864.205322 6834.000000
2864.985352 8150.000000
2865.765137 7515.000000
2866.543945 8205.000000
2867.322998 7731.000000
2868.101563 6845.000000
2868.879883 7024.000000
2869.657715 7270.000000
2870.435303 7022.000000
2871.212646 7523.000000
2871.989746 6991.000000
2872.766357 6425.000000
2873.542480 7561.000000
2874.318604 7156.000000
2875.094238 8282.000000
2875.869629 7247.000000
2876.644531 6627.000000
2877.419189 8095.000000
2878.193848 6644.000000
2878.968262 7836.000000
2879.741943 6847.000000
2880.514893 7226.000000
2881.288574 6738.000000
2882.061279 7680.000000
2882.833984 7860.000000
2883.605957 8271.000000
2884.377686 6277.000000
2885.149902 6772.000000
2885.920898 6929.000000
2886.691406 6245.000000
2887.462402 8418.000000
2888.233398 7338.000000
2889.003662 8120.000000
2889.772949 7767.000000
2890.542480 7042.000000
2891.312012 7356.000000
2892.081055 7417.000000
2892.849609 7916.000000
2893.618164 7691.000000
2894.385742 6992.000000
2895.153809 6644.000000
2895.921387 7399.000000
2896.688965 8392.000000
2897.455322 7431.000000
2898.222656 6588.000000
2898.988770 7244.000000
2899.755127 7070.000000
2900.520020 8289.000000
2901.285400 7063.000000
2902.051270 6553.000000
2902.815674 7825.000000
2903.580078 7745.000000
2904.344727 8438.000000
2905.108398 6707.000000
2905.872803 8567.000000
2906.636475 6723.000000
2907.399414 8390.000000
2908.162109 6624.000000
2908.925293 9007.000000
2909.687988 7031.000000
2910.449463 6923.000000
2911.211426 6923.000000
