scanname Analyse004
timestamp 2017-02-10 19:51:39
ccdbias 908.365234
ccdgain 3.473401
sigmaread 8.960639
laserwavenum -0.563247
wavenumcorrection -0.040283
scancount 1
totalexposurems 10000
singleexposurems 10000
measurementstate Unknown
scanmode Manual
snr 258.662598 7.299200 6.335145
replacelist 4
374 50766.000000 15067.000000
672 39426.000000 30895.000000
673 37889.000000 5630.000000
754 34777.000000 19423.000000
peaks 51
278.489990 0.701745 0.000000 1.483286 0.000187
284.787689 0.701609 0.000000 0.909462 0.000065
302.480225 0.703532 0.000000 0.116746 0.000021
332.135040 0.721849 0.000000 0.799902 0.000137
349.980469 0.725770 0.000000 0.568780 0.000022
361.183716 0.729504 0.000000 0.654189 0.000059
386.222870 0.731627 0.000000 1.435527 0.000305
462.947357 0.745153 0.000000 0.461320 0.000038
487.041382 0.753712 0.000000 0.560839 0.000060
534.458557 0.757543 0.000000 0.784844 0.000161
559.383362 0.791494 0.000000 1.198713 0.000214
569.070557 0.798512 0.000000 1.246590 0.000078
583.578064 0.793763 0.000000 0.693208 0.000107
660.755249 0.818208 0.000000 1.230667 0.000117
673.409973 0.816466 0.000000 1.398901 0.000266
680.244446 0.815691 0.000000 0.444980 0.000047
715.681458 0.828719 0.000000 5.348588 0.001109
722.620667 0.810170 0.000000 1.141596 0.000049
740.849426 0.828939 0.000000 1.120475 0.000118
752.117432 0.833394 0.000000 0.932948 0.000044
764.690552 0.848283 0.000000 1.396704 0.000449
777.315735 0.850676 0.000000 6.172150 0.000964
800.930115 0.811556 0.000000 2.709776 0.000240
831.785583 0.828389 0.000000 0.953303 0.000161
852.947632 0.847631 0.000000 0.855595 0.000237
868.923340 0.843986 0.000000 0.609853 0.000132
938.513367 0.852179 0.000000 0.437466 0.000320
954.575684 0.842400 0.000000 3.416997 0.000985
1013.128784 0.818081 0.000000 1.679686 0.000633
1028.375854 0.829766 0.000000 0.337279 0.000186
1044.506836 0.832585 0.000000 4.123544 0.001240
1102.650269 0.795170 0.000000 1.467566 0.000410
1118.074341 0.801128 0.000000 0.777036 0.000056
1120.553589 0.807959 0.000000 0.998354 0.000225
1135.684326 0.806688 0.000000 2.104116 0.000810
1150.081543 0.797160 0.000000 2.110691 0.000802
1172.526733 0.786068 0.000000 0.696752 0.000282
1212.015015 0.787487 0.000000 0.313505 0.000141
1234.968018 0.792590 0.000000 1.492987 0.000478
1259.906494 0.791672 0.000000 2.107586 0.000630
1277.319336 0.769090 0.000000 0.262133 0.000372
1316.181763 0.832905 0.000000 10.673675 0.002024
1332.593140 0.802263 0.000000 16.327320 0.005854
1350.705322 0.772752 0.000000 1.131379 0.000313
1385.901489 0.757874 0.000000 0.197486 0.000143
1458.480713 0.814447 0.000000 8.012417 0.003462
1494.321045 0.737236 0.000000 0.205461 0.000080
1616.135986 0.723063 0.000000 4.151433 0.001666
1664.880493 0.744073 0.000000 11.190343 0.006318
1749.659180 0.678734 0.000000 4.035614 0.001992
2328.739746 0.385314 0.000000 0.107829 0.000274
finalresult GLS_NoMatch 0
spectrum 2048
-97.038208 44886.000000
-94.411339 44886.000000
-91.786346 45748.000000
-89.163246 45884.000000
-86.542015 46682.000000
-83.922684 46599.000000
-81.305214 46951.000000
-78.689621 46717.000000
-76.075905 47101.000000
-73.464066 47340.000000
-70.854088 47395.000000
-68.245995 47421.000000
-65.639748 47546.000000
-63.035378 47470.000000
-60.432869 47465.000000
-57.832214 47918.000000
-55.233421 47274.000000
-52.636486 46723.000000
-50.041405 47065.000000
-47.448177 46959.000000
-44.856800 47264.000000
-42.267269 46720.000000
-39.679581 47581.000000
-37.093742 47490.000000
-34.509747 47115.000000
-31.927588 47791.000000
-29.347275 47176.000000
-26.768789 47741.000000
-24.192146 47339.000000
-21.617329 47158.000000
-19.044352 46858.000000
-16.473194 46812.000000
-13.903871 46547.000000
-11.336372 45503.000000
-8.770693 46968.000000
-6.206840 46608.000000
-3.644799 46992.000000
-1.084583 47138.000000
1.473825 46506.000000
4.030412 45651.000000
6.585194 45668.000000
9.138160 45752.000000
11.689324 44316.000000
14.238676 43721.000000
16.786232 42833.000000
19.331976 43248.000000
21.875927 42699.000000
24.418074 40152.000000
26.958424 38286.000000
29.496988 35462.000000
32.033756 31539.000000
34.568722 19858.000000
37.101910 10985.000000
39.633316 8072.000000
42.162930 7468.000000
44.690746 6935.000000
47.216805 6400.000000
49.741074 5561.000000
52.263573 4968.000000
54.784275 4584.000000
57.303223 4857.000000
59.820396 5644.000000
62.335793 6850.000000
64.849411 7685.000000
67.361275 7189.000000
69.871391 5614.000000
72.379715 3767.000000
74.886284 2969.000000
77.391106 2577.000000
79.894173 2254.000000
82.395462 2021.000000
84.895012 1902.000000
87.392807 1994.000000
89.888870 2319.000000
92.383156 2888.000000
94.875702 3161.000000
97.366531 2687.000000
99.855591 2203.000000
102.342903 1849.000000
104.828491 1541.000000
107.312340 1554.000000
109.794441 1529.000000
112.274818 1458.000000
114.753471 1394.000000
117.230400 1153.000000
119.705574 1381.000000
122.179039 1310.000000
124.650772 1397.000000
127.120796 1440.000000
129.589066 1607.000000
132.055664 1865.000000
134.520508 2035.000000
136.983658 2274.000000
139.445068 2720.000000
141.904785 3261.000000
144.362778 4023.000000
146.819077 4930.000000
149.273666 6359.000000
151.726532 7804.000000
154.177719 9534.000000
156.627213 11610.000000
159.074982 14099.000000
161.521042 16451.000000
163.965424 19243.000000
166.408127 24212.000000
168.849136 25947.000000
171.288437 27998.000000
173.726028 28490.000000
176.161987 30643.000000
178.596207 32007.000000
181.028748 33659.000000
183.459641 35321.000000
185.888809 35840.000000
188.316330 37175.000000
190.742172 38266.000000
193.166336 38771.000000
195.588837 39346.000000
198.009644 40232.000000
200.428787 42043.000000
202.846268 43109.000000
205.262054 41923.000000
207.676193 42937.000000
210.088699 44068.000000
212.499527 44631.000000
214.908676 44753.000000
217.316193 43794.000000
219.722000 45298.000000
222.126221 45032.000000
224.528732 44975.000000
226.929626 44842.000000
229.328873 45489.000000
231.726456 45097.000000
234.122375 44732.000000
236.516678 45486.000000
238.909317 46000.000000
241.300339 45279.000000
243.689697 45563.000000
246.077438 45796.000000
248.463531 45280.000000
250.847992 46169.000000
253.230804 44367.000000
255.612045 45562.000000
257.991577 45509.000000
260.369537 45684.000000
262.745819 44645.000000
265.120544 44586.000000
267.493622 44321.000000
269.865051 46035.000000
272.234833 45761.000000
274.603058 46282.000000
276.969635 45839.000000
279.334625 45641.000000
281.697998 46186.000000
284.059723 45942.000000
286.419861 45139.000000
288.778381 46123.000000
291.135315 45761.000000
293.490631 45819.000000
295.844360 46193.000000
298.196442 46175.000000
300.546967 45834.000000
302.895905 45794.000000
305.243195 45367.000000
307.588959 45698.000000
309.933044 45643.000000
312.275604 44800.000000
314.616547 44640.000000
316.955872 45002.000000
319.293640 45188.000000
321.629852 44093.000000
323.964417 45816.000000
326.297424 45641.000000
328.628876 46164.000000
330.958740 45517.000000
333.287018 45649.000000
335.613678 44933.000000
337.938843 45718.000000
340.262390 45903.000000
342.584381 46065.000000
344.904816 44543.000000
347.223633 44382.000000
349.540894 46128.000000
351.856628 46254.000000
354.170776 45089.000000
356.483337 45735.000000
358.794342 45656.000000
361.103821 45151.000000
363.411774 45748.000000
365.718109 46562.000000
368.022858 45566.000000
370.326141 45672.000000
372.627808 45926.000000
374.927979 45692.000000
377.226593 45872.000000
379.523651 46453.000000
381.819153 46116.000000
384.113129 46357.000000
386.405518 46951.000000
388.696411 46631.000000
390.985779 46018.000000
393.273560 45988.000000
395.559814 45679.000000
397.844574 45291.000000
400.127716 46239.000000
402.409424 45908.000000
404.689606 46079.000000
406.968201 45019.000000
409.245270 45786.000000
411.520813 45422.000000
413.794830 45760.000000
416.067413 45806.000000
418.338379 45929.000000
420.607849 45680.000000
422.875824 45056.000000
425.142242 44873.000000
427.407166 45828.000000
429.670624 45802.000000
431.932495 45583.000000
434.192902 46060.000000
436.451752 45501.000000
438.709137 45877.000000
440.965027 46277.000000
443.219421 46218.000000
445.472290 46540.000000
447.723602 45077.000000
449.973511 45854.000000
452.221832 45689.000000
454.468719 46328.000000
456.714142 45407.000000
458.958008 45453.000000
461.200378 45449.000000
463.441254 46278.000000
465.680725 45237.000000
467.918610 46487.000000
470.155060 46002.000000
472.389984 45809.000000
474.623444 44596.000000
476.855469 45246.000000
479.085968 46245.000000
481.314972 45515.000000
483.542511 45622.000000
485.768555 45989.000000
487.993164 45288.000000
490.216309 46086.000000
492.437988 45554.000000
494.658112 45233.000000
496.876831 46229.000000
499.094055 45724.000000
501.309906 46471.000000
503.524139 45880.000000
505.737061 45562.000000
507.948395 45582.000000
510.158295 45136.000000
512.366760 45541.000000
514.573853 45451.000000
516.779358 45647.000000
518.983459 45429.000000
521.186035 45748.000000
523.387207 45226.000000
525.587036 45161.000000
527.785339 44999.000000
529.982117 46626.000000
532.177551 46085.000000
534.371460 46308.000000
536.564026 44329.000000
538.755066 45189.000000
540.944702 45687.000000
543.132935 44909.000000
545.319641 44689.000000
547.504883 44943.000000
549.688843 45586.000000
551.871216 45238.000000
554.052246 45473.000000
556.231750 45599.000000
558.409973 45734.000000
560.586670 45599.000000
562.761963 45221.000000
564.935852 45254.000000
567.108276 45690.000000
569.279297 45572.000000
571.448853 45289.000000
573.617126 46403.000000
575.783875 45208.000000
577.949158 45321.000000
580.113037 45608.000000
582.275635 45943.000000
584.436707 45655.000000
586.596375 46135.000000
588.754700 45993.000000
590.911499 45520.000000
593.066956 45230.000000
595.221008 45990.000000
597.373718 45651.000000
599.524902 44527.000000
601.674744 44985.000000
603.823242 45067.000000
605.970154 45819.000000
608.115845 45246.000000
610.260132 45270.000000
612.402954 44675.000000
614.544312 45551.000000
616.684448 45329.000000
618.823059 43933.000000
620.960388 45909.000000
623.096252 44983.000000
625.230713 44718.000000
627.363708 44330.000000
629.495544 44871.000000
631.625916 44869.000000
633.754883 44702.000000
635.882385 45068.000000
638.008606 45260.000000
640.133301 43879.000000
642.256775 44969.000000
644.378906 44476.000000
646.499573 44497.000000
648.618896 44811.000000
650.736816 45595.000000
652.853394 45698.000000
654.968567 44812.000000
657.082397 44806.000000
659.194763 45533.000000
661.305908 45186.000000
663.415649 45932.000000
665.523926 45272.000000
667.631042 45061.000000
669.736694 44569.000000
671.840881 45427.000000
673.943848 45684.000000
676.045410 44364.000000
678.145630 46003.000000
680.244446 44674.000000
682.341919 45161.000000
684.438110 44328.000000
686.532837 45152.000000
688.626343 44337.000000
690.718506 44636.000000
692.809143 43369.000000
694.898560 44712.000000
696.986694 44896.000000
699.073364 45250.000000
701.158813 44503.000000
703.242737 46059.000000
705.325439 45224.000000
707.406860 45125.000000
709.486816 43487.000000
711.565552 44807.000000
713.642822 45391.000000
715.718811 44291.000000
717.793518 44897.000000
719.866943 43982.000000
721.938843 44586.000000
724.009583 43498.000000
726.078979 45014.000000
728.146973 44438.000000
730.213623 44421.000000
732.279053 43692.000000
734.343140 45033.000000
736.405884 44543.000000
738.467285 44236.000000
740.527405 44126.000000
742.586121 44703.000000
744.643616 43999.000000
746.699829 44058.000000
748.754639 44011.000000
750.808167 44271.000000
752.860291 43215.000000
754.911194 44886.000000
756.960876 43957.000000
759.009094 44318.000000
761.056091 44503.000000
763.101807 43646.000000
765.146118 45297.000000
767.189148 44946.000000
769.230957 44314.500000
771.271423 43683.000000
773.310486 44332.000000
775.348389 44517.000000
777.384949 44625.000000
779.420288 45294.000000
781.454285 44814.000000
783.486877 43717.000000
785.518311 45119.000000
787.548340 38899.000000
789.577087 44563.000000
791.604675 44195.000000
793.630920 43982.000000
795.655762 44574.000000
797.679504 44863.000000
799.701843 44015.000000
801.722961 44431.000000
803.742737 43552.000000
805.761230 45187.000000
807.778503 43310.000000
809.794373 43150.000000
811.809082 44198.000000
813.822449 43392.000000
815.834595 43451.000000
817.845520 43468.000000
819.855103 42979.000000
821.863464 44112.000000
823.870422 43508.000000
825.876160 43226.000000
827.880676 43449.000000
829.883911 43510.000000
831.885864 42708.000000
833.886536 43012.000000
835.885986 43223.000000
837.884094 42797.000000
839.881104 41963.000000
841.876709 42672.000000
843.871155 42961.000000
845.864258 42775.000000
847.856140 42063.000000
849.846680 43238.000000
851.835938 42024.000000
853.824158 42783.000000
855.810974 43053.000000
857.796570 42374.000000
859.780884 41641.000000
861.764099 42589.000000
863.745911 42426.000000
865.726501 43022.000000
867.705811 41145.000000
869.683960 41765.000000
871.660767 42682.000000
873.636292 42743.000000
875.610779 42747.000000
877.583801 42895.000000
879.555786 43447.000000
881.526428 42509.000000
883.495911 42763.000000
885.464050 43238.000000
887.431030 43514.000000
889.396667 42594.000000
891.361145 42850.000000
893.324402 42665.000000
895.286438 42051.000000
897.247192 42671.000000
899.206726 41979.000000
901.164978 41599.000000
903.122131 41834.000000
905.078125 41950.000000
907.032715 41053.000000
908.986084 41189.000000
910.938293 41067.000000
912.889282 40879.000000
914.838989 39927.000000
916.787537 40434.000000
918.734863 40406.000000
920.680908 40305.000000
922.625671 40065.000000
924.569397 39749.000000
926.511963 39912.000000
928.453247 40188.000000
930.393188 39314.000000
932.332031 40133.000000
934.269592 40278.000000
936.205933 39848.000000
938.141113 40101.000000
940.075012 39816.000000
942.007813 40213.000000
943.939392 39292.000000
945.869812 40969.000000
947.799011 39706.000000
949.726868 39233.000000
951.653687 39677.000000
953.579224 40272.000000
955.503479 40946.000000
957.426636 40308.000000
959.348633 39775.000000
961.269348 39231.000000
963.188904 39927.000000
965.107300 40965.000000
967.024658 39829.000000
968.940552 39890.000000
970.855347 40014.000000
972.768921 40134.000000
974.681335 39694.000000
976.592529 39474.000000
978.502563 40364.000000
980.411316 39453.000000
982.319031 39468.000000
984.225525 39172.000000
986.130798 39720.000000
988.034973 38448.000000
989.937927 38917.000000
991.839661 38148.000000
993.740234 38315.000000
995.639648 37987.000000
997.537842 39131.000000
999.434875 37758.000000
1001.330688 37659.000000
1003.225342 36355.000000
1005.118896 38270.000000
1007.011169 36570.000000
1008.902527 37624.000000
1010.792542 38217.000000
1012.681335 36877.000000
1014.568970 37061.000000
1016.455444 36551.000000
1018.340759 36805.000000
1020.224915 37421.000000
1022.107849 37527.000000
1023.989746 37199.000000
1025.870361 38197.000000
1027.749878 37546.000000
1029.628418 37395.000000
1031.505615 38181.000000
1033.381470 37434.000000
1035.256348 37725.000000
1037.130249 37124.000000
1039.002686 36562.000000
1040.874146 36946.000000
1042.744263 38159.000000
1044.613403 38179.000000
1046.481323 37936.000000
1048.348145 36820.000000
1050.213867 37192.000000
1052.078369 37366.000000
1053.941772 37406.000000
1055.803833 37440.000000
1057.664917 37943.000000
1059.524902 37321.000000
1061.383545 37205.000000
1063.241089 37916.000000
1065.097534 36892.000000
1066.952881 37706.000000
1068.807007 37703.000000
1070.660278 37251.000000
1072.512085 37141.000000
1074.362915 37249.000000
1076.212524 37176.000000
1078.060913 37510.000000
1079.908447 35259.000000
1081.754639 37457.000000
1083.599609 36586.000000
1085.443726 37287.000000
1087.286499 37131.000000
1089.128052 36007.000000
1090.968872 36962.000000
1092.808105 36427.000000
1094.646606 36115.000000
1096.483765 36070.000000
1098.319702 35081.000000
1100.154663 34979.000000
1101.988403 35878.000000
1103.821167 35606.000000
1105.652588 35128.000000
1107.483154 34085.000000
1109.312378 34558.000000
1111.140625 34272.000000
1112.967651 33493.000000
1114.793701 35073.000000
1116.618530 34269.000000
1118.442261 33608.000000
1120.264771 34572.000000
1122.086182 34721.000000
1123.906738 34834.000000
1125.725830 34311.000000
1127.544067 34048.000000
1129.360962 34116.000000
1131.177002 34386.000000
1132.991821 34607.000000
1134.805542 35527.000000
1136.618164 35384.000000
1138.429565 35752.000000
1140.239990 35280.000000
1142.049316 34850.000000
1143.857300 34589.000000
1145.664551 35479.000000
1147.470337 35340.000000
1149.275269 35827.000000
1151.079102 35805.000000
1152.881714 35221.000000
1154.683472 35149.000000
1156.483765 35111.000000
1158.283081 34882.000000
1160.081421 35014.000000
1161.878418 35238.000000
1163.674683 34714.000000
1165.469604 34518.000000
1167.263428 34103.000000
1169.056396 32656.000000
1170.848022 34355.000000
1172.638672 33395.000000
1174.428345 33824.000000
1176.216553 34007.000000
1178.003906 32536.000000
1179.790161 32951.000000
1181.575317 33783.000000
1183.359375 33632.000000
1185.142334 32011.000000
1186.924316 33535.000000
1188.705078 33369.000000
1190.484863 32958.000000
1192.263550 32219.000000
1194.041260 32406.000000
1195.817749 31625.000000
1197.593140 31934.000000
1199.367432 31691.000000
1201.140625 31294.000000
1202.912964 31396.000000
1204.683960 30939.000000
1206.454102 31840.000000
1208.223022 31418.000000
1209.990845 31251.000000
1211.757813 31755.000000
1213.523438 31722.000000
1215.288086 30704.000000
1217.051636 31040.000000
1218.814087 31486.000000
1220.575684 30663.000000
1222.336060 31468.000000
1224.095337 30973.000000
1225.853760 31372.000000
1227.610962 30364.000000
1229.367065 31154.000000
1231.122070 32047.000000
1232.876221 31673.000000
1234.629028 31860.000000
1236.380859 31860.000000
1238.131836 31955.000000
1239.881470 33131.000000
1241.630249 31254.000000
1243.377686 31712.000000
1245.124390 31541.000000
1246.869873 31542.000000
1248.614502 31511.000000
1250.357788 30941.000000
1252.100098 30748.000000
1253.841309 31710.000000
1255.581665 31736.000000
1257.320923 31046.000000
1259.058960 30410.000000
1260.796143 29964.000000
1262.532104 30940.000000
1264.267090 30855.000000
1266.001099 30360.000000
1267.734131 31767.000000
1269.465942 31571.000000
1271.196777 31428.000000
1272.926392 30593.000000
1274.655151 31780.000000
1276.382813 31867.000000
1278.109375 31963.000000
1279.835083 32012.000000
1281.559448 31094.000000
1283.282959 32300.000000
1285.005493 30786.000000
1286.727051 31142.000000
1288.447388 31361.000000
1290.166748 31072.000000
1291.885010 30207.000000
1293.602295 30884.000000
1295.318604 31360.000000
1297.033691 30663.000000
1298.747803 30824.000000
1300.460938 31066.000000
1302.173218 30339.000000
1303.884277 28388.000000
1305.594360 31178.000000
1307.303345 29740.000000
1309.011108 29848.000000
1310.718262 29573.000000
1312.423950 30819.000000
1314.128906 29952.000000
1315.832886 30976.000000
1317.535645 31503.000000
1319.237427 31375.000000
1320.938354 32299.000000
1322.637939 29975.000000
1324.336670 31117.000000
1326.034668 18288.000000
1327.731323 28045.000000
1329.426880 27367.000000
1331.121582 27630.000000
1332.815063 28459.000000
1334.507690 28770.000000
1336.199463 26874.000000
1337.889893 27991.000000
1339.579590 27599.000000
1341.268188 28114.000000
1342.955688 26667.000000
1344.642212 28628.000000
1346.327637 27466.000000
1348.012085 28413.000000
1349.695679 27288.000000
1351.378052 28266.000000
1353.059448 28776.000000
1354.739990 28279.000000
1356.419312 28254.000000
1358.098022 29120.000000
1359.775391 28372.000000
1361.451660 29249.000000
1363.126953 29415.000000
1364.801514 28427.000000
1366.474854 28580.000000
1368.147217 28256.000000
1369.818604 29694.000000
1371.489014 27933.000000
1373.158325 28654.000000
1374.826660 28981.000000
1376.494141 28677.000000
1378.160522 28140.000000
1379.825928 28378.000000
1381.490356 28480.000000
1383.153564 28326.000000
1384.816162 28509.000000
1386.477417 27876.000000
1388.137817 27612.000000
1389.797119 27688.000000
1391.455444 27640.000000
1393.113037 27274.000000
1394.769409 27632.000000
1396.424927 27101.000000
1398.079224 27564.000000
1399.732666 28016.000000
1401.385010 27709.000000
1403.036621 27465.000000
1404.687012 26615.000000
1406.336304 27224.000000
1407.984863 25803.000000
1409.632324 25207.000000
1411.278809 26250.000000
1412.924438 25942.000000
1414.569092 26205.000000
1416.212524 25465.000000
1417.855103 25287.000000
1419.496582 25345.000000
1421.137207 25607.000000
1422.776855 25493.000000
1424.415405 25529.000000
1426.053101 24986.000000
1427.689697 25115.000000
1429.325317 25165.000000
1430.960205 24842.000000
1432.593994 25089.000000
1434.226685 24819.000000
1435.858398 25106.000000
1437.489258 24942.000000
1439.119019 25255.000000
1440.747681 23954.000000
1442.375732 25149.000000
1444.002686 24712.000000
1445.628418 24937.000000
1447.253540 25031.000000
1448.877563 24905.000000
1450.500610 25578.000000
1452.122681 26023.000000
1453.743652 25203.000000
1455.363647 26623.000000
1456.982910 26446.000000
1458.600830 28192.000000
1460.218140 27150.500000
1461.834473 26109.000000
1463.449585 24241.000000
1465.063843 24655.000000
1466.677246 25675.000000
1468.289551 25692.000000
1469.901001 25350.000000
1471.511597 25261.000000
1473.120972 25587.000000
1474.729370 25605.000000
1476.336914 25527.000000
1477.943481 24991.000000
1479.549316 25718.000000
1481.153931 24893.000000
1482.757690 25238.000000
1484.360229 24002.000000
1485.962158 23922.000000
1487.562866 24045.000000
1489.162842 23721.000000
1490.761719 23520.000000
1492.359741 23568.000000
1493.956665 23712.000000
1495.552734 24433.000000
1497.147827 25102.000000
1498.741943 25308.000000
1500.335327 24463.000000
1501.927612 25069.000000
1503.518677 24707.000000
1505.109253 24352.000000
1506.698486 24232.000000
1508.287109 24449.000000
1509.874634 24054.000000
1511.461060 23711.000000
1513.046753 23996.000000
1514.631348 23791.000000
1516.215088 23754.000000
1517.797729 23825.000000
1519.379639 23605.000000
1520.960449 23629.000000
1522.540527 23495.000000
1524.119385 23313.000000
1525.697388 23005.000000
1527.274658 23014.000000
1528.850708 22954.000000
1530.426025 22867.000000
1532.000244 22510.000000
1533.573730 22750.000000
1535.145996 22720.000000
1536.717529 22592.000000
1538.288086 22498.000000
1539.857788 22449.000000
1541.426270 22693.000000
1542.994019 22247.000000
1544.560913 22569.000000
1546.126587 22067.000000
1547.691528 22082.000000
1549.255371 22239.000000
1550.818604 21598.000000
1552.380493 21882.000000
1553.941772 22022.000000
1555.501953 21880.000000
1557.061401 21789.000000
1558.619751 21485.000000
1560.177368 21817.000000
1561.733887 21420.000000
1563.289185 21848.000000
1564.843872 21698.000000
1566.397827 21834.000000
1567.950806 21734.000000
1569.502441 21819.000000
1571.053345 21964.000000
1572.603516 21844.000000
1574.152710 21657.000000
1575.700562 21680.000000
1577.247925 21830.000000
1578.794312 21828.000000
1580.339844 22129.000000
1581.884399 21749.000000
1583.427734 21757.000000
1584.970459 21592.000000
1586.512329 21651.000000
1588.053101 21458.000000
1589.592896 21698.000000
1591.131958 21467.000000
1592.669922 21516.000000
1594.207397 21338.000000
1595.743530 21568.000000
1597.278564 21527.000000
1598.813110 21139.000000
1600.346680 21132.000000
1601.879395 21259.000000
1603.410522 21487.000000
1604.941406 21250.000000
1606.471436 21391.000000
1608.000244 20860.000000
1609.527954 21146.000000
1611.055054 21141.000000
1612.581421 21625.000000
1614.106812 21330.000000
1615.631348 21103.000000
1617.154541 20937.000000
1618.677002 21361.000000
1620.198730 21834.000000
1621.719604 23456.000000
1623.239014 16919.000000
1624.757935 20805.000000
1626.276123 20726.000000
1627.793457 20801.000000
1629.309692 20656.000000
1630.824585 20382.000000
1632.338989 20383.000000
1633.852661 20324.000000
1635.365234 20259.000000
1636.876587 20388.000000
1638.387573 20312.000000
1639.897461 20250.000000
1641.406494 20223.000000
1642.914185 20118.000000
1644.421509 20027.000000
1645.927979 19823.000000
1647.433472 20032.000000
1648.938110 19790.000000
1650.441284 19704.000000
1651.943848 19746.000000
1653.446045 19585.000000
1654.946899 19387.000000
1656.446655 19221.000000
1657.945557 19275.000000
1659.444092 19363.000000
1660.941406 19390.000000
1662.437988 19238.000000
1663.932983 19113.000000
1665.427734 18923.000000
1666.921631 19570.000000
1668.414551 23937.000000
1669.906128 12480.000000
1671.397217 18498.000000
1672.887695 18494.000000
1674.377075 18416.000000
1675.864990 18398.000000
1677.352661 18356.000000
1678.839355 18695.000000
1680.325195 18620.000000
1681.810181 18305.000000
1683.293701 18068.000000
1684.776978 17896.000000
1686.259399 18035.000000
1687.740723 17916.000000
1689.220581 17890.000000
1690.700195 17912.000000
1692.179077 17861.000000
1693.656982 17465.000000
1695.133911 17797.000000
1696.609619 17952.000000
1698.084961 17759.000000
1699.559082 17671.000000
1701.032593 17667.000000
1702.504639 17882.000000
1703.976440 17703.000000
1705.447266 17854.000000
1706.917236 17842.000000
1708.385864 18035.000000
1709.854004 18004.000000
1711.321411 17834.000000
1712.787720 17739.000000
1714.253418 17804.000000
1715.717407 17971.000000
1717.181274 17931.000000
1718.644287 17719.000000
1720.106323 17903.000000
1721.567139 17923.000000
1723.027344 17834.000000
1724.486816 17973.000000
1725.945435 17847.000000
1727.403076 17730.000000
1728.859375 17742.000000
1730.315430 17732.000000
1731.770508 17699.000000
1733.224609 17698.000000
1734.677490 17649.000000
1736.130127 17692.000000
1737.581665 17553.000000
1739.032471 17493.000000
1740.482300 17467.000000
1741.930786 17519.000000
1743.378906 17173.000000
1744.826172 17294.000000
1746.272705 17183.000000
1747.717651 17037.000000
1749.162354 17299.000000
1750.606201 17157.000000
1752.049194 17104.000000
1753.490723 17082.000000
1754.932007 20302.000000
1756.372437 12557.000000
1757.811890 16763.000000
1759.250366 16736.000000
1760.687866 16652.000000
1762.124878 16472.000000
1763.560913 16666.000000
1764.996094 16298.000000
1766.429810 16312.000000
1767.863403 16667.000000
1769.296021 16516.000000
1770.727783 16859.000000
1772.158691 16711.000000
1773.588379 16515.000000
1775.017334 16190.000000
1776.445801 15952.000000
1777.873291 15382.000000
1779.299438 14787.000000
1780.725342 15714.000000
1782.150146 15663.000000
1783.574341 15712.000000
1784.997070 15575.000000
1786.419312 15494.000000
1787.840820 15580.000000
1789.261597 15491.000000
1790.681396 15288.000000
1792.099854 15281.000000
1793.517822 15088.000000
1794.935181 15180.000000
1796.351685 15265.000000
1797.766724 15108.000000
1799.181396 15002.000000
1800.595459 15001.000000
1802.008301 15104.000000
1803.420532 15033.000000
1804.831421 14843.000000
1806.241821 14865.000000
1807.651489 14878.000000
1809.060181 15048.000000
1810.467773 14999.000000
1811.874878 14946.000000
1813.281128 14950.000000
1814.686401 14948.000000
1816.090576 15120.000000
1817.494385 14935.000000
1818.897217 15052.000000
1820.299194 14889.000000
1821.700562 14925.000000
1823.100464 14772.000000
1824.499756 14834.000000
1825.898560 14845.000000
1827.296509 14719.000000
1828.693115 14750.000000
1830.089111 14659.000000
1831.484375 14820.000000
1832.879028 14550.000000
1834.272705 14673.000000
1835.665039 14779.000000
1837.056885 14722.000000
1838.448120 14656.000000
1839.838379 14616.000000
1841.227417 14597.000000
1842.616089 14634.000000
1844.003784 14644.000000
1845.390747 14472.000000
1846.776367 14408.000000
1848.161743 14446.000000
1849.546265 14420.000000
1850.930054 14224.000000
1852.312744 14339.000000
1853.694214 14320.000000
1855.075195 14047.000000
1856.455688 14072.000000
1857.835205 14036.000000
1859.213257 14061.000000
1860.591187 14139.000000
1861.968140 13881.000000
1863.344360 13903.000000
1864.719727 13872.000000
1866.093628 13627.000000
1867.467407 13625.000000
1868.840332 13525.000000
1870.212158 13466.000000
1871.583008 13469.000000
1872.953491 13469.000000
1874.322876 13254.000000
1875.691772 13366.000000
1877.059082 13211.000000
1878.426270 13214.000000
1879.792480 13074.000000
1881.157959 12931.000000
1882.522705 12900.000000
1883.885864 13070.000000
1885.248901 13001.000000
1886.611084 12975.000000
1887.972412 12982.000000
1889.332397 12776.000000
1890.692017 12661.000000
1892.051025 12782.000000
1893.409058 12759.000000
1894.766235 12660.000000
1896.122192 12615.000000
1897.477905 12546.000000
1898.832642 12664.000000
1900.186523 12642.000000
1901.539307 12701.000000
1902.891602 12735.000000
1904.243164 12632.000000
1905.593872 12560.000000
1906.943359 12760.000000
1908.292358 12654.000000
1909.640503 12674.000000
1910.988037 12645.000000
1912.334839 12536.000000
1913.680054 12640.000000
1915.025024 12620.000000
1916.369263 12668.000000
1917.712646 12850.000000
1919.054688 12727.000000
1920.396484 12655.000000
1921.737427 12628.000000
1923.077637 12705.000000
1924.416870 12628.000000
1925.755127 12554.000000
1927.092773 12706.000000
1928.429688 12552.000000
1929.765747 12511.000000
1931.100586 12548.000000
1932.435059 12420.000000
1933.768799 12435.000000
1935.101685 12395.000000
1936.433105 12217.000000
1937.764648 12291.000000
1939.094849 12119.000000
1940.424561 12167.000000
1941.753418 12055.000000
1943.081055 12211.000000
1944.408203 12086.000000
1945.734619 12235.000000
1947.060303 12117.000000
1948.384644 12134.000000
1949.708740 12015.000000
1951.031982 11967.000000
1952.354492 11995.000000
1953.675903 11946.000000
1954.996338 11905.000000
1956.316162 11902.000000
1957.635620 11714.000000
1958.954102 11689.000000
1960.271240 11664.000000
1961.588013 11654.000000
1962.904053 11576.000000
1964.219360 11532.000000
1965.533203 11542.000000
1966.846802 11581.000000
1968.159668 11481.000000
1969.471680 11533.000000
1970.783081 11596.000000
1972.093140 11412.000000
1973.402710 11118.000000
1974.711548 11089.000000
1976.019775 11065.000000
1977.326660 10984.000000
1978.632935 11000.000000
1979.938843 11048.000000
1981.243530 11226.000000
1982.547729 10933.000000
1983.850708 10999.000000
1985.153320 11027.000000
1986.454956 10961.000000
1987.755981 10744.000000
1989.055420 10597.000000
1990.354980 10555.000000
1991.653442 10527.000000
1992.951416 10541.000000
1994.247803 10581.000000
1995.544189 10589.000000
1996.839600 10419.000000
1998.134277 10325.000000
1999.428101 10378.000000
2000.720703 10266.000000
2002.012817 10214.000000
2003.304443 10126.000000
2004.595337 10086.000000
2005.884644 10252.000000
2007.173706 10023.000000
2008.462036 10133.000000
2009.749634 10156.000000
2011.036377 10069.000000
2012.322021 9969.000000
2013.607300 10090.000000
2014.891602 10026.000000
2016.175293 9980.000000
2017.457642 9825.000000
2018.739624 9913.000000
2020.021118 9952.000000
2021.301636 9952.000000
2022.581421 9896.000000
2023.860107 9911.000000
2025.138062 9849.000000
2026.415527 9819.000000
2027.692383 9628.000000
2028.967529 9828.000000
2030.242798 9898.000000
2031.517090 9978.000000
2032.790405 9994.000000
2034.062866 10092.000000
2035.334961 9968.000000
2036.605957 9844.000000
2037.876709 9844.000000
2039.146118 9915.000000
2040.414429 9893.000000
2041.682739 9984.000000
2042.950073 9824.000000
2044.216675 9824.000000
2045.482056 9854.000000
2046.746826 9622.000000
2048.011230 9824.000000
2049.274658 9805.000000
2050.537598 9831.000000
2051.798584 9648.000000
2053.060059 9621.000000
2054.320313 9445.000000
2055.579834 9409.000000
2056.838623 9478.000000
2058.096436 9452.000000
2059.353760 9511.000000
2060.610352 9306.000000
2061.865479 9366.000000
2063.120605 9453.000000
2064.374756 9372.000000
2065.628174 9402.000000
2066.880859 9317.000000
2068.132324 9192.000000
2069.383545 9246.000000
2070.634033 9332.000000
2071.883789 9279.000000
2073.132080 9178.000000
2074.380371 9048.000000
2075.627686 8979.000000
2076.874268 9136.000000
2078.120117 8986.000000
2079.364746 8917.000000
2080.608887 8937.000000
2081.852539 8893.000000
2083.095215 8795.000000
2084.336670 8852.000000
2085.577881 8766.000000
2086.818604 8690.000000
2088.058350 8694.000000
2089.296875 8686.000000
2090.534912 8589.000000
2091.772217 8596.000000
2093.009277 8548.000000
2094.244873 8536.000000
2095.479736 8528.000000
2096.714355 8654.000000
2097.947998 8625.000000
2099.180664 8540.000000
2100.412598 8420.000000
2101.644043 8371.000000
2102.874512 8309.000000
2104.104248 8442.000000
2105.333740 8363.000000
2106.561279 8380.000000
2107.789063 8254.000000
2109.016113 8261.000000
2110.242188 8071.000000
2111.466797 8059.000000
2112.691650 8068.000000
2113.915283 7868.000000
2115.138428 8083.000000
2116.360352 7930.000000
2117.582031 8126.000000
2118.802734 7951.000000
2120.022705 8172.000000
2121.242188 8091.000000
2122.460205 8077.000000
2123.678223 8084.000000
2124.895264 8099.000000
2126.111816 8053.000000
2127.326660 8026.000000
2128.541748 8118.000000
2129.755859 7943.000000
2130.969238 7970.000000
2132.181885 7769.000000
2133.393066 7924.000000
2134.604492 8060.000000
2135.814697 7926.000000
2137.024414 7992.000000
2138.232666 7926.000000
2139.440918 8067.000000
2140.648438 7835.000000
2141.854736 7585.000000
2143.060303 7783.000000
2144.265625 7747.000000
2145.469971 7806.000000
2146.673584 7847.000000
2147.876709 7825.000000
2149.078369 7749.000000
2150.279785 7673.000000
2151.480469 7788.000000
2152.680420 7598.000000
2153.879150 7757.000000
2155.077637 7765.000000
2156.275635 7685.000000
2157.472656 7597.000000
2158.668945 7523.000000
2159.864014 7478.000000
2161.058838 7327.000000
2162.252930 7358.000000
2163.446045 7258.000000
2164.638184 7435.000000
2165.830078 7144.000000
2167.021240 7334.000000
2168.211426 7201.000000
2169.400879 7111.000000
2170.589844 7031.000000
2171.777832 6916.000000
2172.965576 6992.000000
2174.151855 6770.000000
2175.337402 6762.000000
2176.522705 6751.000000
2177.707520 6677.000000
2178.891113 6727.000000
2180.073975 6652.000000
2181.255859 6699.000000
2182.437500 6715.000000
2183.618652 6619.000000
2184.798584 6730.000000
2185.977539 6652.000000
2187.156006 6510.000000
2188.334229 6537.000000
2189.511230 6598.000000
2190.687256 6521.000000
2191.863037 6503.000000
2193.038330 6568.000000
2194.212158 6442.000000
2195.385498 6671.000000
2196.558594 6578.000000
2197.730469 6475.000000
2198.901855 6680.000000
2200.072754 6651.000000
2201.241943 6707.000000
2202.411133 6628.000000
2203.579834 6559.000000
2204.747559 6573.000000
2205.914307 6615.000000
2207.080322 6542.000000
2208.245850 6596.000000
2209.411133 6473.000000
2210.574951 6613.000000
2211.738281 6485.000000
2212.900391 6472.000000
2214.062744 6363.000000
2215.223877 6399.000000
2216.384033 6458.000000
2217.543701 6378.000000
2218.703125 6347.000000
2219.861328 6353.000000
2221.018555 6241.000000
2222.175537 6275.000000
2223.331787 6291.000000
2224.487305 6262.000000
2225.642090 6315.000000
2226.795898 6226.000000
2227.948730 6178.000000
2229.102051 6194.000000
2230.253418 6239.000000
2231.404541 6150.000000
2232.554932 6179.000000
2233.704834 6112.000000
2234.853760 5941.000000
2236.002197 5965.000000
2237.149170 5976.000000
2238.296387 6010.000000
2239.442383 5956.000000
2240.588135 5861.000000
2241.732178 5666.000000
2242.876465 5711.000000
2244.019775 5792.000000
2245.162354 5720.000000
2246.303955 5657.000000
2247.445313 5641.000000
2248.585693 5567.000000
2249.725342 5504.000000
2250.864502 5504.000000
2252.002441 5446.000000
2253.140381 5502.000000
2254.277344 5485.000000
2255.413574 5560.000000
2256.548828 5352.000000
2257.683350 5349.000000
2258.817627 5419.000000
2259.951416 5658.000000
2261.083740 5636.000000
2262.215576 5389.000000
2263.346924 5375.000000
2264.477295 5279.000000
2265.607422 5297.000000
2266.736328 5135.000000
2267.864746 5115.000000
2268.992676 5294.000000
2270.119629 5125.000000
2271.245850 5230.000000
2272.371094 5118.000000
2273.496338 5023.000000
2274.620850 5113.000000
2275.744141 5119.000000
2276.866699 5172.000000
2277.988770 5089.000000
2279.110352 5029.000000
2280.231201 5034.000000
2281.350830 5031.000000
2282.469971 4992.000000
2283.588867 4842.000000
2284.707031 4779.000000
2285.824219 4869.000000
2286.940430 4871.000000
2288.056396 4789.000000
2289.171631 4887.000000
2290.286133 5054.000000
2291.399414 4862.000000
2292.512695 4990.000000
2293.625244 4947.000000
2294.737061 4925.000000
2295.848145 5031.000000
2296.958008 5019.000000
2298.067383 4956.000000
2299.176514 4963.000000
2300.284668 4921.000000
2301.391846 4979.000000
2302.498779 5034.000000
2303.604980 4924.000000
2304.710693 4939.000000
2305.814941 5019.000000
2306.918945 4899.000000
2308.022461 4815.000000
2309.125488 4820.000000
2310.227295 4831.000000
2311.328369 4883.000000
2312.428955 4687.000000
2313.529053 4814.000000
2314.628418 4840.000000
2315.726318 4718.000000
2316.824707 4773.000000
2317.921631 4626.000000
2319.018311 4732.000000
2320.114502 4733.000000
2321.208984 4721.000000
2322.303467 4585.000000
2323.397217 4684.000000
2324.490723 4564.000000
2325.582520 4845.000000
2326.674316 4801.000000
2327.765381 4635.000000
2328.855713 4608.000000
2329.945068 4683.000000
2331.034424 4781.000000
2332.122559 4701.000000
2333.210205 4546.000000
2334.297607 4624.000000
2335.383301 4478.000000
2336.468750 4422.000000
2337.553955 4421.000000
2338.638184 4277.000000
2339.721436 4351.000000
2340.804443 4395.000000
2341.886475 4377.000000
2342.968262 4333.000000
2344.049316 4342.000000
2345.129150 4279.000000
2346.208496 4265.000000
2347.287354 4175.000000
2348.365723 4274.000000
2349.442627 4216.000000
2350.519287 4209.000000
2351.595703 4170.000000
2352.671143 4105.000000
2353.745605 4168.000000
2354.819824 4063.000000
2355.893311 4039.000000
2356.966309 4095.000000
2358.038086 4034.000000
2359.109619 4056.000000
2360.180176 3951.000000
2361.250488 3878.000000
2362.319824 3894.000000
2363.388184 3927.000000
2364.456299 4049.000000
2365.523682 3861.000000
2366.590576 3972.000000
2367.656738 3768.000000
2368.721680 3858.000000
2369.786621 3793.000000
2370.850830 3806.000000
2371.914307 3847.000000
2372.976563 3728.000000
2374.038818 3899.000000
2375.100098 3793.000000
2376.161133 3772.000000
2377.220947 3814.000000
2378.280029 3777.000000
2379.339111 3861.000000
2380.397217 3778.000000
2381.454590 3808.000000
2382.510986 3788.000000
2383.567139 3705.000000
2384.622803 3710.000000
2385.677734 3644.000000
2386.731201 3712.000000
2387.784912 3732.000000
2388.837646 3770.000000
2389.889893 3765.000000
2390.941406 3701.000000
2391.991943 3713.000000
2393.042236 3749.000000
2394.091553 3715.000000
2395.140869 3649.000000
2396.188721 3646.000000
2397.236084 3723.000000
2398.283203 3654.000000
2399.329346 3562.000000
2400.374756 3722.000000
2401.419434 3695.000000
2402.464111 3582.000000
2403.507324 3600.000000
2404.550537 3664.000000
2405.592285 3661.000000
2406.634277 3522.000000
2407.675537 3636.000000
2408.715820 3567.000000
2409.755371 3669.000000
2410.793945 3630.000000
2411.832764 3543.000000
2412.870361 3499.000000
2413.907715 3490.000000
2414.943848 3475.000000
2415.979736 3392.000000
2417.014893 3749.000000
2418.049561 3558.000000
2419.082764 3539.000000
2420.116211 3490.000000
2421.148682 3499.000000
2422.180908 3459.000000
2423.211670 3461.000000
2424.242432 3473.000000
2425.272705 3339.000000
2426.301758 3461.000000
2427.330811 3462.000000
2428.358154 3375.000000
2429.385986 3503.000000
2430.412598 3442.000000
2431.438965 3418.000000
2432.463867 3463.000000
2433.489014 3350.000000
2434.513184 3381.000000
2435.537109 3348.000000
2436.559814 3380.000000
2437.581787 3242.000000
2438.603516 3213.000000
2439.624512 3254.000000
2440.645020 3245.000000
2441.664307 3275.000000
2442.683594 3221.000000
2443.701904 3223.000000
2444.719971 3156.000000
2445.736572 3143.000000
2446.753174 3174.000000
2447.769043 3095.000000
2448.784912 3150.000000
2449.799316 3169.000000
2450.812988 3074.000000
2451.826172 3047.000000
2452.839111 3151.000000
2453.851318 3083.000000
2454.862549 3102.000000
2455.873535 3103.000000
2456.883789 3017.000000
2457.893555 2935.000000
2458.902344 2971.000000
2459.910400 2968.000000
2460.918457 3001.000000
2461.925293 3047.000000
2462.931885 2918.000000
2463.937256 2914.000000
2464.942383 2955.000000
2465.947266 2907.000000
2466.950928 2895.000000
2467.954346 2980.000000
2468.956787 2956.000000
2469.958984 2959.000000
2470.960693 2885.000000
2471.961426 2830.000000
2472.961182 2792.000000
2473.960938 2831.000000
2474.959717 2805.000000
2475.958008 2818.000000
2476.955322 2892.000000
2477.952393 2804.000000
2478.949463 2783.000000
2479.945068 2730.000000
2480.940674 2813.000000
2481.934570 2944.000000
2482.928467 2819.000000
2483.921875 2814.000000
2484.914795 2748.000000
2485.906738 2758.000000
2486.897949 2853.000000
2487.888916 2762.000000
2488.879395 2856.000000
2489.868896 2744.000000
2490.857666 2847.000000
2491.846436 2885.000000
2492.834229 2760.000000
2493.820801 2767.000000
2494.807373 2744.000000
2495.793457 2817.000000
2496.778809 2871.000000
2497.763184 2676.000000
2498.747314 2758.000000
2499.731445 2784.000000
2500.714111 2786.000000
2501.696289 2750.000000
2502.677979 2720.000000
2503.658936 2725.000000
2504.639404 2808.000000
2505.619629 2753.000000
2506.598389 2727.000000
2507.576904 2757.000000
2508.554932 2707.000000
2509.532471 2709.000000
2510.509033 2723.000000
2511.485352 2730.000000
2512.460938 2677.000000
2513.436035 2673.000000
2514.410645 2642.000000
2515.384033 2566.000000
2516.357178 2576.000000
2517.330078 2690.000000
2518.302002 2597.000000
2519.273193 2536.000000
2520.243896 2549.000000
2521.214355 2544.000000
2522.184082 2560.000000
2523.152832 2547.000000
2524.120850 2528.000000
2525.088867 2558.000000
2526.055908 2577.000000
2527.022705 2528.000000
2527.988281 2419.000000
2528.953857 2503.000000
2529.918701 2537.000000
2530.883057 2554.000000
2531.846191 2564.000000
2532.809570 2518.000000
2533.771973 2361.000000
2534.734131 2485.000000
2535.695068 2504.000000
2536.655273 2472.000000
2537.615723 2416.000000
2538.575195 2366.000000
2539.533936 2530.000000
2540.491699 2428.000000
2541.449707 2416.000000
2542.406982 2391.000000
2543.363281 2400.000000
2544.319336 2417.000000
2545.274170 2397.000000
2546.229248 2324.000000
2547.183594 2342.000000
2548.137207 2609.000000
2549.089844 2258.000000
2550.042236 2343.000000
2550.994141 2257.000000
2551.945313 2299.000000
2552.895752 2290.000000
2553.845703 2300.000000
2554.795410 2215.000000
2555.744385 2338.000000
2556.692871 2198.000000
2557.640137 2152.000000
2558.587402 2243.000000
2559.533936 2262.000000
2560.479980 2244.000000
2561.425049 2275.000000
2562.369873 2288.000000
2563.314209 2238.000000
2564.258057 2247.000000
2565.201416 2236.000000
2566.143311 2067.000000
2567.085449 2173.000000
2568.026855 2255.000000
2568.967529 2126.000000
2569.907471 2195.000000
2570.847412 2185.000000
2571.786377 2099.000000
2572.725098 2123.000000
2573.662842 2196.000000
2574.600342 2074.000000
2575.537109 2106.000000
2576.473145 2242.000000
2577.408691 2138.000000
2578.343506 2155.000000
2579.278320 2028.000000
2580.212158 2140.000000
2581.145508 2125.000000
2582.078125 2183.000000
2583.010498 2214.000000
2583.942139 2159.000000
2584.873291 2036.000000
2585.803955 2138.000000
2586.733398 2123.000000
2587.662842 2035.000000
2588.591797 2110.000000
2589.520508 2104.000000
2590.447510 1992.000000
2591.374756 2097.000000
2592.301514 2070.000000
2593.227539 2097.000000
2594.153320 2128.000000
2595.077881 1997.000000
2596.002197 2110.000000
2596.926025 2152.000000
2597.849365 2043.000000
2598.771729 2084.000000
2599.693848 2026.000000
2600.615479 1977.000000
2601.536377 2093.000000
2602.456543 2078.000000
2603.376465 2097.000000
2604.295898 2044.000000
2605.215088 1947.000000
2606.133301 1995.000000
2607.050293 1955.000000
2607.967529 1995.000000
2608.884521 2043.000000
2609.800537 2002.000000
2610.715332 1994.000000
2611.630615 1985.000000
2612.545166 1950.000000
2613.458740 1942.000000
2614.372314 2008.000000
2615.284668 1932.000000
2616.197021 1955.000000
2617.108398 1936.000000
2618.019531 1951.000000
2618.929932 2265.000000
2619.840088 1924.000000
2620.749512 1934.000000
2621.658447 1791.000000
2622.566406 1878.000000
2623.474609 1885.000000
2624.381836 1812.000000
2625.288574 1796.000000
2626.194580 1882.000000
2627.100342 1920.000000
2628.005371 1881.000000
2628.910156 1943.000000
2629.814209 1913.000000
2630.717285 1912.000000
2631.620361 1820.000000
2632.522461 1857.000000
2633.424561 1730.000000
2634.326416 1829.000000
2635.226563 1821.000000
2636.126953 1796.000000
2637.026611 1817.000000
2637.926025 1843.000000
2638.823975 1779.000000
2639.722412 1729.000000
2640.620361 1696.000000
2641.517578 1770.000000
2642.413574 1791.000000
2643.309570 1722.000000
2644.205322 1765.000000
2645.100342 1697.000000
2645.995117 1781.000000
2646.888428 1787.000000
2647.781738 1663.000000
2648.674805 1737.000000
2649.567627 1669.000000
2650.458740 1670.000000
2651.350098 1702.000000
2652.240967 1466.000000
2653.131104 1662.000000
2654.020996 1690.000000
2654.909668 1581.000000
2655.798584 1688.000000
2656.687012 1639.000000
2657.574463 1608.000000
2658.460938 1564.000000
2659.347900 1530.000000
2660.234131 1551.000000
2661.119873 1605.000000
2662.004395 1559.000000
2662.888916 1591.000000
2663.773193 1639.000000
2664.656738 1690.000000
2665.539795 1519.000000
2666.422119 1558.000000
2667.303955 1609.000000
2668.185059 1622.000000
2669.066406 1597.000000
2669.946289 1646.000000
2670.826416 1551.000000
2671.705811 1638.000000
2672.585205 1672.000000
2673.463867 1553.000000
2674.340820 1548.000000
2675.218506 1538.000000
2676.095459 1523.000000
2676.971680 1585.000000
2677.847412 1638.000000
2678.722412 1644.000000
2679.597656 1585.000000
2680.471924 1510.000000
2681.345703 1534.000000
2682.218750 1596.000000
2683.091553 1517.000000
2683.964111 1537.000000
2684.835938 1473.000000
2685.707031 1524.000000
2686.577881 1561.000000
2687.448242 1602.000000
2688.318359 1482.000000
2689.186768 1550.000000
2690.055908 1468.000000
2690.924316 1513.000000
2691.792480 1468.000000
2692.659912 1531.000000
2693.526123 1509.000000
2694.392822 1416.000000
2695.258545 1454.000000
2696.124268 1489.000000
2696.988525 1502.000000
2697.853516 1421.000000
2698.717041 1460.000000
2699.580811 1456.000000
2700.443115 1485.000000
2701.305908 1389.000000
2702.167725 1406.000000
2703.029053 1411.000000
2703.890381 1379.000000
2704.750488 1321.000000
2705.610596 1454.000000
2706.470215 1404.000000
2707.329590 1407.000000
2708.187256 1395.000000
2709.045166 1430.000000
2709.903564 1391.000000
2710.760742 1367.000000
2711.617188 1450.000000
2712.473145 1498.000000
2713.329102 1453.000000
2714.184326 1359.000000
2715.038818 1283.000000
2715.892822 1415.000000
2716.746826 1389.000000
2717.599854 1362.000000
2718.453125 1393.000000
2719.304688 1318.000000
2720.156738 1262.000000
2721.008545 1261.000000
2721.859131 1365.000000
2722.709717 1363.000000
2723.559814 1261.000000
2724.409180 1308.000000
2725.258545 1294.000000
2726.106689 1282.000000
2726.954346 1282.000000
2727.802490 1310.000000
2728.649414 1267.000000
2729.496826 1303.000000
2730.342773 1228.000000
2731.187988 1240.000000
2732.033691 1288.000000
2732.878418 1290.000000
2733.723145 1266.000000
2734.566650 1273.000000
2735.410400 1261.000000
2736.253418 1245.000000
2737.095947 1352.000000
2737.937500 1372.000000
2738.779541 1187.000000
2739.620605 1227.000000
2740.461426 1238.000000
2741.302002 1237.000000
2742.141357 1192.000000
2742.980713 1281.000000
2743.820068 1238.000000
2744.658203 1251.000000
2745.495850 1295.000000
2746.333496 1188.000000
2747.170654 1163.000000
2748.007568 1267.000000
2748.843994 1274.000000
2749.679199 1254.000000
2750.514648 1236.000000
2751.349609 1230.000000
2752.183838 1162.000000
2753.017822 1208.000000
2753.851318 1248.000000
2754.684814 1208.000000
2755.517334 1185.000000
2756.349365 1273.000000
2757.180908 1215.000000
2758.012451 1243.000000
2758.843018 1097.000000
2759.673828 1170.000000
2760.503418 1234.000000
2761.333008 1297.000000
2762.162354 1165.000000
2762.990967 1142.000000
2763.819092 1256.000000
2764.646729 1135.000000
2765.474365 1145.000000
2766.301514 1175.000000
2767.127930 1145.000000
2767.953857 1180.000000
2768.779297 1150.000000
2769.604492 1105.000000
2770.429688 1090.000000
2771.253662 1126.000000
2772.077637 1143.000000
2772.901611 1100.000000
2773.724365 1190.000000
2774.547363 1063.000000
2775.369141 1152.000000
2776.190918 1021.000000
2777.012695 1092.000000
2777.833496 1007.000000
2778.653564 1022.000000
2779.473877 1103.000000
2780.293701 1163.000000
2781.113525 1104.000000
2781.931396 1150.000000
2782.750488 1052.000000
2783.568359 1046.000000
2784.385986 1098.000000
2785.203125 1029.000000
2786.019775 1073.000000
2786.836182 1069.000000
2787.652100 1052.000000
2788.467773 1007.000000
2789.282471 997.000000
2790.097656 905.000000
2790.912109 1021.000000
2791.726074 1093.000000
2792.539795 998.000000
2793.352295 1039.000000
2794.165039 1065.000000
2794.977295 1029.000000
2795.789063 1023.000000
2796.600098 944.000000
2797.411865 1023.000000
2798.222412 1038.000000
2799.032959 906.000000
2799.842041 874.000000
2800.651855 1031.000000
2801.460938 978.000000
2802.269775 1012.000000
2803.078125 981.000000
2803.885498 928.000000
2804.693359 982.000000
2805.500488 1056.000000
2806.307373 937.000000
2807.113037 913.000000
2807.919189 1020.000000
2808.724609 880.000000
2809.530029 968.000000
2810.334717 965.000000
2811.138428 839.000000
2811.942627 997.000000
2812.746338 939.000000
2813.549805 984.000000
2814.351807 958.000000
2815.154541 966.000000
2815.956543 923.000000
2816.758301 974.000000
2817.559570 901.000000
2818.360352 939.000000
2819.160645 900.000000
2819.961182 805.000000
2820.760742 932.000000
2821.559814 1002.000000
2822.358887 963.000000
2823.157715 973.000000
2823.956055 930.000000
2824.753418 983.000000
2825.551025 813.000000
2826.347900 935.000000
2827.145020 902.000000
2827.941406 945.000000
2828.737061 925.000000
2829.532715 862.000000
2830.328125 846.000000
2831.123047 892.000000
2831.917236 963.000000
2832.711426 907.000000
2833.505371 916.000000
2834.298828 891.000000
2835.091553 897.000000
2835.884033 961.000000
2836.676514 915.000000
2837.468750 864.000000
2838.260498 826.000000
2839.051270 865.000000
2839.842041 781.000000
2840.633057 886.000000
2841.423096 959.000000
2842.212646 852.000000
2843.002441 903.000000
2843.791260 941.000000
2844.580078 837.000000
2845.368896 802.000000
2846.156738 832.000000
2846.944092 831.000000
2847.731689 751.000000
2848.518799 847.000000
2849.305176 709.000000
2850.091553 803.000000
2850.877686 753.000000
2851.663330 898.000000
2852.447998 738.000000
2853.233154 899.000000
2854.018066 805.000000
2854.802246 777.000000
2855.586426 884.000000
2856.369385 708.000000
2857.152588 785.000000
2857.935547 862.000000
2858.718018 735.000000
2859.500244 708.000000
2860.281982 888.000000
2861.063477 802.000000
2861.845215 744.000000
2862.626221 833.000000
2863.406494 817.000000
2864.186523 795.000000
2864.966553 739.000000
2865.746338 787.000000
2866.525146 706.000000
2867.304199 878.000000
2868.082764 830.000000
2868.861084 845.000000
2869.638916 775.000000
2870.416504 817.000000
2871.193848 759.000000
2871.970947 779.000000
2872.747559 818.000000
2873.523682 738.000000
2874.299805 826.000000
2875.075439 910.000000
2875.850830 734.000000
2876.625732 923.000000
2877.400391 824.000000
2878.175049 867.000000
2878.949463 799.000000
2879.723145 828.000000
2880.496094 675.000000
2881.269775 817.000000
2882.042480 735.000000
2882.815186 578.000000
2883.587158 756.000000
2884.358887 690.000000
2885.131104 781.000000
2885.902100 746.000000
2886.672607 756.000000
2887.443604 749.000000
2888.214600 647.000000
2888.984863 711.000000
2889.754150 800.000000
2890.523682 700.000000
2891.293213 758.000000
2892.062256 690.000000
2892.830811 694.000000
2893.599365 804.000000
2894.366943 744.000000
2895.135010 780.000000
2895.902588 681.000000
2896.670166 672.000000
2897.436523 741.000000
2898.203857 636.000000
2898.969971 644.000000
2899.736328 622.000000
2900.501221 763.000000
2901.266602 699.000000
2902.032471 624.000000
2902.796875 657.000000
2903.561279 651.000000
2904.325928 653.000000
2905.089600 667.000000
2905.854004 643.000000
2906.617676 690.000000
2907.380615 666.000000
2908.143311 594.000000
2908.906494 630.000000
2909.669189 622.000000
2910.430664 720.000000
2911.192627 720.000000
spectrumdark 2048
-97.038208 6250.000000
-94.411339 6250.000000
-91.786346 6084.000000
-89.163246 6443.000000
-86.542015 5946.000000
-83.922684 6275.000000
-81.305214 6121.000000
-78.689621 6432.000000
-76.075905 6162.000000
-73.464066 6013.000000
-70.854088 6050.000000
-68.245995 6043.000000
-65.639748 6000.000000
-63.035378 6036.000000
-60.432869 6134.000000
-57.832214 5644.000000
-55.233421 6255.000000
-52.636486 6857.000000
-50.041405 6496.000000
-47.448177 6576.000000
-44.856800 6301.000000
-42.267269 6830.000000
-39.679581 5951.000000
-37.093742 6041.000000
-34.509747 6408.000000
-31.927588 5731.000000
-29.347275 6320.000000
-26.768789 5695.000000
-24.192146 6115.000000
-21.617329 6321.000000
-19.044352 6523.000000
-16.473194 6545.000000
-13.903871 6786.000000
-11.336372 7786.000000
-8.770693 6263.000000
-6.206840 6535.000000
-3.644799 6038.000000
-1.084583 5792.000000
1.473825 6300.000000
4.030412 6971.000000
6.585194 6667.000000
9.138160 6064.000000
11.689324 6761.000000
14.238676 6556.000000
16.786232 6771.000000
19.331976 5999.000000
21.875927 5741.000000
24.418074 6707.000000
26.958424 6825.000000
29.496988 6938.000000
32.033756 6199.000000
34.568722 5794.000000
37.101910 7250.000000
39.633316 6339.000000
42.162930 7108.000000
44.690746 6578.000000
47.216805 7873.000000
49.741074 5681.000000
52.263573 6267.000000
54.784275 6781.000000
57.303223 6361.000000
59.820396 6398.000000
62.335793 6678.000000
64.849411 5606.000000
67.361275 5718.000000
69.871391 6574.000000
72.379715 6569.000000
74.886284 5924.000000
77.391106 6381.000000
79.894173 6453.000000
82.395462 6324.000000
84.895012 6167.000000
87.392807 6377.000000
89.888870 5826.000000
92.383156 7290.000000
94.875702 5789.000000
97.366531 6951.000000
99.855591 7239.000000
102.342903 6429.000000
104.828491 6236.000000
107.312340 6434.000000
109.794441 5867.000000
112.274818 6742.000000
114.753471 6238.000000
117.230400 6661.000000
119.705574 7156.000000
122.179039 6855.000000
124.650772 5860.000000
127.120796 6753.000000
129.589066 6234.000000
132.055664 6261.000000
134.520508 5735.000000
136.983658 6241.000000
139.445068 7283.000000
141.904785 6925.000000
144.362778 6426.000000
146.819077 6071.000000
149.273666 5839.000000
151.726532 6867.000000
154.177719 6378.000000
156.627213 6613.000000
159.074982 6083.000000
161.521042 6686.000000
163.965424 8815.000000
166.408127 6460.000000
168.849136 6827.000000
171.288437 6255.000000
173.726028 7265.000000
176.161987 6578.000000
178.596207 7021.000000
181.028748 7258.000000
183.459641 6706.000000
185.888809 7146.000000
188.316330 6720.000000
190.742172 6387.000000
193.166336 6724.000000
195.588837 7136.000000
198.009644 7341.000000
200.428787 6548.000000
202.846268 6058.000000
205.262054 7696.000000
207.676193 7152.000000
210.088699 6386.000000
212.499527 6112.000000
214.908676 6261.000000
217.316193 7464.000000
219.722000 6128.000000
222.126221 6556.000000
224.528732 6756.000000
226.929626 7015.000000
229.328873 6472.000000
231.726456 6880.000000
234.122375 7321.000000
236.516678 6593.000000
238.909317 6122.000000
241.300339 6884.000000
243.689697 6604.000000
246.077438 6395.000000
248.463531 6979.000000
250.847992 6092.000000
253.230804 7880.000000
255.612045 6632.000000
257.991577 6702.000000
260.369537 6531.000000
262.745819 7577.000000
265.120544 7593.000000
267.493622 7912.000000
269.865051 6208.000000
272.234833 6466.000000
274.603058 5902.000000
276.969635 6367.000000
279.334625 6557.000000
281.697998 6073.000000
284.059723 6292.000000
286.419861 7129.000000
288.778381 6090.000000
291.135315 6487.000000
293.490631 6419.000000
295.844360 6040.000000
298.196442 6030.000000
300.546967 6372.000000
302.895905 6407.000000
305.243195 6810.000000
307.588959 6508.000000
309.933044 6552.000000
312.275604 7377.000000
314.616547 7543.000000
316.955872 7189.000000
319.293640 6965.000000
321.629852 8101.000000
323.964417 6347.000000
326.297424 6530.000000
328.628876 6006.000000
330.958740 6638.000000
333.287018 6491.000000
335.613678 7206.000000
337.938843 6432.000000
340.262390 6213.000000
342.584381 6077.000000
344.904816 7594.000000
347.223633 7776.000000
349.540894 6005.000000
351.856628 5878.000000
354.170776 7039.000000
356.483337 6396.000000
358.794342 6481.000000
361.103821 7031.000000
363.411774 6433.000000
365.718109 5634.000000
368.022858 6584.000000
370.326141 6455.000000
372.627808 6286.000000
374.927979 6490.000000
377.226593 6293.000000
379.523651 5748.000000
381.819153 6114.000000
384.113129 5852.000000
386.405518 5245.000000
388.696411 5619.000000
390.985779 6220.000000
393.273560 6268.000000
395.559814 6568.000000
397.844574 6986.000000
400.127716 6026.000000
402.409424 6385.000000
404.689606 6177.000000
406.968201 7244.000000
409.245270 6468.000000
411.520813 6785.000000
413.794830 6455.000000
416.067413 6410.000000
418.338379 6277.000000
420.607849 6481.000000
422.875824 7131.000000
425.142242 7270.000000
427.407166 6329.000000
429.670624 6322.000000
431.932495 6511.000000
434.192902 6035.000000
436.451752 6565.000000
438.709137 6162.000000
440.965027 5764.000000
443.219421 5811.000000
445.472290 5466.000000
447.723602 6923.000000
449.973511 6156.000000
452.221832 6321.000000
454.468719 5662.000000
456.714142 6549.000000
458.958008 6523.000000
461.200378 6532.000000
463.441254 5694.000000
465.680725 6752.000000
467.918610 5458.000000
470.155060 5946.000000
472.389984 6113.000000
474.623444 7364.000000
476.855469 6740.000000
479.085968 5705.000000
481.314972 6465.000000
483.542511 6326.000000
485.768555 5968.000000
487.993164 6673.000000
490.216309 5930.000000
492.437988 6430.000000
494.658112 6752.000000
496.876831 5741.000000
499.094055 6298.000000
501.309906 5549.000000
503.524139 6173.000000
505.737061 6493.000000
507.948395 6483.000000
510.158295 6928.000000
512.366760 6527.000000
514.573853 6611.000000
516.779358 6407.000000
518.983459 6582.000000
521.186035 6228.000000
523.387207 6738.000000
525.587036 6795.000000
527.785339 6942.000000
529.982117 5301.000000
532.177551 5860.000000
534.371460 5608.000000
536.564026 7571.000000
538.755066 6729.000000
540.944702 6167.000000
543.132935 6933.000000
545.319641 7148.000000
547.504883 6838.000000
549.688843 6198.000000
551.871216 6462.000000
554.052246 6243.000000
556.231750 6056.000000
558.409973 5928.000000
560.586670 6045.000000
562.761963 6448.000000
564.935852 6439.000000
567.108276 5977.000000
569.279297 6072.000000
571.448853 6383.000000
573.617126 5332.000000
575.783875 6503.000000
577.949158 6354.000000
580.113037 6144.000000
582.275635 5810.000000
584.436707 6060.000000
586.596375 5643.000000
588.754700 5801.000000
590.911499 6268.000000
593.066956 6565.000000
595.221008 5805.000000
597.373718 6118.000000
599.524902 7266.000000
601.674744 6780.000000
603.823242 6727.000000
605.970154 5963.000000
608.115845 6504.000000
610.260132 6456.000000
612.402954 7044.000000
614.544312 6186.000000
616.684448 6403.000000
618.823059 7760.000000
620.960388 5756.000000
623.096252 6640.000000
625.230713 6908.000000
627.363708 7259.000000
629.495544 6688.000000
631.625916 6681.000000
633.754883 6812.000000
635.882385 6421.000000
638.008606 6198.000000
640.133301 7576.000000
642.256775 6427.000000
644.378906 6901.000000
646.499573 6874.000000
648.618896 6577.000000
650.736816 5748.000000
652.853394 5643.000000
654.968567 6474.000000
657.082397 6496.000000
659.194763 5799.000000
661.305908 6133.000000
663.415649 5403.000000
665.523926 6064.000000
667.631042 6296.000000
669.736694 6787.000000
671.840881 5931.000000
673.943848 5687.000000
676.045410 7028.000000
678.145630 5376.000000
680.244446 6735.000000
682.341919 6275.000000
684.438110 7014.000000
686.532837 6232.000000
688.626343 7001.000000
690.718506 6695.000000
692.809143 7999.000000
694.898560 6649.000000
696.986694 6469.000000
699.073364 6018.000000
701.158813 6719.000000
703.242737 5154.000000
705.325439 5934.000000
707.406860 5942.000000
709.486816 7577.000000
711.565552 6254.000000
713.642822 5584.000000
715.718811 6649.000000
717.793518 6109.000000
719.866943 7011.000000
721.938843 6429.000000
724.009583 7433.000000
726.078979 5895.000000
728.146973 6454.000000
730.213623 6398.000000
732.279053 7151.000000
734.343140 5770.000000
736.405884 6199.000000
738.467285 6504.000000
740.527405 6640.000000
742.586121 6059.000000
744.643616 6692.000000
746.699829 6630.000000
748.754639 6717.000000
750.808167 6441.000000
752.860291 7490.000000
754.911194 5808.000000
756.960876 6692.000000
759.009094 6367.000000
761.056091 6190.000000
763.101807 7077.000000
765.146118 5384.000000
767.189148 5772.000000
769.230957 6426.000000
771.271423 7080.000000
773.310486 6358.000000
775.348389 6117.000000
777.384949 6004.000000
779.420288 5367.000000
781.454285 5804.000000
783.486877 6884.000000
785.518311 5522.000000
787.548340 11704.000000
789.577087 6083.000000
791.604675 6357.000000
793.630920 6432.000000
795.655762 5868.000000
797.679504 5516.000000
799.701843 6334.000000
801.722961 5902.000000
803.742737 6737.000000
805.761230 4969.000000
807.778503 6749.000000
809.794373 6901.000000
811.809082 5736.000000
813.822449 6455.000000
815.834595 6274.000000
817.845520 6143.000000
819.855103 6583.000000
821.863464 5333.000000
823.870422 5862.000000
825.876160 6089.000000
827.880676 5842.000000
829.883911 5690.000000
831.885864 6478.000000
833.886536 6137.000000
835.885986 5955.000000
837.884094 6301.000000
839.881104 7065.000000
841.876709 6293.000000
843.871155 6006.000000
845.864258 6154.000000
847.856140 6854.000000
849.846680 5607.000000
851.835938 6795.000000
853.824158 6048.000000
855.810974 5813.000000
857.796570 6505.000000
859.780884 7258.000000
861.764099 6306.000000
863.745911 6437.000000
865.726501 5851.000000
867.705811 7762.000000
869.683960 7133.000000
871.660767 6253.000000
873.636292 6159.000000
875.610779 6175.000000
877.583801 6036.000000
879.555786 5466.000000
881.526428 6422.000000
883.495911 6142.000000
885.464050 5602.000000
887.431030 5288.000000
889.396667 6156.000000
891.361145 5856.000000
893.324402 5993.000000
895.286438 6517.000000
897.247192 5821.000000
899.206726 6441.000000
901.164978 6717.000000
903.122131 6382.000000
905.078125 6083.000000
907.032715 6847.000000
908.986084 6535.000000
910.938293 6446.000000
912.889282 6385.000000
914.838989 7163.000000
916.787537 6383.000000
918.734863 6163.000000
920.680908 6109.000000
922.625671 6139.000000
924.569397 6327.000000
926.511963 6050.000000
928.453247 5682.000000
930.393188 6514.000000
932.332031 5703.000000
934.269592 5547.000000
936.205933 6017.000000
938.141113 5816.000000
940.075012 6200.000000
942.007813 5851.000000
943.939392 6818.000000
945.869812 5230.000000
947.799011 6517.000000
949.726868 7096.000000
951.653687 6651.000000
953.579224 6041.000000
955.503479 5392.000000
957.426636 6091.000000
959.348633 6736.000000
961.269348 7246.000000
963.188904 6511.000000
965.107300 5344.000000
967.024658 6414.000000
968.940552 6405.000000
970.855347 6160.000000
972.768921 5958.000000
974.681335 6360.000000
976.592529 6493.000000
978.502563 5491.000000
980.411316 6276.000000
982.319031 6185.000000
984.225525 6377.000000
986.130798 5715.000000
988.034973 6862.000000
989.937927 6225.000000
991.839661 6850.000000
993.740234 6563.000000
995.639648 6663.000000
997.537842 5321.000000
999.434875 6559.000000
1001.330688 6557.000000
1003.225342 7666.000000
1005.118896 5635.000000
1007.011169 7186.000000
1008.902527 6091.000000
1010.792542 5375.000000
1012.681335 6661.000000
1014.568970 6502.000000
1016.455444 6965.000000
1018.340759 6742.000000
1020.224915 6019.000000
1022.107849 5886.000000
1023.989746 6232.000000
1025.870361 5283.000000
1027.749878 5917.000000
1029.628418 6118.000000
1031.505615 5437.000000
1033.381470 6201.000000
1035.256348 5959.000000
1037.130249 6599.000000
1039.002686 7212.000000
1040.874146 6779.000000
1042.744263 5559.000000
1044.613403 5502.000000
1046.481323 5871.000000
1048.348145 7049.000000
1050.213867 6783.000000
1052.078369 6563.000000
1053.941772 6504.000000
1055.803833 6463.000000
1057.664917 5919.000000
1059.524902 6514.000000
1061.383545 6658.000000
1063.241089 5841.000000
1065.097534 6787.000000
1066.952881 5918.000000
1068.807007 5844.000000
1070.660278 6280.000000
1072.512085 6374.000000
1074.362915 6174.000000
1076.212524 6153.000000
1078.060913 5784.000000
1079.908447 7924.000000
1081.754639 5601.000000
1083.599609 6240.000000
1085.443726 5463.000000
1087.286499 5529.000000
1089.128052 6588.000000
1090.968872 5542.000000
1092.808105 5833.000000
1094.646606 6070.000000
1096.483765 6042.000000
1098.319702 6845.000000
1100.154663 6669.000000
1101.988403 5458.000000
1103.821167 5673.000000
1105.652588 6204.000000
1107.483154 7307.000000
1109.312378 6555.000000
1111.140625 6516.000000
1112.967651 7178.000000
1114.793701 5484.000000
1116.618530 6371.000000
1118.442261 7183.000000
1120.264771 6121.000000
1122.086182 5965.000000
1123.906738 5964.000000
1125.725830 6666.000000
1127.544067 7095.000000
1129.360962 7019.000000
1131.177002 6714.000000
1132.991821 6497.000000
1134.805542 5644.000000
1136.618164 5871.000000
1138.429565 5651.000000
1140.239990 6233.000000
1142.049316 6794.000000
1143.857300 7009.000000
1145.664551 5979.000000
1147.470337 5967.000000
1149.275269 5403.000000
1151.079102 5464.000000
1152.881714 6159.000000
1154.683472 6127.000000
1156.483765 6079.000000
1158.283081 6174.000000
1160.081421 5908.000000
1161.878418 5555.000000
1163.674683 5978.000000
1165.469604 6110.000000
1167.263428 6401.000000
1169.056396 7749.000000
1170.848022 5791.000000
1172.638672 6561.000000
1174.428345 6049.000000
1176.216553 5846.000000
1178.003906 7523.000000
1179.790161 6934.000000
1181.575317 5858.000000
1183.359375 6043.000000
1185.142334 7688.000000
1186.924316 5923.000000
1188.705078 5937.000000
1190.484863 6388.000000
1192.263550 7027.000000
1194.041260 6693.000000
1195.817749 7235.000000
1197.593140 6615.000000
1199.367432 6541.000000
1201.140625 6751.000000
1202.912964 6510.000000
1204.683960 6802.000000
1206.454102 5755.000000
1208.223022 6159.000000
1209.990845 6371.000000
1211.757813 5797.000000
1213.523438 5877.000000
1215.288086 6979.000000
1217.051636 6611.000000
1218.814087 5983.000000
1220.575684 6794.000000
1222.336060 5935.000000
1224.095337 6442.000000
1225.853760 6091.000000
1227.610962 7271.000000
1229.367065 6501.000000
1231.122070 5535.000000
1232.876221 6013.000000
1234.629028 5874.000000
1236.380859 6035.000000
1238.131836 5991.000000
1239.881470 4898.000000
1241.630249 7035.000000
1243.377686 6653.000000
1245.124390 6698.000000
1246.869873 6558.000000
1248.614502 6448.000000
1250.357788 6822.000000
1252.100098 6722.000000
1253.841309 5396.000000
1255.581665 5136.000000
1257.320923 5828.000000
1259.058960 6564.000000
1260.796143 7104.000000
1262.532104 6204.000000
1264.267090 6501.000000
1266.001099 7300.000000
1267.734131 5985.000000
1269.465942 6213.000000
1271.196777 6448.000000
1272.926392 7291.000000
1274.655151 5949.000000
1276.382813 5674.000000
1278.109375 5574.000000
1279.835083 5573.000000
1281.559448 6530.000000
1283.282959 5323.000000
1285.005493 6977.000000
1286.727051 6652.000000
1288.447388 6290.000000
1290.166748 6544.000000
1291.885010 7331.000000
1293.602295 6447.000000
1295.318604 5773.000000
1297.033691 6436.000000
1298.747803 6220.000000
1300.460938 5798.000000
1302.173218 6463.000000
1303.884277 8407.000000
1305.594360 5325.000000
1307.303345 6661.000000
1309.011108 6716.000000
1310.718262 7031.000000
1312.423950 5835.000000
1314.128906 6911.000000
1315.832886 6199.000000
1317.535645 6001.000000
1319.237427 6586.000000
1320.938354 6114.000000
1322.637939 9151.000000
1324.336670 7390.500000
1326.034668 18714.000000
1327.731323 6533.000000
1329.426880 7212.000000
1331.121582 6807.000000
1332.815063 5766.000000
1334.507690 5392.000000
1336.199463 7483.000000
1337.889893 6348.000000
1339.579590 6631.000000
1341.268188 6164.000000
1342.955688 7645.000000
1344.642212 5651.000000
1346.327637 6780.000000
1348.012085 5971.000000
1349.695679 7253.000000
1351.378052 6387.000000
1353.059448 5963.000000
1354.739990 6645.000000
1356.419312 6803.000000
1358.098022 5915.000000
1359.775391 6691.000000
1361.451660 5810.000000
1363.126953 5630.000000
1364.801514 6691.000000
1366.474854 6542.000000
1368.147217 6787.000000
1369.818604 5169.000000
1371.489014 6917.000000
1373.158325 6223.000000
1374.826660 5716.000000
1376.494141 5958.000000
1378.160522 6503.000000
1379.825928 6183.000000
1381.490356 5898.000000
1383.153564 5984.000000
1384.816162 5749.000000
1386.477417 6390.000000
1388.137817 6627.000000
1389.797119 6489.000000
1391.455444 6488.000000
1393.113037 6903.000000
1394.769409 6541.000000
1396.424927 7026.000000
1398.079224 6383.000000
1399.732666 5877.000000
1401.385010 6174.000000
1403.036621 6430.000000
1404.687012 7180.000000
1406.336304 6258.000000
1407.984863 7523.000000
1409.632324 7908.000000
1411.278809 6240.000000
1412.924438 6337.000000
1414.569092 6052.000000
1416.212524 7019.000000
1417.855103 7192.000000
1419.496582 6976.000000
1421.137207 6519.000000
1422.776855 6449.000000
1424.415405 6087.000000
1426.053101 6721.000000
1427.689697 6340.000000
1429.325317 6051.000000
1430.960205 6419.000000
1432.593994 5943.000000
1434.226685 6255.000000
1435.858398 5701.000000
1437.489258 6210.000000
1439.119019 6111.000000
1440.747681 7867.000000
1442.375732 5979.000000
1444.002686 6582.000000
1445.628418 6216.000000
1447.253540 6242.000000
1448.877563 6606.000000
1450.500610 6091.000000
1452.122681 6041.000000
1453.743652 7420.000000
1455.363647 6308.000000
1456.982910 6925.000000
1458.600830 5723.000000
1460.218140 5644.000000
1461.834473 5565.000000
1463.449585 7305.000000
1465.063843 6423.000000
1466.677246 5239.000000
1468.289551 5666.000000
1469.901001 6299.000000
1471.511597 6399.000000
1473.120972 5994.000000
1474.729370 6007.000000
1476.336914 6249.000000
1477.943481 6723.000000
1479.549316 5407.000000
1481.153931 6377.000000
1482.757690 5523.000000
1484.360229 6730.000000
1485.962158 5586.000000
1487.562866 5514.000000
1489.162842 5671.000000
1490.761719 6334.000000
1492.359741 6576.000000
1493.956665 6648.000000
1495.552734 6417.000000
1497.147827 5974.000000
1498.741943 5496.000000
1500.335327 6629.000000
1501.927612 5548.000000
1503.518677 6238.000000
1505.109253 6785.000000
1506.698486 6552.000000
1508.287109 6187.000000
1509.874634 6593.000000
1511.461060 6896.000000
1513.046753 6158.000000
1514.631348 6649.000000
1516.215088 6450.000000
1517.797729 6282.000000
1519.379639 6809.000000
1520.960449 6684.000000
1522.540527 6090.000000
1524.119385 6284.000000
1525.697388 6445.000000
1527.274658 6267.000000
1528.850708 5756.000000
1530.426025 5976.000000
1532.000244 6416.000000
1533.573730 5527.000000
1535.145996 6042.000000
1536.717529 6449.000000
1538.288086 6440.000000
1539.857788 6288.000000
1541.426270 5494.000000
1542.994019 6653.000000
1544.560913 5650.000000
1546.126587 6837.000000
1547.691528 6025.000000
1549.255371 5096.000000
1550.818604 7534.000000
1552.380493 6340.000000
1553.941772 5950.000000
1555.501953 5727.000000
1557.061401 5781.000000
1558.619751 6076.000000
1560.177368 6300.000000
1561.733887 7216.000000
1563.289185 5883.000000
1564.843872 6378.000000
1566.397827 5636.000000
1567.950806 6348.000000
1569.502441 5689.000000
1571.053345 5911.000000
1572.603516 6244.000000
1574.152710 6408.000000
1575.700562 5829.000000
1577.247925 5535.000000
1578.794312 5683.000000
1580.339844 5088.000000
1581.884399 6705.000000
1583.427734 6394.000000
1584.970459 6686.000000
1586.512329 6471.000000
1588.053101 6785.000000
1589.592896 5875.000000
1591.131958 6712.000000
1592.669922 5924.000000
1594.207397 6167.000000
1595.743530 5958.000000
1597.278564 6703.000000
1598.813110 6356.000000
1600.346680 6121.000000
1601.879395 6187.000000
1603.410522 6349.000000
1604.941406 6350.000000
1606.471436 5780.000000
1608.000244 6147.000000
1609.527954 6154.000000
1611.055054 6091.000000
1612.581421 5836.000000
1614.106812 6236.000000
1615.631348 5871.000000
1617.154541 5836.000000
1618.677002 5639.000000
1620.198730 6581.000000
1621.719604 7001.000000
1623.239014 15554.000000
1624.757935 6277.000000
1626.276123 6083.000000
1627.793457 5878.000000
1629.309692 6434.000000
1630.824585 7112.000000
1632.338989 6898.000000
1633.852661 5783.000000
1635.365234 6892.000000
1636.876587 6025.000000
1638.387573 6497.000000
1639.897461 6348.000000
1641.406494 6231.000000
1642.914185 5612.000000
1644.421509 6159.000000
1645.927979 7179.000000
1647.433472 6317.000000
1648.938110 6831.000000
1650.441284 6164.000000
1651.943848 6610.000000
1653.446045 6367.000000
1654.946899 6771.000000
1656.446655 7586.000000
1657.945557 6197.000000
1659.444092 6497.000000
1660.941406 6291.000000
1662.437988 5947.000000
1663.932983 6537.000000
1665.427734 6414.000000
1666.921631 5234.000000
1668.414551 5802.000000
1669.906128 20755.000000
1671.397217 6534.000000
1672.887695 6109.000000
1674.377075 5957.000000
1675.864990 6968.000000
1677.352661 6894.000000
1678.839355 6037.000000
1680.325195 5447.000000
1681.810181 6142.000000
1683.293701 6217.000000
1684.776978 6237.000000
1686.259399 5934.000000
1687.740723 6294.000000
1689.220581 6208.000000
1690.700195 5558.000000
1692.179077 6658.000000
1693.656982 6045.000000
1695.133911 6216.000000
1696.609619 5836.000000
1698.084961 6065.000000
1699.559082 6384.000000
1701.032593 5574.000000
1702.504639 5600.000000
1703.976440 6929.000000
1705.447266 6439.000000
1706.917236 7116.000000
1708.385864 5148.000000
1709.854004 5793.000000
1711.321411 6382.000000
1712.787720 5547.000000
1714.253418 5840.000000
1715.717407 6228.000000
1717.181274 5991.000000
1718.644287 7089.000000
1720.106323 6370.000000
1721.567139 6621.000000
1723.027344 5492.000000
1724.486816 6407.000000
1725.945435 6274.000000
1727.403076 6049.000000
1728.859375 6270.000000
1730.315430 6076.000000
1731.770508 6506.000000
1733.224609 6073.000000
1734.677490 6922.000000
1736.130127 6009.000000
1737.581665 6932.000000
1739.032471 6009.000000
1740.482300 6627.000000
1741.930786 5972.000000
1743.378906 7542.000000
1744.826172 6552.000000
1746.272705 6654.000000
1747.717651 6759.000000
1749.162354 6104.000000
1750.606201 5853.000000
1752.049194 5536.000000
1753.490723 6596.000000
1754.932007 6427.000000
1756.372437 19585.000000
1757.811890 6314.000000
1759.250366 5280.000000
1760.687866 6125.000000
1762.124878 7611.000000
1763.560913 5854.000000
1764.996094 7232.000000
1766.429810 6304.000000
1767.863403 6491.000000
1769.296021 6762.000000
1770.727783 5705.000000
1772.158691 5973.000000
1773.588379 6449.000000
1775.017334 6143.000000
1776.445801 6301.000000
1777.873291 6750.000000
1779.299438 6354.000000
1780.725342 5662.000000
1782.150146 6999.000000
1783.574341 5610.000000
1784.997070 6653.000000
1786.419312 6625.000000
1787.840820 6857.000000
1789.261597 5886.000000
1790.681396 6133.000000
1792.099854 6171.000000
1793.517822 6891.000000
1794.935181 5550.000000
1796.351685 6125.000000
1797.766724 6619.000000
1799.181396 5903.000000
1800.595459 6626.000000
1802.008301 6076.000000
1803.420532 7047.000000
1804.831421 7199.000000
1806.241821 7798.000000
1807.651489 6585.000000
1809.060181 5997.000000
1810.467773 5370.000000
1811.874878 6487.000000
1813.281128 6356.000000
1814.686401 6771.000000
1816.090576 5966.000000
1817.494385 6028.000000
1818.897217 6294.000000
1820.299194 6028.000000
1821.700562 5926.000000
1823.100464 6404.000000
1824.499756 6485.000000
1825.898560 6544.000000
1827.296509 7480.000000
1828.693115 5721.000000
1830.089111 6801.000000
1831.484375 5986.000000
1832.879028 8237.000000
1834.272705 6061.000000
1835.665039 6863.000000
1837.056885 6450.000000
1838.448120 5885.000000
1839.838379 7083.000000
1841.227417 6019.000000
1842.616089 6155.000000
1844.003784 6021.000000
1845.390747 5890.000000
1846.776367 6955.000000
1848.161743 5918.000000
1849.546265 6402.000000
1850.930054 6434.000000
1852.312744 6389.000000
1853.694214 5419.000000
1855.075195 6585.000000
1856.455688 6376.000000
1857.835205 5720.000000
1859.213257 5959.000000
1860.591187 6227.000000
1861.968140 7891.000000
1863.344360 6101.000000
1864.719727 6061.000000
1866.093628 5678.000000
1867.467407 5779.000000
1868.840332 6291.000000
1870.212158 5930.000000
1871.583008 6946.000000
1872.953491 5441.000000
1874.322876 6110.000000
1875.691772 6106.000000
1877.059082 7193.000000
1878.426270 6136.000000
1879.792480 6047.000000
1881.157959 6845.000000
1882.522705 7585.000000
1883.885864 6746.000000
1885.248901 6952.000000
1886.611084 6363.000000
1887.972412 6434.000000
1889.332397 5670.000000
1890.692017 5920.000000
1892.051025 6181.000000
1893.409058 6686.000000
1894.766235 7300.000000
1896.122192 6001.000000
1897.477905 7672.000000
1898.832642 5846.000000
1900.186523 5604.000000
1901.539307 5932.000000
1902.891602 5986.000000
1904.243164 6021.000000
1905.593872 6981.000000
1906.943359 6556.000000
1908.292358 6728.000000
1909.640503 5888.000000
1910.988037 6186.000000
1912.334839 6327.000000
1913.680054 6872.000000
1915.025024 6136.000000
1916.369263 5501.000000
1917.712646 6501.000000
1919.054688 6011.000000
1920.396484 6653.000000
1921.737427 7092.000000
1923.077637 6230.000000
1924.416870 6458.000000
1925.755127 6342.000000
1927.092773 6519.000000
1928.429688 7065.000000
1929.765747 6844.000000
1931.100586 5568.000000
1932.435059 6688.000000
1933.768799 7303.000000
1935.101685 6307.000000
1936.433105 5857.000000
1937.764648 6345.000000
1939.094849 6701.000000
1940.424561 5846.000000
1941.753418 6202.000000
1943.081055 5826.000000
1944.408203 5031.000000
1945.734619 5862.000000
1947.060303 6585.000000
1948.384644 5828.000000
1949.708740 6736.000000
1951.031982 6391.000000
1952.354492 6388.000000
1953.675903 5870.000000
1954.996338 7464.000000
1956.316162 6093.000000
1957.635620 5639.000000
1958.954102 6921.000000
1960.271240 5917.000000
1961.588013 5885.000000
1962.904053 6582.000000
1964.219360 6594.000000
1965.533203 6398.000000
1966.846802 5730.000000
1968.159668 6294.000000
1969.471680 6048.000000
1970.783081 6004.000000
1972.093140 6316.000000
1973.402710 5921.000000
1974.711548 6257.000000
1976.019775 6645.000000
1977.326660 6157.000000
1978.632935 7320.000000
1979.938843 5559.000000
1981.243530 6486.000000
1982.547729 5951.000000
1983.850708 5719.000000
1985.153320 7541.000000
1986.454956 6134.000000
1987.755981 6616.000000
1989.055420 6119.000000
1990.354980 6678.000000
1991.653442 5446.000000
1992.951416 6093.000000
1994.247803 6132.000000
1995.544189 5783.000000
1996.839600 5636.000000
1998.134277 6625.000000
1999.428101 5726.000000
2000.720703 6605.000000
2002.012817 5814.000000
2003.304443 7249.000000
2004.595337 6550.000000
2005.884644 6228.000000
2007.173706 6875.000000
2008.462036 6068.000000
2009.749634 6038.000000
2011.036377 6716.000000
2012.322021 5724.000000
2013.607300 6395.000000
2014.891602 6036.000000
2016.175293 5616.000000
2017.457642 6153.000000
2018.739624 6533.000000
2020.021118 6847.000000
2021.301636 5913.000000
2022.581421 6140.000000
2023.860107 6762.000000
2025.138062 5859.000000
2026.415527 5939.000000
2027.692383 6430.000000
2028.967529 5908.000000
2030.242798 6633.000000
2031.517090 6355.000000
2032.790405 5990.000000
2034.062866 5924.000000
2035.334961 6217.000000
2036.605957 7023.000000
2037.876709 6607.000000
2039.146118 6077.000000
2040.414429 6844.000000
2041.682739 6646.000000
2042.950073 6006.000000
2044.216675 6023.000000
2045.482056 5630.000000
2046.746826 5929.000000
2048.011230 5468.000000
2049.274658 5876.000000
2050.537598 6471.000000
2051.798584 6176.000000
2053.060059 6146.000000
2054.320313 5908.000000
2055.579834 6673.000000
2056.838623 6274.000000
2058.096436 7016.000000
2059.353760 5908.000000
2060.610352 6073.000000
2061.865479 6558.000000
2063.120605 5680.000000
2064.374756 5640.000000
2065.628174 5689.000000
2066.880859 6830.000000
2068.132324 6288.000000
2069.383545 6361.000000
2070.634033 5636.000000
2071.883789 5451.000000
2073.132080 6476.000000
2074.380371 6581.000000
2075.627686 7467.000000
2076.874268 5641.000000
2078.120117 6107.000000
2079.364746 7120.000000
2080.608887 7650.000000
2081.852539 5523.000000
2083.095215 6115.000000
2084.336670 6955.000000
2085.577881 5984.000000
2086.818604 6417.000000
2088.058350 6786.000000
2089.296875 7103.000000
2090.534912 6238.000000
2091.772217 5852.000000
2093.009277 6634.000000
2094.244873 6169.000000
2095.479736 6235.000000
2096.714355 6076.000000
2097.947998 5660.000000
2099.180664 6088.000000
2100.412598 6962.000000
2101.644043 6479.000000
2102.874512 6880.000000
2104.104248 6041.000000
2105.333740 5969.000000
2106.561279 6056.000000
2107.789063 6019.000000
2109.016113 6389.000000
2110.242188 5495.000000
2111.466797 6430.000000
2112.691650 6993.000000
2113.915283 7159.000000
2115.138428 6214.000000
2116.360352 7654.000000
2117.582031 6009.000000
2118.802734 6927.000000
2120.022705 6014.000000
2121.242188 6196.000000
2122.460205 6680.000000
2123.678223 7071.000000
2124.895264 5762.000000
2126.111816 5896.000000
2127.326660 6632.000000
2128.541748 6385.000000
2129.755859 7059.000000
2130.969238 5709.000000
2132.181885 6149.000000
2133.393066 5844.000000
2134.604492 6579.000000
2135.814697 6643.000000
2137.024414 5947.000000
2138.232666 6199.000000
2139.440918 5705.000000
2140.648438 5899.000000
2141.854736 7582.000000
2143.060303 5883.000000
2144.265625 5731.000000
2145.469971 5563.000000
2146.673584 6286.000000
2147.876709 6173.000000
2149.078369 6523.000000
2150.279785 5355.000000
2151.480469 6314.000000
2152.680420 6200.000000
2153.879150 6019.000000
2155.077637 6967.000000
2156.275635 6247.000000
2157.472656 6024.000000
2158.668945 5141.000000
2159.864014 5323.000000
2161.058838 6162.000000
2162.252930 5599.000000
2163.446045 6084.000000
2164.638184 6934.000000
2165.830078 5995.000000
2167.021240 6348.000000
2168.211426 6314.000000
2169.400879 6513.000000
2170.589844 6884.000000
2171.777832 6295.000000
2172.965576 5729.000000
2174.151855 6028.000000
2175.337402 6695.000000
2176.522705 6052.000000
2177.707520 5906.000000
2178.891113 6427.000000
2180.073975 7528.000000
2181.255859 6271.000000
2182.437500 5968.000000
2183.618652 6644.000000
2184.798584 5723.000000
2185.977539 5584.000000
2187.156006 6447.000000
2188.334229 6953.000000
2189.511230 7252.000000
2190.687256 6810.000000
2191.863037 6185.000000
2193.038330 5639.000000
2194.212158 6739.000000
2195.385498 6157.000000
2196.558594 6212.000000
2197.730469 6638.000000
2198.901855 7079.000000
2200.072754 6347.000000
2201.241943 6894.000000
2202.411133 7577.000000
2203.579834 6280.000000
2204.747559 5966.000000
2205.914307 5666.000000
2207.080322 7205.000000
2208.245850 6714.000000
2209.411133 6009.000000
2210.574951 6753.000000
2211.738281 5593.000000
2212.900391 6234.000000
2214.062744 6293.000000
2215.223877 6710.000000
2216.384033 6682.000000
2217.543701 6351.000000
2218.703125 6621.000000
2219.861328 6403.000000
2221.018555 6417.000000
2222.175537 6817.000000
2223.331787 6687.000000
2224.487305 6811.000000
2225.642090 6270.000000
2226.795898 6418.000000
2227.948730 6055.000000
2229.102051 6942.000000
2230.253418 6219.000000
2231.404541 6205.000000
2232.554932 6537.000000
2233.704834 7686.000000
2234.853760 6416.000000
2236.002197 5259.000000
2237.149170 6879.000000
2238.296387 7090.000000
2239.442383 6085.000000
2240.588135 7289.000000
2241.732178 7399.000000
2242.876465 6791.000000
2244.019775 6180.000000
2245.162354 6022.000000
2246.303955 5767.000000
2247.445313 5834.000000
2248.585693 6458.000000
2249.725342 6513.000000
2250.864502 5832.000000
2252.002441 5910.000000
2253.140381 6253.000000
2254.277344 5325.000000
2255.413574 6347.000000
2256.548828 6213.000000
2257.683350 7340.000000
2258.817627 6415.000000
2259.951416 5431.000000
2261.083740 6130.000000
2262.215576 6838.000000
2263.346924 6308.000000
2264.477295 6514.000000
2265.607422 8102.000000
2266.736328 6757.000000
2267.864746 6156.000000
2268.992676 5536.000000
2270.119629 6165.000000
2271.245850 5920.000000
2272.371094 6787.000000
2273.496338 6560.000000
2274.620850 6408.000000
2275.744141 6018.000000
2276.866699 6341.000000
2277.988770 6190.000000
2279.110352 7449.000000
2280.231201 6400.000000
2281.350830 6500.000000
2282.469971 7139.000000
2283.588867 7732.000000
2284.707031 7298.000000
2285.824219 5912.000000
2286.940430 6476.000000
2288.056396 7090.000000
2289.171631 6989.000000
2290.286133 7401.000000
2291.399414 5925.000000
2292.512695 6344.000000
2293.625244 6032.000000
2294.737061 5415.000000
2295.848145 6787.000000
2296.958008 6471.000000
2298.067383 6201.000000
2299.176514 6720.000000
2300.284668 6411.000000
2301.391846 6846.000000
2302.498779 5891.000000
2303.604980 6418.000000
2304.710693 6684.000000
2305.814941 6634.000000
2306.918945 5488.000000
2308.022461 5787.000000
2309.125488 6589.000000
2310.227295 7484.000000
2311.328369 7320.000000
2312.428955 6680.000000
2313.529053 5551.000000
2314.628418 6391.000000
2315.726318 6661.000000
2316.824707 7069.000000
2317.921631 8261.000000
2319.018311 6919.000000
2320.114502 5826.000000
2321.208984 6898.000000
2322.303467 7619.000000
2323.397217 5858.000000
2324.490723 6058.000000
2325.582520 6401.000000
2326.674316 7005.000000
2327.765381 6114.000000
2328.855713 6300.000000
2329.945068 6921.000000
2331.034424 5979.000000
2332.122559 6351.000000
2333.210205 7044.000000
2334.297607 6544.000000
2335.383301 6779.000000
2336.468750 7742.000000
2337.553955 6351.000000
2338.638184 6792.000000
2339.721436 5953.000000
2340.804443 6471.000000
2341.886475 7136.000000
2342.968262 6071.000000
2344.049316 7405.000000
2345.129150 6662.000000
2346.208496 5719.000000
2347.287354 6820.000000
2348.365723 6623.000000
2349.442627 6331.000000
2350.519287 6989.000000
2351.595703 6082.000000
2352.671143 6525.000000
2353.745605 5987.000000
2354.819824 6383.000000
2355.893311 6810.000000
2356.966309 6241.000000
2358.038086 7039.000000
2359.109619 6290.000000
2360.180176 6854.000000
2361.250488 7584.000000
2362.319824 7606.000000
2363.388184 6903.000000
2364.456299 6736.000000
2365.523682 7093.000000
2366.590576 7153.000000
2367.656738 6172.000000
2368.721680 6946.000000
2369.786621 7049.000000
2370.850830 6390.000000
2371.914307 7007.000000
2372.976563 5897.000000
2374.038818 6353.000000
2375.100098 6363.000000
2376.161133 5937.000000
2377.220947 6295.000000
2378.280029 7966.000000
2379.339111 6423.000000
2380.397217 7603.000000
2381.454590 6958.000000
2382.510986 8082.000000
2383.567139 7837.000000
2384.622803 6318.000000
2385.677734 7083.000000
2386.731201 6844.000000
2387.784912 6585.000000
2388.837646 6318.000000
2389.889893 6736.000000
2390.941406 6198.000000
2391.991943 6688.000000
2393.042236 6530.000000
2394.091553 6305.000000
2395.140869 6205.000000
2396.188721 6956.000000
2397.236084 6968.000000
2398.283203 6373.000000
2399.329346 6750.000000
2400.374756 6162.000000
2401.419434 6729.000000
2402.464111 7764.000000
2403.507324 7450.000000
2404.550537 6604.000000
2405.592285 5940.000000
2406.634277 6790.000000
2407.675537 7117.000000
2408.715820 6173.000000
2409.755371 6416.000000
2410.793945 6372.000000
2411.832764 5989.000000
2412.870361 6587.000000
2413.907715 6934.000000
2414.943848 7404.000000
2415.979736 6384.000000
2417.014893 6183.000000
2418.049561 6915.000000
2419.082764 7261.000000
2420.116211 6541.000000
2421.148682 6729.000000
2422.180908 6854.000000
2423.211670 7102.000000
2424.242432 6439.000000
2425.272705 6915.000000
2426.301758 6935.000000
2427.330811 6677.000000
2428.358154 7444.000000
2429.385986 6642.000000
2430.412598 7318.000000
2431.438965 7047.000000
2432.463867 7699.000000
2433.489014 6648.000000
2434.513184 7173.000000
2435.537109 6716.000000
2436.559814 5867.000000
2437.581787 6419.000000
2438.603516 6736.000000
2439.624512 6674.000000
2440.645020 6064.000000
2441.664307 6531.000000
2442.683594 6566.000000
2443.701904 8480.000000
2444.719971 6261.000000
2445.736572 6520.000000
2446.753174 6590.000000
2447.769043 6016.000000
2448.784912 7041.000000
2449.799316 6870.000000
2450.812988 5676.000000
2451.826172 7325.000000
2452.839111 5960.000000
2453.851318 7243.000000
2454.862549 6756.000000
2455.873535 7705.000000
2456.883789 6415.000000
2457.893555 7696.000000
2458.902344 5958.000000
2459.910400 6017.000000
2460.918457 6343.000000
2461.925293 7374.000000
2462.931885 5441.000000
2463.937256 7452.000000
2464.942383 6943.000000
2465.947266 5870.000000
2466.950928 6568.000000
2467.954346 6406.000000
2468.956787 7677.000000
2469.958984 7366.000000
2470.960693 6945.000000
2471.961426 6672.000000
2472.961182 7037.000000
2473.960938 6759.000000
2474.959717 5777.000000
2475.958008 6650.000000
2476.955322 7037.000000
2477.952393 6234.000000
2478.949463 7018.000000
2479.945068 5838.000000
2480.940674 7128.000000
2481.934570 6702.000000
2482.928467 8117.000000
2483.921875 6945.000000
2484.914795 6896.000000
2485.906738 7633.000000
2486.897949 7220.000000
2487.888916 6854.000000
2488.879395 5834.000000
2489.868896 6628.000000
2490.857666 6531.000000
2491.846436 5677.000000
2492.834229 6861.000000
2493.820801 6601.000000
2494.807373 8072.000000
2495.793457 6763.000000
2496.778809 7110.000000
2497.763184 8338.000000
2498.747314 6127.000000
2499.731445 6892.000000
2500.714111 5771.000000
2501.696289 7009.000000
2502.677979 6869.000000
2503.658936 7330.000000
2504.639404 6556.000000
2505.619629 5726.000000
2506.598389 6375.000000
2507.576904 7618.000000
2508.554932 6788.000000
2509.532471 7112.000000
2510.509033 6076.000000
2511.485352 5975.000000
2512.460938 6453.000000
2513.436035 6285.000000
2514.410645 6500.000000
2515.384033 7641.000000
2516.357178 6835.000000
2517.330078 6974.000000
2518.302002 6211.000000
2519.273193 6900.000000
2520.243896 7022.000000
2521.214355 7918.000000
2522.184082 8153.000000
2523.152832 6166.000000
2524.120850 6189.000000
2525.088867 7717.000000
2526.055908 6328.000000
2527.022705 5567.000000
2527.988281 7336.000000
2528.953857 7055.000000
2529.918701 7758.000000
2530.883057 6356.000000
2531.846191 6350.000000
2532.809570 5929.000000
2533.771973 6031.000000
2534.734131 6713.000000
2535.695068 6465.000000
2536.655273 6125.000000
2537.615723 6235.000000
2538.575195 6790.000000
2539.533936 6847.000000
2540.491699 6823.000000
2541.449707 6259.000000
2542.406982 6803.000000
2543.363281 6132.000000
2544.319336 7134.000000
2545.274170 6194.000000
2546.229248 7822.000000
2547.183594 7019.000000
2548.137207 6424.000000
2549.089844 7224.000000
2550.042236 6740.000000
2550.994141 7012.000000
2551.945313 6443.000000
2552.895752 7776.000000
2553.845703 7093.000000
2554.795410 7420.000000
2555.744385 6649.000000
2556.692871 6323.000000
2557.640137 7208.000000
2558.587402 6299.000000
2559.533936 6537.000000
2560.479980 6766.000000
2561.425049 7411.000000
2562.369873 6736.000000
2563.314209 7210.000000
2564.258057 6811.000000
2565.201416 6664.000000
2566.143311 6658.000000
2567.085449 6628.000000
2568.026855 6157.000000
2568.967529 7199.000000
2569.907471 7309.000000
2570.847412 5689.000000
2571.786377 6216.000000
2572.725098 7542.000000
2573.662842 7242.000000
2574.600342 5507.000000
2575.537109 7070.000000
2576.473145 6809.000000
2577.408691 7533.000000
2578.343506 6445.000000
2579.278320 6071.000000
2580.212158 7129.000000
2581.145508 7246.000000
2582.078125 5851.000000
2583.010498 6903.000000
2583.942139 5431.000000
2584.873291 7151.000000
2585.803955 7000.000000
2586.733398 6938.000000
2587.662842 7315.000000
2588.591797 6511.000000
2589.520508 7503.000000
2590.447510 7424.000000
2591.374756 5893.000000
2592.301514 6863.000000
2593.227539 6282.000000
2594.153320 5643.000000
2595.077881 7672.000000
2596.002197 7695.000000
2596.926025 5350.000000
2597.849365 7432.000000
2598.771729 6326.000000
2599.693848 6900.000000
2600.615479 8346.000000
2601.536377 6396.000000
2602.456543 5956.000000
2603.376465 6344.000000
2604.295898 6433.000000
2605.215088 6544.000000
2606.133301 5852.000000
2607.050293 6065.000000
2607.967529 7272.000000
2608.884521 5871.000000
2609.800537 7544.000000
2610.715332 6608.000000
2611.630615 6687.000000
2612.545166 6552.000000
2613.458740 6607.000000
2614.372314 6405.000000
2615.284668 7672.000000
2616.197021 7082.000000
2617.108398 6797.000000
2618.019531 5763.000000
2618.929932 7174.000000
2619.840088 6680.000000
2620.749512 6132.000000
2621.658447 6775.000000
2622.566406 6223.000000
2623.474609 6913.000000
2624.381836 6736.000000
2625.288574 7100.000000
2626.194580 5982.000000
2627.100342 6546.000000
2628.005371 6559.000000
2628.910156 7793.000000
2629.814209 6480.000000
2630.717285 6396.000000
2631.620361 6441.000000
2632.522461 5675.000000
2633.424561 6791.000000
2634.326416 6961.000000
2635.226563 6800.000000
2636.126953 6463.000000
2637.026611 6427.000000
2637.926025 5983.000000
2638.823975 6946.000000
2639.722412 6849.000000
2640.620361 6427.000000
2641.517578 6155.000000
2642.413574 6110.000000
2643.309570 6828.000000
2644.205322 6099.000000
2645.100342 6494.000000
2645.995117 6718.000000
2646.888428 7264.000000
2647.781738 6313.000000
2648.674805 6799.000000
2649.567627 6473.000000
2650.458740 7521.000000
2651.350098 6421.000000
2652.240967 7726.000000
2653.131104 7346.000000
2654.020996 6543.000000
2654.909668 7382.000000
2655.798584 6634.000000
2656.687012 6657.000000
2657.574463 7369.000000
2658.460938 6550.000000
2659.347900 7225.000000
2660.234131 6905.000000
2661.119873 6851.000000
2662.004395 6543.000000
2662.888916 6417.000000
2663.773193 6223.000000
2664.656738 7030.000000
2665.539795 7842.000000
2666.422119 7323.000000
2667.303955 6267.000000
2668.185059 6663.000000
2669.066406 6144.000000
2669.946289 6561.000000
2670.826416 7435.000000
2671.705811 7230.000000
2672.585205 6335.000000
2673.463867 6173.000000
2674.340820 6451.000000
2675.218506 6826.000000
2676.095459 6433.000000
2676.971680 8158.000000
2677.847412 7203.000000
2678.722412 6263.000000
2679.597656 7772.000000
2680.471924 6974.000000
2681.345703 7345.000000
2682.218750 7018.000000
2683.091553 6270.000000
2683.964111 6137.000000
2684.835938 7012.000000
2685.707031 6570.000000
2686.577881 6876.000000
2687.448242 7089.000000
2688.318359 6766.000000
2689.186768 6320.000000
2690.055908 7457.000000
2690.924316 7177.000000
2691.792480 6710.000000
2692.659912 6949.000000
2693.526123 5844.000000
2694.392822 7198.000000
2695.258545 7419.000000
2696.124268 7220.000000
2696.988525 7955.000000
2697.853516 6661.000000
2698.717041 7305.000000
2699.580811 5895.000000
2700.443115 7405.000000
2701.305908 6846.000000
2702.167725 5994.000000
2703.029053 6951.000000
2703.890381 6763.000000
2704.750488 7511.000000
2705.610596 7353.000000
2706.470215 6600.000000
2707.329590 6894.000000
2708.187256 7182.000000
2709.045166 6858.000000
2709.903564 7319.000000
2710.760742 6821.000000
2711.617188 5996.000000
2712.473145 6845.000000
2713.329102 6112.000000
2714.184326 6902.000000
2715.038818 6206.000000
2715.892822 6985.000000
2716.746826 7258.000000
2717.599854 6301.000000
2718.453125 6609.000000
2719.304688 7780.000000
2720.156738 6799.000000
2721.008545 6333.000000
2721.859131 6514.000000
2722.709717 6478.000000
2723.559814 7208.000000
2724.409180 7042.000000
2725.258545 6998.000000
2726.106689 6732.000000
2726.954346 6600.000000
2727.802490 7077.000000
2728.649414 6897.000000
2729.496826 5621.000000
2730.342773 7572.000000
2731.187988 7049.000000
2732.033691 6463.000000
2732.878418 7143.000000
2733.723145 7347.000000
2734.566650 6896.000000
2735.410400 7778.000000
2736.253418 7162.000000
2737.095947 6002.000000
2737.937500 6179.000000
2738.779541 6764.000000
2739.620605 6948.000000
2740.461426 5892.000000
2741.302002 5948.000000
2742.141357 7834.000000
2742.980713 6833.000000
2743.820068 6933.000000
2744.658203 6845.000000
2745.495850 7840.000000
2746.333496 6380.000000
2747.170654 7210.000000
2748.007568 6207.000000
2748.843994 6022.000000
2749.679199 6672.000000
2750.514648 6341.000000
2751.349609 6321.000000
2752.183838 6354.000000
2753.017822 6957.000000
2753.851318 6857.000000
2754.684814 7966.000000
2755.517334 6854.000000
2756.349365 7344.000000
2757.180908 6839.000000
2758.012451 7119.000000
2758.843018 7308.000000
2759.673828 7268.000000
2760.503418 7292.000000
2761.333008 6815.000000
2762.162354 7327.000000
2762.990967 6937.000000
2763.819092 6785.000000
2764.646729 6941.000000
2765.474365 6735.000000
2766.301514 7910.000000
2767.127930 5838.000000
2767.953857 7490.000000
2768.779297 6882.000000
2769.604492 7855.000000
2770.429688 7229.000000
2771.253662 6816.000000
2772.077637 6521.000000
2772.901611 7728.000000
2773.724365 6622.000000
2774.547363 7019.000000
2775.369141 6929.000000
2776.190918 6999.000000
2777.012695 6544.000000
2777.833496 8033.000000
2778.653564 6571.000000
2779.473877 7035.000000
2780.293701 7318.000000
2781.113525 6472.000000
2781.931396 5955.000000
2782.750488 8098.000000
2783.568359 6538.000000
2784.385986 6777.000000
2785.203125 7188.000000
2786.019775 7286.000000
2786.836182 7236.000000
2787.652100 6345.000000
2788.467773 6047.000000
2789.282471 6397.000000
2790.097656 7081.000000
2790.912109 7181.000000
2791.726074 6562.000000
2792.539795 7467.000000
2793.352295 8810.000000
2794.165039 6963.000000
2794.977295 7467.000000
2795.789063 7184.000000
2796.600098 7483.000000
2797.411865 6540.000000
2798.222412 7170.000000
2799.032959 7159.000000
2799.842041 7460.000000
2800.651855 8179.000000
2801.460938 7828.000000
2802.269775 6740.000000
2803.078125 7206.000000
2803.885498 6229.000000
2804.693359 6534.000000
2805.500488 6881.000000
2806.307373 7056.000000
2807.113037 7221.000000
2807.919189 6659.000000
2808.724609 6532.000000
2809.530029 7367.000000
2810.334717 6241.000000
2811.138428 7710.000000
2811.942627 7494.000000
2812.746338 6389.000000
2813.549805 6103.000000
2814.351807 6670.000000
2815.154541 7397.000000
2815.956543 7864.000000
2816.758301 6146.000000
2817.559570 6598.000000
2818.360352 7325.000000
2819.160645 6570.000000
2819.961182 6805.000000
2820.760742 8129.000000
2821.559814 7169.000000
2822.358887 6670.000000
2823.157715 6876.000000
2823.956055 6379.000000
2824.753418 6999.000000
2825.551025 7486.000000
2826.347900 6732.000000
2827.145020 7433.000000
2827.941406 7978.000000
2828.737061 7007.000000
2829.532715 7389.000000
2830.328125 7640.000000
2831.123047 7494.000000
2831.917236 6684.000000
2832.711426 6910.000000
2833.505371 5698.000000
2834.298828 6901.000000
2835.091553 7140.000000
2835.884033 8141.000000
2836.676514 7756.000000
2837.468750 7589.000000
2838.260498 6459.000000
2839.051270 6853.000000
2839.842041 8899.000000
2840.633057 7525.000000
2841.423096 6259.000000
2842.212646 7678.000000
2843.002441 7138.000000
2843.791260 7359.000000
2844.580078 7814.000000
2845.368896 7755.000000
2846.156738 7552.000000
2846.944092 7240.000000
2847.731689 7574.000000
2848.518799 7368.000000
2849.305176 6758.000000
2850.091553 7473.000000
2850.877686 7257.000000
2851.663330 7541.000000
2852.447998 7240.000000
2853.233154 6900.000000
2854.018066 7495.000000
2854.802246 7183.000000
2855.586426 6958.000000
2856.369385 8388.000000
2857.152588 6853.000000
2857.935547 6734.000000
2858.718018 7822.000000
2859.500244 6349.000000
2860.281982 6680.000000
2861.063477 7634.000000
2861.845215 7508.000000
2862.626221 7681.000000
2863.406494 6630.000000
2864.186523 6757.000000
2864.966553 8269.000000
2865.746338 7521.000000
2866.525146 8154.000000
2867.304199 7636.000000
2868.082764 6814.000000
2868.861084 7047.000000
2869.638916 7262.000000
2870.416504 7000.000000
2871.193848 7505.000000
2871.970947 7001.000000
2872.747559 6451.000000
2873.523682 7617.000000
2874.299805 7213.000000
2875.075439 8322.000000
2875.850830 7282.000000
2876.625732 6671.000000
2877.400391 8091.000000
2878.175049 6703.000000
2878.949463 7985.000000
2879.723145 6828.000000
2880.496094 7542.000000
2881.269775 6830.000000
2882.042480 7710.000000
2882.815186 8067.000000
2883.587158 8288.000000
2884.358887 6300.000000
2885.131104 6845.000000
2885.902100 6989.000000
2886.672607 6195.000000
2887.443604 8352.000000
2888.214600 7425.000000
2888.984863 8046.000000
2889.754150 7655.000000
2890.523682 7027.000000
2891.293213 7244.000000
2892.062256 7443.000000
2892.830811 7957.000000
2893.599365 7646.000000
2894.366943 7014.000000
2895.135010 6568.000000
2895.902588 7506.000000
2896.670166 8406.000000
2897.436523 7408.000000
2898.203857 6540.000000
2898.969971 7253.000000
2899.736328 7101.000000
2900.501221 8337.000000
2901.266602 7028.000000
2902.032471 6485.000000
2902.796875 7818.000000
2903.561279 7951.000000
2904.325928 8499.000000
2905.089600 6672.000000
2905.854004 8511.000000
2906.617676 6708.000000
2907.380615 8366.000000
2908.143311 6590.000000
2908.906494 9168.000000
2909.669189 7066.000000
2910.430664 6785.000000
2911.192627 6785.000000
