scanname Analyse024
timestamp 2017-02-10 20:28:17
ccdbias 902.151855
ccdgain 3.473401
sigmaread 8.960639
laserwavenum -0.757727
wavenumcorrection -0.234763
scancount 1
totalexposurems 10000
singleexposurems 10000
measurementstate Unknown
scanmode Manual
snr 164.659271 3.657000 2.964920
replacelist 3
373 31137.000000 5795.000000
671 30700.000000 9958.000000
672 35244.000000 31382.000000
peaks 19
276.207123 0.450164 0.000000 0.936789 0.000080
300.362732 0.451218 0.000000 0.694203 0.000048
333.584167 0.452316 0.000000 0.613761 0.000101
388.651245 0.461070 0.000000 1.311194 0.000242
448.255554 0.449744 0.000000 0.260715 0.000014
533.796021 0.454063 0.000000 0.826366 0.000136
580.248657 0.453789 0.000000 0.421260 0.000019
675.859924 0.443127 0.000000 0.299547 0.000031
759.151855 0.445251 0.000000 6.768491 0.000838
782.762024 0.446937 0.000000 3.102942 0.000426
878.629883 0.469227 0.000000 2.413556 0.000555
1044.167480 0.407558 0.000000 0.190380 0.000079
1084.711426 0.404432 0.000000 0.285482 0.000061
1151.794800 0.384321 0.000000 0.274992 0.000064
1279.211548 0.371103 0.000000 0.177882 0.000065
1324.913696 0.378384 0.000000 0.650285 0.000273
1381.881226 0.361863 0.000000 0.172227 0.000029
1454.676758 0.378927 0.000000 0.989915 0.000399
1683.685669 0.311335 0.000000 0.932416 0.000103
finalresult GLS_NotPositive 1
A8461	Ethanol	1.019470e-004
spectrum 2048
-96.843727 45391.000000
-94.216858 45391.000000
-91.591866 46056.000000
-88.968765 46186.000000
-86.347534 46952.000000
-83.728203 46790.000000
-81.110733 47087.000000
-78.495140 46956.000000
-75.881424 47092.000000
-73.269585 47355.000000
-70.659607 47351.000000
-68.051514 47526.000000
-65.445267 47544.000000
-62.840897 47501.000000
-60.238388 47447.000000
-57.637733 47859.000000
-55.038940 47353.000000
-52.442005 46677.000000
-49.846924 47126.000000
-47.253696 47035.000000
-44.662319 47306.000000
-42.072788 46791.000000
-39.485100 47619.000000
-36.899261 47465.000000
-34.315266 47139.000000
-31.733109 47840.000000
-29.152796 47154.000000
-26.574310 47749.000000
-23.997667 47242.000000
-21.422850 47106.000000
-18.849873 46937.000000
-16.278715 46939.000000
-13.709391 46518.000000
-11.141892 45487.000000
-8.576213 46992.000000
-6.012360 46779.000000
-3.450319 47177.000000
-0.890103 47216.000000
1.668305 46594.000000
4.224892 45800.000000
6.779674 45981.000000
9.332640 46387.000000
11.883804 45175.000000
14.433156 45033.000000
16.980711 44332.000000
19.526455 44635.000000
22.070406 44194.000000
24.612553 41835.000000
27.152903 39678.000000
29.691467 36305.000000
32.228237 31673.000000
34.763203 22536.000000
37.296391 13390.000000
39.827797 8677.000000
42.357410 7682.000000
44.885227 7205.000000
47.411285 6560.000000
49.935555 5836.000000
52.458054 5214.000000
54.978756 4920.000000
57.497704 4885.000000
60.014877 5747.000000
62.530273 6728.000000
65.043892 7419.000000
67.555756 7429.000000
70.065872 5925.000000
72.574196 4146.000000
75.080765 3504.000000
77.585587 2846.000000
80.088654 2430.000000
82.589943 2205.000000
85.089493 2016.000000
87.587288 1955.000000
90.083351 2231.000000
92.577637 2787.000000
95.070183 3070.000000
97.561012 2943.000000
100.050072 2659.000000
102.537384 1995.000000
105.022972 1625.000000
107.506821 1620.000000
109.988922 1353.000000
112.469299 1391.000000
114.947952 1222.000000
117.424881 1083.000000
119.900055 1148.000000
122.373520 1179.000000
124.845253 1299.000000
127.315277 1381.000000
129.783539 1294.000000
132.250137 1412.000000
134.714981 1517.000000
137.178131 1746.000000
139.639542 2022.000000
142.099258 2281.000000
144.557251 2917.000000
147.013550 3430.000000
149.468140 4236.000000
151.921005 5032.000000
154.372192 6167.000000
156.821686 7510.000000
159.269455 8941.000000
161.715515 10244.000000
164.159897 11735.000000
166.602600 13030.000000
169.043610 14072.000000
171.482910 14994.000000
173.920502 15535.000000
176.356461 16018.000000
178.790680 16173.000000
181.223221 16405.000000
183.654114 16309.000000
186.083282 16366.000000
188.510803 16560.000000
190.936646 16555.000000
193.360809 16730.000000
195.783310 16877.000000
198.204117 16915.000000
200.623260 17296.000000
203.040741 17926.000000
205.456528 18136.000000
207.870667 18830.000000
210.283173 20094.000000
212.694000 22392.000000
215.103149 24685.000000
217.510666 25220.000000
219.916473 27445.000000
222.320694 27941.000000
224.723206 28413.000000
227.124100 28801.000000
229.523346 29703.000000
231.920929 29475.000000
234.316849 29178.000000
236.711151 29921.000000
239.103790 30350.000000
241.494812 29755.000000
243.884171 30062.000000
246.271912 30300.000000
248.658005 29735.000000
251.042465 30647.000000
253.425278 28794.000000
255.806519 30144.000000
258.186066 29912.000000
260.564026 30206.000000
262.940308 29174.000000
265.315033 29016.000000
267.688110 28564.000000
270.059540 29972.000000
272.429321 29464.000000
274.797546 29921.000000
277.164124 29468.000000
279.529114 29295.000000
281.892487 29764.000000
284.254211 29471.000000
286.614349 28618.000000
288.972870 29743.000000
291.329803 29034.000000
293.685120 29204.000000
296.038849 29582.000000
298.390930 29680.000000
300.741455 29223.000000
303.090393 29272.000000
305.437683 28980.000000
307.783447 29292.000000
310.127533 29225.000000
312.470093 28374.000000
314.811035 28124.000000
317.150360 28421.000000
319.488129 28484.000000
321.824341 27314.000000
324.158905 28903.000000
326.491913 28512.000000
328.823364 29010.000000
331.153229 28337.000000
333.481506 28589.000000
335.808167 27834.000000
338.133331 28564.000000
340.456879 28609.000000
342.778870 28849.000000
345.099304 27330.000000
347.418121 27236.000000
349.735382 28713.000000
352.051117 28710.000000
354.365265 27682.000000
356.677826 28411.000000
358.988831 28367.000000
361.298309 27674.000000
363.606262 28377.000000
365.912598 28895.000000
368.217346 28139.000000
370.520630 28255.000000
372.822296 28405.000000
375.122467 28246.000000
377.421082 28335.000000
379.718140 28925.000000
382.013641 28641.000000
384.307617 28891.000000
386.600006 29617.000000
388.890900 29490.000000
391.180267 29114.000000
393.468048 29227.000000
395.754303 29102.000000
398.039063 28639.000000
400.322205 29644.000000
402.603912 29228.000000
404.884094 29457.000000
407.162689 28371.000000
409.439758 29230.000000
411.715302 28785.000000
413.989319 28876.000000
416.261902 28845.000000
418.532867 28999.000000
420.802338 28769.000000
423.070313 28222.000000
425.336731 28036.000000
427.601654 28754.000000
429.865112 28651.000000
432.126984 28290.000000
434.387390 28745.000000
436.646240 27896.000000
438.903625 28319.000000
441.159515 28642.000000
443.413910 28387.000000
445.666779 28735.000000
447.918091 27268.000000
450.167999 27938.000000
452.416321 27593.000000
454.663208 28227.000000
456.908630 27394.000000
459.152496 27307.000000
461.394867 27316.000000
463.635742 28129.000000
465.875214 26993.000000
468.113098 28291.000000
470.349548 27769.000000
472.584473 27720.000000
474.817932 26506.000000
477.049957 27086.000000
479.280457 27914.000000
481.509460 27118.000000
483.737000 27260.000000
485.963043 27665.000000
488.187653 26976.000000
490.410797 27731.000000
492.632477 27239.000000
494.852600 27041.000000
497.071320 28045.000000
499.288544 27344.000000
501.504395 28190.000000
503.718628 27669.000000
505.931549 27546.000000
508.142883 27627.000000
510.352783 27144.000000
512.561218 27584.000000
514.768311 27478.000000
516.973816 27472.000000
519.177917 27331.000000
521.380493 27633.000000
523.581665 27263.000000
525.781494 27080.000000
527.979797 26761.000000
530.176575 28079.000000
532.372009 27582.000000
534.565918 27987.000000
536.758484 26219.000000
538.949524 26938.000000
541.139160 27466.000000
543.327393 26481.000000
545.514099 26235.000000
547.699341 26165.000000
549.883301 26356.000000
552.065674 26036.000000
554.246704 26177.000000
556.426208 26094.000000
558.604431 26071.000000
560.781128 26009.000000
562.956421 25677.000000
565.130310 25585.000000
567.302734 25903.000000
569.473755 25877.000000
571.643311 25621.000000
573.811584 26566.000000
575.978333 25770.000000
578.143616 25874.000000
580.307495 25858.000000
582.470093 26125.000000
584.631165 26009.000000
586.790833 26408.000000
588.949158 26380.000000
591.105957 26276.000000
593.261414 25906.000000
595.415466 26702.000000
597.568176 26535.000000
599.719360 25731.000000
601.869202 26101.000000
604.017700 26051.000000
606.164612 26661.000000
608.310303 26322.000000
610.454590 26401.000000
612.597412 25858.000000
614.738770 26537.000000
616.878906 26282.000000
619.017517 25063.000000
621.154846 26738.000000
623.290710 25941.000000
625.425171 25718.000000
627.558167 25288.000000
629.690002 25561.000000
631.820374 25544.000000
633.949341 25398.000000
636.076843 25468.000000
638.203064 25537.000000
640.327759 24594.000000
642.451233 25228.000000
644.573364 24787.000000
646.694031 24604.000000
648.813354 24558.000000
650.931274 25004.000000
653.047852 25055.000000
655.163025 24507.000000
657.276855 24171.000000
659.389221 24456.000000
661.500366 24111.000000
663.610107 24714.000000
665.718384 24538.000000
667.825500 24598.000000
669.931152 24044.000000
672.035339 24555.000000
674.138306 24788.000000
676.239868 23991.000000
678.340088 25349.000000
680.438904 24656.000000
682.536377 25190.000000
684.632568 24569.000000
686.727295 25102.000000
688.820801 24626.000000
690.912964 24996.000000
693.003601 23944.000000
695.093018 24966.000000
697.181152 25019.000000
699.267822 25300.000000
701.353271 24576.000000
703.437195 25595.000000
705.519897 24965.000000
707.601318 25053.000000
709.681274 23612.000000
711.760010 23635.000000
713.837280 23958.000000
715.913269 23626.000000
717.987976 24007.000000
720.061401 23600.000000
722.133301 24558.000000
724.204041 23540.000000
726.273438 24116.000000
728.341431 23507.000000
730.408081 23569.000000
732.473511 23132.000000
734.537598 23545.000000
736.600342 23496.000000
738.661743 23254.000000
740.721863 23067.000000
742.780579 23428.000000
744.838074 23058.000000
746.894287 22791.000000
748.949097 22787.000000
751.002625 23070.000000
753.054749 22437.000000
755.105652 23144.000000
757.155334 22709.000000
759.203552 22794.000000
761.250549 22944.000000
763.296265 22498.000000
765.340576 23828.000000
767.383606 20790.500000
769.425415 17753.000000
771.465881 22604.000000
773.504944 22788.000000
775.542847 22821.000000
777.579407 22800.000000
779.614746 23057.000000
781.648743 23348.000000
783.681335 23272.000000
785.712769 25198.000000
787.742798 20080.000000
789.771545 23422.000000
791.799133 23295.000000
793.825378 23192.000000
795.850220 23396.000000
797.873962 23672.000000
799.896301 23379.000000
801.917419 23662.000000
803.937195 23261.000000
805.955688 24307.000000
807.972961 23459.000000
809.988831 23389.000000
812.003540 23787.000000
814.016907 23309.000000
816.029053 23207.000000
818.039978 23005.000000
820.049561 22770.000000
822.057922 22877.000000
824.064880 22683.000000
826.070618 22585.000000
828.075134 22419.000000
830.078369 22360.000000
832.080322 21905.000000
834.080994 22127.000000
836.080444 22122.000000
838.078552 22185.000000
840.075562 21999.000000
842.071167 22037.000000
844.065613 22129.000000
846.058716 21873.000000
848.050598 21533.000000
850.041138 21606.000000
852.030396 21383.000000
854.018616 21398.000000
856.005432 21385.000000
857.991028 21426.000000
859.975342 21133.000000
861.958557 21486.000000
863.940369 21497.000000
865.920959 21942.000000
867.900269 21295.000000
869.878418 21681.000000
871.855225 22375.000000
873.830750 23022.000000
875.805237 23560.000000
877.778259 24106.000000
879.750244 24562.000000
881.720886 24037.000000
883.690369 23871.000000
885.658508 23380.000000
887.625488 23424.000000
889.591125 22700.000000
891.555603 22429.000000
893.518860 22265.000000
895.480896 21929.000000
897.441650 21760.000000
899.401184 21735.000000
901.359436 21638.000000
903.316589 21506.000000
905.272583 21674.000000
907.227173 21480.000000
909.180542 21373.000000
911.132751 21168.000000
913.083740 21239.000000
915.033447 20931.000000
916.981995 20811.000000
918.929321 20826.000000
920.875366 20652.000000
922.820129 20375.000000
924.763855 20114.000000
926.706421 19958.000000
928.647705 19721.000000
930.587646 19515.000000
932.526489 19427.000000
934.464050 19449.000000
936.400391 19207.000000
938.335571 19251.000000
940.269470 19390.000000
942.202271 19394.000000
944.133850 19242.000000
946.064270 19330.000000
947.993469 19185.000000
949.921326 19392.000000
951.848145 19232.000000
953.773682 19423.000000
955.697937 19412.000000
957.621094 19505.000000
959.543091 19555.000000
961.463806 19633.000000
963.383362 19706.000000
965.301758 19856.000000
967.219116 19879.000000
969.135010 19882.000000
971.049805 19879.000000
972.963379 19825.000000
974.875793 20036.000000
976.786987 20090.000000
978.697021 19884.000000
980.605774 19973.000000
982.513489 19923.000000
984.419983 19977.000000
986.325256 19936.000000
988.229431 19719.000000
990.132385 19735.000000
992.034119 19702.000000
993.934692 19975.000000
995.834106 19684.000000
997.732300 19626.000000
999.629333 19467.000000
1001.525146 19053.000000
1003.419800 18746.000000
1005.313354 18748.000000
1007.205627 18528.000000
1009.096985 18503.000000
1010.987000 18366.000000
1012.875793 18200.000000
1014.763428 18236.000000
1016.649902 17988.000000
1018.535217 18149.000000
1020.419373 18141.000000
1022.302307 18164.000000
1024.184204 18115.000000
1026.064819 18191.000000
1027.944336 18109.000000
1029.822876 18286.000000
1031.700073 18252.000000
1033.575928 18183.000000
1035.450806 18451.000000
1037.324707 18565.000000
1039.197144 18499.000000
1041.068604 18544.000000
1042.938721 18575.000000
1044.807861 18643.000000
1046.675781 18651.000000
1048.542603 18702.000000
1050.408325 18829.000000
1052.272827 18789.000000
1054.136230 18826.000000
1055.998291 18734.000000
1057.859375 18813.000000
1059.719360 18626.000000
1061.578003 18846.000000
1063.435547 18739.000000
1065.291992 18775.000000
1067.147339 18903.000000
1069.001465 18895.000000
1070.854736 18764.000000
1072.706543 18670.000000
1074.557373 18826.000000
1076.406982 18854.000000
1078.255371 19054.000000
1080.102905 18689.000000
1081.949097 18943.000000
1083.794067 19075.000000
1085.638184 18880.000000
1087.480957 18979.000000
1089.322510 19062.000000
1091.163330 18589.000000
1093.002563 18214.000000
1094.841064 18484.000000
1096.678223 18318.000000
1098.514160 17985.000000
1100.349121 17670.000000
1102.182861 17232.000000
1104.015625 17104.000000
1105.847046 17032.000000
1107.677612 17550.000000
1109.506836 17135.000000
1111.335083 16515.000000
1113.162109 16511.000000
1114.988159 16624.000000
1116.812988 16559.000000
1118.636719 16463.000000
1120.459229 16610.000000
1122.280640 16499.000000
1124.101196 16525.000000
1125.920288 16531.000000
1127.738525 16542.000000
1129.555420 16668.000000
1131.371460 16569.000000
1133.186279 16731.000000
1135.000000 16762.000000
1136.812622 16948.000000
1138.624023 16947.000000
1140.434448 17090.000000
1142.243774 17002.000000
1144.051758 17128.000000
1145.859009 17312.000000
1147.664795 17290.000000
1149.469727 17280.000000
1151.273560 17184.000000
1153.076172 17200.000000
1154.877930 17337.000000
1156.678223 17101.000000
1158.477539 17029.000000
1160.275879 16893.000000
1162.072876 16996.000000
1163.869141 16666.000000
1165.664063 16651.000000
1167.457886 16593.000000
1169.250854 16367.000000
1171.042480 16212.000000
1172.833130 16069.000000
1174.622803 16065.000000
1176.411011 16005.000000
1178.198364 15942.000000
1179.984619 16095.000000
1181.769775 15977.000000
1183.553833 15925.000000
1185.336792 15739.000000
1187.118774 16001.000000
1188.899536 15827.000000
1190.679321 15997.000000
1192.458008 15651.000000
1194.235718 15677.000000
1196.012207 15583.000000
1197.787598 15449.000000
1199.561890 15074.000000
1201.335083 14958.000000
1203.107422 14758.000000
1204.878418 14809.000000
1206.648560 14938.000000
1208.417480 14928.000000
1210.185303 14796.000000
1211.952271 14969.000000
1213.717896 14829.000000
1215.482544 14832.000000
1217.246094 14784.000000
1219.008545 14852.000000
1220.770142 14815.000000
1222.530518 14782.000000
1224.289795 14591.000000
1226.048218 14676.000000
1227.805420 14679.000000
1229.561523 14762.000000
1231.316528 14879.000000
1233.070679 15006.000000
1234.823486 14973.000000
1236.575317 15094.000000
1238.326294 15081.000000
1240.075928 15270.000000
1241.824707 15241.000000
1243.572144 15333.000000
1245.318848 15136.000000
1247.064331 15249.000000
1248.808960 15240.000000
1250.552246 15074.000000
1252.294556 15175.000000
1254.035767 15088.000000
1255.776123 15021.000000
1257.515381 14672.000000
1259.253418 14148.000000
1260.990601 14065.000000
1262.726563 14276.000000
1264.461548 14435.000000
1266.195557 14715.000000
1267.928589 14949.000000
1269.660400 15105.000000
1271.391235 15080.000000
1273.120850 15113.000000
1274.849609 15254.000000
1276.577271 15358.000000
1278.303833 15382.000000
1280.029541 15408.000000
1281.753906 15397.000000
1283.477417 15172.000000
1285.199951 15027.000000
1286.921509 15020.000000
1288.641846 14796.000000
1290.361206 14794.000000
1292.079468 14784.000000
1293.796753 14766.000000
1295.513062 14629.000000
1297.228149 14860.000000
1298.942261 14879.000000
1300.655396 14623.000000
1302.367676 14312.000000
1304.078735 14302.000000
1305.788818 14405.000000
1307.497803 14157.000000
1309.205566 14105.000000
1310.912720 14052.000000
1312.618408 14068.000000
1314.323364 13961.000000
1316.027344 13953.000000
1317.730103 14342.000000
1319.431885 14505.000000
1321.132813 16285.000000
1322.832397 10073.500000
1324.531128 17212.500000
1326.229126 13683.000000
1327.925781 13623.000000
1329.621338 13546.000000
1331.316040 13505.000000
1333.009521 13405.000000
1334.702148 13366.000000
1336.393921 13399.000000
1338.084351 13292.000000
1339.774048 13234.000000
1341.462646 13122.000000
1343.150146 12915.000000
1344.836670 13290.000000
1346.522095 13152.000000
1348.206543 13156.000000
1349.890137 13145.000000
1351.572510 13343.000000
1353.253906 13384.000000
1354.934448 13569.000000
1356.613770 13592.000000
1358.292480 13655.000000
1359.969849 13815.000000
1361.646118 13759.000000
1363.321411 13846.000000
1364.995972 13827.000000
1366.669312 13847.000000
1368.341675 13677.000000
1370.013062 13838.000000
1371.683472 13787.000000
1373.352783 13562.000000
1375.021118 13733.000000
1376.688599 13843.000000
1378.354980 13723.000000
1380.020386 13717.000000
1381.684814 13625.000000
1383.348022 13507.000000
1385.010620 13446.000000
1386.671875 13341.000000
1388.332275 13233.000000
1389.991577 13294.000000
1391.649902 13050.000000
1393.307495 13032.000000
1394.963867 13094.000000
1396.619385 13097.000000
1398.273682 12996.000000
1399.927124 13177.000000
1401.579468 13156.000000
1403.231079 13143.000000
1404.881470 12851.000000
1406.530762 12781.000000
1408.179321 12454.000000
1409.826782 12356.000000
1411.473267 12333.000000
1413.118896 12295.000000
1414.763550 12134.000000
1416.406982 12140.000000
1418.049561 12268.000000
1419.691040 11953.000000
1421.331665 12049.000000
1422.971313 12185.000000
1424.609863 11880.000000
1426.247559 11875.000000
1427.884155 11918.000000
1429.519775 11955.000000
1431.154663 11975.000000
1432.788452 11840.000000
1434.421143 11897.000000
1436.052856 11853.000000
1437.683716 11837.000000
1439.313477 11777.000000
1440.942139 11780.000000
1442.570190 11979.000000
1444.197144 11998.000000
1445.822876 11931.000000
1447.447998 11922.000000
1449.072021 12372.000000
1450.695068 12569.000000
1452.317139 12531.000000
1453.938110 12789.000000
1455.558105 12783.000000
1457.177368 12723.000000
1458.795288 13225.000000
1460.412598 11922.000000
1462.028931 12482.000000
1463.644043 12162.000000
1465.258301 12198.000000
1466.871704 12241.000000
1468.484009 12284.000000
1470.095459 12079.000000
1471.706055 12012.000000
1473.315430 12004.000000
1474.923828 11974.000000
1476.531372 12147.000000
1478.137939 12161.000000
1479.743774 12143.000000
1481.348389 11995.000000
1482.952148 11916.000000
1484.554688 11689.000000
1486.156616 11234.000000
1487.757324 11210.000000
1489.357300 11119.000000
1490.956177 11025.000000
1492.554199 11099.000000
1494.151123 10888.000000
1495.747192 11280.000000
1497.342285 11842.000000
1498.936401 11627.000000
1500.529785 11674.000000
1502.122070 11548.000000
1503.713135 11411.000000
1505.303711 11392.000000
1506.892944 11303.000000
1508.481567 11367.000000
1510.069092 11007.000000
1511.655518 11081.000000
1513.241211 11123.000000
1514.825806 10913.000000
1516.409546 10962.000000
1517.992188 10902.000000
1519.574097 10898.000000
1521.154907 11021.000000
1522.734985 10894.000000
1524.313843 10643.000000
1525.891846 10633.000000
1527.469116 10596.000000
1529.045166 10434.000000
1530.620483 10404.000000
1532.194702 10375.000000
1533.768188 10414.000000
1535.340454 10456.000000
1536.911987 10387.000000
1538.482544 10349.000000
1540.052246 10346.000000
1541.620728 10325.000000
1543.188477 10216.000000
1544.755371 10238.000000
1546.321045 10178.000000
1547.885986 10121.000000
1549.449829 10009.000000
1551.013062 9979.000000
1552.574951 9996.000000
1554.136230 9920.000000
1555.696411 9945.000000
1557.255859 10082.000000
1558.814209 9974.000000
1560.371826 9868.000000
1561.928345 9828.000000
1563.483643 9781.000000
1565.038330 9981.000000
1566.592285 9816.000000
1568.145264 9877.000000
1569.696899 9909.000000
1571.247803 10019.000000
1572.797974 9835.000000
1574.347168 9887.000000
1575.895020 9970.000000
1577.442383 9818.000000
1578.988770 9989.000000
1580.534302 10081.000000
1582.078857 10014.000000
1583.622192 9999.000000
1585.164917 9939.000000
1586.706787 9953.000000
1588.247559 9954.000000
1589.787354 10080.000000
1591.326416 9883.000000
1592.864380 9834.000000
1594.401855 9805.000000
1595.937988 9903.000000
1597.473022 9780.000000
1599.007568 9825.000000
1600.541138 9611.000000
1602.073853 9757.000000
1603.604980 9874.000000
1605.135864 9899.000000
1606.665894 9722.000000
1608.194702 9709.000000
1609.722412 9762.000000
1611.249512 9715.000000
1612.775879 9998.000000
1614.301270 9704.000000
1615.825806 9761.000000
1617.348999 9691.000000
1618.871460 9669.000000
1620.393188 9757.000000
1621.914063 9744.000000
1623.433472 9238.000000
1624.952393 9586.000000
1626.470581 9594.000000
1627.987915 9694.000000
1629.504150 9531.000000
1631.019043 9460.000000
1632.533447 9327.000000
1634.047119 9504.000000
1635.559692 9432.000000
1637.071045 9454.000000
1638.582031 9291.000000
1640.091919 9277.000000
1641.600952 9428.000000
1643.108643 9116.000000
1644.615967 9193.000000
1646.122437 9083.000000
1647.627930 9190.000000
1649.132568 9060.000000
1650.635742 9005.000000
1652.138306 9010.000000
1653.640503 8915.000000
1655.141357 8904.000000
1656.641113 8797.000000
1658.140015 8774.000000
1659.638550 8908.000000
1661.135864 8823.000000
1662.632446 8792.000000
1664.127441 8726.000000
1665.622192 8657.000000
1667.116089 8541.000000
1668.609009 8926.000000
1670.100586 7196.000000
1671.591675 8449.000000
1673.082153 8366.000000
1674.571533 8286.000000
1676.059448 8280.000000
1677.547119 8429.000000
1679.033813 8586.000000
1680.519653 8416.000000
1682.004639 8400.000000
1683.488159 8061.000000
1684.971436 8114.000000
1686.453857 8176.000000
1687.935181 8220.000000
1689.415039 8232.000000
1690.894653 8157.000000
1692.373535 8132.000000
1693.851440 7591.000000
1695.328369 8027.000000
1696.804077 8056.000000
1698.279419 8058.000000
1699.753540 7981.000000
1701.227051 8026.000000
1702.699097 8065.000000
1704.170898 8060.000000
1705.641724 8036.000000
1707.111694 7987.000000
1708.580322 8109.000000
1710.048462 8054.000000
1711.515869 8059.000000
1712.982178 8007.000000
1714.447876 8045.000000
1715.911865 8073.000000
1717.375732 8005.000000
1718.838745 8077.000000
1720.300781 7986.000000
1721.761597 7951.000000
1723.221802 8007.000000
1724.681274 7994.000000
1726.139893 8133.000000
1727.597534 7984.000000
1729.053833 7894.000000
1730.509888 7978.000000
1731.964966 7909.000000
1733.419067 7974.000000
1734.871948 7944.000000
1736.324585 7912.000000
1737.776123 7808.000000
1739.226929 7935.000000
1740.676758 7856.000000
1742.125244 7856.000000
1743.573364 7764.000000
1745.020630 7717.000000
1746.467163 7710.000000
1747.912109 7651.000000
1749.356812 7736.000000
1750.800659 7607.000000
1752.243652 7706.000000
1753.685181 7535.000000
1755.126465 7606.000000
1756.566895 6868.000000
1758.006348 7366.000000
1759.444824 7485.000000
1760.882324 7482.000000
1762.319336 7269.000000
1763.755371 7283.000000
1765.190552 7216.000000
1766.624268 7375.000000
1768.057861 7424.000000
1769.490479 7298.000000
1770.922241 7477.000000
1772.353149 7448.000000
1773.782837 7314.000000
1775.211792 7208.000000
1776.640259 7044.000000
1778.067749 6794.000000
1779.493896 6444.000000
1780.919800 6943.000000
1782.344604 6956.000000
1783.768799 6873.000000
1785.191528 6865.000000
1786.613770 6799.000000
1788.035278 6731.000000
1789.456055 6992.000000
1790.875854 6717.000000
1792.294312 6653.000000
1793.712280 6738.000000
1795.129639 6702.000000
1796.546143 6763.000000
1797.961182 6643.000000
1799.375854 6615.000000
1800.789917 6643.000000
1802.202759 6720.000000
1803.614990 6677.000000
1805.025879 6625.000000
1806.436279 6601.000000
1807.845947 6547.000000
1809.254639 6521.000000
1810.662231 6543.000000
1812.069336 6481.000000
1813.475586 6607.000000
1814.880859 6621.000000
1816.285034 6758.000000
1817.688843 6699.000000
1819.091675 6434.000000
1820.493652 6623.000000
1821.895020 6542.000000
1823.294922 6487.000000
1824.694214 6585.000000
1826.093018 6509.000000
1827.490967 6486.000000
1828.887573 6583.000000
1830.283569 6617.000000
1831.678833 6537.000000
1833.073486 6610.000000
1834.467163 6552.000000
1835.859497 6542.000000
1837.251343 6454.000000
1838.642578 6551.000000
1840.032837 6443.000000
1841.421875 6417.000000
1842.810547 6348.000000
1844.198242 6456.000000
1845.585205 6570.000000
1846.970825 6281.000000
1848.356201 6369.000000
1849.740723 6303.000000
1851.124512 6343.000000
1852.507202 6300.000000
1853.888672 6323.000000
1855.269653 6210.000000
1856.650146 6158.000000
1858.029663 6106.000000
1859.407715 6117.000000
1860.785645 6283.000000
1862.162598 6108.000000
1863.538818 6072.000000
1864.914185 6052.000000
1866.288086 5887.000000
1867.661865 6078.000000
1869.034790 5952.000000
1870.406616 5909.000000
1871.777466 5844.000000
1873.147949 5991.000000
1874.517334 5828.000000
1875.886230 5811.000000
1877.253540 5803.000000
1878.620728 5760.000000
1879.986938 5677.000000
1881.352417 5680.000000
1882.717163 5685.000000
1884.080322 5746.000000
1885.443359 5697.000000
1886.805542 5691.000000
1888.166870 5613.000000
1889.526855 5609.000000
1890.886475 5561.000000
1892.245483 5697.000000
1893.603516 5542.000000
1894.960693 5566.000000
1896.316650 5539.000000
1897.672363 5538.000000
1899.027100 5554.000000
1900.380981 5648.000000
1901.733765 5508.000000
1903.086060 5422.000000
1904.437622 5565.000000
1905.788330 5580.000000
1907.137817 5623.000000
1908.486816 5511.000000
1909.834961 5541.000000
1911.182495 5534.000000
1912.529297 5539.000000
1913.874512 5506.000000
1915.219482 5498.000000
1916.563721 5614.000000
1917.907104 5620.000000
1919.249146 5463.000000
1920.590942 5573.000000
1921.931885 5467.000000
1923.272095 5560.000000
1924.611328 5732.000000
1925.949585 5502.000000
1927.287231 5582.000000
1928.624146 5530.000000
1929.960205 5437.000000
1931.295044 5512.000000
1932.629517 5460.000000
1933.963257 5373.000000
1935.296143 5520.000000
1936.627563 5410.000000
1937.959106 5364.000000
1939.289307 5340.000000
1940.619019 5357.000000
1941.947876 5447.000000
1943.275513 5363.000000
1944.602661 5221.000000
1945.929077 5444.000000
1947.254761 5299.000000
1948.579102 5311.000000
1949.903198 5382.000000
1951.226440 5285.000000
1952.548950 5248.000000
1953.870361 5227.000000
1955.190796 5190.000000
1956.510620 5272.000000
1957.830078 5199.000000
1959.148560 5124.000000
1960.465698 5154.000000
1961.782471 5017.000000
1963.098511 5005.000000
1964.413818 5106.000000
1965.727661 5191.000000
1967.041260 5108.000000
1968.354126 5102.000000
1969.666138 5049.000000
1970.977539 5068.000000
1972.287598 4926.000000
1973.597168 4936.000000
1974.906006 4791.000000
1976.214233 4881.000000
1977.521118 4817.000000
1978.827393 4807.000000
1980.133301 4840.000000
1981.437988 4910.000000
1982.742188 4737.000000
1984.045166 4719.000000
1985.347778 4818.000000
1986.649414 4788.000000
1987.950439 4765.000000
1989.249878 4670.000000
1990.549438 4697.000000
1991.847900 4741.000000
1993.145874 4616.000000
1994.442261 4662.000000
1995.738647 4580.000000
1997.034058 4666.000000
1998.328735 4531.000000
1999.622559 4552.000000
2000.915161 4536.000000
2002.207275 4420.000000
2003.498901 4404.000000
2004.789795 4450.000000
2006.079102 4344.000000
2007.368164 4519.000000
2008.656494 4471.000000
2009.944092 4491.000000
2011.230835 4472.000000
2012.516479 4341.000000
2013.801758 4461.000000
2015.086060 4417.000000
2016.369751 4354.000000
2017.652100 4311.000000
2018.934082 4483.000000
2020.215576 4363.000000
2021.496094 4343.000000
2022.775879 4404.000000
2024.054565 4386.000000
2025.332520 4371.000000
2026.609985 4370.000000
2027.886841 4326.000000
2029.161987 4395.000000
2030.437256 4389.000000
2031.711548 4346.000000
2032.984863 4359.000000
2034.257324 4475.000000
2035.529419 4434.000000
2036.800415 4369.000000
2038.071167 4393.000000
2039.340576 4421.000000
2040.608887 4466.000000
2041.877197 4484.000000
2043.144531 4385.000000
2044.411133 4331.000000
2045.676514 4375.000000
2046.941284 4644.000000
2048.205811 4289.000000
2049.469238 4286.000000
2050.732178 4419.000000
2051.993164 4346.000000
2053.254639 4259.000000
2054.514893 4213.000000
2055.774414 4208.000000
2057.033203 4186.000000
2058.291016 4207.000000
2059.548340 4254.000000
2060.804932 4155.000000
2062.060059 4104.000000
2063.315186 4156.000000
2064.569336 4174.000000
2065.822754 4193.000000
2067.075439 4258.000000
2068.326904 4125.000000
2069.578125 4072.000000
2070.828613 4159.000000
2072.078369 4155.000000
2073.326660 4088.000000
2074.574951 4014.000000
2075.822266 4076.000000
2077.068848 4065.000000
2078.314697 4094.000000
2079.559326 4037.000000
2080.803467 3949.000000
2082.047119 3961.000000
2083.289795 3931.000000
2084.531250 3948.000000
2085.772461 3914.000000
2087.013184 3883.000000
2088.252930 3826.000000
2089.491455 3783.000000
2090.729492 3889.000000
2091.966797 3945.000000
2093.203857 3905.000000
2094.439453 3773.000000
2095.674316 3913.000000
2096.908936 3874.000000
2098.142578 3951.000000
2099.375244 3822.000000
2100.607178 3834.000000
2101.838623 3830.000000
2103.069092 3791.000000
2104.298828 3770.000000
2105.528320 3680.000000
2106.755859 3767.000000
2107.983643 3683.000000
2109.210693 3650.000000
2110.436768 3640.000000
2111.661377 3608.000000
2112.886230 3549.000000
2114.109863 3613.000000
2115.333008 3652.000000
2116.554932 3509.000000
2117.776611 3492.000000
2118.997314 3622.000000
2120.217285 3438.000000
2121.436768 3579.000000
2122.654785 3715.000000
2123.872803 3587.000000
2125.089844 3632.000000
2126.306396 3560.000000
2127.521240 3615.000000
2128.736328 3669.000000
2129.950439 3630.000000
2131.163818 3559.000000
2132.376465 3489.000000
2133.587646 3597.000000
2134.799072 3693.000000
2136.009277 3695.000000
2137.218994 3514.000000
2138.427246 3518.000000
2139.635498 3619.000000
2140.843018 3510.000000
2142.049316 3434.000000
2143.254883 3484.000000
2144.460205 3589.000000
2145.664551 3582.000000
2146.868164 3503.000000
2148.071289 3435.000000
2149.272949 3596.000000
2150.474365 3477.000000
2151.675049 3444.000000
2152.875000 3489.000000
2154.073730 3410.000000
2155.272217 3480.000000
2156.470215 3459.000000
2157.667236 3433.000000
2158.863525 3335.000000
2160.058594 3313.000000
2161.253418 3384.000000
2162.447510 3358.000000
2163.640625 3330.000000
2164.832764 3291.000000
2166.024658 3257.000000
2167.215820 3296.000000
2168.406006 3245.000000
2169.595459 3212.000000
2170.784424 3094.000000
2171.972412 3129.000000
2173.160156 3104.000000
2174.346436 3039.000000
2175.531982 3069.000000
2176.717285 3099.000000
2177.902100 3114.000000
2179.085693 3059.000000
2180.268555 3026.000000
2181.450439 3038.000000
2182.632080 3018.000000
2183.813232 3044.000000
2184.993164 3074.000000
2186.172119 3013.000000
2187.350586 2949.000000
2188.528809 3037.000000
2189.705811 2992.000000
2190.881836 2915.000000
2192.057617 2927.000000
2193.232910 2922.000000
2194.406738 2934.000000
2195.580078 3044.000000
2196.753174 3038.000000
2197.925049 3005.000000
2199.096436 3036.000000
2200.267334 3068.000000
2201.436523 3088.000000
2202.605713 2952.000000
2203.774414 3011.000000
2204.942139 3033.000000
2206.108887 2879.000000
2207.274902 3027.000000
2208.440430 2880.000000
2209.605713 2961.000000
2210.769531 2991.000000
2211.932861 2998.000000
2213.094971 3017.000000
2214.257324 2977.000000
2215.418457 2965.000000
2216.578613 3026.000000
2217.738281 2896.000000
2218.897705 2885.000000
2220.055908 2943.000000
2221.213135 2827.000000
2222.370117 2913.000000
2223.526367 2923.000000
2224.681885 2857.000000
2225.836670 2895.000000
2226.990479 2962.000000
2228.143311 2853.000000
2229.296631 2827.000000
2230.447998 2946.000000
2231.599121 2789.000000
2232.749512 2692.000000
2233.899414 2755.000000
2235.048340 2894.000000
2236.196777 2755.000000
2237.343750 2661.000000
2238.490967 2715.000000
2239.636963 2854.000000
2240.782715 2721.000000
2241.926758 2610.000000
2243.071045 2641.000000
2244.214355 2730.000000
2245.356934 2596.000000
2246.498535 2613.000000
2247.639893 2653.000000
2248.780273 2561.000000
2249.919922 2556.000000
2251.059082 2472.000000
2252.197021 2590.000000
2253.334961 2471.000000
2254.471924 2563.000000
2255.608154 2468.000000
2256.743408 2516.000000
2257.877930 2524.000000
2259.012207 2590.000000
2260.145996 2619.000000
2261.278320 2576.000000
2262.410156 2577.000000
2263.541504 2581.000000
2264.671875 2491.000000
2265.802002 2434.000000
2266.930908 2512.000000
2268.059326 2359.000000
2269.187256 2353.000000
2270.314209 2334.000000
2271.440430 2456.000000
2272.565674 2357.000000
2273.690918 2422.000000
2274.815430 2403.000000
2275.938721 2440.000000
2277.061279 2403.000000
2278.183350 2377.000000
2279.304932 2396.000000
2280.425781 2389.000000
2281.545410 2312.000000
2282.664551 2335.000000
2283.783447 2341.000000
2284.901611 2296.000000
2286.018799 2231.000000
2287.135010 2279.000000
2288.250977 2219.000000
2289.366211 2263.000000
2290.480713 2272.000000
2291.593994 2338.000000
2292.707275 2234.000000
2293.819824 2342.000000
2294.931641 2250.000000
2296.042725 2295.000000
2297.152588 2383.000000
2298.261963 2404.000000
2299.371094 2377.000000
2300.479248 2332.000000
2301.586426 2474.000000
2302.693359 2386.000000
2303.799561 2336.000000
2304.905273 2373.000000
2306.009521 2395.000000
2307.113525 2248.000000
2308.217041 2340.000000
2309.320068 2257.000000
2310.421875 2277.000000
2311.522949 2353.000000
2312.623535 2385.000000
2313.723633 2248.000000
2314.822998 2222.000000
2315.920898 2302.000000
2317.019287 2317.000000
2318.116211 2298.000000
2319.212891 2160.000000
2320.309082 2205.000000
2321.403564 2312.000000
2322.498047 2070.000000
2323.591797 2164.000000
2324.685303 2185.000000
2325.777100 2278.000000
2326.868896 2291.000000
2327.959961 2243.000000
2329.050293 2224.000000
2330.139648 2257.000000
2331.229004 2149.000000
2332.317139 2231.000000
2333.404785 2130.000000
2334.492188 2135.000000
2335.577881 2063.000000
2336.663330 2099.000000
2337.748535 2126.000000
2338.832764 2084.000000
2339.916016 2014.000000
2340.999023 2126.000000
2342.081055 2482.000000
2343.162842 2028.000000
2344.243896 2077.000000
2345.323730 2096.000000
2346.403076 2008.000000
2347.481934 1868.000000
2348.560303 1992.000000
2349.637207 1966.000000
2350.713867 2020.000000
2351.790283 1947.000000
2352.865723 1976.000000
2353.940186 2101.000000
2355.014404 1952.000000
2356.087891 1968.000000
2357.160889 1826.000000
2358.232666 1961.000000
2359.304199 1841.000000
2360.374756 1916.000000
2361.445068 1852.000000
2362.514404 1876.000000
2363.582764 1869.000000
2364.650879 1862.000000
2365.718262 1904.000000
2366.785156 1911.000000
2367.851318 1908.000000
2368.916260 1798.000000
2369.981201 1871.000000
2371.045410 1793.000000
2372.108887 1750.000000
2373.171143 1799.000000
2374.233398 1805.000000
2375.294678 1778.000000
2376.355713 1855.000000
2377.415527 1823.000000
2378.474609 1737.000000
2379.533691 1771.000000
2380.591797 1716.000000
2381.649170 1841.000000
2382.705566 1737.000000
2383.761719 1706.000000
2384.817383 1694.000000
2385.872314 1716.000000
2386.925781 1806.000000
2387.979492 1742.000000
2389.032227 1744.000000
2390.084473 1761.000000
2391.135986 1764.000000
2392.186523 1748.000000
2393.236816 1840.000000
2394.286133 1780.000000
2395.335449 1726.000000
2396.383301 1753.000000
2397.430664 1739.000000
2398.477783 1788.000000
2399.523926 1768.000000
2400.569336 1760.000000
2401.614014 1722.000000
2402.658691 1705.000000
2403.701904 1793.000000
2404.745117 1657.000000
2405.786865 1824.000000
2406.828857 1687.000000
2407.870117 1698.000000
2408.910400 1711.000000
2409.949951 1713.000000
2410.988525 1732.000000
2412.027344 1699.000000
2413.064941 1777.000000
2414.102295 1782.000000
2415.138428 1653.000000
2416.174316 1672.000000
2417.209473 1698.000000
2418.244141 1747.000000
2419.277344 1568.000000
2420.310791 1654.000000
2421.343262 1773.000000
2422.375488 1663.000000
2423.406250 1673.000000
2424.437012 1719.000000
2425.467285 1645.000000
2426.496338 1679.000000
2427.525391 1595.000000
2428.552734 1542.000000
2429.580566 1630.000000
2430.607178 1590.000000
2431.633545 1598.000000
2432.658447 1589.000000
2433.683594 1560.000000
2434.707764 1581.000000
2435.731689 1604.000000
2436.754395 1512.000000
2437.776367 1706.000000
2438.798096 1545.000000
2439.819092 1582.000000
2440.839600 1567.000000
2441.858887 1517.000000
2442.878174 1572.000000
2443.896484 1458.000000
2444.914551 1495.000000
2445.931152 1514.000000
2446.947754 1525.000000
2447.963623 1488.000000
2448.979492 1555.000000
2449.993896 1474.000000
2451.007568 1433.000000
2452.020752 1502.000000
2453.033691 1545.000000
2454.045898 1413.000000
2455.057129 1412.000000
2456.068115 1443.000000
2457.078369 1447.000000
2458.088135 1423.000000
2459.096924 1497.000000
2460.104980 1468.000000
2461.113037 1415.000000
2462.119873 1415.000000
2463.126465 1478.000000
2464.131836 1402.000000
2465.136963 1403.000000
2466.141846 1403.000000
2467.145508 1459.000000
2468.148926 1267.000000
2469.151367 1367.000000
2470.153564 1418.000000
2471.155273 1421.000000
2472.156006 1326.000000
2473.155762 1342.000000
2474.155518 1298.000000
2475.154297 1284.000000
2476.152588 1393.000000
2477.149902 1372.000000
2478.146973 1373.000000
2479.144043 1412.000000
2480.139648 1344.000000
2481.135254 1246.000000
2482.129150 1415.000000
2483.123047 1371.000000
2484.116455 1387.000000
2485.109375 1417.000000
2486.101318 1368.000000
2487.092529 1290.000000
2488.083496 1357.000000
2489.073975 1386.000000
2490.063477 1331.000000
2491.052246 1360.000000
2492.041016 1333.000000
2493.028809 1362.000000
2494.015381 1273.000000
2495.001953 1385.000000
2495.988037 1321.000000
2496.973389 1407.000000
2497.957764 1269.000000
2498.941895 1307.000000
2499.926025 1303.000000
2500.908691 1334.000000
2501.890869 1353.000000
2502.872559 1362.000000
2503.853516 1362.000000
2504.833984 1297.000000
2505.814209 1284.000000
2506.792969 1347.000000
2507.771484 1248.000000
2508.749512 1239.000000
2509.727051 1134.000000
2510.703613 1332.000000
2511.679932 1279.000000
2512.655518 1223.000000
2513.630615 1270.000000
2514.605225 1332.000000
2515.578613 1229.000000
2516.551758 1321.000000
2517.524658 1318.000000
2518.496582 1232.000000
2519.467773 1196.000000
2520.438477 1197.000000
2521.408936 1227.000000
2522.378662 1133.000000
2523.347412 1192.000000
2524.315430 1168.000000
2525.283447 1137.000000
2526.250488 1311.000000
2527.217285 1190.000000
2528.182861 1185.000000
2529.148438 1240.000000
2530.113281 1218.000000
2531.077637 1274.000000
2532.040771 1180.000000
2533.004150 1129.000000
2533.966553 1196.000000
2534.928711 1212.000000
2535.889648 1268.000000
2536.849854 1179.000000
2537.810303 1122.000000
2538.769775 1204.000000
2539.728516 1120.000000
2540.686279 1179.000000
2541.644287 1126.000000
2542.601563 1124.000000
2543.557861 1123.000000
2544.513916 1055.000000
2545.468750 1193.000000
2546.423828 1088.000000
2547.378174 1197.000000
2548.331787 1065.000000
2549.284424 1123.000000
2550.236816 1218.000000
2551.188721 1051.000000
2552.139893 1150.000000
2553.090332 1142.000000
2554.040283 1125.000000
2554.989990 1072.000000
2555.938965 1046.000000
2556.887451 1084.000000
2557.834717 1076.000000
2558.781982 1062.000000
2559.728516 1164.000000
2560.674561 1071.000000
2561.619629 1068.000000
2562.564453 1088.000000
2563.508789 1029.000000
2564.452637 1079.000000
2565.395996 990.000000
2566.337891 1075.000000
2567.280029 1128.000000
2568.221436 1129.000000
2569.162109 1102.000000
2570.102051 968.000000
2571.041992 1050.000000
2571.980957 999.000000
2572.919678 961.000000
2573.857422 1064.000000
2574.794922 1100.000000
2575.731689 1051.000000
2576.667725 1066.000000
2577.603271 1045.000000
2578.538086 1143.000000
2579.472900 1064.000000
2580.406738 1033.000000
2581.340088 1003.000000
2582.272705 1066.000000
2583.205078 951.000000
2584.136719 1024.000000
2585.067871 946.000000
2585.998535 943.000000
2586.927979 1013.000000
2587.857422 935.000000
2588.786377 965.000000
2589.715088 1088.000000
2590.642090 959.000000
2591.569336 1102.000000
2592.496094 966.000000
2593.422119 873.000000
2594.347900 1072.000000
2595.272461 959.000000
2596.196777 940.000000
2597.120605 972.000000
2598.043945 1051.000000
2598.966309 983.000000
2599.888428 966.000000
2600.810059 868.000000
2601.730957 944.000000
2602.651123 1050.000000
2603.571045 1027.000000
2604.490479 979.000000
2605.409668 908.000000
2606.327881 1008.000000
2607.244873 983.000000
2608.162109 970.000000
2609.079102 947.000000
2609.995117 1008.000000
2610.909912 901.000000
2611.825195 1030.000000
2612.739746 1040.000000
2613.653320 982.000000
2614.566895 888.000000
2615.479248 918.000000
2616.391602 1007.000000
2617.302979 896.000000
2618.214111 943.000000
2619.124512 915.000000
2620.034668 876.000000
2620.944092 1002.000000
2621.853027 916.000000
2622.760986 822.000000
2623.669189 866.000000
2624.576416 940.000000
2625.483154 796.000000
2626.389160 949.000000
2627.294922 1035.000000
2628.199951 820.000000
2629.104736 801.000000
2630.008789 816.000000
2630.911865 950.000000
2631.814941 866.000000
2632.717041 804.000000
2633.619141 843.000000
2634.520996 948.000000
2635.421143 900.000000
2636.321533 897.000000
2637.221191 752.000000
2638.120605 890.000000
2639.018555 944.000000
2639.916992 892.000000
2640.814941 853.000000
2641.712158 897.000000
2642.608154 816.000000
2643.504150 957.000000
2644.399902 809.000000
2645.294922 774.000000
2646.189697 799.000000
2647.083008 901.000000
2647.976318 830.000000
2648.869385 854.000000
2649.762207 884.000000
2650.653320 902.000000
2651.544678 883.000000
2652.435547 776.000000
2653.325684 724.000000
2654.215576 709.000000
2655.104248 852.000000
2655.993164 667.000000
2656.881592 913.000000
2657.769043 848.000000
2658.655518 898.000000
2659.542480 715.000000
2660.428711 718.000000
2661.314453 694.000000
2662.198975 727.000000
2663.083496 781.000000
2663.967773 697.000000
2664.851318 779.000000
2665.734375 804.000000
2666.616699 686.000000
2667.498535 783.000000
2668.379639 851.000000
2669.260986 801.000000
2670.140869 697.000000
2671.020996 865.000000
2671.900391 707.000000
2672.779785 811.000000
2673.658447 774.000000
2674.535400 745.000000
2675.413086 739.000000
2676.290039 779.000000
2677.166260 809.000000
2678.041992 704.000000
2678.916992 846.000000
2679.792236 743.000000
2680.666504 774.000000
2681.540283 677.000000
2682.413330 723.000000
2683.286133 588.000000
2684.158691 626.000000
2685.030518 844.000000
2685.901611 755.000000
2686.772461 693.000000
2687.642822 764.000000
2688.512939 707.000000
2689.381348 768.000000
2690.250488 705.000000
2691.118896 694.000000
2691.987061 719.000000
2692.854492 642.000000
2693.720703 753.000000
2694.587402 766.000000
2695.453125 688.000000
2696.318848 758.000000
2697.183105 599.000000
2698.048096 629.000000
2698.911621 713.000000
2699.775391 735.000000
2700.637695 791.000000
2701.500488 510.000000
2702.362305 665.000000
2703.223633 666.000000
2704.084961 673.000000
2704.945068 627.000000
2705.805176 740.000000
2706.664795 755.000000
2707.524170 708.000000
2708.381836 697.000000
2709.239746 629.000000
2710.098145 631.000000
2710.955322 687.000000
2711.811768 664.000000
2712.667725 737.000000
2713.523682 686.000000
2714.378906 734.000000
2715.233398 718.000000
2716.087402 556.000000
2716.941406 674.000000
2717.794434 560.000000
2718.647705 615.000000
2719.499268 727.000000
2720.351318 545.000000
2721.203125 652.000000
2722.053711 616.000000
2722.904297 631.000000
2723.754395 605.000000
2724.603760 618.000000
2725.453125 648.000000
2726.301270 640.000000
2727.148926 682.000000
2727.997070 649.000000
2728.843994 616.000000
2729.691406 687.000000
2730.537354 772.000000
2731.382568 637.000000
2732.228271 602.000000
2733.072998 672.000000
2733.917725 742.000000
2734.761230 624.000000
2735.604980 578.000000
2736.447998 524.000000
2737.290527 608.000000
2738.132080 684.000000
2738.974121 716.000000
2739.815186 747.000000
2740.656006 561.000000
2741.496582 601.000000
2742.335938 643.000000
2743.175293 521.000000
2744.014648 762.000000
2744.852783 630.000000
2745.690430 655.000000
2746.528076 646.000000
2747.365234 570.000000
2748.202148 633.000000
2749.038574 625.000000
2749.873779 682.000000
2750.709229 656.000000
2751.544189 617.000000
2752.378418 555.000000
2753.212402 638.000000
2754.045898 585.000000
2754.879395 627.000000
2755.711914 574.000000
2756.543945 577.000000
2757.375488 551.000000
2758.207031 638.000000
2759.037598 635.000000
2759.868408 587.000000
2760.697998 537.000000
2761.527588 570.000000
2762.356934 524.000000
2763.185547 650.000000
2764.013672 527.000000
2764.841309 658.000000
2765.668945 560.000000
2766.496094 552.000000
2767.322510 504.000000
2768.148438 642.000000
2768.973877 653.000000
2769.799072 541.000000
2770.624268 472.000000
2771.448242 575.000000
2772.272217 488.000000
2773.096191 461.000000
2773.918945 617.000000
2774.741943 641.000000
2775.563721 590.000000
2776.385498 535.000000
2777.207275 510.000000
2778.028076 561.000000
2778.848145 469.000000
2779.668457 579.000000
2780.488281 514.000000
2781.308105 492.000000
2782.125977 537.000000
2782.945068 558.000000
2783.762939 606.000000
2784.580566 536.000000
2785.397705 544.000000
2786.214355 614.000000
2787.030762 492.000000
2787.846680 532.000000
2788.662354 496.000000
2789.477051 587.000000
2790.292236 493.000000
2791.106689 488.000000
2791.920654 512.000000
2792.734375 553.000000
2793.546875 341.000000
2794.359619 497.000000
2795.171875 412.000000
2795.983643 547.000000
2796.794678 438.000000
2797.606445 470.000000
2798.416992 486.000000
2799.227539 543.000000
2800.036621 399.000000
2800.846436 520.000000
2801.655518 571.000000
2802.464355 404.000000
2803.272705 538.000000
2804.080078 529.000000
2804.887939 604.000000
2805.695068 414.000000
2806.501953 463.000000
2807.307617 576.000000
2808.113770 490.000000
2808.919189 525.000000
2809.724609 457.000000
2810.529297 493.000000
2811.333008 373.000000
2812.137207 493.000000
2812.940918 462.000000
2813.744385 482.000000
2814.546387 502.000000
2815.349121 478.000000
2816.151123 551.000000
2816.952881 456.000000
2817.754150 432.000000
2818.554932 441.000000
2819.355225 489.000000
2820.155762 427.000000
2820.955322 505.000000
2821.754395 552.000000
2822.553467 489.000000
2823.352295 501.000000
2824.150635 475.000000
2824.947998 501.000000
2825.745605 433.000000
2826.542480 446.000000
2827.339600 495.000000
2828.135986 441.000000
2828.931641 477.000000
2829.727295 478.000000
2830.522705 620.000000
2831.317627 522.000000
2832.111816 507.000000
2832.906006 486.000000
2833.699951 540.000000
2834.493408 431.000000
2835.286133 472.000000
2836.078613 435.000000
2836.871094 393.000000
2837.663330 524.000000
2838.455078 454.000000
2839.245850 492.000000
2840.036621 479.000000
2840.827637 503.000000
2841.617676 380.000000
2842.407227 408.000000
2843.197021 460.000000
2843.985840 521.000000
2844.774658 647.000000
2845.563477 511.000000
2846.351318 417.000000
2847.138672 480.000000
2847.926270 538.000000
2848.713379 410.000000
2849.499756 458.000000
2850.286133 510.000000
2851.072266 452.000000
2851.857910 413.000000
2852.642578 404.000000
2853.427734 468.000000
2854.212646 460.000000
2854.996826 436.000000
2855.781006 567.000000
2856.563965 363.000000
2857.347168 404.000000
2858.130127 465.000000
2858.912598 447.000000
2859.694824 481.000000
2860.476563 454.000000
2861.258057 577.000000
2862.039795 435.000000
2862.820801 510.000000
2863.601074 430.000000
2864.381104 448.000000
2865.161133 503.000000
2865.940918 537.000000
2866.719727 504.000000
2867.498779 457.000000
2868.277344 513.000000
2869.055664 506.000000
2869.833496 531.000000
2870.611084 565.000000
2871.388428 543.000000
2872.165527 489.000000
2872.942139 653.000000
2873.718262 565.000000
2874.494385 667.000000
2875.270020 710.000000
2876.045410 626.000000
2876.820313 577.000000
2877.594971 599.000000
2878.369629 637.000000
2879.144043 704.000000
2879.917725 589.000000
2880.690674 730.000000
2881.464355 615.000000
2882.237061 589.000000
2883.009766 608.000000
2883.781738 663.000000
2884.553467 676.000000
2885.325684 693.000000
2886.096680 635.000000
2886.867188 659.000000
2887.638184 602.000000
2888.409180 529.000000
2889.179443 566.000000
2889.948730 661.000000
2890.718262 650.000000
2891.487793 661.000000
2892.256836 626.000000
2893.025391 607.000000
2893.793945 598.000000
2894.561523 564.000000
2895.329590 645.000000
2896.097168 651.000000
2896.864746 669.000000
2897.631104 612.000000
2898.398438 559.000000
2899.164551 662.000000
2899.930908 542.000000
2900.695801 562.000000
2901.461182 513.000000
2902.227051 574.000000
2902.991455 539.000000
2903.755859 587.000000
2904.520508 521.000000
2905.284180 642.000000
2906.048584 528.000000
2906.812256 545.000000
2907.575195 533.000000
2908.337891 558.000000
2909.101074 532.000000
2909.863770 535.000000
2910.625244 521.000000
2911.387207 521.000000
spectrumdark 2048
-96.843727 6230.000000
-94.216858 6230.000000
-91.591866 6086.000000
-88.968765 6367.000000
-86.347534 5859.000000
-83.728203 6194.000000
-81.110733 6096.000000
-78.495140 6356.000000
-75.881424 6262.000000
-73.269585 6075.000000
-70.659607 6117.000000
-68.051514 5973.000000
-65.445267 6008.000000
-62.840897 6068.000000
-60.238388 6138.000000
-57.637733 5686.000000
-55.038940 6254.000000
-52.442005 6900.000000
-49.846924 6464.000000
-47.253696 6508.000000
-44.662319 6232.000000
-42.072788 6736.000000
-39.485100 5912.000000
-36.899261 6068.000000
-34.315266 6420.000000
-31.733109 5684.000000
-29.152796 6297.000000
-26.574310 5697.000000
-23.997667 6168.000000
-21.422850 6305.000000
-18.849873 6444.000000
-16.278715 6419.000000
-13.709391 6810.000000
-11.141892 7805.000000
-8.576213 6275.000000
-6.012360 6452.000000
-3.450319 5943.000000
-0.890103 5804.000000
1.668305 6279.000000
4.224892 6994.000000
6.779674 6689.000000
9.332640 5990.000000
11.883804 6813.000000
14.433156 6462.000000
16.980711 6721.000000
19.526455 6018.000000
22.070406 5737.000000
24.612553 6694.000000
27.152903 6797.000000
29.691467 6890.000000
32.228237 6225.000000
34.763203 5723.000000
37.296391 7244.000000
39.827797 6334.000000
42.357410 7089.000000
44.885227 6483.000000
47.411285 7874.000000
49.935555 5692.000000
52.458054 6189.000000
54.978756 6758.000000
57.497704 6335.000000
60.014877 6389.000000
62.530273 6609.000000
65.043892 5683.000000
67.555756 5704.000000
70.065872 6515.000000
72.574196 6514.000000
75.080765 5926.000000
77.585587 6358.000000
80.088654 6392.000000
82.589943 6315.000000
85.089493 6104.000000
87.587288 6341.000000
90.083351 5797.000000
92.577637 7221.000000
95.070183 5843.000000
97.561012 6893.000000
100.050072 7178.000000
102.537384 6398.000000
105.022972 6235.000000
107.506821 6358.000000
109.988922 5815.000000
112.469299 6716.000000
114.947952 6156.000000
117.424881 6494.000000
119.900055 7212.000000
122.373520 6814.000000
124.845253 5804.000000
127.315277 6652.000000
129.783539 6301.000000
132.250137 6312.000000
134.714981 5721.000000
137.178131 6192.000000
139.639542 7273.000000
142.099258 6922.000000
144.557251 6360.000000
147.013550 6022.000000
149.468140 5856.000000
151.921005 6890.000000
154.372192 6352.000000
156.821686 6588.000000
159.269455 6076.000000
161.715515 6725.000000
164.159897 8705.000000
166.602600 6464.000000
169.043610 6824.000000
171.482910 6245.000000
173.920502 7223.000000
176.356461 6619.000000
178.790680 6952.000000
181.223221 7140.000000
183.654114 6622.000000
186.083282 7131.000000
188.510803 6723.000000
190.936646 6384.000000
193.360809 6676.000000
195.783310 7125.000000
198.204117 7359.000000
200.623260 6474.000000
203.040741 6012.000000
205.456528 7660.000000
207.870667 7159.000000
210.283173 6423.000000
212.694000 6041.000000
215.103149 6284.000000
217.510666 7392.000000
219.916473 6126.000000
222.320694 6498.000000
224.723206 6762.000000
227.124100 6917.000000
229.523346 6441.000000
231.920929 6868.000000
234.316849 7281.000000
236.711151 6533.000000
239.103790 6131.000000
241.494812 6822.000000
243.884171 6576.000000
246.271912 6359.000000
248.658005 7026.000000
251.042465 6091.000000
253.425278 8052.000000
255.806519 6588.000000
258.186066 6707.000000
260.564026 6445.000000
262.940308 7523.000000
265.315033 7592.000000
267.688110 7817.000000
270.059540 6091.000000
272.429321 6422.000000
274.797546 5858.000000
277.164124 6340.000000
279.529114 6515.000000
281.892487 6035.000000
284.254211 6281.000000
286.614349 7141.000000
288.972870 5937.000000
291.329803 6574.000000
293.685120 6443.000000
296.038849 5983.000000
298.390930 5914.000000
300.741455 6398.000000
303.090393 6416.000000
305.437683 6758.000000
307.783447 6375.000000
310.127533 6480.000000
312.470093 7421.000000
314.811035 7652.000000
317.150360 7200.000000
319.488129 6975.000000
321.824341 8080.000000
324.158905 6303.000000
326.491913 6465.000000
328.823364 5952.000000
331.153229 6638.000000
333.481506 6440.000000
335.808167 7187.000000
338.133331 6378.000000
340.456879 6232.000000
342.778870 5981.000000
345.099304 7604.000000
347.418121 7698.000000
349.735382 5984.000000
352.051117 5868.000000
354.365265 7018.000000
356.677826 6305.000000
358.988831 6293.000000
361.298309 7001.000000
363.606262 6328.000000
365.912598 5621.000000
368.217346 6478.000000
370.520630 6446.000000
372.822296 6274.000000
375.122467 6381.000000
377.421082 6310.000000
379.718140 5717.000000
382.013641 6081.000000
384.307617 5900.000000
386.600006 5218.000000
388.890900 5564.000000
391.180267 6171.000000
393.468048 6266.000000
395.754303 6549.000000
398.039063 7056.000000
400.322205 6028.000000
402.603912 6438.000000
404.884094 6225.000000
407.162689 7335.000000
409.439758 6453.000000
411.715302 6784.000000
413.989319 6613.000000
416.261902 6563.000000
418.532867 6378.000000
420.802338 6602.000000
423.070313 7137.000000
425.336731 7239.000000
427.601654 6303.000000
429.865112 6248.000000
432.126984 6497.000000
434.387390 5934.000000
436.646240 6670.000000
438.903625 6135.000000
441.159515 5625.000000
443.413910 5815.000000
445.666779 5452.000000
447.918091 6913.000000
450.167999 6134.000000
452.416321 6282.000000
454.663208 5658.000000
456.908630 6477.000000
459.152496 6567.000000
461.394867 6524.000000
463.635742 5605.000000
465.875214 6757.000000
468.113098 5403.000000
470.349548 5911.000000
472.584473 6081.000000
474.817932 7354.000000
477.049957 6670.000000
479.280457 5651.000000
481.509460 6438.000000
483.737000 6334.000000
485.963043 5904.000000
488.187653 6612.000000
490.410797 5855.000000
492.632477 6413.000000
494.852600 6720.000000
497.071320 5657.000000
499.288544 6333.000000
501.504395 5531.000000
503.718628 6151.000000
505.931549 6432.000000
508.142883 6418.000000
510.352783 6942.000000
512.561218 6498.000000
514.768311 6546.000000
516.973816 6461.000000
519.177917 6552.000000
521.380493 6208.000000
523.581665 6593.000000
525.781494 6696.000000
527.979797 6930.000000
530.176575 5376.000000
532.372009 5861.000000
534.565918 5578.000000
536.758484 7497.000000
538.949524 6724.000000
541.139160 5989.000000
543.327393 6974.000000
545.514099 7124.000000
547.699341 6855.000000
549.883301 6265.000000
552.065674 6430.000000
554.246704 6145.000000
556.426208 6033.000000
558.604431 5930.000000
560.781128 6014.000000
562.956421 6396.000000
565.130310 6451.000000
567.302734 5963.000000
569.473755 6049.000000
571.643311 6337.000000
573.811584 5260.000000
575.978333 6346.000000
578.143616 6263.000000
580.307495 6163.000000
582.470093 5779.000000
584.631165 5988.000000
586.790833 5569.000000
588.949158 5830.000000
591.105957 6170.000000
593.261414 6606.000000
595.415466 5808.000000
597.568176 6175.000000
599.719360 7205.000000
601.869202 6780.000000
604.017700 6657.000000
606.164612 5996.000000
608.310303 6450.000000
610.454590 6431.000000
612.597412 7005.000000
614.738770 6203.000000
616.878906 6448.000000
619.017517 7685.000000
621.154846 5751.000000
623.290710 6614.000000
625.425171 6943.000000
627.558167 7248.000000
629.690002 6683.000000
631.820374 6607.000000
633.949341 6748.000000
636.076843 6411.000000
638.203064 6200.000000
640.327759 7346.000000
642.451233 6414.000000
644.573364 6837.000000
646.694031 6851.000000
648.813354 6533.000000
650.931274 5645.000000
653.047852 5641.000000
655.163025 6446.000000
657.276855 6483.000000
659.389221 5854.000000
661.500366 6195.000000
663.610107 5459.000000
665.718384 6020.000000
667.825500 6243.000000
669.931152 6800.000000
672.035339 5782.000000
674.138306 5711.000000
676.239868 7025.000000
678.340088 5318.000000
680.438904 6704.000000
682.536377 6241.000000
684.632568 7022.000000
686.727295 6387.000000
688.820801 7081.000000
690.912964 6673.000000
693.003601 7998.000000
695.093018 6672.000000
697.181152 6495.000000
699.267822 6030.000000
701.353271 6758.000000
703.437195 5133.000000
705.519897 5940.000000
707.601318 5987.000000
709.681274 7549.000000
711.760010 6229.000000
713.837280 5539.000000
715.913269 6621.000000
717.987976 6098.000000
720.061401 7003.000000
722.133301 6250.000000
724.204041 7439.000000
726.273438 5803.000000
728.341431 6528.000000
730.408081 6366.000000
732.473511 7068.000000
734.537598 5786.000000
736.600342 6155.000000
738.661743 6488.000000
740.721863 6664.000000
742.780579 6021.000000
744.838074 6633.000000
746.894287 6691.000000
748.949097 6733.000000
751.002625 6384.000000
753.054749 7498.000000
755.105652 5807.000000
757.155334 6695.000000
759.203552 6418.000000
761.250549 6185.000000
763.296265 7061.000000
765.340576 5350.000000
767.383606 10197.000000
769.425415 15044.000000
771.465881 7190.000000
773.504944 6310.000000
775.542847 6100.000000
777.579407 6022.000000
779.614746 5369.000000
781.648743 5777.000000
783.681335 6905.000000
785.712769 5520.000000
787.742798 12105.000000
789.771545 6006.000000
791.799133 6287.000000
793.825378 6411.000000
795.850220 5836.000000
797.873962 5515.000000
799.896301 6377.000000
801.917419 5875.000000
803.937195 6686.000000
805.955688 4905.000000
807.972961 6699.000000
809.988831 6811.000000
812.003540 5711.000000
814.016907 6453.000000
816.029053 6238.000000
818.039978 6119.000000
820.049561 6534.000000
822.057922 5331.000000
824.064880 5674.000000
826.070618 6013.000000
828.075134 5766.000000
830.078369 5628.000000
832.080322 6479.000000
834.080994 6052.000000
836.080444 5899.000000
838.078552 6313.000000
840.075562 7001.000000
842.071167 6179.000000
844.065613 6025.000000
846.058716 6218.000000
848.050598 6823.000000
850.041138 5571.000000
852.030396 6786.000000
854.018616 6014.000000
856.005432 5809.000000
857.991028 6450.000000
859.975342 7314.000000
861.958557 6285.000000
863.940369 6412.000000
865.920959 5763.000000
867.900269 7749.000000
869.878418 7137.000000
871.855225 6231.000000
873.830750 6152.000000
875.805237 6175.000000
877.778259 6018.000000
879.750244 5479.000000
881.720886 6399.000000
883.690369 6109.000000
885.658508 5651.000000
887.625488 5221.000000
889.591125 6115.000000
891.555603 5815.000000
893.518860 6027.000000
895.480896 6498.000000
897.441650 5835.000000
899.401184 6383.000000
901.359436 6683.000000
903.316589 6294.000000
905.272583 6073.000000
907.227173 6826.000000
909.180542 6487.000000
911.132751 6439.000000
913.083740 6405.000000
915.033447 7079.000000
916.981995 6297.000000
918.929321 6191.000000
920.875366 6099.000000
922.820129 6146.000000
924.763855 6295.000000
926.706421 6046.000000
928.647705 5630.000000
930.587646 6487.000000
932.526489 5692.000000
934.464050 5522.000000
936.400391 5945.000000
938.335571 5836.000000
940.269470 6062.000000
942.202271 5881.000000
944.133850 6793.000000
946.064270 5234.000000
947.993469 6453.000000
949.921326 6961.000000
951.848145 6635.000000
953.773682 5979.000000
955.697937 5404.000000
957.621094 5995.000000
959.543091 6735.000000
961.463806 7342.000000
963.383362 6427.000000
965.301758 5305.000000
967.219116 6482.000000
969.135010 6423.000000
971.049805 6184.000000
972.963379 5982.000000
974.875793 6378.000000
976.786987 6461.000000
978.697021 5502.000000
980.605774 6209.000000
982.513489 6120.000000
984.419983 6280.000000
986.325256 5670.000000
988.229431 6753.000000
990.132385 6190.000000
992.034119 6824.000000
993.934692 6328.000000
995.834106 6580.000000
997.732300 5226.000000
999.629333 6492.000000
1001.525146 6544.000000
1003.419800 7677.000000
1005.313354 5560.000000
1007.205627 7200.000000
1009.096985 6052.000000
1010.987000 5376.000000
1012.875793 6590.000000
1014.763428 6285.000000
1016.649902 6904.000000
1018.535217 6729.000000
1020.419373 5952.000000
1022.302307 5881.000000
1024.184204 6243.000000
1026.064819 5249.000000
1027.944336 5879.000000
1029.822876 6064.000000
1031.700073 5430.000000
1033.575928 6174.000000
1035.450806 5890.000000
1037.324707 6571.000000
1039.197144 7101.000000
1041.068604 6705.000000
1042.938721 5524.000000
1044.807861 5556.000000
1046.675781 5802.000000
1048.542603 6995.000000
1050.408325 6762.000000
1052.272827 6461.000000
1054.136230 6468.000000
1055.998291 6453.000000
1057.859375 5934.000000
1059.719360 6537.000000
1061.578003 6627.000000
1063.435547 5761.000000
1065.291992 6695.000000
1067.147339 5924.000000
1069.001465 5771.000000
1070.854736 6251.000000
1072.706543 6382.000000
1074.557373 6143.000000
1076.406982 6104.000000
1078.255371 5755.000000
1080.102905 7950.000000
1081.949097 5537.000000
1083.794067 6187.000000
1085.638184 5416.000000
1087.480957 5567.000000
1089.322510 6500.000000
1091.163330 5479.000000
1093.002563 5806.000000
1094.841064 6028.000000
1096.678223 6034.000000
1098.514160 6856.000000
1100.349121 6571.000000
1102.182861 5436.000000
1104.015625 5713.000000
1105.847046 6205.000000
1107.677612 7268.000000
1109.506836 6563.000000
1111.335083 6465.000000
1113.162109 7123.000000
1114.988159 5439.000000
1116.812988 6313.000000
1118.636719 7118.000000
1120.459229 6091.000000
1122.280640 5954.000000
1124.101196 5906.000000
1125.920288 6586.000000
1127.738525 7068.000000
1129.555420 6978.000000
1131.371460 6713.000000
1133.186279 6456.000000
1135.000000 5605.000000
1136.812622 5781.000000
1138.624023 5637.000000
1140.434448 6114.000000
1142.243774 6720.000000
1144.051758 6958.000000
1145.859009 5930.000000
1147.664795 5895.000000
1149.469727 5380.000000
1151.273560 5432.000000
1153.076172 6084.000000
1154.877930 6032.000000
1156.678223 6042.000000
1158.477539 6136.000000
1160.275879 5932.000000
1162.072876 5488.000000
1163.869141 5925.000000
1165.664063 6056.000000
1167.457886 6297.000000
1169.250854 7712.000000
1171.042480 5729.000000
1172.833130 6486.000000
1174.622803 6017.000000
1176.411011 5855.000000
1178.198364 7513.000000
1179.984619 6815.000000
1181.769775 5777.000000
1183.553833 5931.000000
1185.336792 7694.000000
1187.118774 5806.000000
1188.899536 5910.000000
1190.679321 6343.000000
1192.458008 6986.000000
1194.235718 6693.000000
1196.012207 7124.000000
1197.787598 6597.000000
1199.561890 6534.000000
1201.335083 6689.000000
1203.107422 6686.000000
1204.878418 6769.000000
1206.648560 5714.000000
1208.417480 6076.000000
1210.185303 6378.000000
1211.952271 5792.000000
1213.717896 5931.000000
1215.482544 6932.000000
1217.246094 6565.000000
1219.008545 5961.000000
1220.770142 6724.000000
1222.530518 5907.000000
1224.289795 6281.000000
1226.048218 6030.000000
1227.805420 7271.000000
1229.561523 6468.000000
1231.316528 5543.000000
1233.070679 5986.000000
1234.823486 5820.000000
1236.575317 6018.000000
1238.326294 5940.000000
1240.075928 4891.000000
1241.824707 6992.000000
1243.572144 6501.000000
1245.318848 6609.000000
1247.064331 6501.000000
1248.808960 6543.000000
1250.552246 6792.000000
1252.294556 6730.000000
1254.035767 5398.000000
1255.776123 5103.000000
1257.515381 5782.000000
1259.253418 6621.000000
1260.990601 7205.000000
1262.726563 6132.000000
1264.461548 6474.000000
1266.195557 7245.000000
1267.928589 6018.000000
1269.660400 6167.000000
1271.391235 6477.000000
1273.120850 7281.000000
1274.849609 5935.000000
1276.577271 5732.000000
1278.303833 5546.000000
1280.029541 5562.000000
1281.753906 6319.000000
1283.477417 5246.000000
1285.199951 6925.000000
1286.921509 6669.000000
1288.641846 6376.000000
1290.361206 6655.000000
1292.079468 7285.000000
1293.796753 6439.000000
1295.513062 5806.000000
1297.228149 6356.000000
1298.942261 6191.000000
1300.655396 5731.000000
1302.367676 6518.000000
1304.078735 8281.000000
1305.788818 5272.000000
1307.497803 6319.000000
1309.205566 6711.000000
1310.912720 7001.000000
1312.618408 5779.000000
1314.323364 6869.000000
1316.027344 6219.000000
1317.730103 5995.000000
1319.431885 6542.000000
1321.132813 6046.000000
1322.832397 18714.000000
1324.531128 7752.500000
1326.229126 5547.000000
1327.925781 6504.000000
1329.621338 7116.000000
1331.316040 6868.000000
1333.009521 5736.000000
1334.702148 5466.000000
1336.393921 7348.000000
1338.084351 6249.000000
1339.774048 6581.000000
1341.462646 6124.000000
1343.150146 7729.000000
1344.836670 5692.000000
1346.522095 6838.000000
1348.206543 5982.000000
1349.890137 7252.000000
1351.572510 6326.000000
1353.253906 6004.000000
1354.934448 6488.000000
1356.613770 6732.000000
1358.292480 5928.000000
1359.969849 6528.000000
1361.646118 5809.000000
1363.321411 5613.000000
1364.995972 6593.000000
1366.669312 6460.000000
1368.341675 6877.000000
1370.013062 5154.000000
1371.683472 6835.000000
1373.352783 6222.000000
1375.021118 5669.000000
1376.688599 5870.000000
1378.354980 6493.000000
1380.020386 6127.000000
1381.684814 5840.000000
1383.348022 5910.000000
1385.010620 5705.000000
1386.671875 6327.000000
1388.332275 6575.000000
1389.991577 6404.000000
1391.649902 6560.000000
1393.307495 6858.000000
1394.963867 6475.000000
1396.619385 6975.000000
1398.273682 6365.000000
1399.927124 5856.000000
1401.579468 6128.000000
1403.231079 6479.000000
1404.881470 7214.000000
1406.530762 6270.000000
1408.179321 7544.000000
1409.826782 7872.000000
1411.473267 6211.000000
1413.118896 6288.000000
1414.763550 6089.000000
1416.406982 7025.000000
1418.049561 7117.000000
1419.691040 6887.000000
1421.331665 6497.000000
1422.971313 6470.000000
1424.609863 6082.000000
1426.247559 6615.000000
1427.884155 6350.000000
1429.519775 5990.000000
1431.154663 6332.000000
1432.788452 5873.000000
1434.421143 6263.000000
1436.052856 5684.000000
1437.683716 6133.000000
1439.313477 6117.000000
1440.942139 7751.000000
1442.570190 5930.000000
1444.197144 6217.000000
1445.822876 6174.000000
1447.447998 6255.000000
1449.072021 6530.000000
1450.695068 6037.000000
1452.317139 6067.000000
1453.938110 7317.000000
1455.558105 6219.000000
1457.177368 6905.000000
1458.795288 5687.000000
1460.412598 16335.000000
1462.028931 5547.000000
1463.644043 7302.000000
1465.258301 6362.000000
1466.871704 5243.000000
1468.484009 5599.000000
1470.095459 6347.000000
1471.706055 6380.000000
1473.315430 6013.000000
1474.923828 6043.000000
1476.531372 6171.000000
1478.137939 6667.000000
1479.743774 5345.000000
1481.348389 6251.000000
1482.952148 5534.000000
1484.554688 6539.000000
1486.156616 5582.000000
1487.757324 5550.000000
1489.357300 5642.000000
1490.956177 6252.000000
1492.554199 6466.000000
1494.151123 6732.000000
1495.747192 6348.000000
1497.342285 5984.000000
1498.936401 5504.000000
1500.529785 6532.000000
1502.122070 5564.000000
1503.713135 6153.000000
1505.303711 6769.000000
1506.892944 6512.000000
1508.481567 6121.000000
1510.069092 6597.000000
1511.655518 6807.000000
1513.241211 6087.000000
1514.825806 6737.000000
1516.409546 6431.000000
1517.992188 6147.000000
1519.574097 6619.000000
1521.154907 6607.000000
1522.734985 6038.000000
1524.313843 6215.000000
1525.891846 6402.000000
1527.469116 6319.000000
1529.045166 5702.000000
1530.620483 5825.000000
1532.194702 6406.000000
1533.768188 5469.000000
1535.340454 5894.000000
1536.911987 6413.000000
1538.482544 6458.000000
1540.052246 6353.000000
1541.620728 5490.000000
1543.188477 6624.000000
1544.755371 5587.000000
1546.321045 6829.000000
1547.885986 5994.000000
1549.449829 5077.000000
1551.013062 7485.000000
1552.574951 6334.000000
1554.136230 6019.000000
1555.696411 5753.000000
1557.255859 5722.000000
1558.814209 6059.000000
1560.371826 6281.000000
1561.928345 7063.000000
1563.483643 5927.000000
1565.038330 6360.000000
1566.592285 5699.000000
1568.145264 6314.000000
1569.696899 5666.000000
1571.247803 5870.000000
1572.797974 6284.000000
1574.347168 6403.000000
1575.895020 5800.000000
1577.442383 5581.000000
1578.988770 5669.000000
1580.534302 5101.000000
1582.078857 6666.000000
1583.622192 6429.000000
1585.164917 6683.000000
1586.706787 6483.000000
1588.247559 6759.000000
1589.787354 5801.000000
1591.326416 6778.000000
1592.864380 5987.000000
1594.401855 6103.000000
1595.937988 5975.000000
1597.473022 6711.000000
1599.007568 6241.000000
1600.541138 6007.000000
1602.073853 6171.000000
1603.604980 6274.000000
1605.135864 6295.000000
1606.665894 5806.000000
1608.194702 6183.000000
1609.722412 6122.000000
1611.249512 6029.000000
1612.775879 5839.000000
1614.301270 6305.000000
1615.825806 5823.000000
1617.348999 5821.000000
1618.871460 5591.000000
1620.393188 6554.000000
1621.914063 6943.000000
1623.433472 15591.000000
1624.952393 6270.000000
1626.470581 6091.000000
1627.987915 5909.000000
1629.504150 6447.000000
1631.019043 7047.000000
1632.533447 6841.000000
1634.047119 5767.000000
1635.559692 6863.000000
1637.071045 5939.000000
1638.582031 6483.000000
1640.091919 6315.000000
1641.600952 6198.000000
1643.108643 5643.000000
1644.615967 6138.000000
1646.122437 7194.000000
1647.627930 6266.000000
1649.132568 6848.000000
1650.635742 6194.000000
1652.138306 6592.000000
1653.640503 6372.000000
1655.141357 6676.000000
1656.641113 7620.000000
1658.140015 6153.000000
1659.638550 6488.000000
1661.135864 6296.000000
1662.632446 5956.000000
1664.127441 6488.000000
1665.622192 6414.000000
1667.116089 5272.000000
1668.609009 5688.000000
1670.100586 21192.000000
1671.591675 6516.000000
1673.082153 6132.000000
1674.571533 5988.000000
1676.059448 7000.000000
1677.547119 6868.000000
1679.033813 6037.000000
1680.519653 5500.000000
1682.004639 6065.000000
1683.488159 6304.000000
1684.971436 6169.000000
1686.453857 5886.000000
1687.935181 6229.000000
1689.415039 6178.000000
1690.894653 5565.000000
1692.373535 6538.000000
1693.851440 6009.000000
1695.328369 6187.000000
1696.804077 5801.000000
1698.279419 5994.000000
1699.753540 6272.000000
1701.227051 5498.000000
1702.699097 5567.000000
1704.170898 6859.000000
1705.641724 6369.000000
1707.111694 7096.000000
1708.580322 5148.000000
1710.048462 5846.000000
1711.515869 6339.000000
1712.982178 5547.000000
1714.447876 5765.000000
1715.911865 6213.000000
1717.375732 6028.000000
1718.838745 6959.000000
1720.300781 6386.000000
1721.761597 6654.000000
1723.221802 5454.000000
1724.681274 6392.000000
1726.139893 6079.000000
1727.597534 6052.000000
1729.053833 6269.000000
1730.509888 6073.000000
1731.964966 6488.000000
1733.419067 6027.000000
1734.871948 6864.000000
1736.324585 5995.000000
1737.776123 6834.000000
1739.226929 5944.000000
1740.676758 6583.000000
1742.125244 5936.000000
1743.573364 7655.000000
1745.020630 6512.000000
1746.467163 6633.000000
1747.912109 6735.000000
1749.356812 6184.000000
1750.800659 5823.000000
1752.243652 5493.000000
1753.685181 6527.000000
1755.126465 6391.000000
1756.566895 19560.000000
1758.006348 6278.000000
1759.444824 5274.000000
1760.882324 5983.000000
1762.319336 7610.000000
1763.755371 5881.000000
1765.190552 7201.000000
1766.624268 6176.000000
1768.057861 6502.000000
1769.490479 6717.000000
1770.922241 5755.000000
1772.353149 5906.000000
1773.782837 6356.000000
1775.211792 6188.000000
1776.640259 6262.000000
1778.067749 6715.000000
1779.493896 6276.000000
1780.919800 5593.000000
1782.344604 6921.000000
1783.768799 5616.000000
1785.191528 6686.000000
1786.613770 6585.000000
1788.035278 6982.000000
1789.456055 5850.000000
1790.875854 6197.000000
1792.294312 6169.000000
1793.712280 6835.000000
1795.129639 5520.000000
1796.546143 6057.000000
1797.961182 6570.000000
1799.375854 5850.000000
1800.789917 6615.000000
1802.202759 5965.000000
1803.614990 7007.000000
1805.025879 7133.000000
1806.436279 7801.000000
1807.845947 6522.000000
1809.254639 6022.000000
1810.662231 5422.000000
1812.069336 6439.000000
1813.475586 6358.000000
1814.880859 6765.000000
1816.285034 5957.000000
1817.688843 5944.000000
1819.091675 6286.000000
1820.493652 6012.000000
1821.895020 5922.000000
1823.294922 6467.000000
1824.694214 6509.000000
1826.093018 6600.000000
1827.490967 7501.000000
1828.887573 5745.000000
1830.283569 6763.000000
1831.678833 5923.000000
1833.073486 8104.000000
1834.467163 6014.000000
1835.859497 6843.000000
1837.251343 6430.000000
1838.642578 5858.000000
1840.032837 7097.000000
1841.421875 6084.000000
1842.810547 6091.000000
1844.198242 5984.000000
1845.585205 5777.000000
1846.970825 6939.000000
1848.356201 5805.000000
1849.740723 6423.000000
1851.124512 6301.000000
1852.507202 6406.000000
1853.888672 5394.000000
1855.269653 6554.000000
1856.650146 6339.000000
1858.029663 5754.000000
1859.407715 5988.000000
1860.785645 6216.000000
1862.162598 7876.000000
1863.538818 6146.000000
1864.914185 6084.000000
1866.288086 5708.000000
1867.661865 5713.000000
1869.034790 6221.000000
1870.406616 5928.000000
1871.777466 6916.000000
1873.147949 5404.000000
1874.517334 6090.000000
1875.886230 6115.000000
1877.253540 7200.000000
1878.620728 6109.000000
1879.986938 6061.000000
1881.352417 6808.000000
1882.717163 7527.000000
1884.080322 6817.000000
1885.443359 6942.000000
1886.805542 6318.000000
1888.166870 6500.000000
1889.526855 5675.000000
1890.886475 5830.000000
1892.245483 6125.000000
1893.603516 6636.000000
1894.960693 7277.000000
1896.316650 5982.000000
1897.672363 7605.000000
1899.027100 5898.000000
1900.380981 5565.000000
1901.733765 5939.000000
1903.086060 5976.000000
1904.437622 5986.000000
1905.788330 6880.000000
1907.137817 6547.000000
1908.486816 6719.000000
1909.834961 5884.000000
1911.182495 6140.000000
1912.529297 6301.000000
1913.874512 6878.000000
1915.219482 6099.000000
1916.563721 5469.000000
1917.907104 6556.000000
1919.249146 6018.000000
1920.590942 6748.000000
1921.931885 7007.000000
1923.272095 6170.000000
1924.611328 6285.000000
1925.949585 6313.000000
1927.287231 6481.000000
1928.624146 7019.000000
1929.960205 6796.000000
1931.295044 5559.000000
1932.629517 6814.000000
1933.963257 7278.000000
1935.296143 6283.000000
1936.627563 5761.000000
1937.959106 6339.000000
1939.289307 6660.000000
1940.619019 5853.000000
1941.947876 6051.000000
1943.275513 5819.000000
1944.602661 5082.000000
1945.929077 5801.000000
1947.254761 6542.000000
1948.579102 5750.000000
1949.903198 6643.000000
1951.226440 6377.000000
1952.548950 6423.000000
1953.870361 5836.000000
1955.190796 7501.000000
1956.510620 6034.000000
1957.830078 5522.000000
1959.148560 6879.000000
1960.465698 5880.000000
1961.782471 5890.000000
1963.098511 6652.000000
1964.413818 6576.000000
1965.727661 6235.000000
1967.041260 5645.000000
1968.354126 6200.000000
1969.666138 6045.000000
1970.977539 6053.000000
1972.287598 6331.000000
1973.597168 5851.000000
1974.906006 6213.000000
1976.214233 6619.000000
1977.521118 6090.000000
1978.827393 7287.000000
1980.133301 5562.000000
1981.437988 6455.000000
1982.742188 6007.000000
1984.045166 5716.000000
1985.347778 7591.000000
1986.649414 6120.000000
1987.950439 6774.000000
1989.249878 6046.000000
1990.549438 6609.000000
1991.847900 5318.000000
1993.145874 6189.000000
1994.442261 6156.000000
1995.738647 5781.000000
1997.034058 5570.000000
1998.328735 6528.000000
1999.622559 5727.000000
2000.915161 6597.000000
2002.207275 5754.000000
2003.498901 7181.000000
2004.789795 6461.000000
2006.079102 6262.000000
2007.368164 6811.000000
2008.656494 5945.000000
2009.944092 6035.000000
2011.230835 6695.000000
2012.516479 5724.000000
2013.801758 6339.000000
2015.086060 5963.000000
2016.369751 5663.000000
2017.652100 6123.000000
2018.934082 6400.000000
2020.215576 6798.000000
2021.496094 5890.000000
2022.775879 6090.000000
2024.054565 6755.000000
2025.332520 5848.000000
2026.609985 5901.000000
2027.886841 6305.000000
2029.161987 5693.000000
2030.437256 6682.000000
2031.711548 6077.000000
2032.984863 6019.000000
2034.257324 5923.000000
2035.529419 6115.000000
2036.800415 6949.000000
2038.071167 6586.000000
2039.340576 6007.000000
2040.608887 6799.000000
2041.877197 6594.000000
2043.144531 5983.000000
2044.411133 6000.000000
2045.676514 5646.000000
2046.941284 5579.000000
2048.205811 5476.000000
2049.469238 5910.000000
2050.732178 6368.000000
2051.993164 6117.000000
2053.254639 6095.000000
2054.514893 5893.000000
2055.774414 6585.000000
2057.033203 6268.000000
2058.291016 7003.000000
2059.548340 6191.000000
2060.804932 6002.000000
2062.060059 6558.000000
2063.315186 5693.000000
2064.569336 5638.000000
2065.822754 5646.000000
2067.075439 6801.000000
2068.326904 6300.000000
2069.578125 6423.000000
2070.828613 5657.000000
2072.078369 5472.000000
2073.326660 6498.000000
2074.574951 6549.000000
2075.822266 7355.000000
2077.068848 5659.000000
2078.314697 6037.000000
2079.559326 7040.000000
2080.803467 7602.000000
2082.047119 5518.000000
2083.289795 6022.000000
2084.531250 7002.000000
2085.772461 5984.000000
2087.013184 6360.000000
2088.252930 6761.000000
2089.491455 7180.000000
2090.729492 6176.000000
2091.966797 5800.000000
2093.203857 6609.000000
2094.439453 6150.000000
2095.674316 6225.000000
2096.908936 6088.000000
2098.142578 5600.000000
2099.375244 6066.000000
2100.607178 6812.000000
2101.838623 6382.000000
2103.069092 6745.000000
2104.298828 5989.000000
2105.528320 6016.000000
2106.755859 6009.000000
2107.983643 6005.000000
2109.210693 6366.000000
2110.436768 5526.000000
2111.661377 6424.000000
2112.886230 6971.000000
2114.109863 7123.000000
2115.333008 6237.000000
2116.554932 7604.000000
2117.776611 6084.000000
2118.997314 6807.000000
2120.217285 6143.000000
2121.436768 6191.000000
2122.654785 6624.000000
2123.872803 7081.000000
2125.089844 5722.000000
2126.306396 5882.000000
2127.521240 6558.000000
2128.736328 6309.000000
2129.950439 6955.000000
2131.163818 5653.000000
2132.376465 6156.000000
2133.587646 5785.000000
2134.799072 6467.000000
2136.009277 6615.000000
2137.218994 5999.000000
2138.427246 6185.000000
2139.635498 5642.000000
2140.843018 5922.000000
2142.049316 7710.000000
2143.254883 5946.000000
2144.460205 5606.000000
2145.664551 5460.000000
2146.868164 6357.000000
2148.071289 6261.000000
2149.272949 6404.000000
2150.474365 5361.000000
2151.675049 6309.000000
2152.875000 6179.000000
2154.073730 5999.000000
2155.272217 7028.000000
2156.470215 6230.000000
2157.667236 6018.000000
2158.863525 5166.000000
2160.058594 5346.000000
2161.253418 6124.000000
2162.447510 5561.000000
2163.640625 6048.000000
2164.832764 6988.000000
2166.024658 5905.000000
2167.215820 6336.000000
2168.406006 6322.000000
2169.595459 6476.000000
2170.784424 6857.000000
2171.972412 6027.000000
2173.160156 5737.000000
2174.346436 5940.000000
2175.531982 6552.000000
2176.717285 6003.000000
2177.902100 5858.000000
2179.085693 6363.000000
2180.268555 7581.000000
2181.450439 6304.000000
2182.632080 5963.000000
2183.813232 6561.000000
2184.993164 5711.000000
2186.172119 5574.000000
2187.350586 6368.000000
2188.528809 6894.000000
2189.705811 7203.000000
2190.881836 6775.000000
2192.057617 6112.000000
2193.232910 5680.000000
2194.406738 6716.000000
2195.580078 6162.000000
2196.753174 6143.000000
2197.925049 6561.000000
2199.096436 7121.000000
2200.267334 6273.000000
2201.436523 6893.000000
2202.605713 7619.000000
2203.774414 6266.000000
2204.942139 5886.000000
2206.108887 5699.000000
2207.274902 7203.000000
2208.440430 6682.000000
2209.605713 5997.000000
2210.769531 6732.000000
2211.932861 5462.000000
2213.094971 6147.000000
2214.257324 6216.000000
2215.418457 6667.000000
2216.578613 6624.000000
2217.738281 6381.000000
2218.897705 6619.000000
2220.055908 6376.000000
2221.213135 6342.000000
2222.370117 6816.000000
2223.526367 6591.000000
2224.681885 6763.000000
2225.836670 6272.000000
2226.990479 6381.000000
2228.143311 6025.000000
2229.296631 6898.000000
2230.447998 6151.000000
2231.599121 6241.000000
2232.749512 6595.000000
2233.899414 7706.000000
2235.048340 6333.000000
2236.196777 5227.000000
2237.343750 6915.000000
2238.490967 7059.000000
2239.636963 6036.000000
2240.782715 7246.000000
2241.926758 7327.000000
2243.071045 6719.000000
2244.214355 6206.000000
2245.356934 6016.000000
2246.498535 5749.000000
2247.639893 5830.000000
2248.780273 6399.000000
2249.919922 6404.000000
2251.059082 5857.000000
2252.197021 5867.000000
2253.334961 6232.000000
2254.471924 5314.000000
2255.608154 6369.000000
2256.743408 6174.000000
2257.877930 7267.000000
2259.012207 6321.000000
2260.145996 5448.000000
2261.278320 6151.000000
2262.410156 6832.000000
2263.541504 6234.000000
2264.671875 6499.000000
2265.802002 8112.000000
2266.930908 6622.000000
2268.059326 6092.000000
2269.187256 5609.000000
2270.314209 6162.000000
2271.440430 5932.000000
2272.565674 6748.000000
2273.690918 6525.000000
2274.815430 6422.000000
2275.938721 5965.000000
2277.061279 6281.000000
2278.183350 5969.000000
2279.304932 7395.000000
2280.425781 6345.000000
2281.545410 6506.000000
2282.664551 7114.000000
2283.783447 7639.000000
2284.901611 7263.000000
2286.018799 5938.000000
2287.135010 6509.000000
2288.250977 7092.000000
2289.366211 6942.000000
2290.480713 7406.000000
2291.593994 5841.000000
2292.707275 6430.000000
2293.819824 5961.000000
2294.931641 5456.000000
2296.042725 6833.000000
2297.152588 6455.000000
2298.261963 6181.000000
2299.371094 6698.000000
2300.479248 6344.000000
2301.586426 6751.000000
2302.693359 5847.000000
2303.799561 6242.000000
2304.905273 6585.000000
2306.009521 6557.000000
2307.113525 5474.000000
2308.217041 5747.000000
2309.320068 6564.000000
2310.421875 7447.000000
2311.522949 7327.000000
2312.623535 6600.000000
2313.723633 5546.000000
2314.822998 6433.000000
2315.920898 6579.000000
2317.019287 6983.000000
2318.116211 8252.000000
2319.212891 6933.000000
2320.309082 5810.000000
2321.403564 6818.000000
2322.498047 7606.000000
2323.591797 5808.000000
2324.685303 6038.000000
2325.777100 6468.000000
2326.868896 6977.000000
2327.959961 6049.000000
2329.050293 6308.000000
2330.139648 6965.000000
2331.229004 6076.000000
2332.317139 6346.000000
2333.404785 6887.000000
2334.492188 6529.000000
2335.577881 6798.000000
2336.663330 7784.000000
2337.748535 6225.000000
2338.832764 6742.000000
2339.916016 5919.000000
2340.999023 6444.000000
2342.081055 7312.000000
2343.162842 6031.000000
2344.243896 7408.000000
2345.323730 6591.000000
2346.403076 5709.000000
2347.481934 6845.000000
2348.560303 6558.000000
2349.637207 6320.000000
2350.713867 6946.000000
2351.790283 6047.000000
2352.865723 6479.000000
2353.940186 5884.000000
2355.014404 6269.000000
2356.087891 6748.000000
2357.160889 6394.000000
2358.232666 6966.000000
2359.304199 6325.000000
2360.374756 6782.000000
2361.445068 7516.000000
2362.514404 7536.000000
2363.582764 6845.000000
2364.650879 6766.000000
2365.718262 7057.000000
2366.785156 7101.000000
2367.851318 6029.000000
2368.916260 6954.000000
2369.981201 6909.000000
2371.045410 6398.000000
2372.108887 6994.000000
2373.171143 5847.000000
2374.233398 6372.000000
2375.294678 6339.000000
2376.355713 5928.000000
2377.415527 6301.000000
2378.474609 7915.000000
2379.533691 6468.000000
2380.591797 7622.000000
2381.649170 6913.000000
2382.705566 8095.000000
2383.761719 7851.000000
2384.817383 6300.000000
2385.872314 7085.000000
2386.925781 6742.000000
2387.979492 6527.000000
2389.032227 6314.000000
2390.084473 6768.000000
2391.135986 6194.000000
2392.186523 6692.000000
2393.236816 6430.000000
2394.286133 6296.000000
2395.335449 6197.000000
2396.383301 6908.000000
2397.430664 7013.000000
2398.477783 6276.000000
2399.523926 6720.000000
2400.569336 6194.000000
2401.614014 6792.000000
2402.658691 7747.000000
2403.701904 7448.000000
2404.745117 6584.000000
2405.786865 5744.000000
2406.828857 6757.000000
2407.870117 7202.000000
2408.910400 6100.000000
2409.949951 6461.000000
2410.988525 6305.000000
2412.027344 6118.000000
2413.064941 6516.000000
2414.102295 6857.000000
2415.138428 7423.000000
2416.174316 6239.000000
2417.209473 6276.000000
2418.244141 6604.000000
2419.277344 7254.000000
2420.310791 6547.000000
2421.343262 6670.000000
2422.375488 6821.000000
2423.406250 7025.000000
2424.437012 6413.000000
2425.467285 6914.000000
2426.496338 6856.000000
2427.525391 6686.000000
2428.552734 7406.000000
2429.580566 6727.000000
2430.607178 7325.000000
2431.633545 6957.000000
2432.658447 7805.000000
2433.683594 6608.000000
2434.707764 7150.000000
2435.731689 6703.000000
2436.754395 5898.000000
2437.776367 6231.000000
2438.798096 6612.000000
2439.819092 6636.000000
2440.839600 6023.000000
2441.858887 6560.000000
2442.878174 6555.000000
2443.896484 8476.000000
2444.914551 6285.000000
2445.931152 6475.000000
2446.947754 6529.000000
2447.963623 5979.000000
2448.979492 7021.000000
2449.993896 6879.000000
2451.007568 5578.000000
2452.020752 7258.000000
2453.033691 5994.000000
2454.045898 7267.000000
2455.057129 6738.000000
2456.068115 7640.000000
2457.078369 6373.000000
2458.088135 7668.000000
2459.096924 5871.000000
2460.104980 5968.000000
2461.113037 6324.000000
2462.119873 7354.000000
2463.126465 5432.000000
2464.131836 7431.000000
2465.136963 6941.000000
2466.141846 5848.000000
2467.145508 6508.000000
2468.148926 6441.000000
2469.151367 7619.000000
2470.153564 7386.000000
2471.155273 6825.000000
2472.156006 6585.000000
2473.155762 6894.000000
2474.155518 6791.000000
2475.154297 5741.000000
2476.152588 6551.000000
2477.149902 7078.000000
2478.146973 6096.000000
2479.144043 6971.000000
2480.139648 5819.000000
2481.135254 7215.000000
2482.129150 6665.000000
2483.123047 8096.000000
2484.116455 6883.000000
2485.109375 6714.000000
2486.101318 7523.000000
2487.092529 7258.000000
2488.083496 6781.000000
2489.073975 5831.000000
2490.063477 6624.000000
2491.052246 6506.000000
2492.041016 5672.000000
2493.028809 6814.000000
2494.015381 6638.000000
2495.001953 8005.000000
2495.988037 6732.000000
2496.973389 7052.000000
2497.957764 8236.000000
2498.941895 6072.000000
2499.926025 6910.000000
2500.908691 5764.000000
2501.890869 6977.000000
2502.872559 6893.000000
2503.853516 7268.000000
2504.833984 6529.000000
2505.814209 5761.000000
2506.792969 6322.000000
2507.771484 7646.000000
2508.749512 6781.000000
2509.727051 7163.000000
2510.703613 6078.000000
2511.679932 5964.000000
2512.655518 6489.000000
2513.630615 6210.000000
2514.605225 6451.000000
2515.578613 7668.000000
2516.551758 6793.000000
2517.524658 6918.000000
2518.496582 6133.000000
2519.467773 6891.000000
2520.438477 6933.000000
2521.408936 7798.000000
2522.378662 8112.000000
2523.347412 6118.000000
2524.315430 6167.000000
2525.283447 7743.000000
2526.250488 6264.000000
2527.217285 5521.000000
2528.182861 7256.000000
2529.148438 6998.000000
2530.113281 7743.000000
2531.077637 6285.000000
2532.040771 6395.000000
2533.004150 5909.000000
2533.966553 5973.000000
2534.928711 6678.000000
2535.889648 6310.000000
2536.849854 6183.000000
2537.810303 6199.000000
2538.769775 6766.000000
2539.728516 6840.000000
2540.686279 6713.000000
2541.644287 6263.000000
2542.601563 6810.000000
2543.557861 6057.000000
2544.513916 7141.000000
2545.468750 6159.000000
2546.423828 7750.000000
2547.378174 6972.000000
2548.331787 7011.000000
2549.284424 7234.000000
2550.236816 6731.000000
2551.188721 7005.000000
2552.139893 6365.000000
2553.090332 7682.000000
2554.040283 7077.000000
2554.989990 7375.000000
2555.938965 6666.000000
2556.887451 6275.000000
2557.834717 7149.000000
2558.781982 6279.000000
2559.728516 6518.000000
2560.674561 6781.000000
2561.619629 7391.000000
2562.564453 6699.000000
2563.508789 7194.000000
2564.452637 6829.000000
2565.395996 6715.000000
2566.337891 6579.000000
2567.280029 6539.000000
2568.221436 6161.000000
2569.162109 7139.000000
2570.102051 7306.000000
2571.041992 5734.000000
2571.980957 6203.000000
2572.919678 7527.000000
2573.857422 7158.000000
2574.794922 5425.000000
2575.731689 7021.000000
2576.667725 6815.000000
2577.603271 7507.000000
2578.538086 6389.000000
2579.472900 6002.000000
2580.406738 7107.000000
2581.340088 7271.000000
2582.272705 5866.000000
2583.205078 6962.000000
2584.136719 5429.000000
2585.067871 7038.000000
2585.998535 7102.000000
2586.927979 6948.000000
2587.857422 7280.000000
2588.786377 6526.000000
2589.715088 7436.000000
2590.642090 7384.000000
2591.569336 5852.000000
2592.496094 6820.000000
2593.422119 6313.000000
2594.347900 5573.000000
2595.272461 7660.000000
2596.196777 7625.000000
2597.120605 5424.000000
2598.043945 7358.000000
2598.966309 6247.000000
2599.888428 6916.000000
2600.810059 8374.000000
2601.730957 6421.000000
2602.651123 5777.000000
2603.571045 6338.000000
2604.490479 6405.000000
2605.409668 6416.000000
2606.327881 5827.000000
2607.244873 5971.000000
2608.162109 7193.000000
2609.079102 5870.000000
2609.995117 7560.000000
2610.909912 6686.000000
2611.825195 6635.000000
2612.739746 6495.000000
2613.653320 6533.000000
2614.566895 6144.000000
2615.479248 7612.000000
2616.391602 7035.000000
2617.302979 6790.000000
2618.214111 5763.000000
2619.124512 7209.000000
2620.034668 6721.000000
2620.944092 6142.000000
2621.853027 6641.000000
2622.760986 6282.000000
2623.669189 6935.000000
2624.576416 6603.000000
2625.483154 7120.000000
2626.389160 6110.000000
2627.294922 6497.000000
2628.199951 6495.000000
2629.104736 7858.000000
2630.008789 6513.000000
2630.911865 6321.000000
2631.814941 6411.000000
2632.717041 5698.000000
2633.619141 6764.000000
2634.520996 6935.000000
2635.421143 6794.000000
2636.321533 6398.000000
2637.221191 6500.000000
2638.120605 6009.000000
2639.018555 6862.000000
2639.916992 6741.000000
2640.814941 6365.000000
2641.712158 6112.000000
2642.608154 6183.000000
2643.504150 6720.000000
2644.399902 6054.000000
2645.294922 6482.000000
2646.189697 6664.000000
2647.083008 7242.000000
2647.976318 6277.000000
2648.869385 6765.000000
2649.762207 6468.000000
2650.653320 7429.000000
2651.544678 6404.000000
2652.435547 7658.000000
2653.325684 7347.000000
2654.215576 6672.000000
2655.104248 7275.000000
2655.993164 6672.000000
2656.881592 6504.000000
2657.769043 7306.000000
2658.655518 6433.000000
2659.542480 7171.000000
2660.428711 6888.000000
2661.314453 6852.000000
2662.198975 6537.000000
2663.083496 6402.000000
2663.967773 6255.000000
2664.851318 7061.000000
2665.734375 7761.000000
2666.616699 7334.000000
2667.498535 6164.000000
2668.379639 6622.000000
2669.260986 6059.000000
2670.140869 6622.000000
2671.020996 7360.000000
2671.900391 7188.000000
2672.779785 6340.000000
2673.658447 6163.000000
2674.535400 6421.000000
2675.413086 6772.000000
2676.290039 6400.000000
2677.166260 8077.000000
2678.041992 7151.000000
2678.916992 6263.000000
2679.792236 7776.000000
2680.666504 6985.000000
2681.540283 7419.000000
2682.413330 7051.000000
2683.286133 6262.000000
2684.158691 6169.000000
2685.030518 6910.000000
2685.901611 6570.000000
2686.772461 6891.000000
2687.642822 7100.000000
2688.512939 6723.000000
2689.381348 6288.000000
2690.250488 7369.000000
2691.118896 7139.000000
2691.987061 6689.000000
2692.854492 6962.000000
2693.720703 5856.000000
2694.587402 7166.000000
2695.453125 7418.000000
2696.318848 7166.000000
2697.183105 7941.000000
2698.048096 6661.000000
2698.911621 7256.000000
2699.775391 5825.000000
2700.637695 7385.000000
2701.500488 6863.000000
2702.362305 5979.000000
2703.223633 6933.000000
2704.084961 6719.000000
2704.945068 7462.000000
2705.805176 7319.000000
2706.664795 6562.000000
2707.524170 6859.000000
2708.381836 7175.000000
2709.239746 6893.000000
2710.098145 7363.000000
2710.955322 6716.000000
2711.811768 6003.000000
2712.667725 6859.000000
2713.523682 6114.000000
2714.378906 6922.000000
2715.233398 6160.000000
2716.087402 6927.000000
2716.941406 7299.000000
2717.794434 6333.000000
2718.647705 6641.000000
2719.499268 7701.000000
2720.351318 6862.000000
2721.203125 6319.000000
2722.053711 6555.000000
2722.904297 6482.000000
2723.754395 7199.000000
2724.603760 7093.000000
2725.453125 7038.000000
2726.301270 6634.000000
2727.148926 6541.000000
2727.997070 7011.000000
2728.843994 6846.000000
2729.691406 5545.000000
2730.537354 7413.000000
2731.382568 7078.000000
2732.228271 6454.000000
2733.072998 7105.000000
2733.917725 7318.000000
2734.761230 6887.000000
2735.604980 7792.000000
2736.447998 7193.000000
2737.290527 6055.000000
2738.132080 6200.000000
2738.974121 6699.000000
2739.815186 7505.000000
2740.656006 5814.000000
2741.496582 5974.000000
2742.335938 7753.000000
2743.175293 6930.000000
2744.014648 6839.000000
2744.852783 6817.000000
2745.690430 7812.000000
2746.528076 6362.000000
2747.365234 7204.000000
2748.202148 6190.000000
2749.038574 6046.000000
2749.873779 6645.000000
2750.709229 6316.000000
2751.544189 6348.000000
2752.378418 6284.000000
2753.212402 6897.000000
2754.045898 6862.000000
2754.879395 8017.000000
2755.711914 6813.000000
2756.543945 7265.000000
2757.375488 6867.000000
2758.207031 7117.000000
2759.037598 7146.000000
2759.868408 7271.000000
2760.697998 7335.000000
2761.527588 6683.000000
2762.356934 7294.000000
2763.185547 6821.000000
2764.013672 6810.000000
2764.841309 6846.000000
2765.668945 6619.000000
2766.496094 7901.000000
2767.322510 5819.000000
2768.148438 7464.000000
2768.973877 6868.000000
2769.799072 7826.000000
2770.624268 7146.000000
2771.448242 6779.000000
2772.272217 6549.000000
2773.096191 7685.000000
2773.918945 6629.000000
2774.741943 6916.000000
2775.563721 6887.000000
2776.385498 7011.000000
2777.207275 6486.000000
2778.028076 7967.000000
2778.848145 6589.000000
2779.668457 7039.000000
2780.488281 7295.000000
2781.308105 6433.000000
2782.125977 5971.000000
2782.945068 8046.000000
2783.762939 6455.000000
2784.580566 6738.000000
2785.397705 7183.000000
2786.214355 7263.000000
2787.030762 7244.000000
2787.846680 6267.000000
2788.662354 5956.000000
2789.477051 6355.000000
2790.292236 7002.000000
2791.106689 7149.000000
2791.920654 6627.000000
2792.734375 7404.000000
2793.546875 8867.000000
2794.359619 6989.000000
2795.171875 7491.000000
2795.983643 7175.000000
2796.794678 7405.000000
2797.606445 6586.000000
2798.416992 7243.000000
2799.227539 6999.000000
2800.036621 7438.000000
2800.846436 8199.000000
2801.655518 7745.000000
2802.464355 6738.000000
2803.272705 7154.000000
2804.080078 6205.000000
2804.887939 6443.000000
2805.695068 6974.000000
2806.501953 7025.000000
2807.307617 7112.000000
2808.113770 6686.000000
2808.919189 6510.000000
2809.724609 7332.000000
2810.529297 6179.000000
2811.333008 7700.000000
2812.137207 7508.000000
2812.940918 6344.000000
2813.744385 6072.000000
2814.546387 6554.000000
2815.349121 7376.000000
2816.151123 7796.000000
2816.952881 6168.000000
2817.754150 6573.000000
2818.554932 7332.000000
2819.355225 6508.000000
2820.155762 6796.000000
2820.955322 8172.000000
2821.754395 7082.000000
2822.553467 6477.000000
2823.352295 6881.000000
2824.150635 6368.000000
2824.947998 7049.000000
2825.745605 7448.000000
2826.542480 6722.000000
2827.339600 7346.000000
2828.135986 8073.000000
2828.931641 7015.000000
2829.727295 7409.000000
2830.522705 7661.000000
2831.317627 7440.000000
2832.111816 6658.000000
2832.906006 6878.000000
2833.699951 5715.000000
2834.493408 6911.000000
2835.286133 7141.000000
2836.078613 8232.000000
2836.871094 7716.000000
2837.663330 7471.000000
2838.455078 6459.000000
2839.245850 6811.000000
2840.036621 8860.000000
2840.827637 7512.000000
2841.617676 6250.000000
2842.407227 7706.000000
2843.197021 7194.000000
2843.985840 7341.000000
2844.774658 7728.000000
2845.563477 7701.000000
2846.351318 7572.000000
2847.138672 7253.000000
2847.926270 7527.000000
2848.713379 7360.000000
2849.499756 6655.000000
2850.286133 7433.000000
2851.072266 7247.000000
2851.857910 7570.000000
2852.642578 7244.000000
2853.427734 6947.000000
2854.212646 7502.000000
2854.996826 7138.000000
2855.781006 6928.000000
2856.563965 8341.000000
2857.347168 6854.000000
2858.130127 6800.000000
2858.912598 7797.000000
2859.694824 6285.000000
2860.476563 6699.000000
2861.258057 7624.000000
2862.039795 7512.000000
2862.820801 7678.000000
2863.601074 6678.000000
2864.381104 6747.000000
2865.161133 8184.000000
2865.940918 7453.000000
2866.719727 8093.000000
2867.498779 7692.000000
2868.277344 6838.000000
2869.055664 7025.000000
2869.833496 7282.000000
2870.611084 6918.000000
2871.388428 7524.000000
2872.165527 7009.000000
2872.942139 6426.000000
2873.718262 7493.000000
2874.494385 7176.000000
2875.270020 8257.000000
2876.045410 7279.000000
2876.820313 6661.000000
2877.594971 8070.000000
2878.369629 6625.000000
2879.144043 7855.000000
2879.917725 6898.000000
2880.690674 7150.000000
2881.464355 6800.000000
2882.237061 7647.000000
2883.009766 7863.000000
2883.781738 8260.000000
2884.553467 6204.000000
2885.325684 6789.000000
2886.096680 6894.000000
2886.867188 6135.000000
2887.638184 8364.000000
2888.409180 7456.000000
2889.179443 8054.000000
2889.948730 7673.000000
2890.718262 6923.000000
2891.487793 7212.000000
2892.256836 7364.000000
2893.025391 7901.000000
2893.793945 7775.000000
2894.561523 7002.000000
2895.329590 6629.000000
2896.097168 7397.000000
2896.864746 8331.000000
2897.631104 7431.000000
2898.398438 6525.000000
2899.164551 7194.000000
2899.930908 7070.000000
2900.695801 8310.000000
2901.461182 7014.000000
2902.227051 6498.000000
2902.991455 7781.000000
2903.755859 7733.000000
2904.520508 8440.000000
2905.284180 6624.000000
2906.048584 8545.000000
2906.812256 6727.000000
2907.575195 8479.000000
2908.337891 6520.000000
2909.101074 9069.000000
2909.863770 7015.000000
2910.625244 6875.000000
2911.387207 6875.000000
