scanname Analyse034
timestamp 2017-02-10 20:42:48
ccdbias 901.554199
ccdgain 3.473401
sigmaread 8.960639
laserwavenum -0.929949
wavenumcorrection -0.406985
scancount 1
totalexposurems 10000
singleexposurems 10000
measurementstate Unknown
scanmode Manual
snr 250.936783 7.029601 6.036839
replacelist 5
374 49359.000000 15068.000000
383 49220.000000 12170.000000
672 37954.000000 30881.000000
673 32770.000000 5524.000000
753 32482.000000 5676.000000
peaks 51
278.602631 0.700091 0.000000 1.423643 0.000182
284.865906 0.699794 0.000000 0.853899 0.000063
293.558319 0.701585 0.000000 0.637019 0.000029
330.377991 0.717586 0.000000 0.834081 0.000140
350.420990 0.723983 0.000000 0.594684 0.000023
361.059906 0.725311 0.000000 0.302101 0.000016
386.851166 0.729228 0.000000 1.540381 0.000318
463.677063 0.740651 0.000000 0.520103 0.000030
487.618530 0.749085 0.000000 0.453161 0.000053
534.789978 0.751405 0.000000 0.620788 0.000142
559.551941 0.785963 0.000000 1.335220 0.000229
573.645020 0.791260 0.000000 0.263682 0.000070
583.498901 0.786492 0.000000 0.626154 0.000101
660.712769 0.806344 0.000000 1.165889 0.000111
673.667908 0.804490 0.000000 1.373760 0.000261
680.611145 0.804004 0.000000 0.511549 0.000050
716.036499 0.808598 0.000000 5.293941 0.001089
720.706238 0.789613 0.000000 1.145995 0.000049
742.023804 0.805607 0.000000 0.920909 0.000103
752.943726 0.808682 0.000000 0.736668 0.000038
764.994141 0.822605 0.000000 1.342963 0.000434
772.783142 0.807838 0.000000 0.542061 0.000042
830.667114 0.791475 0.000000 0.846972 0.000147
852.975403 0.802182 0.000000 0.867565 0.000234
874.672546 0.801941 0.000000 1.348129 0.000470
937.345886 0.790490 0.000000 1.046734 0.000280
955.072937 0.786971 0.000000 3.793082 0.001039
1011.584900 0.752201 0.000000 0.777717 0.000167
1028.304077 0.763701 0.000000 0.820637 0.000177
1034.426392 0.759942 0.000000 0.620306 0.000044
1045.118408 0.767697 0.000000 3.273155 0.001003
1088.541626 0.737943 0.000000 1.909866 0.000321
1102.263794 0.727714 0.000000 0.927071 0.000298
1118.362305 0.731422 0.000000 0.506454 0.000042
1121.069092 0.737780 0.000000 0.827144 0.000194
1136.387939 0.737451 0.000000 1.922504 0.000737
1150.243286 0.730918 0.000000 2.171847 0.000791
1172.798828 0.713901 0.000000 0.685272 0.000270
1211.970459 0.710104 0.000000 0.597109 0.000089
1235.690308 0.714312 0.000000 1.369317 0.000299
1261.481445 0.711387 0.000000 1.442800 0.000317
1278.933716 0.700394 0.000000 0.374603 0.000392
1320.029907 0.789371 0.000000 20.176176 0.006856
1354.481812 0.686284 0.000000 0.698491 0.000113
1379.249146 0.675140 0.000000 0.215415 0.000038
1452.469116 0.707490 0.000000 10.664957 0.003210
1472.141235 0.674172 0.000000 5.258913 0.000860
1573.858521 0.623754 0.000000 0.097691 0.000040
1610.854980 0.619513 0.000000 1.117449 0.000207
1665.216797 0.633458 0.000000 8.323906 0.004627
1747.881470 0.575599 0.000000 1.765587 0.000682
finalresult GLS_NoMatch 0
spectrum 2048
-96.671509 46192.000000
-94.044640 46192.000000
-91.419647 46620.000000
-88.796547 46464.000000
-86.175316 47218.000000
-83.555984 46831.000000
-80.938515 47119.000000
-78.322922 46824.000000
-75.709206 47100.000000
-73.097366 47520.000000
-70.487389 47285.000000
-67.879295 47430.000000
-65.273048 47445.000000
-62.668674 47395.000000
-60.066166 47341.000000
-57.465511 47819.000000
-54.866718 47212.000000
-52.269783 46537.000000
-49.674702 46978.000000
-47.081474 46923.000000
-44.490097 47170.000000
-41.900566 46640.000000
-39.312878 47503.000000
-36.727039 47352.000000
-34.143044 46943.000000
-31.560884 47680.000000
-28.980572 47084.000000
-26.402086 47607.000000
-23.825443 47196.000000
-21.250626 47042.000000
-18.677649 46840.000000
-16.106491 46761.000000
-13.537169 46442.000000
-10.969670 45476.000000
-8.403991 46915.000000
-5.840137 46807.000000
-3.278096 47198.000000
-0.717880 47284.000000
1.840528 46760.000000
4.397115 45973.000000
6.951897 46225.000000
9.504862 46648.000000
12.056026 45768.000000
14.605378 45831.000000
17.152935 45259.000000
19.698679 45418.000000
22.242630 44853.000000
24.784777 42616.000000
27.325127 40398.000000
29.863691 37098.000000
32.400459 33284.000000
34.935425 28782.000000
37.468613 17701.000000
40.000019 10004.000000
42.529633 9288.000000
45.057449 8345.000000
47.583508 7333.000000
50.107777 6430.000000
52.630276 5701.000000
55.150978 5580.000000
57.669926 5741.000000
60.187099 7485.000000
62.702496 9460.000000
65.216110 9881.000000
67.727974 9088.000000
70.238091 7041.000000
72.746414 4933.000000
75.252983 4496.000000
77.757805 3642.000000
80.260872 2800.000000
82.762161 2422.000000
85.261711 2267.000000
87.759506 2128.000000
90.255569 2280.000000
92.749855 2733.000000
95.242401 3172.000000
97.733231 3366.000000
100.222290 3308.000000
102.709602 2652.000000
105.195190 1974.000000
107.679039 1737.000000
110.161140 1649.000000
112.641518 1592.000000
115.120171 1496.000000
117.597099 1439.000000
120.072273 1369.000000
122.545738 1325.000000
125.017471 1519.000000
127.487495 1660.000000
129.955765 1765.000000
132.422363 1862.000000
134.887207 2213.000000
137.350357 2573.000000
139.811768 3012.000000
142.271484 3591.000000
144.729477 4531.000000
147.185776 5467.000000
149.640366 6849.000000
152.093231 8335.000000
154.544418 10250.000000
156.993912 12509.000000
159.441681 14745.000000
161.887741 19950.000000
164.332123 22741.000000
166.774826 26719.000000
169.215836 27987.000000
171.655136 30290.000000
174.092728 31207.000000
176.528687 33759.000000
178.962906 34715.000000
181.395447 35466.000000
183.826340 36780.000000
186.255508 36998.000000
188.683029 38126.000000
191.108871 39327.000000
193.533035 39912.000000
195.955536 40439.000000
198.376343 41112.000000
200.795486 42576.000000
203.212967 43538.000000
205.628754 42365.000000
208.042892 43209.000000
210.455399 44217.000000
212.866226 44824.000000
215.275375 44859.000000
217.682892 43942.000000
220.088699 45391.000000
222.492920 45133.000000
224.895432 45069.000000
227.296326 44918.000000
229.695572 45492.000000
232.093155 45213.000000
234.489075 44811.000000
236.883377 45609.000000
239.276016 46332.000000
241.667038 45285.000000
244.056396 45463.000000
246.444138 45786.000000
248.830231 45143.000000
251.214691 46072.000000
253.597504 44310.000000
255.978745 45590.000000
258.358276 45484.000000
260.736237 45706.000000
263.112518 44616.000000
265.487244 44555.000000
267.860321 44263.000000
270.231750 46057.000000
272.601532 45705.000000
274.969757 46268.000000
277.336334 45765.000000
279.701324 45402.000000
282.064697 46053.000000
284.426422 45830.000000
286.786560 45024.000000
289.145081 46079.000000
291.502014 45621.000000
293.857330 45669.000000
296.211060 46108.000000
298.563141 46195.000000
300.913666 45734.000000
303.262604 45649.000000
305.609894 45181.000000
307.955658 45683.000000
310.299744 45601.000000
312.642303 44701.000000
314.983246 44583.000000
317.322571 44855.000000
319.660339 45087.000000
321.996552 43883.000000
324.331116 45710.000000
326.664124 45506.000000
328.995575 46010.000000
331.325439 45389.000000
333.653717 45526.000000
335.980377 44747.000000
338.305542 45619.000000
340.629089 45765.000000
342.951080 45959.000000
345.271515 44485.000000
347.590332 44238.000000
349.907593 46026.000000
352.223328 46098.000000
354.537476 45042.000000
356.850037 45645.000000
359.161041 45592.000000
361.470520 44953.000000
363.778473 45604.000000
366.084808 46251.000000
368.389557 45574.000000
370.692841 45645.000000
372.994507 45678.000000
375.294678 45647.000000
377.593292 45722.000000
379.890350 46223.000000
382.185852 45863.000000
384.479828 46196.000000
386.772217 46877.000000
389.063110 46464.000000
391.352478 45894.000000
393.640259 45786.000000
395.926514 45609.000000
398.211273 45047.000000
400.494415 46101.000000
402.776123 45660.000000
405.056305 45901.000000
407.334900 44739.000000
409.611969 45658.000000
411.887512 45321.000000
414.161530 45492.000000
416.434113 45462.000000
418.705078 45626.000000
420.974548 45572.000000
423.242523 44923.000000
425.508942 44736.000000
427.773865 45727.000000
430.037323 45559.000000
432.299194 45439.000000
434.559601 45873.000000
436.818451 45280.000000
439.075836 45746.000000
441.331726 46163.000000
443.586121 46001.000000
445.838989 46262.000000
448.090302 44853.000000
450.340210 45647.000000
452.588531 45435.000000
454.835419 46102.000000
457.080841 45260.000000
459.324707 45171.000000
461.567078 44963.000000
463.807953 46121.000000
466.047424 45039.000000
468.285309 46220.000000
470.521759 45783.000000
472.756683 45623.000000
474.990143 44326.000000
477.222168 44949.000000
479.452667 46028.000000
481.681671 45234.000000
483.909210 45278.000000
486.135254 45687.000000
488.359863 45125.000000
490.583008 45787.000000
492.804688 45251.000000
495.024811 44989.000000
497.243530 46046.000000
499.460754 45474.000000
501.676605 46103.000000
503.890839 45613.000000
506.103760 45233.000000
508.315094 45348.000000
510.524994 44887.000000
512.733459 45187.000000
514.940552 45167.000000
517.146057 45258.000000
519.350159 45096.000000
521.552734 45550.000000
523.753906 45058.000000
525.953735 44917.000000
528.152039 44619.000000
530.348816 46288.000000
532.544250 45712.000000
534.738159 46027.000000
536.930725 43870.000000
539.121765 44786.000000
541.311401 45504.000000
543.499634 44551.000000
545.686340 44285.000000
547.871582 44591.000000
550.055542 45112.000000
552.237915 44921.000000
554.418945 45189.000000
556.598450 45329.000000
558.776672 45438.000000
560.953369 45216.000000
563.128662 44889.000000
565.302551 44827.000000
567.474976 45407.000000
569.645996 45196.000000
571.815552 44903.000000
573.983826 46029.000000
576.150574 44830.000000
578.315857 44985.000000
580.479736 45112.000000
582.642334 45621.000000
584.803406 45193.000000
586.963074 45692.000000
589.121399 45510.000000
591.278198 45163.000000
593.433655 44754.000000
595.587708 45554.000000
597.740417 45224.000000
599.891602 44099.000000
602.041443 44557.000000
604.189941 44580.000000
606.336853 45268.000000
608.482544 44712.000000
610.626831 44835.000000
612.769653 44278.000000
614.911011 45092.000000
617.051147 44732.000000
619.189758 43505.000000
621.327087 45419.000000
623.462952 44484.000000
625.597412 44188.000000
627.730408 43868.000000
629.862244 44350.000000
631.992615 44343.000000
634.121582 44168.000000
636.249084 44447.000000
638.375305 44652.000000
640.500000 43496.000000
642.623474 44493.000000
644.745605 44017.000000
646.866272 43902.000000
648.985596 44207.000000
651.103516 45093.000000
653.220093 45051.000000
655.335266 44202.000000
657.449097 44211.000000
659.561462 44773.000000
661.672607 44526.000000
663.782349 45318.000000
665.890625 44627.000000
667.997742 44402.000000
670.103394 43842.000000
672.207581 45000.000000
674.310547 44885.000000
676.412109 43686.000000
678.512329 45392.000000
680.611145 43915.000000
682.708618 44448.000000
684.804810 43695.000000
686.899536 44321.000000
688.993042 43663.000000
691.085205 43949.000000
693.175842 42499.000000
695.265259 43926.000000
697.353394 44042.000000
699.440063 44379.000000
701.525513 43629.000000
703.609436 45149.000000
705.692139 44280.000000
707.773560 44211.000000
709.853516 42434.000000
711.932251 43693.000000
714.009521 44293.000000
716.085510 43252.000000
718.160217 43830.000000
720.233643 42815.000000
722.305542 43522.000000
724.376282 42418.000000
726.445679 43908.000000
728.513672 43056.000000
730.580322 43238.000000
732.645752 42429.000000
734.709839 43800.000000
736.772583 43251.000000
738.833984 43004.000000
740.894104 42817.000000
742.952820 43318.000000
745.010315 42727.000000
747.066528 42867.000000
749.121338 42632.000000
751.174866 42982.000000
753.226990 41948.000000
755.277893 43571.000000
757.327576 42630.000000
759.375793 43025.000000
761.422791 43157.000000
763.468506 42237.000000
765.512817 43998.000000
767.555847 43595.000000
769.597656 42963.000000
771.638123 42331.000000
773.677185 42883.000000
775.715088 43091.000000
777.751648 43149.000000
779.786987 43805.000000
781.820984 43371.000000
783.853577 42370.000000
785.885010 43687.000000
787.915039 43424.500000
789.943787 43162.000000
791.971375 42730.000000
793.997620 42612.000000
796.022461 43183.000000
798.046204 43505.000000
800.068542 42548.000000
802.089661 42979.000000
804.109436 42171.000000
806.127930 43839.000000
808.145203 41963.000000
810.161072 41748.000000
812.175781 42806.000000
814.189148 41886.000000
816.201294 41954.000000
818.212219 41929.000000
820.221802 41349.000000
822.230164 42349.000000
824.237122 41860.000000
826.242859 41440.000000
828.247375 41602.000000
830.250610 41599.000000
832.252563 40705.000000
834.253235 41108.000000
836.252686 41128.000000
838.250793 40721.000000
840.247803 39966.000000
842.243408 40690.000000
844.237854 40739.000000
846.230957 40455.000000
848.222839 39827.000000
850.213379 40919.000000
852.202637 39800.000000
854.190857 40502.000000
856.177673 40702.000000
858.163269 40091.000000
860.147583 39298.000000
862.130798 40236.000000
864.112610 40153.000000
866.093201 40800.000000
868.072510 38899.000000
870.050659 39568.000000
872.027466 40441.000000
874.002991 40677.000000
875.977478 40464.000000
877.950500 40681.000000
879.922485 41228.000000
881.893127 40175.000000
883.862610 40293.000000
885.830750 40736.000000
887.797729 40942.000000
889.763367 39873.000000
891.727844 40046.000000
893.691101 39765.000000
895.653137 39180.000000
897.613892 39623.000000
899.573425 38890.000000
901.531677 38560.000000
903.488831 38775.000000
905.444824 39004.000000
907.399414 37885.000000
909.352783 38137.000000
911.304993 38048.000000
913.255981 37930.000000
915.205688 36989.000000
917.154236 37619.000000
919.101563 37678.000000
921.047607 37504.000000
922.992371 37320.000000
924.936096 37010.000000
926.878662 37245.000000
928.819946 37404.000000
930.759888 36513.000000
932.698730 37240.000000
934.636292 37424.000000
936.572632 37111.000000
938.507813 37241.000000
940.441711 37062.000000
942.374512 37364.000000
944.306091 36511.000000
946.236511 38225.000000
948.165710 37018.000000
950.093567 36453.000000
952.020386 36960.000000
953.945923 37642.000000
955.870178 38230.000000
957.793335 37695.000000
959.715332 37014.000000
961.636047 36508.000000
963.555603 37200.000000
965.473999 38441.000000
967.391357 37258.000000
969.307251 37344.000000
971.222046 37499.000000
973.135620 37644.000000
975.048035 37135.000000
976.959229 37019.000000
978.869263 37911.000000
980.778015 37139.000000
982.685730 37213.000000
984.592224 36810.000000
986.497498 37482.000000
988.401672 36203.000000
990.304626 36758.000000
992.206360 36037.000000
994.106934 36244.000000
996.006348 35840.000000
997.904541 36894.000000
999.801575 35424.000000
1001.697388 35290.000000
1003.592041 33924.000000
1005.485596 35731.000000
1007.377869 33852.000000
1009.269226 34812.000000
1011.159241 35373.000000
1013.048035 34167.000000
1014.935669 34418.000000
1016.822144 33735.000000
1018.707458 33848.000000
1020.591614 34462.000000
1022.474548 34494.000000
1024.356445 34127.000000
1026.237061 35169.000000
1028.116577 34515.000000
1029.995117 34400.000000
1031.872314 35153.000000
1033.748169 34377.000000
1035.623047 34785.000000
1037.496948 34239.000000
1039.369385 33816.000000
1041.240845 34067.000000
1043.110962 35073.000000
1044.980103 35166.000000
1046.848022 35179.000000
1048.714844 34129.000000
1050.580566 34594.000000
1052.445068 34830.000000
1054.308472 34859.000000
1056.170532 34906.000000
1058.031616 35381.000000
1059.891602 34700.000000
1061.750244 34684.000000
1063.607788 35354.000000
1065.464233 34484.000000
1067.319580 35286.000000
1069.173706 35232.000000
1071.026978 34811.000000
1072.878784 34767.000000
1074.729614 34825.000000
1076.579224 34769.000000
1078.427612 35040.000000
1080.275146 32906.000000
1082.121338 34974.000000
1083.966309 34161.000000
1085.810425 34838.000000
1087.653198 34655.000000
1089.494751 33532.000000
1091.335571 34344.000000
1093.174805 33750.000000
1095.013306 33457.000000
1096.850464 33258.000000
1098.686401 32232.000000
1100.521362 32044.000000
1102.355103 32904.000000
1104.187866 32517.000000
1106.019287 32120.000000
1107.849854 31212.000000
1109.679077 31607.000000
1111.507324 31252.000000
1113.334351 30542.000000
1115.160400 32141.000000
1116.985229 31269.000000
1118.808960 30589.000000
1120.631470 31624.000000
1122.452881 31752.000000
1124.273438 31859.000000
1126.092529 31302.000000
1127.910767 30994.000000
1129.727661 31372.000000
1131.543701 31376.000000
1133.358521 31551.000000
1135.172241 32376.000000
1136.984863 32408.000000
1138.796265 32747.000000
1140.606689 32419.000000
1142.416016 31954.000000
1144.223999 31687.000000
1146.031250 32549.000000
1147.837036 32482.000000
1149.641968 32842.000000
1151.445801 32783.000000
1153.248413 32210.000000
1155.050171 32133.000000
1156.850464 32033.000000
1158.649780 31852.000000
1160.448120 31770.000000
1162.245117 32096.000000
1164.041382 31523.000000
1165.836304 31334.000000
1167.630127 31008.000000
1169.423096 29564.000000
1171.214722 31268.000000
1173.005371 30290.000000
1174.795044 30772.000000
1176.583252 30892.000000
1178.370605 29423.000000
1180.156860 29924.000000
1181.942017 30764.000000
1183.726074 30508.000000
1185.509033 28823.000000
1187.291016 30466.000000
1189.071777 30279.000000
1190.851563 29888.000000
1192.630249 29208.000000
1194.407959 29281.000000
1196.184448 28553.000000
1197.959839 28834.000000
1199.734131 28668.000000
1201.507324 28300.000000
1203.279663 28246.000000
1205.050659 27962.000000
1206.820801 28848.000000
1208.589722 28369.000000
1210.357544 28164.000000
1212.124512 28660.000000
1213.890137 28585.000000
1215.654785 27676.000000
1217.418335 28026.000000
1219.180786 28491.000000
1220.942383 27704.000000
1222.702759 28487.000000
1224.462036 28103.000000
1226.220459 28444.000000
1227.977661 27503.000000
1229.733765 28164.000000
1231.488770 28990.000000
1233.242920 28586.000000
1234.995728 28900.000000
1236.747559 28746.000000
1238.498535 28813.000000
1240.248169 30019.000000
1241.996948 28200.000000
1243.744385 28729.000000
1245.491089 28527.000000
1247.236572 28534.000000
1248.981201 28417.000000
1250.724487 27923.000000
1252.466797 27695.000000
1254.208008 28661.000000
1255.948364 28715.000000
1257.687622 28010.000000
1259.425659 27381.000000
1261.162842 26975.000000
1262.898804 27933.000000
1264.633789 27869.000000
1266.367798 27264.000000
1268.100830 28682.000000
1269.832642 28457.000000
1271.563477 28343.000000
1273.293091 27566.000000
1275.021851 28801.000000
1276.749512 28815.000000
1278.476074 28922.000000
1280.201782 29029.000000
1281.926147 28132.000000
1283.649658 29331.000000
1285.372192 27649.000000
1287.093750 27919.000000
1288.814087 28142.000000
1290.533447 27615.000000
1292.251709 26982.000000
1293.968994 27635.000000
1295.685303 28126.000000
1297.400391 27515.000000
1299.114502 27642.000000
1300.827637 27840.000000
1302.539917 27126.000000
1304.250977 25307.000000
1305.961060 28051.000000
1307.670044 26939.000000
1309.377808 26735.000000
1311.084961 26485.000000
1312.790649 27770.000000
1314.495605 27082.000000
1316.199585 28147.000000
1317.902344 28763.000000
1319.604126 28875.000000
1321.305054 30027.000000
1323.004639 28080.000000
1324.703369 27663.000000
1326.401367 16222.000000
1328.098022 25371.000000
1329.793579 24822.000000
1331.488281 24868.000000
1333.181763 25422.000000
1334.874390 25816.000000
1336.566162 24303.000000
1338.256592 25076.000000
1339.946289 24843.000000
1341.634888 25267.000000
1343.322388 23916.000000
1345.008911 25169.000000
1346.694336 24328.000000
1348.378784 25093.000000
1350.062378 24398.000000
1351.744751 25091.000000
1353.426147 25630.000000
1355.106689 25516.000000
1356.786011 25359.000000
1358.464722 26111.000000
1360.142090 25583.000000
1361.818359 26172.000000
1363.493652 26400.000000
1365.168213 25593.000000
1366.841553 25733.000000
1368.513916 25390.000000
1370.185303 26648.000000
1371.855713 25267.000000
1373.525024 25666.000000
1375.193359 25962.000000
1376.860840 25759.000000
1378.527222 25383.000000
1380.192627 25510.000000
1381.857056 25468.000000
1383.520264 25120.000000
1385.182861 25286.000000
1386.844116 24793.000000
1388.504517 24620.000000
1390.163818 24533.000000
1391.822144 24567.000000
1393.479736 24371.000000
1395.136108 24645.000000
1396.791626 24119.000000
1398.445923 24422.000000
1400.099365 24902.000000
1401.751709 24818.000000
1403.403320 24730.000000
1405.053711 23906.000000
1406.703003 24217.000000
1408.351563 23181.000000
1409.999023 22572.000000
1411.645508 22987.000000
1413.291138 22860.000000
1414.935791 22994.000000
1416.579224 22741.000000
1418.221802 22673.000000
1419.863281 22517.000000
1421.503906 22531.000000
1423.143555 22645.000000
1424.782104 22513.000000
1426.419800 22271.000000
1428.056396 22278.000000
1429.692017 22273.000000
1431.326904 22186.000000
1432.960693 22195.000000
1434.593384 22210.000000
1436.225098 22143.000000
1437.855957 22146.000000
1439.485718 22412.000000
1441.114380 21505.000000
1442.742432 21964.000000
1444.369385 21954.000000
1445.995117 21939.000000
1447.620239 22165.000000
1449.244263 22247.000000
1450.867310 22645.000000
1452.489380 22992.000000
1454.110352 22493.000000
1455.730347 23503.000000
1457.349609 24259.000000
1458.967529 19679.500000
1460.584839 15100.000000
1462.201172 22694.000000
1463.816284 21961.000000
1465.430542 22307.000000
1467.043945 22663.000000
1468.656250 22717.000000
1470.267700 22532.000000
1471.878296 22313.000000
1473.487671 22522.000000
1475.096069 22474.000000
1476.703613 22502.000000
1478.310181 22392.000000
1479.916016 22710.000000
1481.520630 22255.000000
1483.124390 22280.000000
1484.726929 21476.000000
1486.328857 21132.000000
1487.929565 21023.000000
1489.529541 20847.000000
1491.128418 20549.000000
1492.726440 20849.000000
1494.323364 20744.000000
1495.919434 21570.000000
1497.514526 21946.000000
1499.108643 22114.000000
1500.702026 21826.000000
1502.294312 22040.000000
1503.885376 21751.000000
1505.475952 21599.000000
1507.065186 21389.000000
1508.653809 21424.000000
1510.241333 21053.000000
1511.827759 20874.000000
1513.413452 20986.000000
1514.998047 20909.000000
1516.581787 20836.000000
1518.164429 20798.000000
1519.746338 20735.000000
1521.327148 21129.000000
1522.907227 20622.000000
1524.486084 20463.000000
1526.064087 20209.000000
1527.641357 20203.000000
1529.217407 20014.000000
1530.792725 20032.000000
1532.366943 19782.000000
1533.940430 19822.000000
1535.512695 19838.000000
1537.084229 19672.000000
1538.654785 19712.000000
1540.224487 19548.000000
1541.792969 19620.000000
1543.360718 19503.000000
1544.927612 19465.000000
1546.493286 19407.000000
1548.058228 19361.000000
1549.622070 19308.000000
1551.185303 18919.000000
1552.747192 19125.000000
1554.308472 19085.000000
1555.868652 19029.000000
1557.428101 19075.000000
1558.986450 18670.000000
1560.544067 18746.000000
1562.100586 18763.000000
1563.655884 18717.000000
1565.210571 18833.000000
1566.764526 18924.000000
1568.317505 18833.000000
1569.869141 18821.000000
1571.420044 18902.000000
1572.970215 19123.000000
1574.519409 18979.000000
1576.067261 19066.000000
1577.614624 18987.000000
1579.161011 19061.000000
1580.706543 19082.000000
1582.251099 19010.000000
1583.794434 18996.000000
1585.337158 18971.000000
1586.879028 19009.000000
1588.419800 18636.000000
1589.959595 18960.000000
1591.498657 18648.000000
1593.036621 18657.000000
1594.574097 18737.000000
1596.110229 18951.000000
1597.645264 18767.000000
1599.179810 18381.000000
1600.713379 18390.000000
1602.246094 18606.000000
1603.777222 18630.000000
1605.308105 18634.000000
1606.838135 18627.000000
1608.366943 18477.000000
1609.894653 18504.000000
1611.421753 18580.000000
1612.948120 18792.000000
1614.473511 18510.000000
1615.998047 18511.000000
1617.521240 18479.000000
1619.043701 18412.000000
1620.565430 18539.000000
1622.086304 20227.000000
1623.605713 15611.000000
1625.124634 18258.000000
1626.642822 18271.000000
1628.160156 18091.000000
1629.676392 18086.000000
1631.191284 17886.000000
1632.705688 17928.000000
1634.219360 17665.000000
1635.731934 17797.000000
1637.243286 17775.000000
1638.754272 17629.000000
1640.264160 17599.000000
1641.773193 17707.000000
1643.280884 17497.000000
1644.788208 17394.000000
1646.294678 17202.000000
1647.800171 17287.000000
1649.304810 17154.000000
1650.807983 17166.000000
1652.310547 17079.000000
1653.812744 17079.000000
1655.313599 17031.000000
1656.813354 16763.000000
1658.312256 16792.000000
1659.810791 16738.000000
1661.308105 16718.000000
1662.804688 16546.000000
1664.299683 16555.000000
1665.794434 16363.000000
1667.288330 16400.000000
1668.781250 20261.000000
1670.272827 11397.000000
1671.763916 16021.000000
1673.254395 15906.000000
1674.743774 15956.000000
1676.231689 15706.000000
1677.719360 15727.000000
1679.206055 16153.000000
1680.691895 16057.000000
1682.176880 15811.000000
1683.660400 15655.000000
1685.143677 15446.000000
1686.626099 15571.000000
1688.107422 15551.000000
1689.587280 15449.000000
1691.066895 15530.000000
1692.545776 15432.000000
1694.023682 15754.000000
1695.500610 15410.000000
1696.976318 15490.000000
1698.451660 15332.000000
1699.925781 15292.000000
1701.399292 15331.000000
1702.871338 15277.000000
1704.343140 15304.000000
1705.813965 15256.000000
1707.283936 15224.000000
1708.752563 15479.000000
1710.220703 15498.000000
1711.688110 15564.000000
1713.154419 15451.000000
1714.620117 15401.000000
1716.084106 15399.000000
1717.547974 15376.000000
1719.010986 15264.000000
1720.473022 15522.000000
1721.933838 15282.000000
1723.394043 15389.000000
1724.853516 15515.000000
1726.312134 15361.000000
1727.769775 15345.000000
1729.226074 15151.000000
1730.682129 15267.000000
1732.137207 15201.000000
1733.591309 15299.000000
1735.044189 15153.000000
1736.496826 15315.000000
1737.948364 15058.000000
1739.399170 15150.000000
1740.848999 15033.000000
1742.297485 15114.000000
1743.745605 14978.000000
1745.192871 14788.000000
1746.639404 14712.000000
1748.084351 14746.000000
1749.529053 14749.000000
1750.972900 14877.000000
1752.415894 14825.000000
1753.857422 14483.000000
1755.298706 16675.000000
1756.739136 11517.000000
1758.178589 14483.000000
1759.617065 14394.000000
1761.054565 14322.000000
1762.491577 14090.000000
1763.927612 13983.000000
1765.362793 14109.000000
1766.796509 14125.000000
1768.230103 14384.000000
1769.662720 14200.000000
1771.094482 14586.000000
1772.525391 14293.000000
1773.955078 14050.000000
1775.384033 13852.000000
1776.812500 13528.000000
1778.239990 13080.000000
1779.666138 12610.000000
1781.092041 13388.000000
1782.516846 13316.000000
1783.941040 13280.000000
1785.363770 13367.000000
1786.786011 13269.000000
1788.207520 13091.000000
1789.628296 13248.000000
1791.048096 13116.000000
1792.466553 12974.000000
1793.884521 12791.000000
1795.301880 12950.000000
1796.718384 13064.000000
1798.133423 12905.000000
1799.548096 12859.000000
1800.962158 12933.000000
1802.375000 12912.000000
1803.787231 12777.000000
1805.198120 12723.000000
1806.608521 12670.000000
1808.018188 12718.000000
1809.426880 12713.000000
1810.834473 12942.000000
1812.241577 12738.000000
1813.647827 12697.000000
1815.053101 12804.000000
1816.457275 12990.000000
1817.861084 12973.000000
1819.263916 12868.000000
1820.665894 12737.000000
1822.067261 12888.000000
1823.467163 12885.000000
1824.866455 12921.000000
1826.265259 12840.000000
1827.663208 12579.000000
1829.059814 12608.000000
1830.455811 12690.000000
1831.851074 12507.000000
1833.245728 12603.000000
1834.639404 12577.000000
1836.031738 12464.000000
1837.423584 12439.000000
1838.814819 12510.000000
1840.205078 12489.000000
1841.594116 12427.000000
1842.982788 12512.000000
1844.370483 12446.000000
1845.757446 12431.000000
1847.143066 12474.000000
1848.528442 12381.000000
1849.912964 12343.000000
1851.296753 12272.000000
1852.679443 12210.000000
1854.060913 12049.000000
1855.441895 11963.000000
1856.822388 12022.000000
1858.201904 11948.000000
1859.579956 12032.000000
1860.957886 12058.000000
1862.334839 11703.000000
1863.711060 11812.000000
1865.086426 11668.000000
1866.460327 11812.000000
1867.834106 11547.000000
1869.207031 11577.000000
1870.578857 11616.000000
1871.949707 11416.000000
1873.320190 11425.000000
1874.689575 11427.000000
1876.058472 11323.000000
1877.425781 11257.000000
1878.792969 11223.000000
1880.159180 11130.000000
1881.524658 11157.000000
1882.889404 10978.000000
1884.252563 11119.000000
1885.615601 11043.000000
1886.977783 11012.000000
1888.339111 10974.000000
1889.699097 10936.000000
1891.058716 10866.000000
1892.417725 10890.000000
1893.775757 10868.000000
1895.132935 10828.000000
1896.488892 10749.000000
1897.844604 10736.000000
1899.199341 10876.000000
1900.553223 10893.000000
1901.906006 10725.000000
1903.258301 10841.000000
1904.609863 10679.000000
1905.960571 10705.000000
1907.310059 10754.000000
1908.659058 10814.000000
1910.007202 10846.000000
1911.354736 10797.000000
1912.701538 10575.000000
1914.046753 10740.000000
1915.391724 10812.000000
1916.735962 10893.000000
1918.079346 10925.000000
1919.421387 10735.000000
1920.763184 10883.000000
1922.104126 10659.000000
1923.444336 10803.000000
1924.783569 10725.000000
1926.121826 10825.000000
1927.459473 10841.000000
1928.796387 10697.000000
1930.132446 10762.000000
1931.467285 10699.000000
1932.801758 10717.000000
1934.135498 10553.000000
1935.468384 10514.000000
1936.799805 10440.000000
1938.131348 10474.000000
1939.461548 10223.000000
1940.791260 10598.000000
1942.120117 10356.000000
1943.447754 10477.000000
1944.774902 10373.000000
1946.101318 10477.000000
1947.427002 10407.000000
1948.751343 10269.000000
1950.075439 10326.000000
1951.398682 10146.000000
1952.721191 10082.000000
1954.042603 10127.000000
1955.363037 10073.000000
1956.682861 10265.000000
1958.002319 10080.000000
1959.320801 10020.000000
1960.637939 9950.000000
1961.954712 9935.000000
1963.270752 9790.000000
1964.586060 10023.000000
1965.899902 9920.000000
1967.213501 9837.000000
1968.526367 9701.000000
1969.838379 9892.000000
1971.149780 9751.000000
1972.459839 9628.000000
1973.769409 9574.000000
1975.078247 9365.000000
1976.386475 9423.000000
1977.693359 9347.000000
1978.999634 9308.000000
1980.305542 9460.000000
1981.610229 9510.000000
1982.914429 9366.000000
1984.217407 9350.000000
1985.520020 9380.000000
1986.821655 9399.000000
1988.122681 9111.000000
1989.422119 8809.000000
1990.721680 8981.000000
1992.020142 9091.000000
1993.318115 8941.000000
1994.614502 9086.000000
1995.910889 8791.000000
1997.206299 8910.000000
1998.500977 8834.000000
1999.794800 8818.000000
2001.087402 8603.000000
2002.379517 8690.000000
2003.671143 8637.000000
2004.962036 8565.000000
2006.251343 8676.000000
2007.540405 8706.000000
2008.828735 8728.000000
2010.116333 8579.000000
2011.403076 8634.000000
2012.688721 8532.000000
2013.973999 8625.000000
2015.258301 8532.000000
2016.541992 8530.000000
2017.824341 8421.000000
2019.106323 8555.000000
2020.387817 8495.000000
2021.668335 8428.000000
2022.948120 8420.000000
2024.226807 8282.000000
2025.504761 8405.000000
2026.782227 8462.000000
2028.059082 8423.000000
2029.334229 8523.000000
2030.609497 8540.000000
2031.883789 8525.000000
2033.157104 8476.000000
2034.429565 8518.000000
2035.701660 8546.000000
2036.972656 8385.000000
2038.243408 8318.000000
2039.512817 8664.000000
2040.781128 8495.000000
2042.049438 8453.000000
2043.316772 8262.000000
2044.583374 8321.000000
2045.848755 8496.000000
2047.113525 8326.000000
2048.378174 8329.000000
2049.641357 8221.000000
2050.904297 8343.000000
2052.165283 8232.000000
2053.426758 8061.000000
2054.687012 8177.000000
2055.946533 8054.000000
2057.205322 8142.000000
2058.463135 8157.000000
2059.720459 8077.000000
2060.977051 8063.000000
2062.232178 8125.000000
2063.487305 8032.000000
2064.741455 7887.000000
2065.994873 7859.000000
2067.247559 7834.000000
2068.499023 7934.000000
2069.750244 7897.000000
2071.000732 7878.000000
2072.250488 7905.000000
2073.498779 8120.000000
2074.747070 7820.000000
2075.994385 7846.000000
2077.240967 7700.000000
2078.486816 7710.000000
2079.731445 7741.000000
2080.975586 7665.000000
2082.219238 7539.000000
2083.461914 7631.000000
2084.703369 7584.000000
2085.944580 7594.000000
2087.185303 7437.000000
2088.425049 7478.000000
2089.663574 7475.000000
2090.901611 7420.000000
2092.138916 7319.000000
2093.375977 7322.000000
2094.611572 7336.000000
2095.846436 7430.000000
2097.081055 7373.000000
2098.314697 7446.000000
2099.547363 7332.000000
2100.779297 7116.000000
2102.010742 7244.000000
2103.241211 7135.000000
2104.470947 7060.000000
2105.700439 7124.000000
2106.927979 7099.000000
2108.155762 7016.000000
2109.382813 6946.000000
2110.608887 7000.000000
2111.833496 6857.000000
2113.058350 6783.000000
2114.281982 6925.000000
2115.505127 6953.000000
2116.727051 6797.000000
2117.948730 6914.000000
2119.169434 6937.000000
2120.389404 6878.000000
2121.608887 7002.000000
2122.826904 6890.000000
2124.044922 7020.000000
2125.261963 7006.000000
2126.478516 6972.000000
2127.693359 6897.000000
2128.908447 6936.000000
2130.122559 7076.000000
2131.335938 6905.000000
2132.548584 6804.000000
2133.759766 6859.000000
2134.971191 6905.000000
2136.181396 6836.000000
2137.391113 6942.000000
2138.599365 6857.000000
2139.807617 6850.000000
2141.015137 6858.000000
2142.221436 6800.000000
2143.427002 6731.000000
2144.632324 6631.000000
2145.836670 6853.000000
2147.040283 6784.000000
2148.243408 6747.000000
2149.445068 6706.000000
2150.646484 6782.000000
2151.847168 6771.000000
2153.047119 6632.000000
2154.245850 6698.000000
2155.444336 6739.000000
2156.642334 6664.000000
2157.839355 6485.000000
2159.035645 6503.000000
2160.230713 6440.000000
2161.425537 6438.000000
2162.619629 6379.000000
2163.812744 6459.000000
2165.004883 6293.000000
2166.196777 6335.000000
2167.387939 6203.000000
2168.578125 6078.000000
2169.767578 6119.000000
2170.956543 6109.000000
2172.144531 6050.000000
2173.332275 5970.000000
2174.518555 5928.000000
2175.704102 5905.000000
2176.889404 5838.000000
2178.074219 5845.000000
2179.257813 5821.000000
2180.440674 5804.000000
2181.622559 5778.000000
2182.804199 5835.000000
2183.985352 5862.000000
2185.165283 5845.000000
2186.344238 5715.000000
2187.522705 5711.000000
2188.700928 5690.000000
2189.877930 5715.000000
2191.053955 5679.000000
2192.229736 5769.000000
2193.405029 5714.000000
2194.578857 5668.000000
2195.752197 5702.000000
2196.925293 5687.000000
2198.097168 5654.000000
2199.268555 5729.000000
2200.439453 5724.000000
2201.608643 5840.000000
2202.777832 5769.000000
2203.946533 5640.000000
2205.114258 5743.000000
2206.281006 5815.000000
2207.447021 5713.000000
2208.612549 5782.000000
2209.777832 5625.000000
2210.941650 5619.000000
2212.104980 5693.000000
2213.267090 5567.000000
2214.429443 5728.000000
2215.590576 5706.000000
2216.750732 5514.000000
2217.910400 5442.000000
2219.069824 5625.000000
2220.228027 5647.000000
2221.385254 5585.000000
2222.542236 5477.000000
2223.698486 5437.000000
2224.854004 5523.000000
2226.008789 5466.000000
2227.162598 5339.000000
2228.315430 5446.000000
2229.468750 5434.000000
2230.620117 5289.000000
2231.771240 5443.000000
2232.921631 5242.000000
2234.071533 5284.000000
2235.220459 5352.000000
2236.368896 5193.000000
2237.515869 4810.000000
2238.663086 5273.000000
2239.809082 5232.000000
2240.954834 5133.000000
2242.098877 5086.000000
2243.243164 5080.000000
2244.386475 5015.000000
2245.529053 5012.000000
2246.670654 4910.000000
2247.812012 4944.000000
2248.952393 4933.000000
2250.092041 4805.000000
2251.231201 4935.000000
2252.369141 4896.000000
2253.507080 4956.000000
2254.644043 4841.000000
2255.780273 4735.000000
2256.915527 4758.000000
2258.050049 4749.000000
2259.184326 4760.000000
2260.318115 4963.000000
2261.450439 4973.000000
2262.582275 4744.000000
2263.713623 4647.000000
2264.843994 4596.000000
2265.974121 4622.000000
2267.103027 4742.000000
2268.231445 4620.000000
2269.359375 4645.000000
2270.486328 4504.000000
2271.612549 4532.000000
2272.737793 4516.000000
2273.863037 4564.000000
2274.987549 4602.000000
2276.110840 4584.000000
2277.233398 4491.000000
2278.355469 4483.000000
2279.477051 4471.000000
2280.597900 4327.000000
2281.717529 4481.000000
2282.836670 4442.000000
2283.955566 4374.000000
2285.073730 4329.000000
2286.190918 4259.000000
2287.307129 4414.000000
2288.423096 4440.000000
2289.538330 4328.000000
2290.652832 4426.000000
2291.766113 4505.000000
2292.879395 4396.000000
2293.991943 4408.000000
2295.103760 4447.000000
2296.214844 4348.000000
2297.324707 4535.000000
2298.434082 4483.000000
2299.543213 4476.000000
2300.651367 4505.000000
2301.758545 4409.000000
2302.865479 4434.000000
2303.971680 4477.000000
2305.077393 4436.000000
2306.181641 4507.000000
2307.285645 4354.000000
2308.389160 4389.000000
2309.492188 4390.000000
2310.593994 4340.000000
2311.695068 4297.000000
2312.795654 4339.000000
2313.895752 4383.000000
2314.995117 4247.000000
2316.093018 4289.000000
2317.191406 4241.000000
2318.288330 4297.000000
2319.385010 4150.000000
2320.481201 4311.000000
2321.575684 4239.000000
2322.670166 4295.000000
2323.763916 4135.000000
2324.857422 4236.000000
2325.949219 4202.000000
2327.041016 4161.000000
2328.132080 4125.000000
2329.222412 4237.000000
2330.311768 4217.000000
2331.401123 4216.000000
2332.489258 4219.000000
2333.576904 4102.000000
2334.664307 4034.000000
2335.750000 4054.000000
2336.835449 4004.000000
2337.920654 4030.000000
2339.004883 3839.000000
2340.088135 3899.000000
2341.171143 3921.000000
2342.253174 3864.000000
2343.334961 3756.000000
2344.416016 3894.000000
2345.495850 3893.000000
2346.575195 3806.000000
2347.654053 3775.000000
2348.732422 3768.000000
2349.809326 3741.000000
2350.885986 3798.000000
2351.962402 3740.000000
2353.037842 3693.000000
2354.112305 3637.000000
2355.186523 3655.000000
2356.260010 3568.000000
2357.333008 3700.000000
2358.404785 3619.000000
2359.476318 3611.000000
2360.546875 3582.000000
2361.617188 3633.000000
2362.686523 3537.000000
2363.754883 3534.000000
2364.822998 3427.000000
2365.890381 3468.000000
2366.957275 3621.000000
2368.023438 3518.000000
2369.088379 3460.000000
2370.153320 3479.000000
2371.217529 3352.000000
2372.281006 3419.000000
2373.343262 3413.000000
2374.405518 3357.000000
2375.466797 3461.000000
2376.527832 3336.000000
2377.587646 3405.000000
2378.646729 3363.000000
2379.705811 3277.000000
2380.763916 3414.000000
2381.821289 3408.000000
2382.877686 3369.000000
2383.933838 3390.000000
2384.989502 3471.000000
2386.044434 3320.000000
2387.097900 3436.000000
2388.151611 3294.000000
2389.204346 3307.000000
2390.256592 3382.000000
2391.308105 3365.000000
2392.358643 3393.000000
2393.408936 3341.000000
2394.458252 3419.000000
2395.507568 3355.000000
2396.555420 3242.000000
2397.602783 3181.000000
2398.649902 3290.000000
2399.696045 3279.000000
2400.741455 3214.000000
2401.786133 3293.000000
2402.830811 3251.000000
2403.874023 3297.000000
2404.917236 3298.000000
2405.958984 3276.000000
2407.000977 3209.000000
2408.042236 3150.000000
2409.082520 3227.000000
2410.122070 3253.000000
2411.160645 3325.000000
2412.199463 3301.000000
2413.237061 3203.000000
2414.274414 3183.000000
2415.310547 3118.000000
2416.346436 3211.000000
2417.381592 3222.000000
2418.416260 3151.000000
2419.449463 3190.000000
2420.482910 3233.000000
2421.515381 3158.000000
2422.547607 3128.000000
2423.578369 3154.000000
2424.609131 3104.000000
2425.639404 3131.000000
2426.668457 3204.000000
2427.697510 3161.000000
2428.724854 3016.000000
2429.752686 3105.000000
2430.779297 3059.000000
2431.805664 3052.000000
2432.830566 2998.000000
2433.855713 2937.000000
2434.879883 2949.000000
2435.903809 2945.000000
2436.926514 2952.000000
2437.948486 2864.000000
2438.970215 2958.000000
2439.991211 2887.000000
2441.011719 2850.000000
2442.031006 2853.000000
2443.050293 2813.000000
2444.068604 2909.000000
2445.086670 2851.000000
2446.103271 2812.000000
2447.119873 2889.000000
2448.135742 2807.000000
2449.151611 2898.000000
2450.166016 2797.000000
2451.179688 2728.000000
2452.192871 2846.000000
2453.205811 2746.000000
2454.218018 2732.000000
2455.229248 2761.000000
2456.240234 2811.000000
2457.250488 2732.000000
2458.260254 2677.000000
2459.269043 2808.000000
2460.277100 2651.000000
2461.285156 2658.000000
2462.291992 2684.000000
2463.298584 2707.000000
2464.303955 2580.000000
2465.309082 2557.000000
2466.313965 2637.000000
2467.317627 2583.000000
2468.321045 2554.000000
2469.323486 2636.000000
2470.325684 2802.000000
2471.327393 2658.000000
2472.328125 2581.000000
2473.327881 2563.000000
2474.327637 2580.000000
2475.326416 2576.000000
2476.324707 2495.000000
2477.322021 2622.000000
2478.319092 2538.000000
2479.316162 2515.000000
2480.311768 2537.000000
2481.307373 2559.000000
2482.301270 2541.000000
2483.295166 2516.000000
2484.288574 2529.000000
2485.281494 2462.000000
2486.273438 2550.000000
2487.264648 2483.000000
2488.255615 2429.000000
2489.246094 2534.000000
2490.235596 2556.000000
2491.224365 2508.000000
2492.213135 2649.000000
2493.200928 2562.000000
2494.187500 2548.000000
2495.174072 2437.000000
2496.160156 2480.000000
2497.145508 2581.000000
2498.129883 2488.000000
2499.114014 2572.000000
2500.098145 2533.000000
2501.080811 2501.000000
2502.062988 2530.000000
2503.044678 2469.000000
2504.025635 2428.000000
2505.006104 2335.000000
2505.986328 2490.000000
2506.965088 2455.000000
2507.943604 2491.000000
2508.921631 2395.000000
2509.899170 2345.000000
2510.875732 2467.000000
2511.852051 2498.000000
2512.827637 2386.000000
2513.802734 2397.000000
2514.777344 2458.000000
2515.750732 2454.000000
2516.723877 2360.000000
2517.696777 2336.000000
2518.668701 2374.000000
2519.639893 2325.000000
2520.610596 2324.000000
2521.581055 2361.000000
2522.550781 2247.000000
2523.519531 2252.000000
2524.487549 2258.000000
2525.455566 2308.000000
2526.422607 2290.000000
2527.389404 2285.000000
2528.354980 2268.000000
2529.320557 2357.000000
2530.285400 2315.000000
2531.249756 2271.000000
2532.212891 2170.000000
2533.176270 2204.000000
2534.138672 2190.000000
2535.100830 2245.000000
2536.061768 2294.000000
2537.021973 2212.000000
2537.982422 2256.000000
2538.941895 2300.000000
2539.900635 2162.000000
2540.858398 2244.000000
2541.816406 2164.000000
2542.773682 2136.000000
2543.729980 2149.000000
2544.686035 2100.000000
2545.640869 2207.000000
2546.595947 2152.000000
2547.550293 2052.000000
2548.503906 2103.000000
2549.456543 2068.000000
2550.408936 2054.000000
2551.360840 2124.000000
2552.312012 2072.000000
2553.262451 2023.000000
2554.212402 1933.000000
2555.162109 1967.000000
2556.111084 2021.000000
2557.059570 2025.000000
2558.006836 2093.000000
2558.954102 2054.000000
2559.900635 2045.000000
2560.846680 2071.000000
2561.791748 2018.000000
2562.736572 2067.000000
2563.680908 2053.000000
2564.624756 1966.000000
2565.568115 1949.000000
2566.510010 1915.000000
2567.452148 2005.000000
2568.393555 1981.000000
2569.334229 1856.000000
2570.274170 1931.000000
2571.214111 1889.000000
2572.153076 2015.000000
2573.091797 1923.000000
2574.029541 1899.000000
2574.967041 1845.000000
2575.903809 1839.000000
2576.839844 1958.000000
2577.775391 1926.000000
2578.710205 1898.000000
2579.645020 1913.000000
2580.578857 1877.000000
2581.512207 1929.000000
2582.444824 1973.000000
2583.377197 1956.000000
2584.308838 1954.000000
2585.239990 1953.000000
2586.170654 1903.000000
2587.100098 2007.000000
2588.029541 1853.000000
2588.958496 1832.000000
2589.887207 1970.000000
2590.814209 1818.000000
2591.741455 1883.000000
2592.668213 1854.000000
2593.594238 1843.000000
2594.520020 1948.000000
2595.444580 1891.000000
2596.368896 1838.000000
2597.292725 1821.000000
2598.216064 1890.000000
2599.138428 1815.000000
2600.060547 1757.000000
2600.982178 1784.000000
2601.903076 1867.000000
2602.823242 1720.000000
2603.743164 1807.000000
2604.662598 1898.000000
2605.581787 1845.000000
2606.500000 1803.000000
2607.416992 1852.000000
2608.334229 1818.000000
2609.251221 1740.000000
2610.167236 1771.000000
2611.082031 1613.000000
2611.997314 1744.000000
2612.911865 1843.000000
2613.825439 1781.000000
2614.739014 1689.000000
2615.651367 1771.000000
2616.563721 1596.000000
2617.475098 1695.000000
2618.386230 1714.000000
2619.296631 1710.000000
2620.206787 1734.000000
2621.116211 1732.000000
2622.025146 1601.000000
2622.933105 1739.000000
2623.841309 1548.000000
2624.748535 1632.000000
2625.655273 1707.000000
2626.561279 1747.000000
2627.467041 1786.000000
2628.372070 1528.000000
2629.276855 1672.000000
2630.180908 1666.000000
2631.083984 1694.000000
2631.987061 1688.000000
2632.889160 1607.000000
2633.791260 1619.000000
2634.693115 1632.000000
2635.593262 1632.000000
2636.493652 1620.000000
2637.393311 1671.000000
2638.292725 1611.000000
2639.190674 1648.000000
2640.089111 1604.000000
2640.987061 1551.000000
2641.884277 1598.000000
2642.780273 1490.000000
2643.676270 1641.000000
2644.572021 1603.000000
2645.467041 1513.000000
2646.361816 1533.000000
2647.255127 1481.000000
2648.148438 1474.000000
2649.041504 1478.000000
2649.934326 1633.000000
2650.825439 1450.000000
2651.716797 1534.000000
2652.607666 1465.000000
2653.497803 1488.000000
2654.387695 1406.000000
2655.276367 1488.000000
2656.165283 1449.000000
2657.053711 1438.000000
2657.941162 1524.000000
2658.827637 1535.000000
2659.714600 1367.000000
2660.600830 1493.000000
2661.486572 1395.000000
2662.371094 1419.000000
2663.255615 1446.000000
2664.139893 1493.000000
2665.023438 1541.000000
2665.906494 1411.000000
2666.788818 1494.000000
2667.670654 1428.000000
2668.551758 1434.000000
2669.433105 1423.000000
2670.312988 1374.000000
2671.193115 1480.000000
2672.072510 1552.000000
2672.951904 1444.000000
2673.830566 1486.000000
2674.707520 1415.000000
2675.585205 1424.000000
2676.462158 1524.000000
2677.338379 1365.000000
2678.214111 1377.000000
2679.089111 1394.000000
2679.964355 1379.000000
2680.838623 1416.000000
2681.712402 1411.000000
2682.585449 1406.000000
2683.458252 1397.000000
2684.330811 1382.000000
2685.202637 1372.000000
2686.073730 1330.000000
2686.944580 1345.000000
2687.814941 1311.000000
2688.685059 1376.000000
2689.553467 1345.000000
2690.422607 1309.000000
2691.291016 1325.000000
2692.159180 1383.000000
2693.026611 1365.000000
2693.892822 1331.000000
2694.759521 1309.000000
2695.625244 1311.000000
2696.490967 1254.000000
2697.355225 1329.000000
2698.220215 1295.000000
2699.083740 1289.000000
2699.947510 1362.000000
2700.809814 1323.000000
2701.672607 1350.000000
2702.534424 1266.000000
2703.395752 1298.000000
2704.257080 1324.000000
2705.117188 1267.000000
2705.977295 1332.000000
2706.836914 1304.000000
2707.696289 1251.000000
2708.553955 1145.000000
2709.411865 1307.000000
2710.270264 1249.000000
2711.127441 1228.000000
2711.983887 1166.000000
2712.839844 1214.000000
2713.695801 1171.000000
2714.551025 1271.000000
2715.405518 1275.000000
2716.259521 1160.000000
2717.113525 1176.000000
2717.966553 1203.000000
2718.819824 1139.000000
2719.671387 1291.000000
2720.523438 1164.000000
2721.375244 1175.000000
2722.225830 1106.000000
2723.076416 1222.000000
2723.926514 1125.000000
2724.775879 1128.000000
2725.625244 1190.000000
2726.473389 1192.000000
2727.321045 1188.000000
2728.169189 1190.000000
2729.016113 1197.000000
2729.863525 1117.000000
2730.709473 1143.000000
2731.554688 1104.000000
2732.400391 1165.000000
2733.245117 1113.000000
2734.089844 1174.000000
2734.933350 1174.000000
2735.777100 1108.000000
2736.620117 1087.000000
2737.462646 1170.000000
2738.304199 1076.000000
2739.146240 1080.000000
2739.987305 1211.000000
2740.828125 1157.000000
2741.668701 1128.000000
2742.508057 1116.000000
2743.347412 1053.000000
2744.186768 1186.000000
2745.024902 1053.000000
2745.862549 1029.000000
2746.700195 1188.000000
2747.537354 1123.000000
2748.374268 1101.000000
2749.210693 1146.000000
2750.045898 1182.000000
2750.881348 1164.000000
2751.716309 1073.000000
2752.550537 1142.000000
2753.384521 1081.000000
2754.218018 1044.000000
2755.051514 1112.000000
2755.884033 1091.000000
2756.716064 1084.000000
2757.547607 1085.000000
2758.379150 1047.000000
2759.209717 1052.000000
2760.040527 1069.000000
2760.870117 960.000000
2761.699707 1133.000000
2762.529053 1031.000000
2763.357666 1004.000000
2764.185791 1014.000000
2765.013428 989.000000
2765.841064 989.000000
2766.668213 1045.000000
2767.494629 1035.000000
2768.320557 1032.000000
2769.145996 1010.000000
2769.971191 993.000000
2770.796387 1038.000000
2771.620361 998.000000
2772.444336 1068.000000
2773.268311 1008.000000
2774.091064 965.000000
2774.914063 1244.000000
2775.735840 1016.000000
2776.557617 1024.000000
2777.379395 1020.000000
2778.200195 941.000000
2779.020264 993.000000
2779.840576 980.000000
2780.660400 972.000000
2781.480225 861.000000
2782.298096 947.000000
2783.117188 1011.000000
2783.935059 973.000000
2784.752686 951.000000
2785.569824 902.000000
2786.386475 934.000000
2787.202881 926.000000
2788.018799 881.000000
2788.834473 894.000000
2789.649170 976.000000
2790.464355 824.000000
2791.278809 904.000000
2792.092773 806.000000
2792.906494 784.000000
2793.718994 864.000000
2794.531738 875.000000
2795.343994 852.000000
2796.155762 1044.000000
2796.966797 925.000000
2797.778564 944.000000
2798.589111 881.000000
2799.399658 900.000000
2800.208740 936.000000
2801.018555 765.000000
2801.827637 897.000000
2802.636475 783.000000
2803.444824 876.000000
2804.252197 836.000000
2805.060059 858.000000
2805.867188 906.000000
2806.674072 822.000000
2807.479736 760.000000
2808.285889 973.000000
2809.091309 900.000000
2809.896729 868.000000
2810.701416 825.000000
2811.505127 872.000000
2812.309326 922.000000
2813.113037 889.000000
2813.916504 776.000000
2814.718506 769.000000
2815.521240 761.000000
2816.323242 800.000000
2817.125000 790.000000
2817.926270 943.000000
2818.727051 749.000000
2819.527344 870.000000
2820.327881 879.000000
2821.127441 876.000000
2821.926514 821.000000
2822.725586 826.000000
2823.524414 776.000000
2824.322754 861.000000
2825.120117 816.000000
2825.917725 842.000000
2826.714600 849.000000
2827.511719 852.000000
2828.308105 715.000000
2829.103760 755.000000
2829.899414 824.000000
2830.694824 794.000000
2831.489746 847.000000
2832.283936 786.000000
2833.078125 827.000000
2833.872070 759.000000
2834.665527 881.000000
2835.458252 722.000000
2836.250732 771.000000
2837.043213 777.000000
2837.835449 741.000000
2838.627197 810.000000
2839.417969 865.000000
2840.208740 786.000000
2840.999756 870.000000
2841.789795 838.000000
2842.579346 772.000000
2843.369141 722.000000
2844.157959 785.000000
2844.946777 916.000000
2845.735596 752.000000
2846.523438 700.000000
2847.310791 816.000000
2848.098389 797.000000
2848.885498 771.000000
2849.671875 856.000000
2850.458252 703.000000
2851.244385 812.000000
2852.030029 758.000000
2852.814697 710.000000
2853.599854 727.000000
2854.384766 739.000000
2855.168945 832.000000
2855.953125 836.000000
2856.736084 676.000000
2857.519287 675.000000
2858.302246 774.000000
2859.084717 775.000000
2859.866943 697.000000
2860.648682 672.000000
2861.430176 667.000000
2862.211914 755.000000
2862.992920 802.000000
2863.773193 774.000000
2864.553223 745.000000
2865.333252 750.000000
2866.113037 714.000000
2866.891846 881.000000
2867.670898 639.000000
2868.449463 813.000000
2869.227783 795.000000
2870.005615 720.000000
2870.783203 769.000000
2871.560547 665.000000
2872.337646 782.000000
2873.114258 846.000000
2873.890381 856.000000
2874.666504 850.000000
2875.442139 902.000000
2876.217529 744.000000
2876.992432 777.000000
2877.767090 776.000000
2878.541748 755.000000
2879.316162 760.000000
2880.089844 844.000000
2880.862793 830.000000
2881.636475 751.000000
2882.409180 718.000000
2883.181885 828.000000
2883.953857 860.000000
2884.725586 828.000000
2885.497803 702.000000
2886.268799 791.000000
2887.039307 737.000000
2887.810303 781.000000
2888.581299 820.000000
2889.351563 813.000000
2890.120850 774.000000
2890.890381 693.000000
2891.659912 769.000000
2892.428955 772.000000
2893.197510 775.000000
2893.966064 771.000000
2894.733643 686.000000
2895.501709 787.000000
2896.269287 820.000000
2897.036865 750.000000
2897.803223 630.000000
2898.570557 696.000000
2899.336670 810.000000
2900.103027 668.000000
2900.867920 681.000000
2901.633301 764.000000
2902.399170 588.000000
2903.163574 659.000000
2903.927979 708.000000
2904.692627 766.000000
2905.456299 732.000000
2906.220703 631.000000
2906.984375 695.000000
2907.747314 616.000000
2908.510010 612.000000
2909.273193 715.000000
2910.035889 605.000000
2910.797363 687.000000
2911.559326 687.000000
spectrumdark 2048
-96.671509 6133.000000
-94.044640 6133.000000
-91.419647 6007.000000
-88.796547 6403.000000
-86.175316 5795.000000
-83.555984 6254.000000
-80.938515 6071.000000
-78.322922 6439.000000
-75.709206 6199.000000
-73.097366 5834.000000
-70.487389 6105.000000
-67.879295 5970.000000
-65.273048 5974.000000
-62.668674 6019.000000
-60.066166 6112.000000
-57.465511 5634.000000
-54.866718 6253.000000
-52.269783 6873.000000
-49.674702 6471.000000
-47.081474 6504.000000
-44.490097 6249.000000
-41.900566 6762.000000
-39.312878 5890.000000
-36.727039 6063.000000
-34.143044 6436.000000
-31.560884 5678.000000
-28.980572 6293.000000
-26.402086 5752.000000
-23.825443 6170.000000
-21.250626 6305.000000
-18.677649 6469.000000
-16.106491 6490.000000
-13.537169 6789.000000
-10.969670 7753.000000
-8.403991 6299.000000
-5.840137 6391.000000
-3.278096 5932.000000
-0.717880 5818.000000
1.840528 6203.000000
4.397115 6883.000000
6.951897 6583.000000
9.504862 6025.000000
12.056026 6769.000000
14.605378 6463.000000
17.152935 6686.000000
19.698679 6007.000000
22.242630 5758.000000
24.784777 6691.000000
27.325127 6775.000000
29.863691 6801.000000
32.400459 6186.000000
34.935425 5745.000000
37.468613 7194.000000
40.000019 6331.000000
42.529633 7079.000000
45.057449 6528.000000
47.583508 7858.000000
50.107777 5697.000000
52.630276 6230.000000
55.150978 6634.000000
57.669926 6325.000000
60.187099 6425.000000
62.702496 6675.000000
65.216110 5645.000000
67.727974 5729.000000
70.238091 6519.000000
72.746414 6551.000000
75.252983 5891.000000
77.757805 6335.000000
80.260872 6398.000000
82.762161 6271.000000
85.261711 6102.000000
87.759506 6410.000000
90.255569 5739.000000
92.749855 7292.000000
95.242401 5803.000000
97.733231 6909.000000
100.222290 7137.000000
102.709602 6363.000000
105.195190 6165.000000
107.679039 6422.000000
110.161140 5730.000000
112.641518 6703.000000
115.120171 6175.000000
117.597099 6443.000000
120.072273 7209.000000
122.545738 6785.000000
125.017471 5823.000000
127.487495 6727.000000
129.955765 6283.000000
132.422363 6323.000000
134.887207 5659.000000
137.350357 6175.000000
139.811768 7191.000000
142.271484 6914.000000
144.729477 6355.000000
147.185776 5930.000000
149.640366 5843.000000
152.093231 6859.000000
154.544418 6377.000000
156.993912 6551.000000
159.441681 6137.000000
161.887741 6627.000000
164.332123 8687.000000
166.774826 6435.000000
169.215836 6806.000000
171.655136 6218.000000
174.092728 7251.000000
176.528687 6570.000000
178.962906 6882.000000
181.395447 7109.000000
183.826340 6660.000000
186.255508 7138.000000
188.683029 6749.000000
191.108871 6292.000000
193.533035 6646.000000
195.955536 7141.000000
198.376343 7428.000000
200.795486 6486.000000
203.212967 6028.000000
205.628754 7576.000000
208.042892 7107.000000
210.455399 6380.000000
212.866226 6060.000000
215.275375 6265.000000
217.682892 7412.000000
220.088699 6114.000000
222.492920 6497.000000
224.895432 6728.000000
227.296326 6962.000000
229.695572 6492.000000
232.093155 6833.000000
234.489075 7274.000000
236.883377 6501.000000
239.276016 5772.000000
241.667038 6824.000000
244.056396 6626.000000
246.444138 6337.000000
248.830231 6982.000000
251.214691 6093.000000
253.597504 7820.000000
255.978745 6572.000000
258.358276 6686.000000
260.736237 6433.000000
263.112518 7575.000000
265.487244 7581.000000
267.860321 7865.000000
270.231750 6076.000000
272.601532 6450.000000
274.969757 5871.000000
277.336334 6327.000000
279.701324 6671.000000
282.064697 6033.000000
284.426422 6264.000000
286.786560 7090.000000
289.145081 6022.000000
291.502014 6490.000000
293.857330 6423.000000
296.211060 6012.000000
298.563141 5945.000000
300.913666 6364.000000
303.262604 6385.000000
305.609894 6863.000000
307.955658 6393.000000
310.299744 6479.000000
312.642303 7340.000000
314.983246 7514.000000
317.322571 7194.000000
319.660339 6954.000000
321.996552 8138.000000
324.331116 6296.000000
326.664124 6488.000000
328.995575 5997.000000
331.325439 6593.000000
333.653717 6416.000000
335.980377 7241.000000
338.305542 6325.000000
340.629089 6206.000000
342.951080 6014.000000
345.271515 7488.000000
347.590332 7743.000000
349.907593 5991.000000
352.223328 5880.000000
354.537476 6932.000000
356.850037 6317.000000
359.161041 6383.000000
361.470520 7042.000000
363.778473 6381.000000
366.084808 5725.000000
368.389557 6418.000000
370.692841 6374.000000
372.994507 6296.000000
375.294678 6335.000000
377.593292 6283.000000
379.890350 5757.000000
382.185852 6108.000000
384.479828 5812.000000
386.772217 5159.000000
389.063110 5586.000000
391.352478 6171.000000
393.640259 6273.000000
395.926514 6500.000000
398.211273 7042.000000
400.494415 5980.000000
402.776123 6455.000000
405.056305 6174.000000
407.334900 7312.000000
409.611969 6452.000000
411.887512 6729.000000
414.161530 6534.000000
416.434113 6544.000000
418.705078 6372.000000
420.974548 6384.000000
423.242523 7062.000000
425.508942 7201.000000
427.773865 6241.000000
430.037323 6333.000000
432.299194 6417.000000
434.559601 5965.000000
436.818451 6567.000000
439.075836 6082.000000
441.331726 5682.000000
443.586121 5779.000000
445.838989 5483.000000
448.090302 6914.000000
450.340210 6109.000000
452.588531 6292.000000
454.835419 5611.000000
457.080841 6462.000000
459.324707 6544.000000
461.567078 6758.000000
463.807953 5625.000000
466.047424 6687.000000
468.285309 5440.000000
470.521759 5880.000000
472.756683 6044.000000
474.990143 7339.000000
477.222168 6715.000000
479.452667 5625.000000
481.681671 6413.000000
483.909210 6341.000000
486.135254 5963.000000
488.359863 6515.000000
490.583008 5851.000000
492.804688 6415.000000
495.024811 6666.000000
497.243530 5658.000000
499.460754 6195.000000
501.676605 5578.000000
503.890839 6115.000000
506.103760 6469.000000
508.315094 6397.000000
510.524994 6819.000000
512.733459 6532.000000
514.940552 6538.000000
517.146057 6422.000000
519.350159 6570.000000
521.552734 6130.000000
523.753906 6577.000000
525.953735 6673.000000
528.152039 6953.000000
530.348816 5309.000000
532.544250 5817.000000
534.738159 5503.000000
536.930725 7627.000000
539.121765 6711.000000
541.311401 5971.000000
543.499634 6915.000000
545.686340 7167.000000
547.871582 6803.000000
550.055542 6246.000000
552.237915 6410.000000
554.418945 6131.000000
556.598450 5959.000000
558.776672 5826.000000
560.953369 6045.000000
563.128662 6405.000000
565.302551 6454.000000
567.474976 5866.000000
569.645996 6048.000000
571.815552 6339.000000
573.983826 5251.000000
576.150574 6429.000000
578.315857 6289.000000
580.479736 6137.000000
582.642334 5683.000000
584.803406 6095.000000
586.963074 5631.000000
589.121399 5803.000000
591.278198 6167.000000
593.433655 6591.000000
595.587708 5779.000000
597.740417 6119.000000
599.891602 7179.000000
602.041443 6795.000000
604.189941 6742.000000
606.336853 6018.000000
608.482544 6555.000000
610.626831 6430.000000
612.769653 7031.000000
614.911011 6145.000000
617.051147 6468.000000
619.189758 7662.000000
621.327087 5724.000000
623.462952 6619.000000
625.597412 6914.000000
627.730408 7176.000000
629.862244 6653.000000
631.992615 6640.000000
634.121582 6774.000000
636.249084 6449.000000
638.375305 6204.000000
640.500000 7358.000000
642.623474 6353.000000
644.745605 6740.000000
646.866272 6810.000000
648.985596 6509.000000
651.103516 5664.000000
653.220093 5638.000000
655.335266 6461.000000
657.449097 6481.000000
659.561462 5879.000000
661.672607 6093.000000
663.782349 5340.000000
665.890625 6047.000000
667.997742 6291.000000
670.103394 6815.000000
672.207581 5670.000000
674.310547 5768.000000
676.412109 6987.000000
678.512329 5291.000000
680.611145 6727.000000
682.708618 6209.000000
684.804810 7000.000000
686.899536 6314.000000
688.993042 6983.000000
691.085205 6635.000000
693.175842 8027.000000
695.265259 6629.000000
697.353394 6444.000000
699.440063 6002.000000
701.525513 6687.000000
703.609436 5099.000000
705.692139 5891.000000
707.773560 5941.000000
709.853516 7581.000000
711.932251 6255.000000
714.009521 5583.000000
716.085510 6578.000000
718.160217 5999.000000
720.233643 7015.000000
722.305542 6290.000000
724.376282 7370.000000
726.445679 5776.000000
728.513672 6522.000000
730.580322 6322.000000
732.645752 7056.000000
734.709839 5700.000000
736.772583 6221.000000
738.833984 6413.000000
740.894104 6596.000000
742.952820 6057.000000
745.010315 6625.000000
747.066528 6482.000000
749.121338 6698.000000
751.174866 6332.000000
753.226990 7390.000000
755.277893 5730.000000
757.327576 6648.000000
759.375793 6324.000000
761.422791 6160.000000
763.468506 7036.000000
765.512817 5312.000000
767.555847 5725.000000
769.597656 6372.500000
771.638123 7020.000000
773.677185 6332.000000
775.715088 6077.000000
777.751648 5991.000000
779.786987 5385.000000
781.820984 5832.000000
783.853577 6880.000000
785.885010 5538.000000
787.915039 5784.000000
789.943787 6030.000000
791.971375 6329.000000
793.997620 6392.000000
796.022461 5832.000000
798.046204 5456.000000
800.068542 6337.000000
802.089661 5887.000000
804.109436 6661.000000
806.127930 4892.000000
808.145203 6704.000000
810.161072 6850.000000
812.175781 5679.000000
814.189148 6459.000000
816.201294 6241.000000
818.212219 6077.000000
820.221802 6520.000000
822.230164 5322.000000
824.237122 5650.000000
826.242859 5998.000000
828.247375 5730.000000
830.250610 5632.000000
832.252563 6453.000000
834.253235 5993.000000
836.252686 5913.000000
838.250793 6304.000000
840.247803 6976.000000
842.243408 6219.000000
844.237854 6003.000000
846.230957 6203.000000
848.222839 6792.000000
850.213379 5637.000000
852.202637 6715.000000
854.190857 6002.000000
856.177673 5754.000000
858.163269 6428.000000
860.147583 7255.000000
862.130798 6318.000000
864.112610 6380.000000
866.093201 5789.000000
868.072510 7756.000000
870.050659 7115.000000
872.027466 6208.000000
874.002991 5973.000000
875.977478 6242.000000
877.950500 6005.000000
879.922485 5426.000000
881.893127 6344.000000
883.862610 6143.000000
885.830750 5544.000000
887.797729 5183.000000
889.763367 6112.000000
891.727844 5868.000000
893.691101 5983.000000
895.653137 6468.000000
897.613892 5871.000000
899.573425 6481.000000
901.531677 6672.000000
903.488831 6326.000000
905.444824 5972.000000
907.399414 6883.000000
909.352783 6522.000000
911.304993 6397.000000
913.255981 6352.000000
915.205688 7112.000000
917.154236 6330.000000
919.101563 6092.000000
921.047607 6083.000000
922.992371 6080.000000
924.936096 6301.000000
926.878662 5905.000000
928.819946 5573.000000
930.759888 6466.000000
932.698730 5721.000000
934.636292 5526.000000
936.572632 5898.000000
938.507813 5850.000000
940.441711 6109.000000
942.374512 5890.000000
944.306091 6797.000000
946.236511 5193.000000
948.165710 6384.000000
950.093567 7038.000000
952.020386 6640.000000
953.945923 5907.000000
955.870178 5370.000000
957.793335 5969.000000
959.715332 6729.000000
961.636047 7281.000000
963.555603 6538.000000
965.473999 5272.000000
967.391357 6410.000000
969.307251 6338.000000
971.222046 6127.000000
973.135620 5952.000000
975.048035 6368.000000
976.959229 6465.000000
978.869263 5529.000000
980.778015 6198.000000
982.685730 6076.000000
984.592224 6380.000000
986.497498 5655.000000
988.401672 6822.000000
990.304626 6169.000000
992.206360 6773.000000
994.106934 6448.000000
996.006348 6582.000000
997.904541 5248.000000
999.801575 6535.000000
1001.697388 6494.000000
1003.592041 7661.000000
1005.485596 5533.000000
1007.377869 7220.000000
1009.269226 6071.000000
1011.159241 5312.000000
1013.048035 6591.000000
1014.935669 6330.000000
1016.822144 6929.000000
1018.707458 6759.000000
1020.591614 5973.000000
1022.474548 5866.000000
1024.356445 6269.000000
1026.237061 5159.000000
1028.116577 5827.000000
1029.995117 6046.000000
1031.872314 5328.000000
1033.748169 6183.000000
1035.623047 5919.000000
1037.496948 6590.000000
1039.369385 7005.000000
1041.240845 6672.000000
1043.110962 5511.000000
1044.980103 5550.000000
1046.848022 5780.000000
1048.714844 7074.000000
1050.580566 6736.000000
1052.445068 6486.000000
1054.308472 6457.000000
1056.170532 6392.000000
1058.031616 5861.000000
1059.891602 6553.000000
1061.750244 6581.000000
1063.607788 5827.000000
1065.464233 6709.000000
1067.319580 5851.000000
1069.173706 5842.000000
1071.026978 6243.000000
1072.878784 6303.000000
1074.729614 6134.000000
1076.579224 6162.000000
1078.427612 5812.000000
1080.275146 7942.000000
1082.121338 5590.000000
1083.966309 6205.000000
1085.810425 5388.000000
1087.653198 5489.000000
1089.494751 6529.000000
1091.335571 5465.000000
1093.174805 5786.000000
1095.013306 6012.000000
1096.850464 6030.000000
1098.686401 6823.000000
1100.521362 6622.000000
1102.355103 5405.000000
1104.187866 5693.000000
1106.019287 6224.000000
1107.849854 7215.000000
1109.679077 6565.000000
1111.507324 6474.000000
1113.334351 7099.000000
1115.160400 5428.000000
1116.985229 6334.000000
1118.808960 7159.000000
1120.631470 6049.000000
1122.452881 5835.000000
1124.273438 5856.000000
1126.092529 6628.000000
1127.910767 7098.000000
1129.727661 6766.000000
1131.543701 6727.000000
1133.358521 6468.000000
1135.172241 5628.000000
1136.984863 5797.000000
1138.796265 5641.000000
1140.606689 6147.000000
1142.416016 6748.000000
1144.223999 6977.000000
1146.031250 5974.000000
1147.837036 5846.000000
1149.641968 5375.000000
1151.445801 5429.000000
1153.248413 6110.000000
1155.050171 6161.000000
1156.850464 6116.000000
1158.649780 6110.000000
1160.448120 5998.000000
1162.245117 5477.000000
1164.041382 5958.000000
1165.836304 6064.000000
1167.630127 6337.000000
1169.423096 7713.000000
1171.214722 5719.000000
1173.005371 6480.000000
1174.795044 5984.000000
1176.583252 5823.000000
1178.370605 7459.000000
1180.156860 6875.000000
1181.942017 5793.000000
1183.726074 5953.000000
1185.509033 7683.000000
1187.291016 5898.000000
1189.071777 5907.000000
1190.851563 6322.000000
1192.630249 6939.000000
1194.407959 6703.000000
1196.184448 7176.000000
1197.959839 6574.000000
1199.734131 6477.000000
1201.507324 6687.000000
1203.279663 6583.000000
1205.050659 6704.000000
1206.820801 5697.000000
1208.589722 6094.000000
1210.357544 6327.000000
1212.124512 5787.000000
1213.890137 5900.000000
1215.654785 6915.000000
1217.418335 6520.000000
1219.180786 5919.000000
1220.942383 6719.000000
1222.702759 5888.000000
1224.462036 6259.000000
1226.220459 6021.000000
1227.977661 7082.000000
1229.733765 6431.000000
1231.488770 5524.000000
1233.242920 5990.000000
1234.995728 5834.000000
1236.747559 6076.000000
1238.498535 6042.000000
1240.248169 4913.000000
1241.996948 6953.000000
1243.744385 6484.000000
1245.491089 6573.000000
1247.236572 6485.000000
1248.981201 6439.000000
1250.724487 6751.000000
1252.466797 6680.000000
1254.208008 5383.000000
1255.948364 5107.000000
1257.687622 5815.000000
1259.425659 6587.000000
1261.162842 7068.000000
1262.898804 6151.000000
1264.633789 6439.000000
1266.367798 7359.000000
1268.100830 5967.000000
1269.832642 6197.000000
1271.563477 6450.000000
1273.293091 7283.000000
1275.021851 5922.000000
1276.749512 5671.000000
1278.476074 5566.000000
1280.201782 5521.000000
1281.926147 6462.000000
1283.649658 5200.000000
1285.372192 6923.000000
1287.093750 6677.000000
1288.814087 6294.000000
1290.533447 6693.000000
1292.251709 7257.000000
1293.968994 6386.000000
1295.685303 5750.000000
1297.400391 6353.000000
1299.114502 6154.000000
1300.827637 5762.000000
1302.539917 6429.000000
1304.250977 8257.000000
1305.961060 5174.000000
1307.670044 6281.000000
1309.377808 6677.000000
1311.084961 7022.000000
1312.790649 5859.000000
1314.495605 6836.000000
1316.199585 6158.000000
1317.902344 6030.000000
1319.604126 6572.000000
1321.305054 6071.000000
1323.004639 8972.000000
1324.703369 7248.000000
1326.401367 18692.500000
1328.098022 6504.000000
1329.793579 7143.000000
1331.488281 6841.000000
1333.181763 5754.000000
1334.874390 5353.000000
1336.566162 7344.000000
1338.256592 6307.000000
1339.946289 6579.000000
1341.634888 6077.000000
1343.322388 7638.000000
1345.008911 5641.000000
1346.694336 6815.000000
1348.378784 5971.000000
1350.062378 7203.000000
1351.744751 6361.000000
1353.426147 5942.000000
1355.106689 6471.000000
1356.786011 6706.000000
1358.464722 5855.000000
1360.142090 6562.000000
1361.818359 5769.000000
1363.493652 5627.000000
1365.168213 6625.000000
1366.841553 6527.000000
1368.513916 6780.000000
1370.185303 5150.000000
1371.855713 6811.000000
1373.525024 6182.000000
1375.193359 5683.000000
1376.860840 5973.000000
1378.527222 6361.000000
1380.192627 6047.000000
1381.857056 5837.000000
1383.520264 5943.000000
1385.182861 5674.000000
1386.844116 6367.000000
1388.504517 6555.000000
1390.163818 6470.000000
1391.822144 6507.000000
1393.479736 6901.000000
1395.136108 6439.000000
1396.791626 7063.000000
1398.445923 6364.000000
1400.099365 5839.000000
1401.751709 6114.000000
1403.403320 6442.000000
1405.053711 7231.000000
1406.703003 6252.000000
1408.351563 7518.000000
1409.999023 7956.000000
1411.645508 6197.000000
1413.291138 6214.000000
1414.935791 5949.000000
1416.579224 6985.000000
1418.221802 7148.000000
1419.863281 6919.000000
1421.503906 6517.000000
1423.143555 6446.000000
1424.782104 6071.000000
1426.419800 6700.000000
1428.056396 6302.000000
1429.692017 6039.000000
1431.326904 6357.000000
1432.960693 5922.000000
1434.593384 6089.000000
1436.225098 5665.000000
1437.855957 6086.000000
1439.485718 6034.000000
1441.114380 7805.000000
1442.742432 5927.000000
1444.369385 6227.000000
1445.995117 6245.000000
1447.620239 6212.000000
1449.244263 6566.000000
1450.867310 5990.000000
1452.489380 5962.000000
1454.110352 7323.000000
1455.730347 6316.000000
1457.349609 6912.000000
1458.967529 12846.000000
1460.584839 18780.000000
1462.201172 5554.000000
1463.816284 7277.000000
1465.430542 6336.000000
1467.043945 5241.000000
1468.656250 5596.000000
1470.267700 6276.000000
1471.878296 6351.000000
1473.487671 5981.000000
1475.096069 5974.000000
1476.703613 6161.000000
1478.310181 6676.000000
1479.916016 5331.000000
1481.520630 6235.000000
1483.124390 5456.000000
1484.726929 6851.000000
1486.328857 5501.000000
1487.929565 5515.000000
1489.529541 5606.000000
1491.128418 6224.000000
1492.726440 6482.000000
1494.323364 6618.000000
1495.919434 6263.000000
1497.514526 6065.000000
1499.108643 5501.000000
1500.702026 6568.000000
1502.294312 5472.000000
1503.885376 6187.000000
1505.475952 6719.000000
1507.065186 6478.000000
1508.653809 6168.000000
1510.241333 6552.000000
1511.827759 6906.000000
1513.413452 6098.000000
1514.998047 6641.000000
1516.581787 6380.000000
1518.164429 6217.000000
1519.746338 6597.000000
1521.327148 6552.000000
1522.907227 6046.000000
1524.486084 6253.000000
1526.064087 6426.000000
1527.641357 6274.000000
1529.217407 5652.000000
1530.792725 5921.000000
1532.366943 6323.000000
1533.940430 5449.000000
1535.512695 5957.000000
1537.084229 6329.000000
1538.654785 6435.000000
1540.224487 6370.000000
1541.792969 5450.000000
1543.360718 6579.000000
1544.927612 5614.000000
1546.493286 6819.000000
1548.058228 5888.000000
1549.622070 5113.000000
1551.185303 7478.000000
1552.747192 6313.000000
1554.308472 5987.000000
1555.868652 5701.000000
1557.428101 5759.000000
1558.986450 6089.000000
1560.544067 6278.000000
1562.100586 7010.000000
1563.655884 5907.000000
1565.210571 6347.000000
1566.764526 5615.000000
1568.317505 6352.000000
1569.869141 5721.000000
1571.420044 5887.000000
1572.970215 6122.000000
1574.519409 6343.000000
1576.067261 5773.000000
1577.614624 5506.000000
1579.161011 5682.000000
1580.706543 5056.000000
1582.251099 6666.000000
1583.794434 6423.000000
1585.337158 6604.000000
1586.879028 6433.000000
1588.419800 6777.000000
1589.959595 5813.000000
1591.498657 6743.000000
1593.036621 5905.000000
1594.574097 6099.000000
1596.110229 5887.000000
1597.645264 6719.000000
1599.179810 6242.000000
1600.713379 6002.000000
1602.246094 6059.000000
1603.777222 6286.000000
1605.308105 6302.000000
1606.838135 5764.000000
1608.366943 6084.000000
1609.894653 6106.000000
1611.421753 6001.000000
1612.948120 5860.000000
1614.473511 6288.000000
1615.998047 5828.000000
1617.521240 5697.000000
1619.043701 5639.000000
1620.565430 6577.000000
1622.086304 6985.000000
1623.605713 15644.000000
1625.124634 6143.000000
1626.642822 6043.000000
1628.160156 5954.000000
1629.676392 6431.000000
1631.191284 6969.000000
1632.705688 6730.000000
1634.219360 5715.000000
1635.731934 6813.000000
1637.243286 5895.000000
1638.754272 6422.000000
1640.264160 6229.000000
1641.773193 6150.000000
1643.280884 5615.000000
1644.788208 6106.000000
1646.294678 7157.000000
1647.800171 6242.000000
1649.304810 6880.000000
1650.807983 6154.000000
1652.310547 6601.000000
1653.812744 6323.000000
1655.313599 6616.000000
1656.813354 7521.000000
1658.312256 5929.000000
1659.810791 6490.000000
1661.308105 6274.000000
1662.804688 5913.000000
1664.299683 6426.000000
1665.794434 6335.000000
1667.288330 5213.000000
1668.781250 5636.000000
1670.272827 20774.000000
1671.763916 6517.000000
1673.254395 6070.000000
1674.743774 5906.000000
1676.231689 7000.000000
1677.719360 6840.000000
1679.206055 6019.000000
1680.691895 5404.000000
1682.176880 6085.000000
1683.660400 6073.000000
1685.143677 6193.000000
1686.626099 5910.000000
1688.107422 6232.000000
1689.587280 6179.000000
1691.066895 5606.000000
1692.545776 6511.000000
1694.023682 5817.000000
1695.500610 6112.000000
1696.976318 5790.000000
1698.451660 6032.000000
1699.925781 6294.000000
1701.399292 5535.000000
1702.871338 5584.000000
1704.343140 6800.000000
1705.813965 6380.000000
1707.283936 7341.000000
1708.752563 5150.000000
1710.220703 5785.000000
1711.688110 6308.000000
1713.154419 5445.000000
1714.620117 5750.000000
1716.084106 6196.000000
1717.547974 5986.000000
1719.010986 7008.000000
1720.473022 6330.000000
1721.933838 6648.000000
1723.394043 5465.000000
1724.853516 6337.000000
1726.312134 6156.000000
1727.769775 5992.000000
1729.226074 6277.000000
1730.682129 6102.000000
1732.137207 6495.000000
1733.591309 6000.000000
1735.044189 6913.000000
1736.496826 5974.000000
1737.948364 6892.000000
1739.399170 5966.000000
1740.848999 6569.000000
1742.297485 5883.000000
1743.745605 7520.000000
1745.192871 6588.000000
1746.639404 6605.000000
1748.084351 6683.000000
1749.529053 6154.000000
1750.972900 5776.000000
1752.415894 5468.000000
1753.857422 6547.000000
1755.298706 6395.000000
1756.739136 19553.000000
1758.178589 6276.000000
1759.617065 5269.000000
1761.054565 6091.000000
1762.491577 7523.000000
1763.927612 5858.000000
1765.362793 7125.000000
1766.796509 6174.000000
1768.230103 6454.000000
1769.662720 6638.000000
1771.094482 5752.000000
1772.525391 5771.000000
1773.955078 6429.000000
1775.384033 6141.000000
1776.812500 6281.000000
1778.239990 6709.000000
1779.666138 6222.000000
1781.092041 5606.000000
1782.516846 6955.000000
1783.941040 5558.000000
1785.363770 6655.000000
1786.786011 6540.000000
1788.207520 6945.000000
1789.628296 5899.000000
1791.048096 5916.000000
1792.466553 6239.000000
1793.884521 6860.000000
1795.301880 5486.000000
1796.718384 5995.000000
1798.133423 6568.000000
1799.548096 5855.000000
1800.962158 6565.000000
1802.375000 5973.000000
1803.787231 6974.000000
1805.198120 7120.000000
1806.608521 7762.000000
1808.018188 6502.000000
1809.426880 5962.000000
1810.834473 5344.000000
1812.241577 6512.000000
1813.647827 6376.000000
1815.053101 6757.000000
1816.457275 5961.000000
1817.861084 5936.000000
1819.263916 6236.000000
1820.665894 6057.000000
1822.067261 5811.000000
1823.467163 6318.000000
1824.866455 6417.000000
1826.265259 6504.000000
1827.663208 7458.000000
1829.059814 5742.000000
1830.455811 6721.000000
1831.851074 6010.000000
1833.245728 8133.000000
1834.639404 6053.000000
1836.031738 6856.000000
1837.423584 6487.000000
1838.814819 5828.000000
1840.205078 7059.000000
1841.594116 6070.000000
1842.982788 6061.000000
1844.370483 5974.000000
1845.757446 5829.000000
1847.143066 6842.000000
1848.528442 5857.000000
1849.912964 6411.000000
1851.296753 6284.000000
1852.679443 6326.000000
1854.060913 5424.000000
1855.441895 6530.000000
1856.822388 6314.000000
1858.201904 5737.000000
1859.579956 5952.000000
1860.957886 6217.000000
1862.334839 7868.000000
1863.711060 6109.000000
1865.086426 6091.000000
1866.460327 5541.000000
1867.834106 5739.000000
1869.207031 6133.000000
1870.578857 5974.000000
1871.949707 6871.000000
1873.320190 5410.000000
1874.689575 6002.000000
1876.058472 6086.000000
1877.425781 7136.000000
1878.792969 6055.000000
1880.159180 6008.000000
1881.524658 6765.000000
1882.889404 7553.000000
1884.252563 6756.000000
1885.615601 6910.000000
1886.977783 6372.000000
1888.339111 6419.000000
1889.699097 5575.000000
1891.058716 5781.000000
1892.417725 6153.000000
1893.775757 6676.000000
1895.132935 7271.000000
1896.488892 5938.000000
1897.844604 7658.000000
1899.199341 5807.000000
1900.553223 5524.000000
1901.906006 5938.000000
1903.258301 5869.000000
1904.609863 5989.000000
1905.960571 6902.000000
1907.310059 6584.000000
1908.659058 6648.000000
1910.007202 5819.000000
1911.354736 6083.000000
1912.701538 6284.000000
1914.046753 6836.000000
1915.391724 6065.000000
1916.735962 5430.000000
1918.079346 6491.000000
1919.421387 6012.000000
1920.763184 6649.000000
1922.104126 6987.000000
1923.444336 6140.000000
1924.783569 6287.000000
1926.121826 6357.000000
1927.459473 6451.000000
1928.796387 6991.000000
1930.132446 6736.000000
1931.467285 5562.000000
1932.801758 6795.000000
1934.135498 7311.000000
1935.468384 6267.000000
1936.799805 5781.000000
1938.131348 6337.000000
1939.461548 6718.000000
1940.791260 5738.000000
1942.120117 6094.000000
1943.447754 5794.000000
1944.774902 4970.000000
1946.101318 5777.000000
1947.427002 6501.000000
1948.751343 5784.000000
1950.075439 6656.000000
1951.398682 6325.000000
1952.721191 6427.000000
1954.042603 5798.000000
1955.363037 7369.000000
1956.682861 5992.000000
1958.002319 5574.000000
1959.320801 6867.000000
1960.637939 5960.000000
1961.954712 5790.000000
1963.270752 6560.000000
1964.586060 6605.000000
1965.899902 6274.000000
1967.213501 5752.000000
1968.526367 6181.000000
1969.838379 5948.000000
1971.149780 6022.000000
1972.459839 6312.000000
1973.769409 5849.000000
1975.078247 6219.000000
1976.386475 6605.000000
1977.693359 6144.000000
1978.999634 7241.000000
1980.305542 5539.000000
1981.610229 6395.000000
1982.914429 6010.000000
1984.217407 5713.000000
1985.520020 7567.000000
1986.821655 6119.000000
1988.122681 6767.000000
1989.422119 6156.000000
1990.721680 6642.000000
1992.020142 5311.000000
1993.318115 6135.000000
1994.614502 6071.000000
1995.910889 5844.000000
1997.206299 5585.000000
1998.500977 6454.000000
1999.794800 5679.000000
2001.087402 6539.000000
2002.379517 5745.000000
2003.671143 7218.000000
2004.962036 6528.000000
2006.251343 6271.000000
2007.540405 6806.000000
2008.828735 5966.000000
2010.116333 6036.000000
2011.403076 6800.000000
2012.688721 5654.000000
2013.973999 6356.000000
2015.258301 6013.000000
2016.541992 5588.000000
2017.824341 6036.000000
2019.106323 6473.000000
2020.387817 6764.000000
2021.668335 5891.000000
2022.948120 6100.000000
2024.226807 6756.000000
2025.504761 5799.000000
2026.782227 5872.000000
2028.059082 6339.000000
2029.334229 5689.000000
2030.609497 6605.000000
2031.883789 6039.000000
2033.157104 5965.000000
2034.429565 5951.000000
2035.701660 6138.000000
2036.972656 6950.000000
2038.243408 6655.000000
2039.512817 5943.000000
2040.781128 6779.000000
2042.049438 6632.000000
2043.316772 6000.000000
2044.583374 6030.000000
2045.848755 5615.000000
2047.113525 5842.000000
2048.378174 5437.000000
2049.641357 5876.000000
2050.904297 6384.000000
2052.165283 6178.000000
2053.426758 6124.000000
2054.687012 5855.000000
2055.946533 6441.000000
2057.205322 6204.000000
2058.463135 6928.000000
2059.720459 6193.000000
2060.977051 5938.000000
2062.232178 6462.000000
2063.487305 5621.000000
2064.741455 5636.000000
2065.994873 5678.000000
2067.247559 6952.000000
2068.499023 6209.000000
2069.750244 6366.000000
2071.000732 5616.000000
2072.250488 5401.000000
2073.498779 6169.000000
2074.747070 6511.000000
2075.994385 7376.000000
2077.240967 5553.000000
2078.486816 6042.000000
2079.731445 6942.000000
2080.975586 7594.000000
2082.219238 5481.000000
2083.461914 6075.000000
2084.703369 6929.000000
2085.944580 5933.000000
2087.185303 6425.000000
2088.425049 6734.000000
2089.663574 7038.000000
2090.901611 6195.000000
2092.138916 5807.000000
2093.375977 6687.000000
2094.611572 6093.000000
2095.846436 6160.000000
2097.081055 6038.000000
2098.314697 5542.000000
2099.547363 6062.000000
2100.779297 6927.000000
2102.010742 6393.000000
2103.241211 6808.000000
2104.470947 6061.000000
2105.700439 6021.000000
2106.927979 5987.000000
2108.155762 5967.000000
2109.382813 6340.000000
2110.608887 5502.000000
2111.833496 6402.000000
2113.058350 6982.000000
2114.281982 7074.000000
2115.505127 6168.000000
2116.727051 7596.000000
2117.948730 6044.000000
2119.169434 6813.000000
2120.389404 6033.000000
2121.608887 6152.000000
2122.826904 6633.000000
2124.044922 7037.000000
2125.261963 5758.000000
2126.478516 5814.000000
2127.693359 6532.000000
2128.908447 6359.000000
2130.122559 6939.000000
2131.335938 5716.000000
2132.548584 6029.000000
2133.759766 5812.000000
2134.971191 6614.000000
2136.181396 6647.000000
2137.391113 5900.000000
2138.599365 6158.000000
2139.807617 5692.000000
2141.015137 5845.000000
2142.221436 7487.000000
2143.427002 5897.000000
2144.632324 5696.000000
2145.836670 5536.000000
2147.040283 6258.000000
2148.243408 6147.000000
2149.445068 6522.000000
2150.646484 5340.000000
2151.847168 6232.000000
2153.047119 6124.000000
2154.245850 5974.000000
2155.444336 6977.000000
2156.642334 6133.000000
2157.839355 6005.000000
2159.035645 5149.000000
2160.230713 5301.000000
2161.425537 6118.000000
2162.619629 5559.000000
2163.812744 6030.000000
2165.004883 6867.000000
2166.196777 5911.000000
2167.387939 6345.000000
2168.578125 6314.000000
2169.767578 6452.000000
2170.956543 6787.000000
2172.144531 6278.000000
2173.332275 5734.000000
2174.518555 5932.000000
2175.704102 6485.000000
2176.889404 6031.000000
2178.074219 5864.000000
2179.257813 6356.000000
2180.440674 7512.000000
2181.622559 6307.000000
2182.804199 5947.000000
2183.985352 6565.000000
2185.165283 5701.000000
2186.344238 5541.000000
2187.522705 6351.000000
2188.700928 6891.000000
2189.877930 7179.000000
2191.053955 6726.000000
2192.229736 6095.000000
2193.405029 5678.000000
2194.578857 6670.000000
2195.752197 6211.000000
2196.925293 6196.000000
2198.097168 6511.000000
2199.268555 7112.000000
2200.439453 6348.000000
2201.608643 6874.000000
2202.777832 7557.000000
2203.946533 6283.000000
2205.114258 5924.000000
2206.281006 5653.000000
2207.447021 7188.000000
2208.612549 6643.000000
2209.777832 5994.000000
2210.941650 6752.000000
2212.104980 5459.000000
2213.267090 6204.000000
2214.429443 6138.000000
2215.590576 6673.000000
2216.750732 6684.000000
2217.910400 6366.000000
2219.069824 6557.000000
2220.228027 6357.000000
2221.385254 6226.000000
2222.542236 6748.000000
2223.698486 6596.000000
2224.854004 6742.000000
2226.008789 6247.000000
2227.162598 6424.000000
2228.315430 6041.000000
2229.468750 6896.000000
2230.620117 6225.000000
2231.771240 6127.000000
2232.921631 6540.000000
2234.071533 7662.000000
2235.220459 6281.000000
2236.368896 5247.000000
2237.515869 6794.000000
2238.663086 7052.000000
2239.809082 6008.000000
2240.954834 7266.000000
2242.098877 7363.000000
2243.243164 6761.000000
2244.386475 6204.000000
2245.529053 6032.000000
2246.670654 5800.000000
2247.812012 5850.000000
2248.952393 6422.000000
2250.092041 6453.000000
2251.231201 5805.000000
2252.369141 5825.000000
2253.507080 6092.000000
2254.644043 5333.000000
2255.780273 6346.000000
2256.915527 6162.000000
2258.050049 7262.000000
2259.184326 6376.000000
2260.318115 5406.000000
2261.450439 6069.000000
2262.582275 6853.000000
2263.713623 6252.000000
2264.843994 6493.000000
2265.974121 8132.000000
2267.103027 6663.000000
2268.231445 6062.000000
2269.359375 5561.000000
2270.486328 6183.000000
2271.612549 5976.000000
2272.737793 6662.000000
2273.863037 6532.000000
2274.987549 6431.000000
2276.110840 5939.000000
2277.233398 6357.000000
2278.355469 5997.000000
2279.477051 7397.000000
2280.597900 6399.000000
2281.717529 6446.000000
2282.836670 7131.000000
2283.955566 7674.000000
2285.073730 7211.000000
2286.190918 5942.000000
2287.307129 6441.000000
2288.423096 7006.000000
2289.538330 6948.000000
2290.652832 7343.000000
2291.766113 5821.000000
2292.879395 6386.000000
2293.991943 6052.000000
2295.103760 5385.000000
2296.214844 6771.000000
2297.324707 6358.000000
2298.434082 6169.000000
2299.543213 6712.000000
2300.651367 6279.000000
2301.758545 6802.000000
2302.865479 5900.000000
2303.971680 6247.000000
2305.077393 6664.000000
2306.181641 6594.000000
2307.285645 5485.000000
2308.389160 5720.000000
2309.492188 6535.000000
2310.593994 7425.000000
2311.695068 7333.000000
2312.795654 6595.000000
2313.895752 5492.000000
2314.995117 6335.000000
2316.093018 6602.000000
2317.191406 7019.000000
2318.288330 8159.000000
2319.385010 6904.000000
2320.481201 5786.000000
2321.575684 6852.000000
2322.670166 7526.000000
2323.763916 5818.000000
2324.857422 6037.000000
2325.949219 6436.000000
2327.041016 6909.000000
2328.132080 6113.000000
2329.222412 6241.000000
2330.311768 6950.000000
2331.401123 6033.000000
2332.489258 6314.000000
2333.576904 6863.000000
2334.664307 6563.000000
2335.750000 6661.000000
2336.835449 7767.000000
2337.920654 6289.000000
2339.004883 6803.000000
2340.088135 5911.000000
2341.171143 6382.000000
2342.253174 7063.000000
2343.334961 6030.000000
2344.416016 7422.000000
2345.495850 6619.000000
2346.575195 5713.000000
2347.654053 6795.000000
2348.732422 6552.000000
2349.809326 6308.000000
2350.885986 6958.000000
2351.962402 6058.000000
2353.037842 6451.000000
2354.112305 5972.000000
2355.186523 6332.000000
2356.260010 6813.000000
2357.333008 6297.000000
2358.404785 7030.000000
2359.476318 6292.000000
2360.546875 6733.000000
2361.617188 7474.000000
2362.686523 7578.000000
2363.754883 6857.000000
2364.822998 6800.000000
2365.890381 7054.000000
2366.957275 7073.000000
2368.023438 6093.000000
2369.088379 6862.000000
2370.153320 6996.000000
2371.217529 6332.000000
2372.281006 6894.000000
2373.343262 5786.000000
2374.405518 6340.000000
2375.466797 6341.000000
2376.527832 5941.000000
2377.587646 6325.000000
2378.646729 7944.000000
2379.705811 6561.000000
2380.763916 7574.000000
2381.821289 6863.000000
2382.877686 8039.000000
2383.933838 7824.000000
2384.989502 6190.000000
2386.044434 7084.000000
2387.097900 6726.000000
2388.151611 6539.000000
2389.204346 6301.000000
2390.256592 6800.000000
2391.308105 6204.000000
2392.358643 6576.000000
2393.408936 6494.000000
2394.458252 6242.000000
2395.507568 6149.000000
2396.555420 6973.000000
2397.602783 7001.000000
2398.649902 6308.000000
2399.696045 6680.000000
2400.741455 6194.000000
2401.786133 6766.000000
2402.830811 7738.000000
2403.874023 7508.000000
2404.917236 6489.000000
2405.958984 5740.000000
2407.000977 6741.000000
2408.042236 7169.000000
2409.082520 6084.000000
2410.122070 6418.000000
2411.160645 6324.000000
2412.199463 5879.000000
2413.237061 6563.000000
2414.274414 6904.000000
2415.310547 7385.000000
2416.346436 6208.000000
2417.381592 6279.000000
2418.416260 6666.000000
2419.449463 7233.000000
2420.482910 6422.000000
2421.515381 6712.000000
2422.547607 6859.000000
2423.578369 7100.000000
2424.609131 6415.000000
2425.639404 6836.000000
2426.668457 6845.000000
2427.697510 6650.000000
2428.724854 7397.000000
2429.752686 6682.000000
2430.779297 7252.000000
2431.805664 6902.000000
2432.830566 7704.000000
2433.855713 6618.000000
2434.879883 7137.000000
2435.903809 6709.000000
2436.926514 5825.000000
2437.948486 6397.000000
2438.970215 6589.000000
2439.991211 6642.000000
2441.011719 6019.000000
2442.031006 6530.000000
2443.050293 6554.000000
2444.068604 8414.000000
2445.086670 6232.000000
2446.103271 6511.000000
2447.119873 6521.000000
2448.135742 5984.000000
2449.151611 6996.000000
2450.166016 6857.000000
2451.179688 5579.000000
2452.192871 7246.000000
2453.205811 6008.000000
2454.218018 7225.000000
2455.229248 6679.000000
2456.240234 7651.000000
2457.250488 6396.000000
2458.260254 7580.000000
2459.269043 5826.000000
2460.277100 5958.000000
2461.285156 6338.000000
2462.291992 7340.000000
2463.298584 5460.000000
2464.303955 7460.000000
2465.309082 6969.000000
2466.313965 5800.000000
2467.317627 6517.000000
2468.321045 6400.000000
2469.323486 7573.000000
2470.325684 7270.000000
2471.327393 6848.000000
2472.328125 6495.000000
2473.327881 7045.000000
2474.327637 6763.000000
2475.326416 5681.000000
2476.324707 6593.000000
2477.322021 6998.000000
2478.319092 6098.000000
2479.316162 7003.000000
2480.311768 5850.000000
2481.307373 7126.000000
2482.301270 6684.000000
2483.295166 8121.000000
2484.288574 6855.000000
2485.281494 6797.000000
2486.273438 7460.000000
2487.264648 7224.000000
2488.255615 6734.000000
2489.246094 5843.000000
2490.235596 6546.000000
2491.224365 6549.000000
2492.213135 5597.000000
2493.200928 6817.000000
2494.187500 6563.000000
2495.174072 8088.000000
2496.160156 6762.000000
2497.145508 7039.000000
2498.129883 8038.000000
2499.114014 5986.000000
2500.098145 6889.000000
2501.080811 5736.000000
2502.062988 6959.000000
2503.044678 6856.000000
2504.025635 7284.000000
2505.006104 6578.000000
2505.986328 5753.000000
2506.965088 6303.000000
2507.943604 7516.000000
2508.921631 6765.000000
2509.899170 7089.000000
2510.875732 6063.000000
2511.852051 5938.000000
2512.827637 6492.000000
2513.802734 6207.000000
2514.777344 6403.000000
2515.750732 7554.000000
2516.723877 6821.000000
2517.696777 6957.000000
2518.668701 6166.000000
2519.639893 6886.000000
2520.610596 6908.000000
2521.581055 7802.000000
2522.550781 8099.000000
2523.519531 6113.000000
2524.487549 6144.000000
2525.455566 7672.000000
2526.422607 6285.000000
2527.389404 5515.000000
2528.354980 7223.000000
2529.320557 6948.000000
2530.285400 7693.000000
2531.249756 6315.000000
2532.212891 6347.000000
2533.176270 5883.000000
2534.138672 5981.000000
2535.100830 6659.000000
2536.061768 6350.000000
2537.021973 6150.000000
2537.982422 6127.000000
2538.941895 6678.000000
2539.900635 6827.000000
2540.858398 6669.000000
2541.816406 6196.000000
2542.773682 6778.000000
2543.729980 6060.000000
2544.686035 7131.000000
2545.640869 6179.000000
2546.595947 7664.000000
2547.550293 7069.000000
2548.503906 6884.000000
2549.456543 7195.000000
2550.408936 6883.000000
2551.360840 6912.000000
2552.312012 6431.000000
2553.262451 7700.000000
2554.212402 7318.000000
2555.162109 7367.000000
2556.111084 6616.000000
2557.059570 6218.000000
2558.006836 7065.000000
2558.954102 6288.000000
2559.900635 6523.000000
2560.846680 6720.000000
2561.791748 7436.000000
2562.736572 6694.000000
2563.680908 7144.000000
2564.624756 6794.000000
2565.568115 6669.000000
2566.510010 6609.000000
2567.452148 6525.000000
2568.393555 6133.000000
2569.334229 7209.000000
2570.274170 7262.000000
2571.214111 5707.000000
2572.153076 6150.000000
2573.091797 7518.000000
2574.029541 7179.000000
2574.967041 5525.000000
2575.903809 7022.000000
2576.839844 6812.000000
2577.775391 7484.000000
2578.710205 6374.000000
2579.645020 5995.000000
2580.578857 7121.000000
2581.512207 7100.000000
2582.444824 5800.000000
2583.377197 6829.000000
2584.308838 5399.000000
2585.239990 7043.000000
2586.170654 7028.000000
2587.100098 6828.000000
2588.029541 7274.000000
2588.958496 6522.000000
2589.887207 7482.000000
2590.814209 7336.000000
2591.741455 5928.000000
2592.668213 6748.000000
2593.594238 6269.000000
2594.520020 5632.000000
2595.444580 7633.000000
2596.368896 7640.000000
2597.292725 5336.000000
2598.216064 7239.000000
2599.138428 6281.000000
2600.060547 6883.000000
2600.982178 8396.000000
2601.903076 6424.000000
2602.823242 5779.000000
2603.743164 6346.000000
2604.662598 6339.000000
2605.581787 6392.000000
2606.500000 5796.000000
2607.416992 5971.000000
2608.334229 7240.000000
2609.251221 5867.000000
2610.167236 7548.000000
2611.082031 6681.000000
2611.997314 6638.000000
2612.911865 6501.000000
2613.825439 6534.000000
2614.739014 6137.000000
2615.651367 7602.000000
2616.563721 7092.000000
2617.475098 6830.000000
2618.386230 5776.000000
2619.296631 7203.000000
2620.206787 6605.000000
2621.116211 6132.000000
2622.025146 6669.000000
2622.933105 6129.000000
2623.841309 6979.000000
2624.748535 6702.000000
2625.655273 7033.000000
2626.561279 6054.000000
2627.467041 6542.000000
2628.372070 6526.000000
2629.276855 7769.000000
2630.180908 6450.000000
2631.083984 6393.000000
2631.987061 6461.000000
2632.889160 5641.000000
2633.791260 6743.000000
2634.693115 6980.000000
2635.593262 6715.000000
2636.493652 6386.000000
2637.393311 6394.000000
2638.292725 5986.000000
2639.190674 6837.000000
2640.089111 6755.000000
2640.987061 6405.000000
2641.884277 6073.000000
2642.780273 6181.000000
2643.676270 6790.000000
2644.572021 6091.000000
2645.467041 6471.000000
2646.361816 6646.000000
2647.255127 7258.000000
2648.148438 6257.000000
2649.041504 6807.000000
2649.934326 6431.000000
2650.825439 7476.000000
2651.716797 6413.000000
2652.607666 7610.000000
2653.497803 7274.000000
2654.387695 6603.000000
2655.276367 7284.000000
2656.165283 6646.000000
2657.053711 6584.000000
2657.941162 7276.000000
2658.827637 6427.000000
2659.714600 7105.000000
2660.600830 6865.000000
2661.486572 6833.000000
2662.371094 6525.000000
2663.255615 6403.000000
2664.139893 6175.000000
2665.023438 6983.000000
2665.906494 7770.000000
2666.788818 7223.000000
2667.670654 6171.000000
2668.551758 6615.000000
2669.433105 6094.000000
2670.312988 6609.000000
2671.193115 7343.000000
2672.072510 7158.000000
2672.951904 6378.000000
2673.830566 6085.000000
2674.707520 6471.000000
2675.585205 6747.000000
2676.462158 6341.000000
2677.338379 8144.000000
2678.214111 7154.000000
2679.089111 6250.000000
2679.964355 7719.000000
2680.838623 6974.000000
2681.712402 7284.000000
2682.585449 6981.000000
2683.458252 6192.000000
2684.330811 6086.000000
2685.202637 6941.000000
2686.073730 6488.000000
2686.944580 6910.000000
2687.814941 7096.000000
2688.685059 6656.000000
2689.553467 6302.000000
2690.422607 7444.000000
2691.291016 7113.000000
2692.159180 6692.000000
2693.026611 6884.000000
2693.892822 5880.000000
2694.759521 7145.000000
2695.625244 7478.000000
2696.490967 7196.000000
2697.355225 7945.000000
2698.220215 6596.000000
2699.083740 7231.000000
2699.947510 5840.000000
2700.809814 7413.000000
2701.672607 6767.000000
2702.534424 5937.000000
2703.395752 6858.000000
2704.257080 6721.000000
2705.117188 7454.000000
2705.977295 7231.000000
2706.836914 6591.000000
2707.696289 6829.000000
2708.553955 7194.000000
2709.411865 6768.000000
2710.270264 7338.000000
2711.127441 6771.000000
2711.983887 6035.000000
2712.839844 6916.000000
2713.695801 6092.000000
2714.551025 6844.000000
2715.405518 6087.000000
2716.259521 6866.000000
2717.113525 7277.000000
2717.966553 6288.000000
2718.819824 6648.000000
2719.671387 7674.000000
2720.523438 6736.000000
2721.375244 6315.000000
2722.225830 6512.000000
2723.076416 6708.000000
2723.926514 7217.000000
2724.775879 7017.000000
2725.625244 6982.000000
2726.473389 6608.000000
2727.321045 6517.000000
2728.169189 6978.000000
2729.016113 6822.000000
2729.863525 5568.000000
2730.709473 7437.000000
2731.554688 6983.000000
2732.400391 6428.000000
2733.245117 6961.000000
2734.089844 7340.000000
2734.933350 6899.000000
2735.777100 7794.000000
2736.620117 7108.000000
2737.462646 5998.000000
2738.304199 6260.000000
2739.146240 6827.000000
2739.987305 6825.000000
2740.828125 5773.000000
2741.668701 5952.000000
2742.508057 7737.000000
2743.347412 6838.000000
2744.186768 6915.000000
2745.024902 6867.000000
2745.862549 7896.000000
2746.700195 6278.000000
2747.537354 7100.000000
2748.374268 6234.000000
2749.210693 5963.000000
2750.045898 6581.000000
2750.881348 6261.000000
2751.716309 6333.000000
2752.550537 6205.000000
2753.384521 6870.000000
2754.218018 6799.000000
2755.051514 7982.000000
2755.884033 6786.000000
2756.716064 7282.000000
2757.547607 6773.000000
2758.379150 7171.000000
2759.209717 7241.000000
2760.040527 7277.000000
2760.870117 7301.000000
2761.699707 6599.000000
2762.529053 7306.000000
2763.357666 6859.000000
2764.185791 6786.000000
2765.013428 6886.000000
2765.841064 6603.000000
2766.668213 7877.000000
2767.494629 5787.000000
2768.320557 7460.000000
2769.145996 6876.000000
2769.971191 7803.000000
2770.796387 7070.000000
2771.620361 6798.000000
2772.444336 6481.000000
2773.268311 7648.000000
2774.091064 6619.000000
2774.914063 6749.000000
2775.735840 6849.000000
2776.557617 6946.000000
2777.379395 6432.000000
2778.200195 7979.000000
2779.020264 6482.000000
2779.840576 6986.000000
2780.660400 7253.000000
2781.480225 6512.000000
2782.298096 5970.000000
2783.117188 8000.000000
2783.935059 6472.000000
2784.752686 6719.000000
2785.569824 7141.000000
2786.386475 7220.000000
2787.202881 7221.000000
2788.018799 6301.000000
2788.834473 5951.000000
2789.649170 6394.000000
2790.464355 7013.000000
2791.278809 7210.000000
2792.092773 6619.000000
2792.906494 7463.000000
2793.718994 8801.000000
2794.531738 6951.000000
2795.343994 7477.000000
2796.155762 7159.000000
2796.966797 7370.000000
2797.778564 6502.000000
2798.589111 7251.000000
2799.399658 7015.000000
2800.208740 7407.000000
2801.018555 8217.000000
2801.827637 7756.000000
2802.636475 6670.000000
2803.444824 7142.000000
2804.252197 6219.000000
2805.060059 6538.000000
2805.867188 6724.000000
2806.674072 6996.000000
2807.479736 7220.000000
2808.285889 6646.000000
2809.091309 6436.000000
2809.896729 7293.000000
2810.701416 6224.000000
2811.505127 7601.000000
2812.309326 7437.000000
2813.113037 6312.000000
2813.916504 6107.000000
2814.718506 6645.000000
2815.521240 7350.000000
2816.323242 7735.000000
2817.125000 6164.000000
2817.926270 6519.000000
2818.727051 7267.000000
2819.527344 6508.000000
2820.327881 6683.000000
2821.127441 8029.000000
2821.926514 7151.000000
2822.725586 6414.000000
2823.524414 6896.000000
2824.322754 6327.000000
2825.120117 7031.000000
2825.917725 7419.000000
2826.714600 6652.000000
2827.511719 7364.000000
2828.308105 8038.000000
2829.103760 7219.000000
2829.899414 7354.000000
2830.694824 7577.000000
2831.489746 7457.000000
2832.283936 6644.000000
2833.078125 6850.000000
2833.872070 5697.000000
2834.665527 6814.000000
2835.458252 7227.000000
2836.250732 8197.000000
2837.043213 7637.000000
2837.835449 7539.000000
2838.627197 6437.000000
2839.417969 6814.000000
2840.208740 8859.000000
2840.999756 7435.000000
2841.789795 6202.000000
2842.579346 7646.000000
2843.369141 7180.000000
2844.157959 7346.000000
2844.946777 7794.000000
2845.735596 7692.000000
2846.523438 7561.000000
2847.310791 7173.000000
2848.098389 7469.000000
2848.885498 7337.000000
2849.671875 6624.000000
2850.458252 7435.000000
2851.244385 7175.000000
2852.030029 7563.000000
2852.814697 7194.000000
2853.599854 6945.000000
2854.384766 7470.000000
2855.168945 7058.000000
2855.953125 6903.000000
2856.736084 8340.000000
2857.519287 6826.000000
2858.302246 6757.000000
2859.084717 7797.000000
2859.866943 6286.000000
2860.648682 6649.000000
2861.430176 7636.000000
2862.211914 7435.000000
2862.992920 7598.000000
2863.773193 6557.000000
2864.553223 6698.000000
2865.333252 8153.000000
2866.113037 7515.000000
2866.891846 7992.000000
2867.670898 7699.000000
2868.449463 6769.000000
2869.227783 7003.000000
2870.005615 7255.000000
2870.783203 6925.000000
2871.560547 7495.000000
2872.337646 6994.000000
2873.114258 6391.000000
2873.890381 7490.000000
2874.666504 7151.000000
2875.442139 8259.000000
2876.217529 7253.000000
2876.992432 6646.000000
2877.767090 8009.000000
2878.541748 6743.000000
2879.316162 7835.000000
2880.089844 6815.000000
2880.862793 7192.000000
2881.636475 6771.000000
2882.409180 7658.000000
2883.181885 7782.000000
2883.953857 8202.000000
2884.725586 6172.000000
2885.497803 6842.000000
2886.268799 6881.000000
2887.039307 6104.000000
2887.810303 8316.000000
2888.581299 7317.000000
2889.351563 7960.000000
2890.120850 7634.000000
2890.890381 6977.000000
2891.659912 7241.000000
2892.428955 7310.000000
2893.197510 7824.000000
2893.966064 7669.000000
2894.733643 7010.000000
2895.501709 6530.000000
2896.269287 7348.000000
2897.036865 8316.000000
2897.803223 7422.000000
2898.570557 6532.000000
2899.336670 7188.000000
2900.103027 6985.000000
2900.867920 8300.000000
2901.633301 6969.000000
2902.399170 6540.000000
2903.163574 7785.000000
2903.927979 7702.000000
2904.692627 8441.000000
2905.456299 6631.000000
2906.220703 8493.000000
2906.984375 6722.000000
2907.747314 8449.000000
2908.510010 6574.000000
2909.273193 9115.000000
2910.035889 7019.000000
2910.797363 6788.000000
2911.559326 6788.000000
