scanname Analyse059
timestamp 2017-02-10 21:18:31
ccdbias 895.632813
ccdgain 3.473401
sigmaread 8.960639
laserwavenum -0.944342
wavenumcorrection -0.421378
scancount 1
totalexposurems 10000
singleexposurems 10000
measurementstate Unknown
scanmode Manual
snr 127.812561 1.662542 1.193889
replacelist 1
671 25616.000000 9923.000000
peaks 8
396.126068 0.340578 0.000000 0.292736 0.000031
781.842834 0.318872 0.000000 0.933516 0.000165
839.274109 0.311292 0.000000 0.185262 0.000016
877.742859 0.309487 0.000000 0.343806 0.000049
1153.588745 0.272953 0.000000 0.094076 0.000045
1315.715942 0.276024 0.000000 10.391120 0.002107
1335.111328 0.275539 0.000000 7.485431 0.001141
1458.759033 0.247162 0.000000 0.120892 0.000051
finalresult GLS_NotPositive 3
A6025	2-Nitrothiophene	3.428861e-003
A3574	Sodium hexanitrocobaltate(III)	1.476537e-003
A8797	6-Nitroindoline	6.037499e-004
spectrum 2048
-96.657112 45555.000000
-94.030243 45555.000000
-91.405251 46177.000000
-88.782150 46028.000000
-86.160919 46964.000000
-83.541588 46662.000000
-80.924118 46922.000000
-78.308525 46827.000000
-75.694809 47040.000000
-73.082970 47451.000000
-70.472992 47236.000000
-67.864899 47405.000000
-65.258652 47407.000000
-62.654282 47377.000000
-60.051773 47286.000000
-57.451118 47820.000000
-54.852325 47215.000000
-52.255390 46531.000000
-49.660309 46971.000000
-47.067081 46840.000000
-44.475704 47064.000000
-41.886173 46711.000000
-39.298485 47483.000000
-36.712646 47330.000000
-34.128651 46917.000000
-31.546492 47656.000000
-28.966179 47021.000000
-26.387693 47658.000000
-23.811050 47156.000000
-21.236233 47045.000000
-18.663256 46844.000000
-16.092098 46778.000000
-13.522776 46452.000000
-10.955277 45456.000000
-8.389598 46899.000000
-5.825744 46680.000000
-3.263703 47179.000000
-0.703487 47196.000000
1.854921 46867.000000
4.411508 45985.000000
6.966290 46204.000000
9.519255 46662.000000
12.070419 45804.000000
14.619771 45847.000000
17.167328 45382.000000
19.713072 45512.000000
22.257023 44844.000000
24.799170 42619.000000
27.339520 40322.000000
29.878084 36345.000000
32.414852 32375.000000
34.949818 29851.000000
37.483006 22525.000000
40.014412 10407.000000
42.544025 8454.000000
45.071842 7709.000000
47.597900 6679.000000
50.122169 5782.000000
52.644669 5095.000000
55.165371 4892.000000
57.684319 5454.000000
60.201492 7314.000000
62.716888 9220.000000
65.230507 9769.000000
67.742371 8873.000000
70.252487 7084.000000
72.760811 5197.000000
75.267380 4859.000000
77.772202 3751.000000
80.275269 2533.000000
82.776558 1935.000000
85.276108 1911.000000
87.773903 1858.000000
90.269966 1853.000000
92.764252 2070.000000
95.256798 2397.000000
97.747627 3142.000000
100.236687 3407.000000
102.723999 2582.000000
105.209587 1768.000000
107.693436 1386.000000
110.175537 1273.000000
112.655914 1230.000000
115.134567 1121.000000
117.611496 1169.000000
120.086670 1112.000000
122.560135 1049.000000
125.031868 1041.000000
127.501892 1147.000000
129.970154 1090.000000
132.436752 1113.000000
134.901596 1342.000000
137.364746 1391.000000
139.826157 1614.000000
142.285873 1767.000000
144.743866 2210.000000
147.200165 2641.000000
149.654755 3105.000000
152.107620 3689.000000
154.558807 4395.000000
157.008301 5180.000000
159.456070 6043.000000
161.902130 7070.000000
164.346512 8010.000000
166.789215 9091.000000
169.230225 9640.000000
171.669525 10407.000000
174.107117 10847.000000
176.543076 11127.000000
178.977295 11158.000000
181.409836 11249.000000
183.840729 11198.000000
186.269897 11435.000000
188.697418 11466.000000
191.123260 11600.000000
193.547424 11682.000000
195.969925 11780.000000
198.390732 11969.000000
200.809875 12220.000000
203.227356 12571.000000
205.643143 12805.000000
208.057281 13657.000000
210.469788 14230.000000
212.880615 15012.000000
215.289764 16026.000000
217.697281 16846.000000
220.103088 17875.000000
222.507309 18968.000000
224.909821 19752.000000
227.310715 20372.000000
229.709961 21100.000000
232.107544 21311.000000
234.503464 21355.000000
236.897766 21523.000000
239.290405 21853.000000
241.681427 21828.000000
244.070786 22041.000000
246.458527 22138.000000
248.844620 21954.000000
251.229080 22435.000000
253.611893 21656.000000
255.993134 22066.000000
258.372681 22064.000000
260.750641 22320.000000
263.126923 21915.000000
265.501648 21995.000000
267.874725 21633.000000
270.246155 22021.000000
272.615936 22095.000000
274.984161 22083.000000
277.350739 22019.000000
279.715729 21926.000000
282.079102 22065.000000
284.440826 22075.000000
286.800964 21742.000000
289.159485 22077.000000
291.516418 21932.000000
293.871735 21991.000000
296.225464 22114.000000
298.577545 21901.000000
300.928070 21937.000000
303.277008 21859.000000
305.624298 21671.000000
307.970062 21821.000000
310.314148 21786.000000
312.656708 21519.000000
314.997650 21441.000000
317.336975 21474.000000
319.674744 21743.000000
322.010956 21320.000000
324.345520 21601.000000
326.678528 21402.000000
329.009979 21443.000000
331.339844 21426.000000
333.668121 21373.000000
335.994781 21234.000000
338.319946 21364.000000
340.643494 21330.000000
342.965485 21419.000000
345.285919 21074.000000
347.604736 20937.000000
349.921997 21247.000000
352.237732 21205.000000
354.551880 20931.000000
356.864441 21012.000000
359.175446 21318.000000
361.484924 21114.000000
363.792877 21209.000000
366.099213 21341.000000
368.403961 21216.000000
370.707245 21196.000000
373.008911 21272.000000
375.309082 21202.000000
377.607697 21165.000000
379.904755 21408.000000
382.200256 21295.000000
384.494232 21399.000000
386.786621 21577.000000
389.077515 21729.000000
391.366882 21568.000000
393.654663 21805.000000
395.940918 22043.000000
398.225677 21970.000000
400.508820 22194.000000
402.790527 22073.000000
405.070709 22275.000000
407.349304 21661.000000
409.626373 21788.000000
411.901917 21716.000000
414.175934 21535.000000
416.448517 21554.000000
418.719482 21558.000000
420.988953 21520.000000
423.256927 21477.000000
425.523346 21366.000000
427.788269 21308.000000
430.051727 21285.000000
432.313599 21236.000000
434.574005 21405.000000
436.832855 21195.000000
439.090240 21169.000000
441.346130 21254.000000
443.600525 21088.000000
445.853394 21086.000000
448.104706 20926.000000
450.354614 20819.000000
452.602936 20703.000000
454.849823 20820.000000
457.095245 20529.000000
459.339111 20588.000000
461.581482 20301.000000
463.822357 20706.000000
466.061829 20472.000000
468.299713 20833.000000
470.536163 20507.000000
472.771088 20526.000000
475.004547 20189.000000
477.236572 20153.000000
479.467072 20351.000000
481.696075 20201.000000
483.923615 20409.000000
486.149658 20266.000000
488.374268 20247.000000
490.597412 20386.000000
492.819092 20285.000000
495.039215 20322.000000
497.257935 20560.000000
499.475159 20387.000000
501.691010 20640.000000
503.905243 20470.000000
506.118164 20332.000000
508.329498 20453.000000
510.539398 20494.000000
512.747864 20681.000000
514.954956 20595.000000
517.160461 20509.000000
519.364563 20557.000000
521.567139 20545.000000
523.768311 20490.000000
525.968140 20414.000000
528.166443 20347.000000
530.363220 20501.000000
532.558655 20363.000000
534.752563 20608.000000
536.945129 20068.000000
539.136169 20106.000000
541.325806 20218.000000
543.514038 20115.000000
545.700745 19896.000000
547.885986 19807.000000
550.069946 19437.000000
552.252319 19520.000000
554.433350 19386.000000
556.612854 19395.000000
558.791077 19414.000000
560.967773 19182.000000
563.143066 19240.000000
565.316956 19268.000000
567.489380 19145.000000
569.660400 19177.000000
571.829956 19059.000000
573.998230 19044.000000
576.164978 19072.000000
578.330261 19239.000000
580.494141 19342.000000
582.656738 19399.000000
584.817810 19264.000000
586.977478 19221.000000
589.135803 19515.000000
591.292603 19440.000000
593.448059 19307.000000
595.602112 19585.000000
597.754822 19565.000000
599.906006 19469.000000
602.055847 19376.000000
604.204346 19370.000000
606.351257 19537.000000
608.496948 19370.000000
610.641235 19619.000000
612.784058 19443.000000
614.925415 19596.000000
617.065552 19545.000000
619.204163 19061.000000
621.341492 19579.000000
623.477356 19398.000000
625.611816 19184.000000
627.744812 18943.000000
629.876648 18962.000000
632.007019 19033.000000
634.135986 19089.000000
636.263489 19083.000000
638.389709 18779.000000
640.514404 18452.000000
642.637878 18654.000000
644.760010 18513.000000
646.880676 18335.000000
649.000000 18365.000000
651.117920 18516.000000
653.234497 18364.000000
655.349670 18223.000000
657.463501 18062.000000
659.575867 18035.000000
661.687012 18121.000000
663.796753 18251.000000
665.905029 18030.000000
668.012146 18151.000000
670.117798 17918.000000
672.221985 17973.000000
674.324951 18134.000000
676.426514 17984.000000
678.526733 18335.000000
680.625549 18383.000000
682.723022 18430.000000
684.819214 18296.000000
686.913940 18440.000000
689.007446 18289.000000
691.099609 18221.000000
693.190247 18340.000000
695.279663 18449.000000
697.367798 18700.000000
699.454468 18733.000000
701.539917 18518.000000
703.623840 18544.000000
705.706543 18447.000000
707.787964 18471.000000
709.867920 18082.000000
711.946655 17420.000000
714.023926 17476.000000
716.099915 17599.000000
718.174622 17634.000000
720.248047 17513.000000
722.319946 18029.000000
724.390686 17801.000000
726.460083 17541.000000
728.528076 17479.000000
730.594727 17306.000000
732.660156 17406.000000
734.724243 17285.000000
736.786987 17170.000000
738.848389 17126.000000
740.908508 17132.000000
742.967224 16941.000000
745.024719 16962.000000
747.080933 16961.000000
749.135742 16689.000000
751.189270 16967.000000
753.241394 16833.000000
755.292297 16749.000000
757.341980 16822.000000
759.390198 16698.000000
761.437195 16653.000000
763.482910 16422.000000
765.527222 16594.000000
767.570251 17788.000000
769.612061 14924.000000
771.652527 16637.000000
773.691589 16627.000000
775.729492 16585.000000
777.766052 16600.000000
779.801392 16912.000000
781.835388 17115.000000
783.867981 16850.000000
785.899414 17441.000000
787.929443 16139.000000
789.958191 16904.000000
791.985779 17125.000000
794.012024 17164.000000
796.036865 17130.000000
798.060608 17246.000000
800.082947 17263.000000
802.104065 17271.000000
804.123840 17213.000000
806.142334 17480.000000
808.159607 17335.000000
810.175476 17415.000000
812.190186 17323.000000
814.203552 17135.000000
816.215698 16835.000000
818.226624 16773.000000
820.236206 16707.000000
822.244568 16666.000000
824.251526 16442.000000
826.257263 16418.000000
828.261780 16402.000000
830.265015 16198.000000
832.266968 16021.000000
834.267639 16152.000000
836.267090 16063.000000
838.265198 16084.000000
840.262207 16080.000000
842.257813 16198.000000
844.252258 16056.000000
846.245361 15822.000000
848.237244 15632.000000
850.227783 15743.000000
852.217041 15509.000000
854.205261 15647.000000
856.192078 15333.000000
858.177673 15372.000000
860.161987 15270.000000
862.145203 15186.000000
864.127014 15417.000000
866.107605 15431.000000
868.086914 15215.000000
870.065063 15392.000000
872.041870 15457.000000
874.017395 15553.000000
875.991882 15746.000000
877.964905 15879.000000
879.936890 16039.000000
881.907532 16113.000000
883.877014 16143.000000
885.845154 16048.000000
887.812134 16071.000000
889.777771 15913.000000
891.742249 15694.000000
893.705505 15763.000000
895.667542 15563.000000
897.628296 15694.000000
899.587830 15726.000000
901.546082 15620.000000
903.503235 15439.000000
905.459229 15429.000000
907.413818 15484.000000
909.367188 15475.000000
911.319397 15607.000000
913.270386 15225.000000
915.220093 15146.000000
917.168640 14952.000000
919.115967 15179.000000
921.062012 14945.000000
923.006775 14657.000000
924.950500 14447.000000
926.893066 14392.000000
928.834351 14082.000000
930.774292 13974.000000
932.713135 14033.000000
934.650696 13918.000000
936.587036 14029.000000
938.522217 13956.000000
940.456116 13808.000000
942.388916 14062.000000
944.320496 13799.000000
946.250916 13970.000000
948.180115 13824.000000
950.107971 13877.000000
952.034790 13823.000000
953.960327 13843.000000
955.884583 14117.000000
957.807739 14140.000000
959.729736 14238.000000
961.650452 14218.000000
963.570007 14174.000000
965.488403 14394.000000
967.405762 14391.000000
969.321655 14461.000000
971.236450 14401.000000
973.150024 14308.000000
975.062439 14515.000000
976.973633 14575.000000
978.883667 14450.000000
980.792419 14430.000000
982.700134 14353.000000
984.606628 14403.000000
986.511902 14290.000000
988.416077 14173.000000
990.319031 14173.000000
992.220764 14229.000000
994.121338 14025.000000
996.020752 14131.000000
997.918945 13942.000000
999.815979 13930.000000
1001.711792 13702.000000
1003.606445 13521.000000
1005.500000 13342.000000
1007.392273 13252.000000
1009.283630 13193.000000
1011.173645 13164.000000
1013.062439 13026.000000
1014.950073 12956.000000
1016.836548 12991.000000
1018.721863 13061.000000
1020.606018 12944.000000
1022.488953 12880.000000
1024.370850 12792.000000
1026.251465 12986.000000
1028.130981 12842.000000
1030.009521 12823.000000
1031.886719 12839.000000
1033.762573 12840.000000
1035.637451 12956.000000
1037.511353 12952.000000
1039.383789 12945.000000
1041.255249 12883.000000
1043.125366 12957.000000
1044.994507 12913.000000
1046.862427 12789.000000
1048.729248 13033.000000
1050.594971 13046.000000
1052.459473 13015.000000
1054.322876 13105.000000
1056.184937 13157.000000
1058.046021 13049.000000
1059.906006 13141.000000
1061.764648 13055.000000
1063.622192 13214.000000
1065.478638 13274.000000
1067.333984 13229.000000
1069.188110 13218.000000
1071.041382 13110.000000
1072.893188 13181.000000
1074.744019 13216.000000
1076.593628 13209.000000
1078.442017 13080.000000
1080.289551 12912.000000
1082.135742 12843.000000
1083.980713 12964.000000
1085.824829 12901.000000
1087.667603 13052.000000
1089.509155 12881.000000
1091.349976 12790.000000
1093.189209 12649.000000
1095.027710 12762.000000
1096.864868 12748.000000
1098.700806 12522.000000
1100.535767 12477.000000
1102.369507 12153.000000
1104.202271 12191.000000
1106.033691 11944.000000
1107.864258 12244.000000
1109.693481 12001.000000
1111.521729 11662.000000
1113.348755 11559.000000
1115.174805 11599.000000
1116.999634 11692.000000
1118.823364 11514.000000
1120.645874 11611.000000
1122.467285 11603.000000
1124.287842 11562.000000
1126.106934 11575.000000
1127.925171 11580.000000
1129.742065 11566.000000
1131.558105 11670.000000
1133.372925 11764.000000
1135.186646 11853.000000
1136.999268 11932.000000
1138.810669 11813.000000
1140.621094 12001.000000
1142.430420 11992.000000
1144.238403 12051.000000
1146.045654 12296.000000
1147.851440 12279.000000
1149.656372 12250.000000
1151.460205 12160.000000
1153.262817 12313.000000
1155.064575 12157.000000
1156.864868 12194.000000
1158.664185 12212.000000
1160.462524 12052.000000
1162.259521 12114.000000
1164.055786 11942.000000
1165.850708 11729.000000
1167.644531 11805.000000
1169.437500 11608.000000
1171.229126 11500.000000
1173.019775 11497.000000
1174.809448 11402.000000
1176.597656 11322.000000
1178.385010 11113.000000
1180.171265 11217.000000
1181.956421 11262.000000
1183.740479 11252.000000
1185.523438 11124.000000
1187.305420 11330.000000
1189.086182 11227.000000
1190.865967 11248.000000
1192.644653 11147.000000
1194.422363 11115.000000
1196.198853 10980.000000
1197.974243 10846.000000
1199.748535 10676.000000
1201.521729 10630.000000
1203.294067 10562.000000
1205.065063 10408.000000
1206.835205 10468.000000
1208.604126 10476.000000
1210.371948 10449.000000
1212.138916 10463.000000
1213.904541 10436.000000
1215.669189 10423.000000
1217.432739 10436.000000
1219.195190 10302.000000
1220.956787 10399.000000
1222.717163 10507.000000
1224.476440 10205.000000
1226.234863 10245.000000
1227.992065 10351.000000
1229.748169 10493.000000
1231.503174 10489.000000
1233.257324 10538.000000
1235.010132 10565.000000
1236.761963 10538.000000
1238.512939 10555.000000
1240.262573 10649.000000
1242.011353 10676.000000
1243.758789 10825.000000
1245.505493 10585.000000
1247.250977 10782.000000
1248.995605 10853.000000
1250.738892 10699.000000
1252.481201 10582.000000
1254.222412 10586.000000
1255.962769 10444.000000
1257.702026 10238.000000
1259.440063 9827.000000
1261.177246 9736.000000
1262.913208 9848.000000
1264.648193 10148.000000
1266.382202 10205.000000
1268.115234 10425.000000
1269.847046 10453.000000
1271.577881 10424.000000
1273.307495 10568.000000
1275.036255 10690.000000
1276.763916 10590.000000
1278.490479 10525.000000
1280.216187 10524.000000
1281.940552 10509.000000
1283.664063 10476.000000
1285.386597 10400.000000
1287.108154 10386.000000
1288.828491 10393.000000
1290.547852 10350.000000
1292.266113 10333.000000
1293.983398 10136.000000
1295.699707 10268.000000
1297.414795 10341.000000
1299.128906 10356.000000
1300.842041 10258.000000
1302.554321 10204.000000
1304.265381 9948.000000
1305.975464 9894.000000
1307.684448 9836.000000
1309.392212 9693.000000
1311.099365 9735.000000
1312.805054 9719.000000
1314.510010 9799.000000
1316.213989 9767.000000
1317.916748 9943.000000
1319.618530 10065.000000
1321.319458 10050.000000
1323.019043 6436.000000
1324.717773 2822.000000
1326.415771 9562.000000
1328.112427 9487.000000
1329.807983 9320.000000
1331.502686 9563.000000
1333.196167 9437.000000
1334.888794 9285.000000
1336.580566 9197.000000
1338.270996 9135.000000
1339.960693 9234.000000
1341.649292 9095.000000
1343.336792 9081.000000
1345.023315 9074.000000
1346.708740 9123.000000
1348.393188 9015.000000
1350.076782 9086.000000
1351.759155 9210.000000
1353.440552 9296.000000
1355.121094 9335.000000
1356.800415 9565.000000
1358.479126 9599.000000
1360.156494 9660.000000
1361.832764 9804.000000
1363.508057 9585.000000
1365.182617 9653.000000
1366.855957 9530.000000
1368.528320 9603.000000
1370.199707 9568.000000
1371.870117 9434.000000
1373.539429 9518.000000
1375.207764 9555.000000
1376.875244 9425.000000
1378.541626 9541.000000
1380.207031 9348.000000
1381.871460 9413.000000
1383.534668 9258.000000
1385.197266 9149.000000
1386.858521 9139.000000
1388.518921 9161.000000
1390.178223 8986.000000
1391.836548 9007.000000
1393.494141 8983.000000
1395.150513 8874.000000
1396.806030 9030.000000
1398.460327 9084.000000
1400.113770 9001.000000
1401.766113 9070.000000
1403.417725 9004.000000
1405.068115 8892.000000
1406.717407 8645.000000
1408.365967 8486.000000
1410.013428 8371.000000
1411.659912 8351.000000
1413.305542 8444.000000
1414.950195 8243.000000
1416.593628 8300.000000
1418.236206 8227.000000
1419.877686 8166.000000
1421.518311 8288.000000
1423.157959 8198.000000
1424.796509 8300.000000
1426.434204 8133.000000
1428.070801 8157.000000
1429.706421 8085.000000
1431.341309 8023.000000
1432.975098 8088.000000
1434.607788 8206.000000
1436.239502 7969.000000
1437.870361 7986.000000
1439.500122 8074.000000
1441.128784 7856.000000
1442.756836 7988.000000
1444.383789 8082.000000
1446.009521 8036.000000
1447.634644 8003.000000
1449.258667 8060.000000
1450.881714 8351.000000
1452.503784 8180.000000
1454.124756 8364.000000
1455.744751 8374.000000
1457.364014 8440.000000
1458.981934 8377.000000
1460.599243 8172.000000
1462.215576 8364.000000
1463.830688 8159.000000
1465.444946 8284.000000
1467.058350 8305.000000
1468.670654 8348.000000
1470.282104 8335.000000
1471.892700 8182.000000
1473.502075 8344.000000
1475.110474 8321.000000
1476.718018 8307.000000
1478.324585 7902.000000
1479.930420 8273.000000
1481.535034 8175.000000
1483.138794 8122.000000
1484.741333 7719.000000
1486.343262 7583.000000
1487.943970 7539.000000
1489.543945 7531.000000
1491.142822 7396.000000
1492.740845 7567.000000
1494.337769 7457.000000
1495.933838 7822.000000
1497.528931 8023.000000
1499.123047 7908.000000
1500.716431 7930.000000
1502.308716 7951.000000
1503.899780 7827.000000
1505.490356 7818.000000
1507.079590 7692.000000
1508.668213 7581.000000
1510.255737 7535.000000
1511.842163 7422.000000
1513.427856 7501.000000
1515.012451 7448.000000
1516.596191 7507.000000
1518.178833 7491.000000
1519.760742 7583.000000
1521.341553 7494.000000
1522.921631 7483.000000
1524.500488 7242.000000
1526.078491 7279.000000
1527.655762 7130.000000
1529.231812 7171.000000
1530.807129 7075.000000
1532.381348 7055.000000
1533.954834 6958.000000
1535.527100 7099.000000
1537.098633 7046.000000
1538.669189 7110.000000
1540.238892 6937.000000
1541.807373 6959.000000
1543.375122 6961.000000
1544.942017 6865.000000
1546.507690 6869.000000
1548.072632 6978.000000
1549.636475 6878.000000
1551.199707 6949.000000
1552.761597 6989.000000
1554.322876 6882.000000
1555.883057 6788.000000
1557.442505 6812.000000
1559.000854 6739.000000
1560.558472 6774.000000
1562.114990 6689.000000
1563.670288 6843.000000
1565.224976 6705.000000
1566.778931 6721.000000
1568.331909 6732.000000
1569.883545 6758.000000
1571.434448 6810.000000
1572.984619 6770.000000
1574.533813 6869.000000
1576.081665 6836.000000
1577.629028 6812.000000
1579.175415 6724.000000
1580.720947 6713.000000
1582.265503 6821.000000
1583.808838 6713.000000
1585.351563 6792.000000
1586.893433 6701.000000
1588.434204 6683.000000
1589.973999 6793.000000
1591.513062 6754.000000
1593.051025 6707.000000
1594.588501 6579.000000
1596.124634 6602.000000
1597.659668 6698.000000
1599.194214 6553.000000
1600.727783 6551.000000
1602.260498 6595.000000
1603.791626 6624.000000
1605.322510 6700.000000
1606.852539 6575.000000
1608.381348 6550.000000
1609.909058 6534.000000
1611.436157 6549.000000
1612.962524 6731.000000
1614.487915 6606.000000
1616.012451 6489.000000
1617.535645 6555.000000
1619.058105 6567.000000
1620.579834 6522.000000
1622.100708 6484.000000
1623.620117 6263.000000
1625.139038 6433.000000
1626.657227 6433.000000
1628.174561 6276.000000
1629.690796 6389.000000
1631.205688 6310.000000
1632.720093 6265.000000
1634.233765 6363.000000
1635.746338 6468.000000
1637.257690 6366.000000
1638.768677 6120.000000
1640.278564 6217.000000
1641.787598 6366.000000
1643.295288 6164.000000
1644.802612 6164.000000
1646.309082 6140.000000
1647.814575 6014.000000
1649.319214 6131.000000
1650.822388 6009.000000
1652.324951 6052.000000
1653.827148 6112.000000
1655.328003 6068.000000
1656.827759 5867.000000
1658.326660 5770.000000
1659.825195 5928.000000
1661.322510 5848.000000
1662.819092 5731.000000
1664.314087 5981.000000
1665.808838 5660.000000
1667.302734 5740.000000
1668.795654 5675.000000
1670.287231 6147.000000
1671.778320 5693.000000
1673.268799 5601.000000
1674.758179 5627.000000
1676.246094 5637.000000
1677.733765 5574.000000
1679.220459 5687.000000
1680.706299 5635.000000
1682.191284 5542.000000
1683.674805 5449.000000
1685.158081 5489.000000
1686.640503 5469.000000
1688.121826 5486.000000
1689.601685 5457.000000
1691.081299 5419.000000
1692.560181 5418.000000
1694.038086 5390.000000
1695.515015 5385.000000
1696.990723 5426.000000
1698.466064 5298.000000
1699.940186 5340.000000
1701.413696 5451.000000
1702.885742 5506.000000
1704.357544 5320.000000
1705.828369 5292.000000
1707.298340 5299.000000
1708.766968 5369.000000
1710.235107 5373.000000
1711.702515 5388.000000
1713.168823 5308.000000
1714.634521 5269.000000
1716.098511 5371.000000
1717.562378 5375.000000
1719.025391 5339.000000
1720.487427 5324.000000
1721.948242 5338.000000
1723.408447 5446.000000
1724.867920 5418.000000
1726.326538 5235.000000
1727.784180 5305.000000
1729.240479 5288.000000
1730.696533 5417.000000
1732.151611 5328.000000
1733.605713 5326.000000
1735.058594 5311.000000
1736.511230 5352.000000
1737.962769 5209.000000
1739.413574 5223.000000
1740.863403 5260.000000
1742.311890 5213.000000
1743.760010 5220.000000
1745.207275 5107.000000
1746.653809 5122.000000
1748.098755 5140.000000
1749.543457 5191.000000
1750.987305 5065.000000
1752.430298 5159.000000
1753.871826 5084.000000
1755.313110 5044.000000
1756.753540 5053.000000
1758.192993 4966.000000
1759.631470 5062.000000
1761.068970 4979.000000
1762.505981 4841.000000
1763.942017 5025.000000
1765.377197 4939.000000
1766.810913 4920.000000
1768.244507 4905.000000
1769.677124 4945.000000
1771.108887 4891.000000
1772.539795 4943.000000
1773.969482 4960.000000
1775.398438 4746.000000
1776.826904 4777.000000
1778.254395 4513.000000
1779.680542 4398.000000
1781.106445 4648.000000
1782.531250 4597.000000
1783.955444 4578.000000
1785.378174 4641.000000
1786.800415 4488.000000
1788.221924 4619.000000
1789.642700 4589.000000
1791.062500 4520.000000
1792.480957 4550.000000
1793.898926 4551.000000
1795.316284 4342.000000
1796.732788 4557.000000
1798.147827 4460.000000
1799.562500 4383.000000
1800.976563 4398.000000
1802.389404 4460.000000
1803.801636 4414.000000
1805.212524 4307.000000
1806.622925 4381.000000
1808.032593 4465.000000
1809.441284 4319.000000
1810.848877 4461.000000
1812.255981 4434.000000
1813.662231 4398.000000
1815.067505 4369.000000
1816.471680 4494.000000
1817.875488 4487.000000
1819.278320 4381.000000
1820.680298 4379.000000
1822.081665 4335.000000
1823.481567 4344.000000
1824.880859 4398.000000
1826.279663 4401.000000
1827.677612 4342.000000
1829.074219 4313.000000
1830.470215 4343.000000
1831.865479 4353.000000
1833.260132 4315.000000
1834.653809 4336.000000
1836.046143 4267.000000
1837.437988 4345.000000
1838.829224 4350.000000
1840.219482 4198.000000
1841.608521 4276.000000
1842.997192 4267.000000
1844.384888 4311.000000
1845.771851 4313.000000
1847.157471 4151.000000
1848.542847 4293.000000
1849.927368 4178.000000
1851.311157 4229.000000
1852.693848 4158.000000
1854.075317 4189.000000
1855.456299 4154.000000
1856.836792 4117.000000
1858.216309 4095.000000
1859.594360 3984.000000
1860.972290 4110.000000
1862.349243 4111.000000
1863.725464 4017.000000
1865.100830 4027.000000
1866.474731 3988.000000
1867.848511 4008.000000
1869.221436 3951.000000
1870.593262 4073.000000
1871.964111 4039.000000
1873.334595 3889.000000
1874.703979 3817.000000
1876.072876 3779.000000
1877.440186 3822.000000
1878.807373 3870.000000
1880.173584 3814.000000
1881.539063 3757.000000
1882.903809 3747.000000
1884.266968 3900.000000
1885.630005 3740.000000
1886.992188 3685.000000
1888.353516 3859.000000
1889.713501 3702.000000
1891.073120 3692.000000
1892.432129 3760.000000
1893.790161 3662.000000
1895.147339 3682.000000
1896.503296 3683.000000
1897.859009 3631.000000
1899.213745 3519.000000
1900.567627 3721.000000
1901.920410 3617.000000
1903.272705 3618.000000
1904.624268 3674.000000
1905.974976 3614.000000
1907.324463 3649.000000
1908.673462 3753.000000
1910.021606 3617.000000
1911.369141 3563.000000
1912.715942 3619.000000
1914.061157 3595.000000
1915.406128 3614.000000
1916.750366 3670.000000
1918.093750 3745.000000
1919.435791 3646.000000
1920.777588 3509.000000
1922.118530 3600.000000
1923.458740 3672.000000
1924.797974 3677.000000
1926.136230 3636.000000
1927.473877 3686.000000
1928.810791 3613.000000
1930.146851 3621.000000
1931.481689 3609.000000
1932.816162 3520.000000
1934.149902 3616.000000
1935.482788 3514.000000
1936.814209 3534.000000
1938.145752 3570.000000
1939.475952 3376.000000
1940.805664 3583.000000
1942.134521 3493.000000
1943.462158 3423.000000
1944.789307 3424.000000
1946.115723 3488.000000
1947.441406 3506.000000
1948.765747 3450.000000
1950.089844 3406.000000
1951.413086 3361.000000
1952.735596 3432.000000
1954.057007 3343.000000
1955.377441 3415.000000
1956.697266 3368.000000
1958.016724 3458.000000
1959.335205 3349.000000
1960.652344 3330.000000
1961.969116 3335.000000
1963.285156 3288.000000
1964.600464 3227.000000
1965.914307 3333.000000
1967.227905 3308.000000
1968.540771 3275.000000
1969.852783 3243.000000
1971.164185 3278.000000
1972.474243 3185.000000
1973.783813 3208.000000
1975.092651 3137.000000
1976.400879 3206.000000
1977.707764 3100.000000
1979.014038 3215.000000
1980.319946 3068.000000
1981.624634 3162.000000
1982.928833 3125.000000
1984.231812 3199.000000
1985.534424 3146.000000
1986.836060 3120.000000
1988.137085 3100.000000
1989.436523 3026.000000
1990.736084 3006.000000
1992.034546 3057.000000
1993.332520 2984.000000
1994.628906 3015.000000
1995.925293 3021.000000
1997.220703 2999.000000
1998.515381 2850.000000
1999.809204 2909.000000
2001.101807 2922.000000
2002.393921 2917.000000
2003.685547 2937.000000
2004.976440 2893.000000
2006.265747 2861.000000
2007.554810 2900.000000
2008.843140 2919.000000
2010.130737 2873.000000
2011.417480 3015.000000
2012.703125 2713.000000
2013.988403 2795.000000
2015.272705 2838.000000
2016.556396 2814.000000
2017.838745 2769.000000
2019.120728 2782.000000
2020.402222 2810.000000
2021.682739 2739.000000
2022.962524 2760.000000
2024.241211 2795.000000
2025.519165 2819.000000
2026.796631 2807.000000
2028.073486 2802.000000
2029.348633 2688.000000
2030.623901 2805.000000
2031.898193 2767.000000
2033.171509 2722.000000
2034.443970 2752.000000
2035.716064 2784.000000
2036.987061 2773.000000
2038.257813 2853.000000
2039.527222 2788.000000
2040.795532 2788.000000
2042.063843 2764.000000
2043.331177 2741.000000
2044.597778 2791.000000
2045.863159 2751.000000
2047.127930 2703.000000
2048.392334 2701.000000
2049.655762 2750.000000
2050.918701 2707.000000
2052.179688 2711.000000
2053.441162 2733.000000
2054.701416 2587.000000
2055.960938 2640.000000
2057.219727 2650.000000
2058.477539 2678.000000
2059.734863 2598.000000
2060.991455 2650.000000
2062.246582 2653.000000
2063.501709 2705.000000
2064.755859 2636.000000
2066.009277 2545.000000
2067.261963 2623.000000
2068.513428 2639.000000
2069.764648 2546.000000
2071.015137 2597.000000
2072.264893 2665.000000
2073.513184 2294.000000
2074.761475 2554.000000
2076.008789 2572.000000
2077.255371 2583.000000
2078.501221 2571.000000
2079.745850 2563.000000
2080.989990 2469.000000
2082.233643 2476.000000
2083.476318 2562.000000
2084.717773 2442.000000
2085.958984 2507.000000
2087.199707 2506.000000
2088.439453 2368.000000
2089.677979 2431.000000
2090.916016 2408.000000
2092.153320 2386.000000
2093.390381 2412.000000
2094.625977 2487.000000
2095.860840 2338.000000
2097.095459 2383.000000
2098.329102 2532.000000
2099.561768 2309.000000
2100.793701 2395.000000
2102.025146 2393.000000
2103.255615 2322.000000
2104.485352 2291.000000
2105.714844 2341.000000
2106.942383 2354.000000
2108.170166 2330.000000
2109.397217 2228.000000
2110.623291 2225.000000
2111.847900 2253.000000
2113.072754 2216.000000
2114.296387 2333.000000
2115.519531 2397.000000
2116.741455 2249.000000
2117.963135 2217.000000
2119.183838 2267.000000
2120.403809 2282.000000
2121.623291 2287.000000
2122.841309 2351.000000
2124.059326 2166.000000
2125.276367 2346.000000
2126.492920 2237.000000
2127.707764 2239.000000
2128.922852 2374.000000
2130.136963 2220.000000
2131.350342 2272.000000
2132.562988 2189.000000
2133.774170 2294.000000
2134.985596 2307.000000
2136.195801 2212.000000
2137.405518 2224.000000
2138.613770 2131.000000
2139.822021 2168.000000
2141.029541 2231.000000
2142.235840 2456.000000
2143.441406 2236.000000
2144.646729 2178.000000
2145.851074 2175.000000
2147.054688 2201.000000
2148.257813 2143.000000
2149.459473 2120.000000
2150.660889 2115.000000
2151.861572 2062.000000
2153.061523 2175.000000
2154.260254 2107.000000
2155.458740 2184.000000
2156.656738 2134.000000
2157.853760 2100.000000
2159.050049 2102.000000
2160.245117 2022.000000
2161.439941 1988.000000
2162.634033 2045.000000
2163.827148 1960.000000
2165.019287 1919.000000
2166.211182 2013.000000
2167.402344 2084.000000
2168.592529 1930.000000
2169.781982 1963.000000
2170.970947 2027.000000
2172.158936 1866.000000
2173.346680 1911.000000
2174.532959 1905.000000
2175.718506 1965.000000
2176.903809 1890.000000
2178.088623 1880.000000
2179.272217 1913.000000
2180.455078 1801.000000
2181.636963 1858.000000
2182.818604 1888.000000
2183.999756 1836.000000
2185.179688 1918.000000
2186.358643 1862.000000
2187.537109 1932.000000
2188.715332 1868.000000
2189.892334 1812.000000
2191.068359 1800.000000
2192.244141 1795.000000
2193.419434 1792.000000
2194.593262 1937.000000
2195.766602 1772.000000
2196.939697 1904.000000
2198.111572 1797.000000
2199.282959 1917.000000
2200.453857 1887.000000
2201.623047 1779.000000
2202.792236 1876.000000
2203.960938 1870.000000
2205.128662 1906.000000
2206.295410 1798.000000
2207.461426 1822.000000
2208.626953 1795.000000
2209.792236 1837.000000
2210.956055 1836.000000
2212.119385 1845.000000
2213.281494 1739.000000
2214.443848 1734.000000
2215.604980 1697.000000
2216.765137 1737.000000
2217.924805 1858.000000
2219.084229 1755.000000
2220.242432 1743.000000
2221.399658 1765.000000
2222.556641 1751.000000
2223.712891 1776.000000
2224.868408 1655.000000
2226.023193 1691.000000
2227.177002 1767.000000
2228.329834 1762.000000
2229.483154 1700.000000
2230.634521 1586.000000
2231.785645 1678.000000
2232.936035 1674.000000
2234.085938 1652.000000
2235.234863 1728.000000
2236.383301 1680.000000
2237.530273 1853.000000
2238.677490 1741.000000
2239.823486 1560.000000
2240.969238 1692.000000
2242.113281 1696.000000
2243.257568 1526.000000
2244.400879 1605.000000
2245.543457 1607.000000
2246.685059 1612.000000
2247.826416 1612.000000
2248.966797 1536.000000
2250.106445 1615.000000
2251.245605 1569.000000
2252.383545 1528.000000
2253.521484 1520.000000
2254.658447 1484.000000
2255.794678 1525.000000
2256.929932 1558.000000
2258.064453 1472.000000
2259.198730 1549.000000
2260.332520 1564.000000
2261.464844 1550.000000
2262.596680 1447.000000
2263.728027 1436.000000
2264.858398 1386.000000
2265.988525 1464.000000
2267.117432 1471.000000
2268.245850 1454.000000
2269.373779 1432.000000
2270.500732 1369.000000
2271.626953 1472.000000
2272.752197 1391.000000
2273.877441 1428.000000
2275.001953 1432.000000
2276.125244 1401.000000
2277.247803 1432.000000
2278.369873 1483.000000
2279.491455 1500.000000
2280.612305 1404.000000
2281.731934 1367.000000
2282.851074 1408.000000
2283.969971 1409.000000
2285.088135 1361.000000
2286.205322 1412.000000
2287.321533 1362.000000
2288.437500 1343.000000
2289.552734 1422.000000
2290.667236 1351.000000
2291.780518 1373.000000
2292.893799 1404.000000
2294.006348 1405.000000
2295.118164 1480.000000
2296.229248 1350.000000
2297.339111 1435.000000
2298.448486 1351.000000
2299.557617 1286.000000
2300.665771 1356.000000
2301.772949 1349.000000
2302.879883 1430.000000
2303.986084 1413.000000
2305.091797 1363.000000
2306.196045 1509.000000
2307.300049 1417.000000
2308.403564 1411.000000
2309.506592 1282.000000
2310.608398 1287.000000
2311.709473 1426.000000
2312.810059 1291.000000
2313.910156 1291.000000
2315.009521 1348.000000
2316.107422 1298.000000
2317.205811 1243.000000
2318.302734 1293.000000
2319.399414 1305.000000
2320.495605 1377.000000
2321.590088 1272.000000
2322.684570 1239.000000
2323.778320 1261.000000
2324.871826 1327.000000
2325.963623 1354.000000
2327.055420 1179.000000
2328.146484 1403.000000
2329.236816 1393.000000
2330.326172 1341.000000
2331.415527 1372.000000
2332.503662 1382.000000
2333.591309 1330.000000
2334.678711 1355.000000
2335.764404 1297.000000
2336.849854 1244.000000
2337.935059 1260.000000
2339.019287 1107.000000
2340.102539 1241.000000
2341.185547 1231.000000
2342.267578 1161.000000
2343.349365 1229.000000
2344.430420 1178.000000
2345.510254 1190.000000
2346.589600 1214.000000
2347.668457 1185.000000
2348.746826 1134.000000
2349.823730 1135.000000
2350.900391 1084.000000
2351.976807 1095.000000
2353.052246 1163.000000
2354.126709 1151.000000
2355.200928 1082.000000
2356.274414 1108.000000
2357.347412 1186.000000
2358.419189 1122.000000
2359.490723 1182.000000
2360.561279 1128.000000
2361.631592 1029.000000
2362.700928 1161.000000
2363.769287 1072.000000
2364.837402 1113.000000
2365.904785 1140.000000
2366.971680 1101.000000
2368.037842 1058.000000
2369.102783 1051.000000
2370.167725 1066.000000
2371.231934 1052.000000
2372.295410 1083.000000
2373.357666 1088.000000
2374.419922 1043.000000
2375.481201 999.000000
2376.542236 995.000000
2377.602051 1051.000000
2378.661133 1112.000000
2379.720215 1018.000000
2380.778320 1090.000000
2381.835693 1026.000000
2382.892090 1002.000000
2383.948242 1080.000000
2385.003906 1008.000000
2386.058838 1068.000000
2387.112305 1008.000000
2388.166016 951.000000
2389.218750 967.000000
2390.270996 1128.000000
2391.322510 1032.000000
2392.373047 1053.000000
2393.423340 1017.000000
2394.472656 1022.000000
2395.521973 1036.000000
2396.569824 977.000000
2397.617188 1006.000000
2398.664307 949.000000
2399.710449 1029.000000
2400.755859 985.000000
2401.800537 1026.000000
2402.845215 972.000000
2403.888428 962.000000
2404.931641 1030.000000
2405.973389 1046.000000
2407.015381 976.000000
2408.056641 956.000000
2409.096924 1000.000000
2410.136475 972.000000
2411.175049 976.000000
2412.213867 976.000000
2413.251465 1108.000000
2414.288818 1003.000000
2415.324951 1001.000000
2416.360840 984.000000
2417.395996 853.000000
2418.430664 976.000000
2419.463867 1001.000000
2420.497314 1017.000000
2421.529785 980.000000
2422.562012 906.000000
2423.592773 1027.000000
2424.623535 955.000000
2425.653809 949.000000
2426.682861 940.000000
2427.711914 969.000000
2428.739258 899.000000
2429.767090 954.000000
2430.793701 979.000000
2431.820068 933.000000
2432.844971 942.000000
2433.870117 889.000000
2434.894287 905.000000
2435.918213 874.000000
2436.940918 933.000000
2437.962891 903.000000
2438.984619 914.000000
2440.005615 854.000000
2441.026123 944.000000
2442.045410 910.000000
2443.064697 823.000000
2444.083008 840.000000
2445.101074 871.000000
2446.117676 928.000000
2447.134277 816.000000
2448.150146 939.000000
2449.166016 873.000000
2450.180420 771.000000
2451.194092 772.000000
2452.207275 907.000000
2453.220215 814.000000
2454.232422 921.000000
2455.243652 871.000000
2456.254639 825.000000
2457.264893 838.000000
2458.274658 861.000000
2459.283447 746.000000
2460.291504 817.000000
2461.299561 823.000000
2462.306396 853.000000
2463.312988 814.000000
2464.318359 761.000000
2465.323486 807.000000
2466.328369 714.000000
2467.332031 827.000000
2468.335449 744.000000
2469.337891 838.000000
2470.340088 818.000000
2471.341797 804.000000
2472.342529 882.000000
2473.342285 775.000000
2474.342041 747.000000
2475.340820 745.000000
2476.339111 729.000000
2477.336426 908.000000
2478.333496 739.000000
2479.330566 782.000000
2480.326172 755.000000
2481.321777 734.000000
2482.315674 688.000000
2483.309570 758.000000
2484.302979 720.000000
2485.295898 705.000000
2486.287842 729.000000
2487.279053 799.000000
2488.270020 683.000000
2489.260498 812.000000
2490.250000 806.000000
2491.238770 759.000000
2492.227539 743.000000
2493.215332 794.000000
2494.201904 753.000000
2495.188477 779.000000
2496.174561 722.000000
2497.159912 715.000000
2498.144287 700.000000
2499.128418 773.000000
2500.112549 742.000000
2501.095215 829.000000
2502.077393 761.000000
2503.059082 777.000000
2504.040039 777.000000
2505.020508 832.000000
2506.000732 707.000000
2506.979492 697.000000
2507.958008 690.000000
2508.936035 725.000000
2509.913574 692.000000
2510.890137 661.000000
2511.866455 778.000000
2512.842041 775.000000
2513.817139 673.000000
2514.791748 704.000000
2515.765137 706.000000
2516.738281 636.000000
2517.711182 726.000000
2518.683105 717.000000
2519.654297 601.000000
2520.625000 712.000000
2521.595459 720.000000
2522.565186 693.000000
2523.533936 733.000000
2524.501953 658.000000
2525.469971 660.000000
2526.437012 668.000000
2527.403809 697.000000
2528.369385 745.000000
2529.334961 640.000000
2530.299805 688.000000
2531.264160 688.000000
2532.227295 666.000000
2533.190674 639.000000
2534.153076 672.000000
2535.115234 711.000000
2536.076172 709.000000
2537.036377 679.000000
2537.996826 590.000000
2538.956299 715.000000
2539.915039 631.000000
2540.872803 630.000000
2541.830811 637.000000
2542.788086 696.000000
2543.744385 613.000000
2544.700439 741.000000
2545.655273 648.000000
2546.610352 590.000000
2547.564697 624.000000
2548.518311 666.000000
2549.470947 626.000000
2550.423340 636.000000
2551.375244 549.000000
2552.326416 713.000000
2553.276855 612.000000
2554.226807 559.000000
2555.176514 565.000000
2556.125488 586.000000
2557.073975 638.000000
2558.021240 641.000000
2558.968506 611.000000
2559.915039 609.000000
2560.861084 604.000000
2561.806152 577.000000
2562.750977 546.000000
2563.695313 597.000000
2564.639160 509.000000
2565.582520 631.000000
2566.524414 583.000000
2567.466553 652.000000
2568.407959 606.000000
2569.348633 571.000000
2570.288574 510.000000
2571.228516 522.000000
2572.167480 639.000000
2573.106201 488.000000
2574.043945 550.000000
2574.981445 604.000000
2575.918213 481.000000
2576.854248 562.000000
2577.789795 585.000000
2578.724609 516.000000
2579.659424 568.000000
2580.593262 517.000000
2581.526611 769.000000
2582.459229 547.000000
2583.391602 516.000000
2584.323242 575.000000
2585.254395 554.000000
2586.185059 574.000000
2587.114502 574.000000
2588.043945 635.000000
2588.972900 485.000000
2589.901611 577.000000
2590.828613 407.000000
2591.755859 395.000000
2592.682617 662.000000
2593.608643 451.000000
2594.534424 597.000000
2595.458984 513.000000
2596.383301 587.000000
2597.307129 567.000000
2598.230469 567.000000
2599.152832 490.000000
2600.074951 443.000000
2600.996582 466.000000
2601.917480 542.000000
2602.837646 487.000000
2603.757568 555.000000
2604.677002 543.000000
2605.596191 516.000000
2606.514404 479.000000
2607.431396 470.000000
2608.348633 398.000000
2609.265625 457.000000
2610.181641 512.000000
2611.096436 517.000000
2612.011719 516.000000
2612.926270 527.000000
2613.839844 618.000000
2614.753418 491.000000
2615.665771 405.000000
2616.578125 417.000000
2617.489502 586.000000
2618.400635 516.000000
2619.311035 650.000000
2620.221191 465.000000
2621.130615 535.000000
2622.039551 464.000000
2622.947510 492.000000
2623.855713 481.000000
2624.762939 442.000000
2625.669678 461.000000
2626.575684 548.000000
2627.481445 585.000000
2628.386475 521.000000
2629.291260 453.000000
2630.195313 473.000000
2631.098389 423.000000
2632.001465 414.000000
2632.903564 479.000000
2633.805664 590.000000
2634.707520 466.000000
2635.607666 538.000000
2636.508057 500.000000
2637.407715 519.000000
2638.307129 385.000000
2639.205078 529.000000
2640.103516 461.000000
2641.001465 457.000000
2641.898682 447.000000
2642.794678 462.000000
2643.690674 510.000000
2644.586426 491.000000
2645.481445 450.000000
2646.376221 459.000000
2647.269531 413.000000
2648.162842 387.000000
2649.055908 421.000000
2649.948730 492.000000
2650.839844 442.000000
2651.731201 386.000000
2652.622070 405.000000
2653.512207 417.000000
2654.402100 460.000000
2655.290771 396.000000
2656.179688 439.000000
2657.068115 378.000000
2657.955566 414.000000
2658.842041 423.000000
2659.729004 435.000000
2660.615234 359.000000
2661.500977 412.000000
2662.385498 448.000000
2663.270020 398.000000
2664.154297 469.000000
2665.037842 470.000000
2665.920898 424.000000
2666.803223 332.000000
2667.685059 392.000000
2668.566162 387.000000
2669.447510 383.000000
2670.327393 407.000000
2671.207520 376.000000
2672.086914 375.000000
2672.966309 493.000000
2673.844971 494.000000
2674.721924 370.000000
2675.599609 452.000000
2676.476563 266.000000
2677.352783 358.000000
2678.228516 375.000000
2679.103516 436.000000
2679.978760 424.000000
2680.853027 436.000000
2681.726807 361.000000
2682.599854 409.000000
2683.472656 404.000000
2684.345215 507.000000
2685.217041 411.000000
2686.088135 347.000000
2686.958984 373.000000
2687.829346 303.000000
2688.699463 385.000000
2689.567871 385.000000
2690.437012 354.000000
2691.305420 350.000000
2692.173584 350.000000
2693.041016 382.000000
2693.907227 417.000000
2694.773926 459.000000
2695.639648 392.000000
2696.505371 451.000000
2697.369629 359.000000
2698.234619 374.000000
2699.098145 339.000000
2699.961914 332.000000
2700.824219 354.000000
2701.687012 409.000000
2702.548828 392.000000
2703.410156 369.000000
2704.271484 400.000000
2705.131592 388.000000
2705.991699 350.000000
2706.851318 307.000000
2707.710693 417.000000
2708.568359 351.000000
2709.426270 400.000000
2710.284668 328.000000
2711.141846 406.000000
2711.998291 354.000000
2712.854248 390.000000
2713.710205 324.000000
2714.565430 296.000000
2715.419922 363.000000
2716.273926 331.000000
2717.127930 364.000000
2717.980957 352.000000
2718.834229 336.000000
2719.685791 414.000000
2720.537842 291.000000
2721.389648 384.000000
2722.240234 392.000000
2723.090820 556.000000
2723.940918 312.000000
2724.790283 277.000000
2725.639648 332.000000
2726.487793 352.000000
2727.335449 427.000000
2728.183594 345.000000
2729.030518 327.000000
2729.877930 328.000000
2730.723877 345.000000
2731.569092 315.000000
2732.414795 378.000000
2733.259521 341.000000
2734.104248 477.000000
2734.947754 326.000000
2735.791504 203.000000
2736.634521 328.000000
2737.477051 361.000000
2738.318604 293.000000
2739.160645 288.000000
2740.001709 253.000000
2740.842529 381.000000
2741.683105 413.000000
2742.522461 249.000000
2743.361816 377.000000
2744.201172 331.000000
2745.039307 297.000000
2745.876953 350.000000
2746.714600 221.000000
2747.551758 351.000000
2748.388672 311.000000
2749.225098 306.000000
2750.060303 336.000000
2750.895752 395.000000
2751.730713 369.000000
2752.564941 287.000000
2753.398926 257.000000
2754.232422 296.000000
2755.065918 274.000000
2755.898438 275.000000
2756.730469 303.000000
2757.562012 290.000000
2758.393555 304.000000
2759.224121 264.000000
2760.054932 234.000000
2760.884521 267.000000
2761.714111 319.000000
2762.543457 359.000000
2763.372070 368.000000
2764.200195 320.000000
2765.027832 278.000000
2765.855469 199.000000
2766.682617 422.000000
2767.509033 233.000000
2768.334961 300.000000
2769.160400 297.000000
2769.985596 285.000000
2770.810791 304.000000
2771.634766 242.000000
2772.458740 228.000000
2773.282715 299.000000
2774.105469 331.000000
2774.928467 196.000000
2775.750244 149.000000
2776.572021 328.000000
2777.393799 263.000000
2778.214600 273.000000
2779.034668 296.000000
2779.854980 209.000000
2780.674805 227.000000
2781.494629 325.000000
2782.312500 210.000000
2783.131592 264.000000
2783.949463 279.000000
2784.767090 350.000000
2785.584229 198.000000
2786.400879 240.000000
2787.217285 240.000000
2788.033203 273.000000
2788.848877 252.000000
2789.663574 411.000000
2790.478760 184.000000
2791.293213 248.000000
2792.107178 257.000000
2792.920898 256.000000
2793.733398 259.000000
2794.546143 184.000000
2795.358398 160.000000
2796.170166 226.000000
2796.981201 212.000000
2797.792969 331.000000
2798.603516 159.000000
2799.414063 204.000000
2800.223145 224.000000
2801.032959 220.000000
2801.842041 245.000000
2802.650879 226.000000
2803.459229 188.000000
2804.266602 240.000000
2805.074463 252.000000
2805.881592 274.000000
2806.688477 248.000000
2807.494141 236.000000
2808.300293 281.000000
2809.105713 188.000000
2809.911133 265.000000
2810.715820 261.000000
2811.519531 288.000000
2812.323730 322.000000
2813.127441 185.000000
2813.930908 265.000000
2814.732910 326.000000
2815.535645 149.000000
2816.337646 211.000000
2817.139404 274.000000
2817.940674 230.000000
2818.741455 300.000000
2819.541748 198.000000
2820.342285 390.000000
2821.141846 176.000000
2821.940918 181.000000
2822.739990 204.000000
2823.538818 248.000000
2824.337158 279.000000
2825.134521 176.000000
2825.932129 70.000000
2826.729004 245.000000
2827.526123 200.000000
2828.322510 177.000000
2829.118164 319.000000
2829.913818 183.000000
2830.709229 154.000000
2831.504150 205.000000
2832.298340 287.000000
2833.092529 281.000000
2833.886475 342.000000
2834.679932 249.000000
2835.472656 182.000000
2836.265137 135.000000
2837.057617 197.000000
2837.849854 208.000000
2838.641602 219.000000
2839.432373 217.000000
2840.223145 286.000000
2841.014160 211.000000
2841.804199 236.000000
2842.593750 174.000000
2843.383545 175.000000
2844.172363 219.000000
2844.961182 134.000000
2845.750000 211.000000
2846.537842 228.000000
2847.325195 238.000000
2848.112793 194.000000
2848.899902 289.000000
2849.686279 179.000000
2850.472656 192.000000
2851.258789 220.000000
2852.044434 120.000000
2852.829102 -5.000000
2853.614258 126.000000
2854.399170 177.000000
2855.183350 219.000000
2855.967529 127.000000
2856.750488 178.000000
2857.533691 189.000000
2858.316650 222.000000
2859.099121 233.000000
2859.881348 227.000000
2860.663086 239.000000
2861.444580 209.000000
2862.226318 225.000000
2863.007324 210.000000
2863.787598 214.000000
2864.567627 335.000000
2865.347656 111.000000
2866.127441 146.000000
2866.906250 247.000000
2867.685303 265.000000
2868.463867 213.000000
2869.242188 234.000000
2870.020020 159.000000
2870.797607 257.000000
2871.574951 206.000000
2872.352051 182.000000
2873.128662 225.000000
2873.904785 293.000000
2874.680908 223.000000
2875.456543 220.000000
2876.231934 253.000000
2877.006836 166.000000
2877.781494 126.000000
2878.556152 242.000000
2879.330566 177.000000
2880.104248 229.000000
2880.877197 229.000000
2881.650879 252.000000
2882.423584 281.000000
2883.196289 195.000000
2883.968262 339.000000
2884.739990 222.000000
2885.512207 187.000000
2886.283203 254.000000
2887.053711 123.000000
2887.824707 210.000000
2888.595703 128.000000
2889.365967 210.000000
2890.135254 247.000000
2890.904785 178.000000
2891.674316 312.000000
2892.443359 196.000000
2893.211914 209.000000
2893.980469 315.000000
2894.748047 228.000000
2895.516113 132.000000
2896.283691 173.000000
2897.051270 254.000000
2897.817627 194.000000
2898.584961 252.000000
2899.351074 171.000000
2900.117432 233.000000
2900.882324 272.000000
2901.647705 116.000000
2902.413574 160.000000
2903.177979 203.000000
2903.942383 194.000000
2904.707031 149.000000
2905.470703 243.000000
2906.235107 187.000000
2906.998779 263.000000
2907.761719 107.000000
2908.524414 187.000000
2909.287598 114.000000
2910.050293 259.000000
2910.811768 207.000000
2911.573730 207.000000
spectrumdark 2048
-96.657112 6135.000000
-94.030243 6135.000000
-91.405251 6049.000000
-88.782150 6445.000000
-86.160919 5803.000000
-83.541588 6236.000000
-80.924118 6062.000000
-78.308525 6334.000000
-75.694809 6134.000000
-73.082970 5819.000000
-70.472992 6057.000000
-67.864899 5928.000000
-65.258652 5980.000000
-62.654282 5956.000000
-60.051773 6055.000000
-57.451118 5583.000000
-54.852325 6212.000000
-52.255390 6848.000000
-49.660309 6460.000000
-47.067081 6527.000000
-44.475704 6286.000000
-41.886173 6696.000000
-39.298485 5880.000000
-36.712646 6041.000000
-34.128651 6426.000000
-31.546492 5713.000000
-28.966179 6297.000000
-26.387693 5680.000000
-23.811050 6143.000000
-21.236233 6205.000000
-18.663256 6411.000000
-16.092098 6438.000000
-13.522776 6756.000000
-10.955277 7774.000000
-8.389598 6282.000000
-5.825744 6454.000000
-3.263703 5941.000000
-0.703487 5789.000000
1.854921 6109.000000
4.411508 6917.000000
6.966290 6605.000000
9.519255 6022.000000
12.070419 6754.000000
14.619771 6502.000000
17.167328 6670.000000
19.713072 6015.000000
22.257023 5785.000000
24.799170 6685.000000
27.339520 6717.000000
29.878084 6864.000000
32.414852 6255.000000
34.949818 5711.000000
37.483006 7163.000000
40.014412 6263.000000
42.544025 7077.000000
45.071842 6435.000000
47.597900 7878.000000
50.122169 5626.000000
52.644669 6194.000000
55.165371 6699.000000
57.684319 6239.000000
60.201492 6476.000000
62.716888 6577.000000
65.230507 5533.000000
67.742371 5710.000000
70.252487 6527.000000
72.760811 6604.000000
75.267380 5875.000000
77.772202 6294.000000
80.275269 6437.000000
82.776558 6279.000000
85.276108 6088.000000
87.773903 6299.000000
90.269966 5717.000000
92.764252 7183.000000
95.256798 5799.000000
97.747627 6929.000000
100.236687 7199.000000
102.723999 6319.000000
105.209587 6147.000000
107.693436 6363.000000
110.175537 5742.000000
112.655914 6498.000000
115.134567 6158.000000
117.611496 6422.000000
120.086670 7190.000000
122.560135 6757.000000
125.031868 5828.000000
127.501892 6672.000000
129.970154 6232.000000
132.436752 6320.000000
134.901596 5679.000000
137.364746 6160.000000
139.826157 7241.000000
142.285873 6801.000000
144.743866 6320.000000
147.200165 5922.000000
149.654755 5789.000000
152.107620 6738.000000
154.558807 6314.000000
157.008301 6629.000000
159.456070 6108.000000
161.902130 6574.000000
164.346512 8713.000000
166.789215 6384.000000
169.230225 6754.000000
171.669525 6196.000000
174.107117 7157.000000
176.543076 6619.000000
178.977295 6953.000000
181.409836 7196.000000
183.840729 6701.000000
186.269897 7106.000000
188.697418 6703.000000
191.123260 6254.000000
193.547424 6677.000000
195.969925 7123.000000
198.390732 7345.000000
200.809875 6479.000000
203.227356 6085.000000
205.643143 7646.000000
208.057281 6970.000000
210.469788 6363.000000
212.880615 6055.000000
215.289764 6263.000000
217.697281 7425.000000
220.103088 6136.000000
222.507309 6418.000000
224.909821 6659.000000
227.310715 6907.000000
229.709961 6475.000000
232.107544 6880.000000
234.503464 7305.000000
236.897766 6543.000000
239.290405 5810.000000
241.681427 6730.000000
244.070786 6445.000000
246.458527 6355.000000
248.844620 6910.000000
251.229080 6080.000000
253.611893 7889.000000
255.993134 6558.000000
258.372681 6650.000000
260.750641 6461.000000
263.126923 7532.000000
265.501648 7603.000000
267.874725 7804.000000
270.246155 6208.000000
272.615936 6447.000000
274.984161 5876.000000
277.350739 6326.000000
279.715729 6704.000000
282.079102 5961.000000
284.440826 6186.000000
286.800964 7096.000000
289.159485 5893.000000
291.516418 6489.000000
293.871735 6310.000000
296.225464 5901.000000
298.577545 5956.000000
300.928070 6303.000000
303.277008 6315.000000
305.624298 6784.000000
307.970062 6358.000000
310.314148 6480.000000
312.656708 7366.000000
314.997650 7463.000000
317.336975 7185.000000
319.674744 6936.000000
322.010956 8028.000000
324.345520 6237.000000
326.678528 6451.000000
329.009979 5987.000000
331.339844 6589.000000
333.668121 6360.000000
335.994781 7098.000000
338.319946 6326.000000
340.643494 6194.000000
342.965485 5963.000000
345.285919 7517.000000
347.604736 7660.000000
349.921997 5981.000000
352.237732 5824.000000
354.551880 6958.000000
356.864441 6314.000000
359.175446 6204.000000
361.484924 6998.000000
363.792877 6349.000000
366.099213 5621.000000
368.403961 6389.000000
370.707245 6388.000000
373.008911 6205.000000
375.309082 6359.000000
377.607697 6295.000000
379.904755 5658.000000
382.200256 6069.000000
384.494232 5779.000000
386.786621 5222.000000
389.077515 5535.000000
391.366882 6204.000000
393.654663 6227.000000
395.940918 6490.000000
398.225677 6965.000000
400.508820 6019.000000
402.790527 6380.000000
405.070709 6062.000000
407.349304 7301.000000
409.626373 6463.000000
411.901917 6707.000000
414.175934 6464.000000
416.448517 6344.000000
418.719482 6418.000000
420.988953 6426.000000
423.256927 7146.000000
425.523346 7208.000000
427.788269 6325.000000
430.051727 6336.000000
432.313599 6408.000000
434.574005 5913.000000
436.832855 6625.000000
439.090240 6142.000000
441.346130 5621.000000
443.600525 5800.000000
445.853394 5458.000000
448.104706 6838.000000
450.354614 6116.000000
452.602936 6247.000000
454.849823 5616.000000
457.095245 6428.000000
459.339111 6468.000000
461.581482 6833.000000
463.822357 5606.000000
466.061829 6704.000000
468.299713 5369.000000
470.536163 5861.000000
472.771088 6039.000000
475.004547 7352.000000
477.236572 6724.000000
479.467072 5666.000000
481.696075 6371.000000
483.923615 6242.000000
486.149658 5933.000000
488.374268 6584.000000
490.597412 5808.000000
492.819092 6375.000000
495.039215 6677.000000
497.257935 5634.000000
499.475159 6320.000000
501.691010 5504.000000
503.905243 6127.000000
506.118164 6475.000000
508.329498 6384.000000
510.539398 6872.000000
512.747864 6452.000000
514.954956 6571.000000
517.160461 6382.000000
519.364563 6533.000000
521.567139 6196.000000
523.768311 6508.000000
525.968140 6647.000000
528.166443 6888.000000
530.363220 5315.000000
532.558655 5784.000000
534.752563 5477.000000
536.945129 7555.000000
539.136169 6677.000000
541.325806 6051.000000
543.514038 6868.000000
545.700745 7102.000000
547.885986 6835.000000
550.069946 6282.000000
552.252319 6363.000000
554.433350 6196.000000
556.612854 5957.000000
558.791077 5871.000000
560.967773 6040.000000
563.143066 6346.000000
565.316956 6472.000000
567.489380 5847.000000
569.660400 6070.000000
571.829956 6317.000000
573.998230 5269.000000
576.164978 6393.000000
578.330261 6282.000000
580.494141 6093.000000
582.656738 5702.000000
584.817810 6030.000000
586.977478 5630.000000
589.135803 5804.000000
591.292603 6166.000000
593.448059 6552.000000
595.602112 5708.000000
597.754822 6141.000000
599.906006 7233.000000
602.055847 6804.000000
604.204346 6656.000000
606.351257 5969.000000
608.496948 6527.000000
610.641235 6354.000000
612.784058 7001.000000
614.925415 6116.000000
617.065552 6383.000000
619.204163 7682.000000
621.341492 5700.000000
623.477356 6590.000000
625.611816 6880.000000
627.744812 7202.000000
629.876648 6636.000000
632.007019 6549.000000
634.135986 6696.000000
636.263489 6421.000000
638.389709 6180.000000
640.514404 7353.000000
642.637878 6306.000000
644.760010 6757.000000
646.880676 6838.000000
649.000000 6565.000000
651.117920 5583.000000
653.234497 5624.000000
655.349670 6470.000000
657.463501 6424.000000
659.575867 5878.000000
661.687012 6094.000000
663.796753 5357.000000
665.905029 6012.000000
668.012146 6245.000000
670.117798 6845.000000
672.221985 5869.000000
674.324951 5646.000000
676.426514 6956.000000
678.526733 5318.000000
680.625549 6691.000000
682.723022 6231.000000
684.819214 7004.000000
686.913940 6140.000000
689.007446 6973.000000
691.099609 6567.000000
693.190247 7890.000000
695.279663 6672.000000
697.367798 6449.000000
699.454468 5975.000000
701.539917 6654.000000
703.623840 5133.000000
705.706543 5888.000000
707.787964 5919.000000
709.867920 7518.000000
711.946655 6197.000000
714.023926 5566.000000
716.099915 6540.000000
718.174622 6010.000000
720.248047 6956.000000
722.319946 6206.000000
724.390686 7292.000000
726.460083 5769.000000
728.528076 6469.000000
730.594727 6365.000000
732.660156 6949.000000
734.724243 5769.000000
736.786987 6158.000000
738.848389 6466.000000
740.908508 6539.000000
742.967224 6082.000000
745.024719 6675.000000
747.080933 6436.000000
749.135742 6652.000000
751.189270 6287.000000
753.241394 7409.000000
755.292297 5738.000000
757.341980 6612.000000
759.390198 6345.000000
761.437195 6155.000000
763.482910 6986.000000
765.527222 5316.000000
767.570251 5688.000000
769.612061 14995.000000
771.652527 6955.000000
773.691589 6361.000000
775.729492 6096.000000
777.766052 5973.000000
779.801392 5335.000000
781.835388 5702.000000
783.867981 6803.000000
785.899414 5517.000000
787.929443 12127.000000
789.958191 6046.000000
791.985779 6277.000000
794.012024 6274.000000
796.036865 5770.000000
798.060608 5498.000000
800.082947 6297.000000
802.104065 5862.000000
804.123840 6688.000000
806.142334 4876.000000
808.159607 6697.000000
810.175476 6818.000000
812.190186 5684.000000
814.203552 6412.000000
816.215698 6289.000000
818.226624 6039.000000
820.236206 6512.000000
822.244568 5249.000000
824.251526 5681.000000
826.257263 6035.000000
828.261780 5735.000000
830.265015 5641.000000
832.266968 6466.000000
834.267639 6111.000000
836.267090 5935.000000
838.265198 6282.000000
840.262207 6942.000000
842.257813 6193.000000
844.252258 5955.000000
846.245361 6231.000000
848.237244 6780.000000
850.227783 5557.000000
852.217041 6722.000000
854.205261 5931.000000
856.192078 5758.000000
858.177673 6412.000000
860.161987 7298.000000
862.145203 6309.000000
864.127014 6395.000000
866.107605 5820.000000
868.086914 7697.000000
870.065063 6964.000000
872.041870 6170.000000
874.017395 5975.000000
875.991882 6156.000000
877.964905 6018.000000
879.936890 5481.000000
881.907532 6373.000000
883.877014 6126.000000
885.845154 5549.000000
887.812134 5192.000000
889.777771 6083.000000
891.742249 5791.000000
893.705505 5996.000000
895.667542 6511.000000
897.628296 5848.000000
899.587830 6322.000000
901.546082 6702.000000
903.503235 6336.000000
905.459229 6075.000000
907.413818 6897.000000
909.367188 6501.000000
911.319397 6361.000000
913.270386 6349.000000
915.220093 7082.000000
917.168640 6323.000000
919.115967 6082.000000
921.062012 6083.000000
923.006775 6059.000000
924.950500 6333.000000
926.893066 5934.000000
928.834351 5601.000000
930.774292 6507.000000
932.713135 5651.000000
934.650696 5495.000000
936.587036 5868.000000
938.522217 5859.000000
940.456116 6063.000000
942.388916 5883.000000
944.320496 6755.000000
946.250916 5164.000000
948.180115 6382.000000
950.107971 6978.000000
952.034790 6635.000000
953.960327 6002.000000
955.884583 5364.000000
957.807739 5929.000000
959.729736 6644.000000
961.650452 7254.000000
963.570007 6436.000000
965.488403 5328.000000
967.405762 6467.000000
969.321655 6368.000000
971.236450 6120.000000
973.150024 5949.000000
975.062439 6413.000000
976.973633 6422.000000
978.883667 5493.000000
980.792419 6229.000000
982.700134 6142.000000
984.606628 6342.000000
986.511902 5685.000000
988.416077 6798.000000
990.319031 6150.000000
992.220764 6781.000000
994.121338 6565.000000
996.020752 6535.000000
997.918945 5256.000000
999.815979 6541.000000
1001.711792 6530.000000
1003.606445 7679.000000
1005.500000 5599.000000
1007.392273 7165.000000
1009.283630 6070.000000
1011.173645 5308.000000
1013.062439 6586.000000
1014.950073 6282.000000
1016.836548 6919.000000
1018.721863 6693.000000
1020.606018 5884.000000
1022.488953 5845.000000
1024.370850 6232.000000
1026.251465 5186.000000
1028.130981 5791.000000
1030.009521 6041.000000
1031.886719 5427.000000
1033.762573 6201.000000
1035.637451 5920.000000
1037.511353 6538.000000
1039.383789 7011.000000
1041.255249 6702.000000
1043.125366 5502.000000
1044.994507 5476.000000
1046.862427 5748.000000
1048.729248 7007.000000
1050.594971 6688.000000
1052.459473 6432.000000
1054.322876 6429.000000
1056.184937 6473.000000
1058.046021 5907.000000
1059.906006 6464.000000
1061.764648 6580.000000
1063.622192 5731.000000
1065.478638 6706.000000
1067.333984 5931.000000
1069.188110 5737.000000
1071.041382 6237.000000
1072.893188 6278.000000
1074.744019 6129.000000
1076.593628 6091.000000
1078.442017 5730.000000
1080.289551 7943.000000
1082.135742 5608.000000
1083.980713 6139.000000
1085.824829 5411.000000
1087.667603 5429.000000
1089.509155 6534.000000
1091.349976 5480.000000
1093.189209 5762.000000
1095.027710 6050.000000
1096.864868 6015.000000
1098.700806 6805.000000
1100.535767 6504.000000
1102.369507 5381.000000
1104.202271 5621.000000
1106.033691 6203.000000
1107.864258 7230.000000
1109.693481 6489.000000
1111.521729 6398.000000
1113.348755 7102.000000
1115.174805 5435.000000
1116.999634 6248.000000
1118.823364 7051.000000
1120.645874 6045.000000
1122.467285 5852.000000
1124.287842 5898.000000
1126.106934 6561.000000
1127.925171 7047.000000
1129.742065 6842.000000
1131.558105 6633.000000
1133.372925 6473.000000
1135.186646 5587.000000
1136.999268 5730.000000
1138.810669 5692.000000
1140.621094 6134.000000
1142.430420 6722.000000
1144.238403 6942.000000
1146.045654 5881.000000
1147.851440 5844.000000
1149.656372 5340.000000
1151.460205 5353.000000
1153.262817 6093.000000
1155.064575 6142.000000
1156.864868 6060.000000
1158.664185 6100.000000
1160.462524 5862.000000
1162.259521 5423.000000
1164.055786 5920.000000
1165.850708 6100.000000
1167.644531 6316.000000
1169.437500 7749.000000
1171.229126 5774.000000
1173.019775 6472.000000
1174.809448 5992.000000
1176.597656 5904.000000
1178.385010 7502.000000
1180.171265 6848.000000
1181.956421 5733.000000
1183.740479 5925.000000
1185.523438 7637.000000
1187.305420 5832.000000
1189.086182 5816.000000
1190.865967 6299.000000
1192.644653 6927.000000
1194.422363 6659.000000
1196.198853 7145.000000
1197.974243 6569.000000
1199.748535 6526.000000
1201.521729 6662.000000
1203.294067 6458.000000
1205.065063 6711.000000
1206.835205 5726.000000
1208.604126 6101.000000
1210.371948 6276.000000
1212.138916 5745.000000
1213.904541 5871.000000
1215.669189 7029.000000
1217.432739 6514.000000
1219.195190 5960.000000
1220.956787 6694.000000
1222.717163 5875.000000
1224.476440 6307.000000
1226.234863 6028.000000
1227.992065 7113.000000
1229.748169 6401.000000
1231.503174 5483.000000
1233.257324 5958.000000
1235.010132 5825.000000
1236.761963 5967.000000
1238.512939 5930.000000
1240.262573 4915.000000
1242.011353 7005.000000
1243.758789 6443.000000
1245.505493 6610.000000
1247.250977 6488.000000
1248.995605 6343.000000
1250.738892 6771.000000
1252.481201 6690.000000
1254.222412 5308.000000
1255.962769 5041.000000
1257.702026 5758.000000
1259.440063 6662.000000
1261.177246 7172.000000
1262.913208 6149.000000
1264.648193 6399.000000
1266.382202 7324.000000
1268.115234 5897.000000
1269.847046 6196.000000
1271.577881 6390.000000
1273.307495 7247.000000
1275.036255 5868.000000
1276.763916 5667.000000
1278.490479 5553.000000
1280.216187 5544.000000
1281.940552 6410.000000
1283.664063 5165.000000
1285.386597 6930.000000
1287.108154 6570.000000
1288.828491 6144.000000
1290.547852 6685.000000
1292.266113 7206.000000
1293.983398 6476.000000
1295.699707 5700.000000
1297.414795 6333.000000
1299.128906 6130.000000
1300.842041 5713.000000
1302.554321 6416.000000
1304.265381 8273.000000
1305.975464 5279.000000
1307.684448 6252.000000
1309.392212 6642.000000
1311.099365 7013.000000
1312.805054 5755.000000
1314.510010 6843.000000
1316.213989 6209.000000
1317.916748 6008.000000
1319.618530 6551.000000
1321.319458 6063.000000
1323.019043 18684.500000
1324.717773 31306.000000
1326.415771 5525.000000
1328.112427 6446.000000
1329.807983 7151.000000
1331.502686 6830.000000
1333.196167 5708.000000
1334.888794 5458.000000
1336.580566 7401.000000
1338.270996 6239.000000
1339.960693 6488.000000
1341.649292 6056.000000
1343.336792 7529.000000
1345.023315 5627.000000
1346.708740 6758.000000
1348.393188 5929.000000
1350.076782 7224.000000
1351.759155 6403.000000
1353.440552 5943.000000
1355.121094 6576.000000
1356.800415 6599.000000
1358.479126 5909.000000
1360.156494 6547.000000
1361.832764 5675.000000
1363.508057 5545.000000
1365.182617 6579.000000
1366.855957 6478.000000
1368.528320 6735.000000
1370.199707 5162.000000
1371.870117 6766.000000
1373.539429 6122.000000
1375.207764 5629.000000
1376.875244 5979.000000
1378.541626 6452.000000
1380.207031 6141.000000
1381.871460 5812.000000
1383.534668 5935.000000
1385.197266 5731.000000
1386.858521 6352.000000
1388.518921 6510.000000
1390.178223 6369.000000
1391.836548 6503.000000
1393.494141 6822.000000
1395.150513 6509.000000
1396.806030 7000.000000
1398.460327 6270.000000
1400.113770 5807.000000
1401.766113 6112.000000
1403.417725 6438.000000
1405.068115 7145.000000
1406.717407 6264.000000
1408.365967 7523.000000
1410.013428 7889.000000
1411.659912 6133.000000
1413.305542 6142.000000
1414.950195 6000.000000
1416.593628 7031.000000
1418.236206 7162.000000
1419.877686 6827.000000
1421.518311 6441.000000
1423.157959 6425.000000
1424.796509 5963.000000
1426.434204 6537.000000
1428.070801 6310.000000
1429.706421 5998.000000
1431.341309 6363.000000
1432.975098 5858.000000
1434.607788 6043.000000
1436.239502 5681.000000
1437.870361 6121.000000
1439.500122 6038.000000
1441.128784 7765.000000
1442.756836 6014.000000
1444.383789 6227.000000
1446.009521 6179.000000
1447.634644 6133.000000
1449.258667 6487.000000
1450.881714 5997.000000
1452.503784 6027.000000
1454.124756 7410.000000
1455.744751 6294.000000
1457.364014 6835.000000
1458.981934 5655.000000
1460.599243 16306.000000
1462.215576 5489.000000
1463.830688 7301.000000
1465.444946 6230.000000
1467.058350 5163.000000
1468.670654 5612.000000
1470.282104 6243.000000
1471.892700 6323.000000
1473.502075 5889.000000
1475.110474 5947.000000
1476.718018 6173.000000
1478.324585 6839.000000
1479.930420 5302.000000
1481.535034 6263.000000
1483.138794 5446.000000
1484.741333 6762.000000
1486.343262 5539.000000
1487.943970 5496.000000
1489.543945 5590.000000
1491.142822 6237.000000
1492.740845 6460.000000
1494.337769 6603.000000
1495.933838 6296.000000
1497.528931 5980.000000
1499.123047 5499.000000
1500.716431 6541.000000
1502.308716 5490.000000
1503.899780 6169.000000
1505.490356 6764.000000
1507.079590 6454.000000
1508.668213 6142.000000
1510.255737 6520.000000
1511.842163 6874.000000
1513.427856 6180.000000
1515.012451 6680.000000
1516.596191 6224.000000
1518.178833 6192.000000
1519.760742 6597.000000
1521.341553 6680.000000
1522.921631 6009.000000
1524.500488 6252.000000
1526.078491 6372.000000
1527.655762 6270.000000
1529.231812 5645.000000
1530.807129 5894.000000
1532.381348 6333.000000
1533.954834 5481.000000
1535.527100 5913.000000
1537.098633 6378.000000
1538.669189 6401.000000
1540.238892 6351.000000
1541.807373 5367.000000
1543.375122 6575.000000
1544.942017 5644.000000
1546.507690 6838.000000
1548.072632 5870.000000
1549.636475 5027.000000
1551.199707 7383.000000
1552.761597 6241.000000
1554.322876 5928.000000
1555.883057 5708.000000
1557.442505 5782.000000
1559.000854 5986.000000
1560.558472 6275.000000
1562.114990 7048.000000
1563.670288 5769.000000
1565.224976 6384.000000
1566.778931 5681.000000
1568.331909 6311.000000
1569.883545 5645.000000
1571.434448 5855.000000
1572.984619 6189.000000
1574.533813 6263.000000
1576.081665 5742.000000
1577.629028 5471.000000
1579.175415 5739.000000
1580.720947 5034.000000
1582.265503 6643.000000
1583.808838 6328.000000
1585.351563 6571.000000
1586.893433 6458.000000
1588.434204 6708.000000
1589.973999 5767.000000
1591.513062 6584.000000
1593.051025 5847.000000
1594.588501 6108.000000
1596.124634 5889.000000
1597.659668 6658.000000
1599.194214 6220.000000
1600.727783 5914.000000
1602.260498 6048.000000
1603.791626 6227.000000
1605.322510 6220.000000
1606.852539 5800.000000
1608.381348 6041.000000
1609.909058 6112.000000
1611.436157 5978.000000
1612.962524 5869.000000
1614.487915 6157.000000
1616.012451 5826.000000
1617.535645 5765.000000
1619.058105 5592.000000
1620.579834 6550.000000
1622.100708 6938.000000
1623.620117 15532.000000
1625.139038 6215.000000
1626.657227 6037.000000
1628.174561 5976.000000
1629.690796 6348.000000
1631.205688 7077.000000
1632.720093 6755.000000
1634.233765 5702.000000
1635.746338 6664.000000
1637.257690 5940.000000
1638.768677 6451.000000
1640.278564 6255.000000
1641.787598 6152.000000
1643.295288 5648.000000
1644.802612 6088.000000
1646.309082 7034.000000
1647.814575 6247.000000
1649.319214 6833.000000
1650.822388 6168.000000
1652.324951 6549.000000
1653.827148 6296.000000
1655.328003 6618.000000
1656.827759 7534.000000
1658.326660 5985.000000
1659.825195 6515.000000
1661.322510 6221.000000
1662.819092 5957.000000
1664.314087 6433.000000
1665.808838 6378.000000
1667.302734 5214.000000
1668.795654 5707.000000
1670.287231 20146.000000
1671.778320 6395.000000
1673.268799 6064.000000
1674.758179 5937.000000
1676.246094 6931.000000
1677.733765 6852.000000
1679.220459 6030.000000
1680.706299 5356.000000
1682.191284 6075.000000
1683.674805 6151.000000
1685.158081 6104.000000
1686.640503 5805.000000
1688.121826 6224.000000
1689.601685 6206.000000
1691.081299 5558.000000
1692.560181 6557.000000
1694.038086 5963.000000
1695.515015 6172.000000
1696.990723 5729.000000
1698.466064 6017.000000
1699.940186 6310.000000
1701.413696 5467.000000
1702.885742 5540.000000
1704.357544 6887.000000
1705.828369 6487.000000
1707.298340 7141.000000
1708.766968 5099.000000
1710.235107 5832.000000
1711.702515 6355.000000
1713.168823 5499.000000
1714.634521 5799.000000
1716.098511 6190.000000
1717.562378 5932.000000
1719.025391 6955.000000
1720.487427 6330.000000
1721.948242 6667.000000
1723.408447 5457.000000
1724.867920 6329.000000
1726.326538 6198.000000
1727.784180 6040.000000
1729.240479 6275.000000
1730.696533 6022.000000
1732.151611 6415.000000
1733.605713 5981.000000
1735.058594 6828.000000
1736.511230 5926.000000
1737.962769 6885.000000
1739.413574 5971.000000
1740.863403 6498.000000
1742.311890 5897.000000
1743.760010 7309.000000
1745.207275 6534.000000
1746.653809 6602.000000
1748.098755 6677.000000
1749.543457 6138.000000
1750.987305 5850.000000
1752.430298 5452.000000
1753.871826 6489.000000
1755.313110 6390.000000
1756.753540 7449.000000
1758.192993 6289.000000
1759.631470 5236.000000
1761.068970 6047.000000
1762.505981 7504.000000
1763.942017 5755.000000
1765.377197 7103.000000
1766.810913 6177.000000
1768.244507 6475.000000
1769.677124 6609.000000
1771.108887 5774.000000
1772.539795 5786.000000
1773.969482 6399.000000
1775.398438 6142.000000
1776.826904 6251.000000
1778.254395 6669.000000
1779.680542 6240.000000
1781.106445 5582.000000
1782.531250 6872.000000
1783.955444 5570.000000
1785.378174 6627.000000
1786.800415 6553.000000
1788.221924 6873.000000
1789.642700 5877.000000
1791.062500 6164.000000
1792.480957 6095.000000
1793.898926 6815.000000
1795.316284 5555.000000
1796.732788 5979.000000
1798.147827 6556.000000
1799.562500 5827.000000
1800.976563 6579.000000
1802.389404 5934.000000
1803.801636 6959.000000
1805.212524 7149.000000
1806.622925 7779.000000
1808.032593 6426.000000
1809.441284 5969.000000
1810.848877 5374.000000
1812.255981 6430.000000
1813.662231 6359.000000
1815.067505 6733.000000
1816.471680 5935.000000
1817.875488 5932.000000
1819.278320 6200.000000
1820.680298 6023.000000
1822.081665 5842.000000
1823.481567 6302.000000
1824.880859 6485.000000
1826.279663 6521.000000
1827.677612 7422.000000
1829.074219 5721.000000
1830.470215 6737.000000
1831.865479 5854.000000
1833.260132 8162.000000
1834.653809 5925.000000
1836.046143 6850.000000
1837.437988 6383.000000
1838.829224 5857.000000
1840.219482 7108.000000
1841.608521 6051.000000
1842.997192 5992.000000
1844.384888 5962.000000
1845.771851 5838.000000
1847.157471 6897.000000
1848.542847 5842.000000
1849.927368 6320.000000
1851.311157 6289.000000
1852.693848 6365.000000
1854.075317 5347.000000
1855.456299 6529.000000
1856.836792 6292.000000
1858.216309 5686.000000
1859.594360 5927.000000
1860.972290 6194.000000
1862.349243 7839.000000
1863.725464 6069.000000
1865.100830 6040.000000
1866.474731 5666.000000
1867.848511 5688.000000
1869.221436 6210.000000
1870.593262 5887.000000
1871.964111 6828.000000
1873.334595 5444.000000
1874.703979 6080.000000
1876.072876 6044.000000
1877.440186 7187.000000
1878.807373 6033.000000
1880.173584 5933.000000
1881.539063 6801.000000
1882.903809 7520.000000
1884.266968 6674.000000
1885.630005 6907.000000
1886.992188 6350.000000
1888.353516 6374.000000
1889.713501 5617.000000
1891.073120 5797.000000
1892.432129 6131.000000
1893.790161 6641.000000
1895.147339 7196.000000
1896.503296 5875.000000
1897.859009 7619.000000
1899.213745 5867.000000
1900.567627 5454.000000
1901.920410 5888.000000
1903.272705 5926.000000
1904.624268 5930.000000
1905.974976 6859.000000
1907.324463 6537.000000
1908.673462 6669.000000
1910.021606 5760.000000
1911.369141 6145.000000
1912.715942 6243.000000
1914.061157 6910.000000
1915.406128 6119.000000
1916.750366 5412.000000
1918.093750 6491.000000
1919.435791 5955.000000
1920.777588 6689.000000
1922.118530 7018.000000
1923.458740 6125.000000
1924.797974 6239.000000
1926.136230 6290.000000
1927.473877 6439.000000
1928.810791 7016.000000
1930.146851 6742.000000
1931.481689 5579.000000
1932.816162 6756.000000
1934.149902 7179.000000
1935.482788 6268.000000
1936.814209 5777.000000
1938.145752 6282.000000
1939.475952 6744.000000
1940.805664 5751.000000
1942.134521 6072.000000
1943.462158 5815.000000
1944.789307 5033.000000
1946.115723 5824.000000
1947.441406 6454.000000
1948.765747 5749.000000
1950.089844 6643.000000
1951.413086 6370.000000
1952.735596 6401.000000
1954.057007 5813.000000
1955.377441 7395.000000
1956.697266 6019.000000
1958.016724 5553.000000
1959.335205 6826.000000
1960.652344 5907.000000
1961.969116 5842.000000
1963.285156 6555.000000
1964.600464 6591.000000
1965.914307 6269.000000
1967.227905 5623.000000
1968.540771 6220.000000
1969.852783 6035.000000
1971.164185 6014.000000
1972.474243 6323.000000
1973.783813 5799.000000
1975.092651 6197.000000
1976.400879 6523.000000
1977.707764 6077.000000
1979.014038 7222.000000
1980.319946 5546.000000
1981.624634 6391.000000
1982.928833 5934.000000
1984.231812 5695.000000
1985.534424 7529.000000
1986.836060 6064.000000
1988.137085 6743.000000
1989.436523 6041.000000
1990.736084 6598.000000
1992.034546 5206.000000
1993.332520 6057.000000
1994.628906 6107.000000
1995.925293 5794.000000
1997.220703 5541.000000
1998.515381 6549.000000
1999.809204 5722.000000
2001.101807 6542.000000
2002.393921 5725.000000
2003.685547 7139.000000
2004.976440 6382.000000
2006.265747 6233.000000
2007.554810 6761.000000
2008.843140 5886.000000
2010.130737 5991.000000
2011.417480 6644.000000
2012.703125 5659.000000
2013.988403 6359.000000
2015.272705 5965.000000
2016.556396 5571.000000
2017.838745 6033.000000
2019.120728 6458.000000
2020.402222 6711.000000
2021.682739 5891.000000
2022.962524 6075.000000
2024.241211 6734.000000
2025.519165 5833.000000
2026.796631 5863.000000
2028.073486 6263.000000
2029.348633 5751.000000
2030.623901 6569.000000
2031.898193 6078.000000
2033.171509 5946.000000
2034.443970 5999.000000
2035.716064 6138.000000
2036.987061 6895.000000
2038.257813 6533.000000
2039.527222 5992.000000
2040.795532 6790.000000
2042.063843 6633.000000
2043.331177 5931.000000
2044.597778 5958.000000
2045.863159 5593.000000
2047.127930 5637.000000
2048.392334 5394.000000
2049.655762 5831.000000
2050.918701 6452.000000
2052.179688 6138.000000
2053.441162 6059.000000
2054.701416 5892.000000
2055.960938 6391.000000
2057.219727 6233.000000
2058.477539 6940.000000
2059.734863 6203.000000
2060.991455 5989.000000
2062.246582 6478.000000
2063.501709 5622.000000
2064.755859 5600.000000
2066.009277 5674.000000
2067.261963 6839.000000
2068.513428 6240.000000
2069.764648 6304.000000
2071.015137 5612.000000
2072.264893 5437.000000
2073.513184 6478.000000
2074.761475 6488.000000
2076.008789 7344.000000
2077.255371 5584.000000
2078.501221 5978.000000
2079.745850 6965.000000
2080.989990 7588.000000
2082.233643 5517.000000
2083.476318 5988.000000
2084.717773 6944.000000
2085.958984 5926.000000
2087.199707 6256.000000
2088.439453 6770.000000
2089.677979 7037.000000
2090.916016 6200.000000
2092.153320 5768.000000
2093.390381 6580.000000
2094.625977 6049.000000
2095.860840 6247.000000
2097.095459 6061.000000
2098.329102 5561.000000
2099.561768 6128.000000
2100.793701 6842.000000
2102.025146 6382.000000
2103.255615 6774.000000
2104.485352 5987.000000
2105.714844 6021.000000
2106.942383 5949.000000
2108.170166 5928.000000
2109.397217 6288.000000
2110.623291 5487.000000
2111.847900 6395.000000
2113.072754 6910.000000
2114.296387 7032.000000
2115.519531 6176.000000
2116.741455 7495.000000
2117.963135 6039.000000
2119.183838 6885.000000
2120.403809 5977.000000
2121.623291 6120.000000
2122.841309 6542.000000
2124.059326 7086.000000
2125.276367 5650.000000
2126.492920 5814.000000
2127.707764 6544.000000
2128.922852 6300.000000
2130.136963 6969.000000
2131.350342 5637.000000
2132.562988 6081.000000
2133.774170 5768.000000
2134.985596 6541.000000
2136.195801 6823.000000
2137.405518 5910.000000
2138.613770 6230.000000
2139.822021 5716.000000
2141.029541 5838.000000
2142.235840 7466.000000
2143.441406 5853.000000
2144.646729 5649.000000
2145.851074 5557.000000
2147.054688 6281.000000
2148.257813 6193.000000
2149.459473 6423.000000
2150.660889 5315.000000
2151.861572 6334.000000
2153.061523 6018.000000
2154.260254 5958.000000
2155.458740 6887.000000
2156.656738 6207.000000
2157.853760 5957.000000
2159.050049 5176.000000
2160.245117 5261.000000
2161.439941 6147.000000
2162.634033 5534.000000
2163.827148 6082.000000
2165.019287 6957.000000
2166.211182 5922.000000
2167.402344 6307.000000
2168.592529 6296.000000
2169.781982 6477.000000
2170.970947 6766.000000
2172.158936 6045.000000
2173.346680 5719.000000
2174.532959 5888.000000
2175.718506 6443.000000
2176.903809 5969.000000
2178.088623 5794.000000
2179.272217 6323.000000
2180.455078 7541.000000
2181.636963 6311.000000
2182.818604 5910.000000
2183.999756 6604.000000
2185.179688 5675.000000
2186.358643 5566.000000
2187.537109 6274.000000
2188.715332 6860.000000
2189.892334 7176.000000
2191.068359 6742.000000
2192.244141 6081.000000
2193.419434 5601.000000
2194.593262 6596.000000
2195.766602 6168.000000
2196.939697 6085.000000
2198.111572 6387.000000
2199.282959 7010.000000
2200.453857 6284.000000
2201.623047 6845.000000
2202.792236 7510.000000
2203.960938 6291.000000
2205.128662 5889.000000
2206.295410 5672.000000
2207.461426 7158.000000
2208.626953 6689.000000
2209.792236 5958.000000
2210.956055 6686.000000
2212.119385 5388.000000
2213.281494 6181.000000
2214.443848 6166.000000
2215.604980 6665.000000
2216.765137 6700.000000
2217.924805 6261.000000
2219.084229 6570.000000
2220.242432 6325.000000
2221.399658 6279.000000
2222.556641 6736.000000
2223.712891 6582.000000
2224.868408 6796.000000
2226.023193 6314.000000
2227.177002 6306.000000
2228.329834 6065.000000
2229.483154 6877.000000
2230.634521 6212.000000
2231.785645 6152.000000
2232.936035 6513.000000
2234.085938 7662.000000
2235.234863 6231.000000
2236.383301 5196.000000
2237.530273 6392.000000
2238.677490 7018.000000
2239.823486 6093.000000
2240.969238 7227.000000
2242.113281 7244.000000
2243.257568 6768.000000
2244.400879 6157.000000
2245.543457 5943.000000
2246.685059 5758.000000
2247.826416 5720.000000
2248.966797 6401.000000
2250.106445 6422.000000
2251.245605 5747.000000
2252.383545 5840.000000
2253.521484 6177.000000
2254.658447 5306.000000
2255.794678 6329.000000
2256.929932 6079.000000
2258.064453 7264.000000
2259.198730 6354.000000
2260.332520 5364.000000
2261.464844 6118.000000
2262.596680 6747.000000
2263.728027 6280.000000
2264.858398 6465.000000
2265.988525 8052.000000
2267.117432 6661.000000
2268.245850 6055.000000
2269.373779 5532.000000
2270.500732 6146.000000
2271.626953 5936.000000
2272.752197 6746.000000
2273.877441 6474.000000
2275.001953 6425.000000
2276.125244 5985.000000
2277.247803 6352.000000
2278.369873 5896.000000
2279.491455 7337.000000
2280.612305 6383.000000
2281.731934 6382.000000
2282.851074 7116.000000
2283.969971 7621.000000
2285.088135 7250.000000
2286.205322 5855.000000
2287.321533 6392.000000
2288.437500 6977.000000
2289.552734 6846.000000
2290.667236 7364.000000
2291.780518 5738.000000
2292.893799 6328.000000
2294.006348 5983.000000
2295.118164 5352.000000
2296.229248 6728.000000
2297.339111 6384.000000
2298.448486 6145.000000
2299.557617 6643.000000
2300.665771 6309.000000
2301.772949 6752.000000
2302.879883 5853.000000
2303.986084 6231.000000
2305.091797 6591.000000
2306.196045 6486.000000
2307.300049 5405.000000
2308.403564 5683.000000
2309.506592 6547.000000
2310.608398 7410.000000
2311.709473 7237.000000
2312.810059 6566.000000
2313.910156 5510.000000
2315.009521 6362.000000
2316.107422 6564.000000
2317.205811 7003.000000
2318.302734 8173.000000
2319.399414 6825.000000
2320.495605 5768.000000
2321.590088 6941.000000
2322.684570 7554.000000
2323.778320 5835.000000
2324.871826 5982.000000
2325.963623 6436.000000
2327.055420 6983.000000
2328.146484 6076.000000
2329.236816 6211.000000
2330.326172 6953.000000
2331.415527 6028.000000
2332.503662 6259.000000
2333.591309 6888.000000
2334.678711 6506.000000
2335.764404 6655.000000
2336.849854 7732.000000
2337.935059 6279.000000
2339.019287 6797.000000
2340.102539 5857.000000
2341.185547 6402.000000
2342.267578 7056.000000
2343.349365 5986.000000
2344.430420 7410.000000
2345.510254 6630.000000
2346.589600 5724.000000
2347.668457 6717.000000
2348.746826 6508.000000
2349.823730 6309.000000
2350.900391 7013.000000
2351.976807 6085.000000
2353.052246 6422.000000
2354.126709 5865.000000
2355.200928 6306.000000
2356.274414 6734.000000
2357.347412 6227.000000
2358.419189 6973.000000
2359.490723 6202.000000
2360.561279 6728.000000
2361.631592 7524.000000
2362.700928 7558.000000
2363.769287 6803.000000
2364.837402 6708.000000
2365.904785 7048.000000
2366.971680 7109.000000
2368.037842 6081.000000
2369.102783 6879.000000
2370.167725 6992.000000
2371.231934 6316.000000
2372.295410 6858.000000
2373.357666 5731.000000
2374.419922 6326.000000
2375.481201 6337.000000
2376.542236 5993.000000
2377.602051 6256.000000
2378.661133 7847.000000
2379.720215 6468.000000
2380.778320 7550.000000
2381.835693 6866.000000
2382.892090 8025.000000
2383.948242 7770.000000
2385.003906 6228.000000
2386.058838 7020.000000
2387.112305 6729.000000
2388.166016 6531.000000
2389.218750 6297.000000
2390.270996 6717.000000
2391.322510 6124.000000
2392.373047 6602.000000
2393.423340 6495.000000
2394.472656 6186.000000
2395.521973 6186.000000
2396.569824 6912.000000
2397.617188 6957.000000
2398.664307 6311.000000
2399.710449 6616.000000
2400.755859 6140.000000
2401.800537 6733.000000
2402.845215 7690.000000
2403.888428 7463.000000
2404.931641 6493.000000
2405.973389 5693.000000
2407.015381 6730.000000
2408.056641 7120.000000
2409.096924 6055.000000
2410.136475 6415.000000
2411.175049 6315.000000
2412.213867 6040.000000
2413.251465 6461.000000
2414.288818 6879.000000
2415.324951 7358.000000
2416.360840 6195.000000
2417.395996 6304.000000
2418.430664 6795.000000
2419.463867 7183.000000
2420.497314 6457.000000
2421.529785 6622.000000
2422.562012 6816.000000
2423.592773 6983.000000
2424.623535 6298.000000
2425.653809 6823.000000
2426.682861 6860.000000
2427.711914 6600.000000
2428.739258 7382.000000
2429.767090 6680.000000
2430.793701 7234.000000
2431.820068 6936.000000
2432.844971 7697.000000
2433.870117 6589.000000
2434.894287 7124.000000
2435.918213 6721.000000
2436.940918 5865.000000
2437.962891 6367.000000
2438.984619 6607.000000
2440.005615 6677.000000
2441.026123 5938.000000
2442.045410 6479.000000
2443.064697 6590.000000
2444.083008 8470.000000
2445.101074 6259.000000
2446.117676 6408.000000
2447.134277 6559.000000
2448.150146 5916.000000
2449.166016 6972.000000
2450.180420 6910.000000
2451.194092 5544.000000
2452.207275 7215.000000
2453.220215 6005.000000
2454.232422 7109.000000
2455.243652 6672.000000
2456.254639 7644.000000
2457.264893 6338.000000
2458.274658 7562.000000
2459.283447 5926.000000
2460.291504 5941.000000
2461.299561 6240.000000
2462.306396 7340.000000
2463.312988 5389.000000
2464.318359 7368.000000
2465.323486 6906.000000
2466.328369 5836.000000
2467.332031 6532.000000
2468.335449 6383.000000
2469.337891 7609.000000
2470.340088 7332.000000
2471.341797 6856.000000
2472.342529 6557.000000
2473.342285 6959.000000
2474.342041 6675.000000
2475.340820 5648.000000
2476.339111 6548.000000
2477.336426 6943.000000
2478.333496 6098.000000
2479.330566 6986.000000
2480.326172 5792.000000
2481.321777 7069.000000
2482.315674 6747.000000
2483.309570 8025.000000
2484.302979 6844.000000
2485.295898 6737.000000
2486.287842 7518.000000
2487.279053 7211.000000
2488.270020 6763.000000
2489.260498 5761.000000
2490.250000 6570.000000
2491.238770 6488.000000
2492.227539 5638.000000
2493.215332 6790.000000
2494.201904 6546.000000
2495.188477 8073.000000
2496.174561 6725.000000
2497.159912 7036.000000
2498.144287 8053.000000
2499.128418 5993.000000
2500.112549 6883.000000
2501.095215 5698.000000
2502.077393 6957.000000
2503.059082 6810.000000
2504.040039 7219.000000
2505.020508 6462.000000
2506.000732 5720.000000
2506.979492 6323.000000
2507.958008 7572.000000
2508.936035 6667.000000
2509.913574 7057.000000
2510.890137 6125.000000
2511.866455 5891.000000
2512.842041 6381.000000
2513.817139 6187.000000
2514.791748 6422.000000
2515.765137 7566.000000
2516.738281 6818.000000
2517.711182 6867.000000
2518.683105 6051.000000
2519.654297 6824.000000
2520.625000 6921.000000
2521.595459 7744.000000
2522.565186 7986.000000
2523.533936 6047.000000
2524.501953 6104.000000
2525.469971 7763.000000
2526.437012 6317.000000
2527.403809 5489.000000
2528.369385 7171.000000
2529.334961 7020.000000
2530.299805 7702.000000
2531.264160 6279.000000
2532.227295 6335.000000
2533.190674 5886.000000
2534.153076 5953.000000
2535.115234 6625.000000
2536.076172 6318.000000
2537.036377 6079.000000
2537.996826 6169.000000
2538.956299 6671.000000
2539.915039 6826.000000
2540.872803 6776.000000
2541.830811 6163.000000
2542.788086 6722.000000
2543.744385 6107.000000
2544.700439 7029.000000
2545.655273 6181.000000
2546.610352 7726.000000
2547.564697 7029.000000
2548.518311 6862.000000
2549.470947 7214.000000
2550.423340 6671.000000
2551.375244 6976.000000
2552.326416 6358.000000
2553.276855 7700.000000
2554.226807 7297.000000
2555.176514 7378.000000
2556.125488 6656.000000
2557.073975 6188.000000
2558.021240 7080.000000
2558.968506 6246.000000
2559.915039 6501.000000
2560.861084 6720.000000
2561.806152 7420.000000
2562.750977 6701.000000
2563.695313 7193.000000
2564.639160 6907.000000
2565.582520 6581.000000
2566.524414 6584.000000
2567.466553 6519.000000
2568.407959 6175.000000
2569.348633 7166.000000
2570.288574 7266.000000
2571.228516 5693.000000
2572.167480 6111.000000
2573.106201 7531.000000
2574.043945 7181.000000
2574.981445 5436.000000
2575.918213 6958.000000
2576.854248 6770.000000
2577.789795 7474.000000
2578.724609 6299.000000
2579.659424 5953.000000
2580.593262 7069.000000
2581.526611 7008.000000
2582.459229 5860.000000
2583.391602 6919.000000
2584.323242 5395.000000
2585.254395 7039.000000
2586.185059 6961.000000
2587.114502 6857.000000
2588.043945 7203.000000
2588.972900 6479.000000
2589.901611 7562.000000
2590.828613 7403.000000
2591.755859 5979.000000
2592.682617 6719.000000
2593.608643 6278.000000
2594.534424 5589.000000
2595.458984 7671.000000
2596.383301 7590.000000
2597.307129 5315.000000
2598.230469 7216.000000
2599.152832 6283.000000
2600.074951 6858.000000
2600.996582 8325.000000
2601.917480 6439.000000
2602.837646 5768.000000
2603.757568 6303.000000
2604.677002 6344.000000
2605.596191 6435.000000
2606.514404 5831.000000
2607.431396 6048.000000
2608.348633 7311.000000
2609.265625 5921.000000
2610.181641 7538.000000
2611.096436 6595.000000
2612.011719 6637.000000
2612.926270 6515.000000
2613.839844 6519.000000
2614.753418 6113.000000
2615.665771 7655.000000
2616.578125 7086.000000
2617.489502 6735.000000
2618.400635 5747.000000
2619.311035 7111.000000
2620.221191 6651.000000
2621.130615 6120.000000
2622.039551 6611.000000
2622.947510 6194.000000
2623.855713 6842.000000
2624.762939 6687.000000
2625.669678 7061.000000
2626.575684 5994.000000
2627.481445 6572.000000
2628.386475 6581.000000
2629.291260 7806.000000
2630.195313 6415.000000
2631.098389 6401.000000
2632.001465 6432.000000
2632.903564 5582.000000
2633.805664 6661.000000
2634.707520 6954.000000
2635.607666 6634.000000
2636.508057 6325.000000
2637.407715 6352.000000
2638.307129 6014.000000
2639.205078 6800.000000
2640.103516 6668.000000
2641.001465 6414.000000
2641.898682 6044.000000
2642.794678 6136.000000
2643.690674 6733.000000
2644.586426 6016.000000
2645.481445 6429.000000
2646.376221 6620.000000
2647.269531 7104.000000
2648.162842 6267.000000
2649.055908 6721.000000
2649.948730 6411.000000
2650.839844 7445.000000
2651.731201 6408.000000
2652.622070 7535.000000
2653.512207 7323.000000
2654.402100 6523.000000
2655.290771 7318.000000
2656.179688 6621.000000
2657.068115 6598.000000
2657.955566 7303.000000
2658.842041 6411.000000
2659.729004 7109.000000
2660.615234 6862.000000
2661.500977 6832.000000
2662.385498 6494.000000
2663.270020 6403.000000
2664.154297 6147.000000
2665.037842 7037.000000
2665.920898 7805.000000
2666.803223 7352.000000
2667.685059 6167.000000
2668.566162 6602.000000
2669.447510 6075.000000
2670.327393 6559.000000
2671.207520 7392.000000
2672.086914 7247.000000
2672.966309 6205.000000
2673.844971 6099.000000
2674.721924 6427.000000
2675.599609 6729.000000
2676.476563 6427.000000
2677.352783 8114.000000
2678.228516 7187.000000
2679.103516 6234.000000
2679.978760 7718.000000
2680.853027 6939.000000
2681.726807 7332.000000
2682.599854 6975.000000
2683.472656 6176.000000
2684.345215 6009.000000
2685.217041 6847.000000
2686.088135 6460.000000
2686.958984 6875.000000
2687.829346 7201.000000
2688.699463 6667.000000
2689.567871 6291.000000
2690.437012 7380.000000
2691.305420 7083.000000
2692.173584 6687.000000
2693.041016 6899.000000
2693.907227 5843.000000
2694.773926 7057.000000
2695.639648 7415.000000
2696.505371 7127.000000
2697.369629 7943.000000
2698.234619 6559.000000
2699.098145 7262.000000
2699.961914 5855.000000
2700.824219 7402.000000
2701.687012 6771.000000
2702.548828 5895.000000
2703.410156 6861.000000
2704.271484 6735.000000
2705.131592 7372.000000
2705.991699 7263.000000
2706.851318 6583.000000
2707.710693 6751.000000
2708.568359 7147.000000
2709.426270 6885.000000
2710.284668 7287.000000
2711.141846 6643.000000
2711.998291 5970.000000
2712.854248 6843.000000
2713.710205 6079.000000
2714.565430 6946.000000
2715.419922 6123.000000
2716.273926 6805.000000
2717.127930 7286.000000
2717.980957 6243.000000
2718.834229 6565.000000
2719.685791 7642.000000
2720.537842 6830.000000
2721.389648 6257.000000
2722.240234 6427.000000
2723.090820 6510.000000
2723.940918 7069.000000
2724.790283 7021.000000
2725.639648 6982.000000
2726.487793 6614.000000
2727.335449 6473.000000
2728.183594 7010.000000
2729.030518 6818.000000
2729.877930 5561.000000
2730.723877 7480.000000
2731.569092 6994.000000
2732.414795 6425.000000
2733.259521 6949.000000
2734.104248 7234.000000
2734.947754 6861.000000
2735.791504 7860.000000
2736.634521 6978.000000
2737.477051 5991.000000
2738.318604 6229.000000
2739.160645 6758.000000
2740.001709 6945.000000
2740.842529 5764.000000
2741.683105 5871.000000
2742.522461 7819.000000
2743.361816 6804.000000
2744.201172 6850.000000
2745.039307 6781.000000
2745.876953 7806.000000
2746.714600 6363.000000
2747.551758 7044.000000
2748.388672 6184.000000
2749.225098 6006.000000
2750.060303 6601.000000
2750.895752 6254.000000
2751.730713 6289.000000
2752.564941 6256.000000
2753.398926 6876.000000
2754.232422 6823.000000
2755.065918 8005.000000
2755.898438 6790.000000
2756.730469 7260.000000
2757.562012 6776.000000
2758.393555 7086.000000
2759.224121 7202.000000
2760.054932 7285.000000
2760.884521 7224.000000
2761.714111 6629.000000
2762.543457 7209.000000
2763.372070 6800.000000
2764.200195 6778.000000
2765.027832 6776.000000
2765.855469 6690.000000
2766.682617 7803.000000
2767.509033 5816.000000
2768.334961 7473.000000
2769.160400 6824.000000
2769.985596 7801.000000
2770.810791 7031.000000
2771.634766 6761.000000
2772.458740 6523.000000
2773.282715 7648.000000
2774.105469 6598.000000
2774.928467 7007.000000
2775.750244 6978.000000
2776.572021 6907.000000
2777.393799 6508.000000
2778.214600 7941.000000
2779.034668 6526.000000
2779.854980 7001.000000
2780.674805 7311.000000
2781.494629 6417.000000
2782.312500 5975.000000
2783.131592 8049.000000
2783.949463 6498.000000
2784.767090 6666.000000
2785.584229 7138.000000
2786.400879 7247.000000
2787.217285 7154.000000
2788.033203 6233.000000
2788.848877 5965.000000
2789.663574 6305.000000
2790.478760 6995.000000
2791.293213 7193.000000
2792.107178 6591.000000
2792.920898 7395.000000
2793.733398 8742.000000
2794.546143 7002.000000
2795.358398 7483.000000
2796.170166 7167.000000
2796.981201 7378.000000
2797.792969 6472.000000
2798.603516 7249.000000
2799.414063 7019.000000
2800.223145 7402.000000
2801.032959 8181.000000
2801.842041 7781.000000
2802.650879 6658.000000
2803.459229 7207.000000
2804.266602 6184.000000
2805.074463 6459.000000
2805.881592 6878.000000
2806.688477 6992.000000
2807.494141 7094.000000
2808.300293 6624.000000
2809.105713 6458.000000
2809.911133 7292.000000
2810.715820 6144.000000
2811.519531 7620.000000
2812.323730 7420.000000
2813.127441 6352.000000
2813.930908 6073.000000
2814.732910 6541.000000
2815.535645 7336.000000
2816.337646 7789.000000
2817.139404 6116.000000
2817.940674 6511.000000
2818.741455 7195.000000
2819.541748 6552.000000
2820.342285 6594.000000
2821.141846 7957.000000
2821.940918 7134.000000
2822.739990 6443.000000
2823.538818 6829.000000
2824.337158 6333.000000
2825.134521 7027.000000
2825.932129 7468.000000
2826.729004 6630.000000
2827.526123 7386.000000
2828.322510 8099.000000
2829.118164 6923.000000
2829.913818 7317.000000
2830.709229 7596.000000
2831.504150 7448.000000
2832.298340 6622.000000
2833.092529 6779.000000
2833.886475 5590.000000
2834.679932 6820.000000
2835.472656 7176.000000
2836.265137 8172.000000
2837.057617 7623.000000
2837.849854 7508.000000
2838.641602 6428.000000
2839.432373 6764.000000
2840.223145 8813.000000
2841.014160 7478.000000
2841.804199 6229.000000
2842.593750 7713.000000
2843.383545 7120.000000
2844.172363 7303.000000
2844.961182 7869.000000
2845.750000 7727.000000
2846.537842 7490.000000
2847.325195 7220.000000
2848.112793 7511.000000
2848.899902 7274.000000
2849.686279 6698.000000
2850.472656 7436.000000
2851.258789 7181.000000
2852.044434 7551.000000
2852.829102 7288.000000
2853.614258 6912.000000
2854.399170 7460.000000
2855.183350 7119.000000
2855.967529 6959.000000
2856.750488 8276.000000
2857.533691 6812.000000
2858.316650 6744.000000
2859.099121 7739.000000
2859.881348 6226.000000
2860.663086 6593.000000
2861.444580 7593.000000
2862.226318 7476.000000
2863.007324 7622.000000
2863.787598 6593.000000
2864.567627 6646.000000
2865.347656 8234.000000
2866.127441 7496.000000
2866.906250 8069.000000
2867.685303 7642.000000
2868.463867 6753.000000
2869.242188 7004.000000
2870.020020 7273.000000
2870.797607 6931.000000
2871.574951 7480.000000
2872.352051 6950.000000
2873.128662 6412.000000
2873.904785 7459.000000
2874.680908 7142.000000
2875.456543 8276.000000
2876.231934 7176.000000
2877.006836 6625.000000
2877.781494 8047.000000
2878.556152 6644.000000
2879.330566 7808.000000
2880.104248 6761.000000
2880.877197 7162.000000
2881.650879 6711.000000
2882.423584 7628.000000
2883.196289 7832.000000
2883.968262 8130.000000
2884.739990 6225.000000
2885.512207 6803.000000
2886.283203 6908.000000
2887.053711 6180.000000
2887.824707 8249.000000
2888.595703 7403.000000
2889.365967 7994.000000
2890.135254 7609.000000
2890.904785 6928.000000
2891.674316 7171.000000
2892.443359 7382.000000
2893.211914 7928.000000
2893.980469 7574.000000
2894.748047 6977.000000
2895.516113 6587.000000
2896.283691 7460.000000
2897.051270 8325.000000
2897.817627 7336.000000
2898.584961 6499.000000
2899.351074 7215.000000
2900.117432 6953.000000
2900.882324 8243.000000
2901.647705 7016.000000
2902.413574 6470.000000
2903.177979 7762.000000
2903.942383 7698.000000
2904.707031 8490.000000
2905.470703 6581.000000
2906.235107 8477.000000
2906.998779 6696.000000
2907.761719 8429.000000
2908.524414 6504.000000
2909.287598 8982.000000
2910.050293 6942.000000
2910.811768 6788.000000
2911.573730 6788.000000
