scanname Analyse115
timestamp 2017-02-10 23:03:20
ccdbias 953.922363
ccdgain 3.473401
sigmaread 8.960639
laserwavenum -0.640226
wavenumcorrection -0.117262
scancount 1
totalexposurems 10000
singleexposurems 10000
measurementstate Unknown
scanmode Manual
snr 53.662117 0.531653 0.308068
replacelist 0
peaks 6
395.950592 0.130614 0.000000 0.186262 0.000008
809.576233 0.121401 0.000000 0.457483 0.000090
844.423706 0.117513 0.000000 0.143438 0.000021
880.311096 0.116352 0.000000 0.230882 0.000034
1318.976196 0.109271 0.000000 4.636045 0.001289
1458.439941 0.094628 0.000000 0.124454 0.000044
finalresult GLS_Multiple 85
A13500	Poly(propylene-co-ethylene)	3.590058e-001
A0115	Polypropylene	3.573810e-001
A1697	Ethyl vinyl ether	2.983624e-001
A2450	Zinc selenate pentahydrate	2.952359e-001
A8461	Ethanol	2.915909e-001
A3222	Potassium nitrite	2.901008e-001
A12040	Ethanol w/ sweetener	2.892306e-001
A0273	Denatured Solvent Alcohol	2.881723e-001
A11925	Butyl (S)-(-)-2-pyrrolidone-5-carboxylate	2.881088e-001
A2782	Acetamide	2.875177e-001
A2017	Isopropylamine	2.851209e-001
A1531	Ethyl formate	2.842628e-001
A11885	Poly(methyl methacrylate-co-butyl methacrylate)	2.841686e-001
A11101	Hydrogen peroxide, 70%	2.830521e-001
A2793	Sodium oxalate	2.819290e-001
A10674	Dibutyl succinate	2.805818e-001
A14069	(R)-(-)-1,2-Propanediol	2.799102e-001
A13507	Poly(methyl methacrylate-co-ethyl acrylate)	2.795183e-001
A1676	Trifluoroacetic acid	2.794457e-001
A0518	Propylene glycol	2.786631e-001
A11872	Poly(methyl methacrylate)	2.785295e-001
A10269	1-[N,N-Bis(2-hydroxyethyl)amino]-2-propanol	2.781287e-001
A0761	N,N,N',N'-Tetrakis(2-Hydroxypropyl)ethylenediamine	2.779848e-001
A0524	Propionic acid	2.773695e-001
A0098	Roundup (weed and grass killer)	2.773082e-001
A4807	2-(2-Nitroethoxy)tetrahydropyran	2.772465e-001
A5377	4-Methyl-2-nitroanisole	2.768574e-001
A4972	Boric acid	2.765813e-001
A1351	Sodium propionate	2.763668e-001
A1270	Methyl DL-lactate	2.758766e-001
A2703	Acetaldehyde dimethyl acetal	2.756625e-001
A15808	Ethylamine (70 wt% in water)	2.746242e-001
A6290	Bis(2,2,2-trifluoroethyl) phosphite	2.745934e-001
A3164	Ammonium chromate	2.734871e-001
A0251	Ethylamine	2.734672e-001
A13820	(-)-Methyl L-lactate	2.727988e-001
A4629	1,4,5,6-Tetrahydropyrimidine	2.726071e-001
A0113	Hydrogen peroxide	2.725567e-001
A0969	Diethylene glycol monopropyl ether	2.725259e-001
A9919	Sodium hydrogentartrate	2.720214e-001
A0138	Dibutyl ether	2.715174e-001
A11100	Hydrogen peroxide, 50%	2.705419e-001
A11767	Di(ethylene glycol) vinyl ether	2.702105e-001
A1754	N,N-Dimethylhydrazine	2.702105e-001
A2413	Sodium selenate	2.699698e-001
A10296	Tri(ethylene glycol) divinyl ether	2.692689e-001
A6700	4'-Methoxypropiophenone	2.686293e-001
A2313	Barium peroxide	2.686188e-001
A2943	Potassium binoxalate	2.685694e-001
A10529	1-Formylpiperazine	2.684892e-001
A4543	1,4-Butanediol divinyl ether	2.677514e-001
A2721	Formaldehyde diethyl acetal	2.671247e-001
A0503	Pentaethylene glycol	2.669161e-001
A0673	Hexachlorocyclopentadiene	2.667866e-001
A0400	Potassium permanganate	2.664098e-001
A5310	4-Methyl-3-nitroanisole	2.661123e-001
A10301	2-Methoxytetrahydropyran	2.659341e-001
A0361	Dimethyl succinate	2.658746e-001
A0369	2,4,6-Tribromophenol	2.657359e-001
A2839	5-Azacytidine	2.650439e-001
A5382	3-Methoxypropionic acid	2.646985e-001
A12448	Tribromofluoromethane	2.645996e-001
A8610	5-Methyl-2-pyrrolidinone	2.641069e-001
A2210	Calcium peroxide hydrate	2.636545e-001
A0292	Hydrazine	2.634380e-001
A5708	Methyl 3,5-dibromo-4-hydroxybenzoate	2.633103e-001
A0937	Polyethylene glycol dimethyl ether	2.632021e-001
A16018	L (lewisite blister agent, lot D)	2.630844e-001
A0476	Triethylene glycol monomethyl ether	2.629273e-001
A1511	Methyl chloroacetate	2.628588e-001
A3285	4,N,N-Trimethylaniline	2.626821e-001
A0199	Isobutyric acid	2.625448e-001
A1901	Ethyl cellulose	2.625059e-001
A8663	4-Methyl-3,5-dinitrobenzoic acid	2.624763e-001
A2727	Acrolein diethyl acetal	2.621629e-001
A5771	2-Methylnaphthalene-bis(hexachlorocyclopentadiene)	2.620946e-001
A13246	Cyclopentane	2.619866e-001
A3132	4-Methyl-3-nitrobenzoic acid	2.619379e-001
A13320	Titanium tetrachloride	2.618008e-001
A3625	1-Dimethylamino-2-propanol	2.616444e-001
A9546	4-Methoxy-alpha-methylbenzyl alcohol	2.614882e-001
A3184	Selenourea	2.613906e-001
A14612	Ammonium hydrogenoxalate hydrate	2.613319e-001
A2273	Triethylene glycol dimethyl ether	2.606300e-001
A2453	Calcium chromate	2.579813e-001
spectrum 2048
-96.961227 44865.000000
-94.334358 44865.000000
-91.709366 45604.000000
-89.086266 45591.000000
-86.465034 46539.000000
-83.845703 46357.000000
-81.228233 46683.000000
-78.612640 46404.000000
-75.998924 46814.000000
-73.387085 47179.000000
-70.777107 47018.000000
-68.169014 47179.000000
-65.562767 47223.000000
-62.958401 47199.000000
-60.355892 47066.000000
-57.755238 47636.000000
-55.156445 47062.000000
-52.559509 46334.000000
-49.964428 46669.000000
-47.371201 46660.000000
-44.779823 46892.000000
-42.190292 46389.000000
-39.602604 47272.000000
-37.016766 47133.000000
-34.432770 46664.000000
-31.850609 47480.000000
-29.270296 46790.000000
-26.691811 47328.000000
-24.115168 46961.000000
-21.540350 46771.000000
-18.967373 46515.000000
-16.396215 46492.000000
-13.826892 46203.000000
-11.259394 45109.000000
-8.693714 46589.000000
-6.129860 46289.000000
-3.567820 46632.000000
-1.007604 46670.000000
1.550804 46134.000000
4.107391 45162.000000
6.662173 45138.000000
9.215138 45140.000000
11.766303 43704.000000
14.315655 42871.000000
16.863211 41572.000000
19.408955 41252.000000
21.952906 40356.000000
24.495052 38192.000000
27.035402 36189.000000
29.573967 32644.000000
32.110733 29032.000000
34.645699 23513.000000
37.178886 13136.000000
39.710293 7585.000000
42.239906 7304.000000
44.767723 7707.000000
47.293781 6743.000000
49.818050 5533.000000
52.340549 4550.000000
54.861252 4144.000000
57.380199 4170.000000
59.897373 4942.000000
62.412769 6586.000000
64.926392 8296.000000
67.438255 8744.000000
69.948372 6040.000000
72.456696 3524.000000
74.963264 3000.000000
77.468086 2421.000000
79.971153 1964.000000
82.472443 1908.000000
84.971992 1651.000000
87.469788 1648.000000
89.965851 1811.000000
92.460136 1793.000000
94.952682 2184.000000
97.443512 2266.000000
99.932571 2189.000000
102.419884 1789.000000
104.905472 1382.000000
107.389320 1256.000000
109.871422 1188.000000
112.351799 1105.000000
114.830452 930.000000
117.307381 1056.000000
119.782555 973.000000
122.256020 824.000000
124.727753 930.000000
127.197777 955.000000
129.666046 952.000000
132.132645 874.000000
134.597488 939.000000
137.060638 904.000000
139.522049 1087.000000
141.981766 1161.000000
144.439758 1324.000000
146.896057 1382.000000
149.350647 1621.000000
151.803513 1727.000000
154.254700 1949.000000
156.704193 2369.000000
159.151962 2825.000000
161.598022 3058.000000
164.042404 3474.000000
166.485107 3801.000000
168.926117 4150.000000
171.365417 4314.000000
173.803009 4472.000000
176.238968 4624.000000
178.673187 4666.000000
181.105728 4669.000000
183.536621 4596.000000
185.965790 4628.000000
188.393311 4648.000000
190.819153 4772.000000
193.243317 4702.000000
195.665817 4825.000000
198.086624 4804.000000
200.505768 4971.000000
202.923248 5140.000000
205.339035 5232.000000
207.753174 5391.000000
210.165680 5713.000000
212.576508 6087.000000
214.985657 6332.000000
217.393173 6748.000000
219.798981 7122.000000
222.203201 7526.000000
224.605713 7946.000000
227.006607 8111.000000
229.405853 8360.000000
231.803436 8328.000000
234.199356 8427.000000
236.593658 8564.000000
238.986298 8586.000000
241.377319 8568.000000
243.766678 8644.000000
246.154419 8610.000000
248.540512 8736.000000
250.924973 8616.000000
253.307785 8688.000000
255.689026 8653.000000
258.068542 8640.000000
260.446503 8625.000000
262.822784 8605.000000
265.197510 8600.000000
267.570587 8566.000000
269.942017 8600.000000
272.311798 8621.000000
274.680023 8622.000000
277.046600 8636.000000
279.411591 8607.000000
281.774963 8640.000000
284.136688 8658.000000
286.496826 8492.000000
288.855347 8600.000000
291.212280 8414.000000
293.567596 8439.000000
295.921326 8548.000000
298.273407 8620.000000
300.623932 8437.000000
302.972870 8504.000000
305.320160 8478.000000
307.665924 8309.000000
310.010010 8408.000000
312.352570 8322.000000
314.693512 8276.000000
317.032837 8412.000000
319.370605 8367.000000
321.706818 8357.000000
324.041382 8344.000000
326.374390 8325.000000
328.705841 8253.000000
331.035706 8239.000000
333.363983 8269.000000
335.690643 8257.000000
338.015808 8282.000000
340.339355 8259.000000
342.661346 8125.000000
344.981781 8090.000000
347.300598 8145.000000
349.617859 8087.000000
351.933594 8123.000000
354.247742 8073.000000
356.560303 8081.000000
358.871307 8146.000000
361.180786 8125.000000
363.488739 8081.000000
365.795074 8075.000000
368.099823 8219.000000
370.403107 8255.000000
372.704773 8131.000000
375.004944 8079.000000
377.303558 8146.000000
379.600616 8150.000000
381.896118 8185.000000
384.190094 8197.000000
386.482483 8211.000000
388.773376 8240.000000
391.062744 8372.000000
393.350525 8406.000000
395.636780 8310.000000
397.921539 8531.000000
400.204681 8559.000000
402.486389 8584.000000
404.766571 8476.000000
407.045166 8292.000000
409.322235 8437.000000
411.597778 8327.000000
413.871796 8325.000000
416.144379 8279.000000
418.415344 8064.000000
420.684814 8282.000000
422.952789 8254.000000
425.219208 8213.000000
427.484131 8075.000000
429.747589 8131.000000
432.009460 8148.000000
434.269867 8103.000000
436.528717 7893.000000
438.786102 8035.000000
441.041992 8154.000000
443.296387 8048.000000
445.549255 8005.000000
447.800568 7910.000000
450.050476 7810.000000
452.298798 7927.000000
454.545685 7809.000000
456.791107 7863.000000
459.034973 7733.000000
461.277344 7863.000000
463.518219 7931.000000
465.757690 7738.000000
467.995575 7894.000000
470.232025 7834.000000
472.466949 7703.000000
474.700409 7898.000000
476.932434 7720.000000
479.162933 7671.000000
481.391937 7679.000000
483.619476 7621.000000
485.845520 7752.000000
488.070129 7713.000000
490.293274 7542.000000
492.514954 7609.000000
494.735077 7698.000000
496.953796 7720.000000
499.171021 7647.000000
501.386871 7767.000000
503.601105 7682.000000
505.814026 7795.000000
508.025360 7704.000000
510.235260 7743.000000
512.443726 7802.000000
514.650818 7749.000000
516.856323 7850.000000
519.060425 7711.000000
521.263000 7677.000000
523.464172 7692.000000
525.664001 7685.000000
527.862305 7736.000000
530.059082 7682.000000
532.254517 7567.000000
534.448425 7765.000000
536.640991 7493.000000
538.832031 7548.000000
541.021667 7657.000000
543.209900 7606.000000
545.396606 7554.000000
547.581848 7514.000000
549.765808 7356.000000
551.948181 7250.000000
554.129211 7211.000000
556.308716 7209.000000
558.486938 7248.000000
560.663635 7168.000000
562.838928 7189.000000
565.012817 7233.000000
567.185242 7142.000000
569.356262 7088.000000
571.525818 7181.000000
573.694092 7243.000000
575.860840 7165.000000
578.026123 7161.000000
580.190002 7232.000000
582.352600 7231.000000
584.513672 7207.000000
586.673340 7233.000000
588.831665 7274.000000
590.988464 7252.000000
593.143921 7131.000000
595.297974 7411.000000
597.450684 7218.000000
599.601868 7247.000000
601.751709 7291.000000
603.900208 7222.000000
606.047119 7203.000000
608.192810 7228.000000
610.337097 7365.000000
612.479919 7253.000000
614.621277 7252.000000
616.761414 7214.000000
618.900024 7160.000000
621.037354 7118.000000
623.173218 7294.000000
625.307678 7229.000000
627.440674 7095.000000
629.572510 6985.000000
631.702881 7008.000000
633.831848 6965.000000
635.959351 6990.000000
638.085571 6943.000000
640.210266 6990.000000
642.333740 6860.000000
644.455872 6877.000000
646.576538 6859.000000
648.695862 6787.000000
650.813782 6839.000000
652.930359 6808.000000
655.045532 6810.000000
657.159363 6667.000000
659.271729 6759.000000
661.382874 6678.000000
663.492615 6808.000000
665.600891 6768.000000
667.708008 6778.000000
669.813660 6682.000000
671.917847 6668.000000
674.020813 6820.000000
676.122375 6676.000000
678.222595 6715.000000
680.321411 6767.000000
682.418884 6887.000000
684.515076 6835.000000
686.609802 6780.000000
688.703308 6845.000000
690.795471 6722.000000
692.886108 6730.000000
694.975525 6989.000000
697.063660 6897.000000
699.150330 6897.000000
701.235779 6720.000000
703.319702 6908.000000
705.402405 6773.000000
707.483826 6810.000000
709.563782 6685.000000
711.642517 6464.000000
713.719788 6420.000000
715.795776 6455.000000
717.870483 6368.000000
719.943909 6486.000000
722.015808 6793.000000
724.086548 6596.000000
726.155945 6486.000000
728.223938 6479.000000
730.290588 6325.000000
732.356018 6385.000000
734.420105 6308.000000
736.482849 6468.000000
738.544250 6371.000000
740.604370 6365.000000
742.663086 6346.000000
744.720581 6277.000000
746.776794 6332.000000
748.831604 6295.000000
750.885132 6194.000000
752.937256 6248.000000
754.988159 6265.000000
757.037842 6205.000000
759.086060 6234.000000
761.133057 6132.000000
763.178772 6123.000000
765.223083 6250.000000
767.266113 6171.000000
769.307922 6023.000000
771.348389 6144.000000
773.387451 6142.000000
775.425354 6173.000000
777.461914 6302.000000
779.497253 6169.000000
781.531250 6136.000000
783.563843 6259.000000
785.595276 6297.000000
787.625305 6256.000000
789.654053 6194.000000
791.681641 6328.000000
793.707886 6266.000000
795.732727 6317.000000
797.756470 6344.000000
799.778809 6411.000000
801.799927 6449.000000
803.819702 6472.000000
805.838196 6570.000000
807.855469 6760.000000
809.871338 6702.000000
811.886047 6578.000000
813.899414 6595.000000
815.911560 6424.000000
817.922485 6201.000000
819.932068 6200.000000
821.940430 6172.000000
823.947388 6079.000000
825.953125 6197.000000
827.957642 6090.000000
829.960876 6056.000000
831.962830 5937.000000
833.963501 5977.000000
835.962952 6047.000000
837.961060 5983.000000
839.958069 6041.000000
841.953674 6103.000000
843.948120 6083.000000
845.941223 6058.000000
847.933105 6043.000000
849.923645 5750.000000
851.912903 5817.000000
853.901123 5817.000000
855.887939 5768.000000
857.873535 5737.000000
859.857849 5655.000000
861.841064 5694.000000
863.822876 5646.000000
865.803467 5643.000000
867.782776 5577.000000
869.760925 5582.000000
871.737732 5727.000000
873.713257 5768.000000
875.687744 5883.000000
877.660767 6073.000000
879.632751 6040.000000
881.603394 5922.000000
883.572876 6204.000000
885.541016 6099.000000
887.507996 5953.000000
889.473633 5873.000000
891.438110 5972.000000
893.401367 5924.000000
895.363403 5777.000000
897.324158 5807.000000
899.283691 5758.000000
901.241943 5820.000000
903.199097 5716.000000
905.155090 5710.000000
907.109680 5813.000000
909.063049 5669.000000
911.015259 5604.000000
912.966248 5607.000000
914.915955 5588.000000
916.864502 5557.000000
918.811829 5553.000000
920.757874 5445.000000
922.702637 5311.000000
924.646362 5376.000000
926.588928 5234.000000
928.530212 5183.000000
930.470154 5058.000000
932.408997 5078.000000
934.346558 5216.000000
936.282898 5089.000000
938.218079 5013.000000
940.151978 5104.000000
942.084778 5143.000000
944.016357 5072.000000
945.946777 5143.000000
947.875977 4981.000000
949.803833 5068.000000
951.730652 5165.000000
953.656189 5153.000000
955.580444 5065.000000
957.503601 5098.000000
959.425598 5181.000000
961.346313 5130.000000
963.265869 5170.000000
965.184265 5174.000000
967.101624 5243.000000
969.017517 5223.000000
970.932312 5319.000000
972.845886 5397.000000
974.758301 5347.000000
976.669495 5266.000000
978.579529 5333.000000
980.488281 5207.000000
982.395996 5214.000000
984.302490 5178.000000
986.207764 5112.000000
988.111938 5202.000000
990.014893 5191.000000
991.916626 5152.000000
993.817200 5123.000000
995.716614 5208.000000
997.614807 5168.000000
999.511841 5158.000000
1001.407654 4879.000000
1003.302307 4811.000000
1005.195862 4880.000000
1007.088135 4840.000000
1008.979492 4725.000000
1010.869507 4694.000000
1012.758301 4710.000000
1014.645935 4528.000000
1016.532410 4687.000000
1018.417725 4681.000000
1020.301880 4511.000000
1022.184814 4592.000000
1024.066772 4665.000000
1025.947388 4610.000000
1027.826904 4683.000000
1029.705444 4709.000000
1031.582642 4660.000000
1033.458496 4677.000000
1035.333374 4661.000000
1037.207275 4737.000000
1039.079712 4751.000000
1040.951172 4680.000000
1042.821289 4699.000000
1044.690430 4637.000000
1046.558350 4782.000000
1048.425171 4606.000000
1050.290894 4800.000000
1052.155396 4742.000000
1054.018799 4802.000000
1055.880859 4647.000000
1057.741943 4824.000000
1059.601929 4784.000000
1061.460571 4745.000000
1063.318115 4797.000000
1065.174561 4741.000000
1067.029907 4740.000000
1068.884033 4741.000000
1070.737305 4666.000000
1072.589111 4766.000000
1074.439941 4762.000000
1076.289551 4673.000000
1078.137939 4746.000000
1079.985474 4655.000000
1081.831665 4636.000000
1083.676636 4699.000000
1085.520752 4778.000000
1087.363525 4644.000000
1089.205078 4762.000000
1091.045898 4593.000000
1092.885132 4558.000000
1094.723633 4648.000000
1096.560791 4575.000000
1098.396729 4508.000000
1100.231689 4374.000000
1102.065430 4288.000000
1103.898193 4328.000000
1105.729614 4334.000000
1107.560181 4381.000000
1109.389404 4335.000000
1111.217651 4119.000000
1113.044678 4115.000000
1114.870728 4164.000000
1116.695557 4211.000000
1118.519287 4251.000000
1120.341797 4134.000000
1122.163208 4266.000000
1123.983765 4161.000000
1125.802856 4171.000000
1127.621094 4126.000000
1129.437988 4132.000000
1131.254028 4167.000000
1133.068848 4262.000000
1134.882568 4346.000000
1136.695190 4300.000000
1138.506592 4388.000000
1140.317017 4274.000000
1142.126343 4389.000000
1143.934326 4444.000000
1145.741577 4480.000000
1147.547363 4501.000000
1149.352295 4488.000000
1151.156128 4606.000000
1152.958740 4424.000000
1154.760498 4623.000000
1156.560791 4381.000000
1158.360107 4451.000000
1160.158447 4389.000000
1161.955444 4360.000000
1163.751709 4354.000000
1165.546631 4357.000000
1167.340454 4254.000000
1169.133423 4201.000000
1170.925049 4208.000000
1172.715698 4208.000000
1174.505371 4135.000000
1176.293579 4105.000000
1178.080933 4022.000000
1179.867188 4037.000000
1181.652344 4011.000000
1183.436401 4098.000000
1185.219360 3951.000000
1187.001343 4024.000000
1188.782104 4178.000000
1190.561890 4055.000000
1192.340576 4011.000000
1194.118286 3962.000000
1195.894775 3877.000000
1197.670166 3847.000000
1199.444458 3841.000000
1201.217651 3766.000000
1202.989990 3796.000000
1204.760986 3694.000000
1206.531128 3786.000000
1208.300049 3786.000000
1210.067871 3777.000000
1211.834839 3748.000000
1213.600464 3725.000000
1215.365112 3731.000000
1217.128662 3832.000000
1218.891113 3858.000000
1220.652710 3724.000000
1222.413086 3802.000000
1224.172363 3763.000000
1225.930786 3613.000000
1227.687988 3768.000000
1229.444092 3724.000000
1231.199097 3751.000000
1232.953247 3854.000000
1234.706055 3807.000000
1236.457886 3852.000000
1238.208862 3884.000000
1239.958496 3862.000000
1241.707275 3791.000000
1243.454712 3755.000000
1245.201416 3980.000000
1246.946899 3899.000000
1248.691528 3835.000000
1250.434814 3918.000000
1252.177124 3823.000000
1253.918335 3800.000000
1255.658691 3806.000000
1257.397949 3622.000000
1259.135986 3637.000000
1260.873169 3598.000000
1262.609131 3612.000000
1264.344116 3707.000000
1266.078125 3744.000000
1267.811157 3751.000000
1269.542969 3700.000000
1271.273804 3764.000000
1273.003418 3815.000000
1274.732178 3849.000000
1276.459839 3906.000000
1278.186401 3872.000000
1279.912109 3897.000000
1281.636475 3802.000000
1283.359985 3902.000000
1285.082520 3728.000000
1286.804077 3915.000000
1288.524414 3838.000000
1290.243774 3661.000000
1291.962036 3700.000000
1293.679321 3728.000000
1295.395630 3850.000000
1297.110718 3832.000000
1298.824829 3754.000000
1300.537964 3692.000000
1302.250244 3659.000000
1303.961304 3704.000000
1305.671387 3660.000000
1307.380371 3720.000000
1309.088135 3556.000000
1310.795288 3567.000000
1312.500977 3592.000000
1314.205933 3512.000000
1315.909912 3592.000000
1317.612671 3647.000000
1319.314453 3762.000000
1321.015381 3696.000000
1322.714966 5936.000000
1324.413696 1272.000000
1326.111694 3594.000000
1327.808350 3616.000000
1329.503906 3555.000000
1331.198608 3584.000000
1332.892090 3645.000000
1334.584717 3587.000000
1336.276489 3400.000000
1337.966919 3423.000000
1339.656616 3405.000000
1341.345215 3418.000000
1343.032715 3347.000000
1344.719238 3432.000000
1346.404663 3226.000000
1348.089111 3275.000000
1349.772705 3388.000000
1351.455078 3458.000000
1353.136475 3460.000000
1354.817017 3660.000000
1356.496338 3562.000000
1358.175049 3584.000000
1359.852417 3667.000000
1361.528687 3572.000000
1363.203979 3624.000000
1364.878540 3577.000000
1366.551880 3568.000000
1368.224243 3494.000000
1369.895630 3565.000000
1371.566040 3533.000000
1373.235352 3630.000000
1374.903687 3468.000000
1376.571167 3536.000000
1378.237549 3450.000000
1379.902954 3543.000000
1381.567383 3451.000000
1383.230591 3488.000000
1384.893188 3392.000000
1386.554443 3377.000000
1388.214844 3418.000000
1389.874146 3291.000000
1391.532471 3279.000000
1393.190063 3376.000000
1394.846436 3271.000000
1396.501953 3391.000000
1398.156250 3314.000000
1399.809692 3303.000000
1401.462036 3308.000000
1403.113647 3382.000000
1404.764038 3299.000000
1406.413330 3325.000000
1408.061890 2974.000000
1409.709351 3065.000000
1411.355835 3276.000000
1413.001465 3093.000000
1414.646118 3089.000000
1416.289551 3128.000000
1417.932129 3019.000000
1419.573608 3083.000000
1421.214233 3011.000000
1422.853882 3022.000000
1424.492432 2981.000000
1426.130127 3063.000000
1427.766724 3001.000000
1429.402344 3111.000000
1431.037231 3020.000000
1432.671021 2970.000000
1434.303711 3041.000000
1435.935425 3003.000000
1437.566284 3081.000000
1439.196045 2925.000000
1440.824707 3000.000000
1442.452759 2993.000000
1444.079712 3059.000000
1445.705444 3015.000000
1447.330566 2970.000000
1448.954590 3091.000000
1450.577637 3038.000000
1452.199707 3030.000000
1453.820679 3238.000000
1455.440674 3199.000000
1457.059937 3246.000000
1458.677856 3277.000000
1460.295166 3240.000000
1461.911499 3119.000000
1463.526611 3045.000000
1465.140869 3041.000000
1466.754272 3142.000000
1468.366577 3140.000000
1469.978027 3090.000000
1471.588623 3050.000000
1473.197998 2978.000000
1474.806396 3055.000000
1476.413940 2983.000000
1478.020508 2975.000000
1479.626343 2988.000000
1481.230957 3003.000000
1482.834717 2942.000000
1484.437256 2917.000000
1486.039185 2910.000000
1487.639893 2640.000000
1489.239868 2630.000000
1490.838745 2744.000000
1492.436768 2622.000000
1494.033691 2692.000000
1495.629761 2885.000000
1497.224854 2912.000000
1498.818970 2929.000000
1500.412354 2885.000000
1502.004639 2889.000000
1503.595703 2842.000000
1505.186279 2732.000000
1506.775513 2801.000000
1508.364136 2834.000000
1509.951660 2758.000000
1511.538086 2745.000000
1513.123779 2792.000000
1514.708374 2665.000000
1516.292114 2736.000000
1517.874756 2817.000000
1519.456665 2639.000000
1521.037476 2717.000000
1522.617554 2707.000000
1524.196411 2568.000000
1525.774414 2577.000000
1527.351685 2549.000000
1528.927734 2642.000000
1530.503052 2591.000000
1532.077271 2663.000000
1533.650757 2498.000000
1535.223022 2590.000000
1536.794556 2625.000000
1538.365112 2557.000000
1539.934814 2611.000000
1541.503296 2488.000000
1543.071045 2497.000000
1544.637939 2483.000000
1546.203613 2529.000000
1547.768555 2485.000000
1549.332397 2609.000000
1550.895630 2390.000000
1552.457520 2535.000000
1554.018799 2614.000000
1555.578979 2578.000000
1557.138428 2570.000000
1558.696777 2543.000000
1560.254395 2339.000000
1561.810913 2481.000000
1563.366211 2417.000000
1564.920898 2444.000000
1566.474854 2394.000000
1568.027832 2425.000000
1569.579468 2453.000000
1571.130371 2531.000000
1572.680542 2473.000000
1574.229736 2419.000000
1575.777588 2466.000000
1577.324951 2382.000000
1578.871338 2454.000000
1580.416870 2490.000000
1581.961426 2437.000000
1583.504761 2491.000000
1585.047485 2371.000000
1586.589355 2484.000000
1588.130127 2496.000000
1589.669922 2431.000000
1591.208984 2467.000000
1592.746948 2350.000000
1594.284424 2365.000000
1595.820557 2405.000000
1597.355591 2441.000000
1598.890137 2398.000000
1600.423706 2408.000000
1601.956421 2362.000000
1603.487549 2342.000000
1605.018433 2386.000000
1606.548462 2369.000000
1608.077271 2345.000000
1609.604980 2455.000000
1611.132080 2320.000000
1612.658447 2436.000000
1614.183838 2345.000000
1615.708374 2278.000000
1617.231567 2302.000000
1618.754028 2279.000000
1620.275757 2357.000000
1621.796631 2465.000000
1623.316040 2296.000000
1624.834961 2373.000000
1626.353149 2315.000000
1627.870483 2323.000000
1629.386719 2402.000000
1630.901611 2449.000000
1632.416016 2266.000000
1633.929688 2199.000000
1635.442261 2374.000000
1636.953613 2280.000000
1638.464600 2235.000000
1639.974487 2304.000000
1641.483521 2242.000000
1642.991211 2239.000000
1644.498535 2217.000000
1646.005005 2241.000000
1647.510498 2180.000000
1649.015137 2145.000000
1650.518311 2135.000000
1652.020874 2057.000000
1653.523071 2113.000000
1655.023926 2101.000000
1656.523682 2206.000000
1658.022583 2158.000000
1659.521118 2118.000000
1661.018433 2114.000000
1662.515015 2045.000000
1664.010010 2055.000000
1665.504761 1989.000000
1666.998657 2035.000000
1668.491577 2092.000000
1669.983154 2331.000000
1671.474243 2042.000000
1672.964722 1994.000000
1674.454102 2003.000000
1675.942017 1975.000000
1677.429688 1890.000000
1678.916382 1943.000000
1680.402222 1936.000000
1681.887207 1991.000000
1683.370728 1970.000000
1684.854004 2008.000000
1686.336426 2006.000000
1687.817749 1961.000000
1689.297607 2029.000000
1690.777222 1947.000000
1692.256104 1960.000000
1693.734009 1695.000000
1695.210938 1895.000000
1696.686646 2002.000000
1698.161987 1837.000000
1699.636108 1884.000000
1701.109619 1963.000000
1702.581665 1866.000000
1704.053467 1977.000000
1705.524292 1937.000000
1706.994263 1927.000000
1708.462891 1877.000000
1709.931030 1931.000000
1711.398438 1930.000000
1712.864746 1858.000000
1714.330444 2017.000000
1715.794434 1907.000000
1717.258301 1946.000000
1718.721313 2008.000000
1720.183350 1853.000000
1721.644165 1866.000000
1723.104370 1966.000000
1724.563843 1904.000000
1726.022461 1811.000000
1727.480103 1807.000000
1728.936401 1904.000000
1730.392456 1912.000000
1731.847534 1924.000000
1733.301636 1910.000000
1734.754517 1841.000000
1736.207153 1776.000000
1737.658691 1923.000000
1739.109497 1829.000000
1740.559326 1851.000000
1742.007813 1782.000000
1743.455933 1888.000000
1744.903198 1942.000000
1746.349731 1793.000000
1747.794678 1874.000000
1749.239380 1772.000000
1750.683228 1736.000000
1752.126221 1717.000000
1753.567749 1850.000000
1755.009033 1812.000000
1756.449463 1648.000000
1757.888916 1668.000000
1759.327393 1786.000000
1760.764893 1744.000000
1762.201904 1695.000000
1763.637939 1797.000000
1765.073120 1684.000000
1766.506836 1731.000000
1767.940430 1801.000000
1769.373047 1738.000000
1770.804810 1690.000000
1772.235718 1759.000000
1773.665405 1663.000000
1775.094360 1739.000000
1776.522827 1600.000000
1777.950317 1669.000000
1779.376465 1537.000000
1780.802368 1602.000000
1782.227173 1670.000000
1783.651367 1651.000000
1785.074097 1578.000000
1786.496338 1686.000000
1787.917847 1576.000000
1789.338623 1572.000000
1790.758423 1606.000000
1792.176880 1592.000000
1793.594849 1532.000000
1795.012207 1564.000000
1796.428711 1528.000000
1797.843750 1495.000000
1799.258423 1581.000000
1800.672485 1632.000000
1802.085327 1500.000000
1803.497559 1488.000000
1804.908447 1554.000000
1806.318848 1578.000000
1807.728516 1523.000000
1809.137207 1525.000000
1810.544800 1505.000000
1811.951904 1515.000000
1813.358154 1572.000000
1814.763428 1554.000000
1816.167603 1693.000000
1817.571411 1562.000000
1818.974243 1523.000000
1820.376221 1491.000000
1821.777588 1520.000000
1823.177490 1465.000000
1824.576782 1571.000000
1825.975586 1550.000000
1827.373535 1523.000000
1828.770142 1519.000000
1830.166138 1430.000000
1831.561401 1529.000000
1832.956055 1552.000000
1834.349731 1499.000000
1835.742065 1531.000000
1837.133911 1512.000000
1838.525146 1459.000000
1839.915405 1493.000000
1841.304443 1454.000000
1842.693115 1466.000000
1844.080811 1456.000000
1845.467773 1503.000000
1846.853394 1419.000000
1848.238770 1556.000000
1849.623291 1515.000000
1851.007080 1512.000000
1852.389771 1454.000000
1853.771240 1422.000000
1855.152222 1313.000000
1856.532715 1454.000000
1857.912231 1457.000000
1859.290283 1412.000000
1860.668213 1368.000000
1862.045166 1454.000000
1863.421387 1377.000000
1864.796753 1386.000000
1866.170654 1347.000000
1867.544434 1349.000000
1868.917358 1299.000000
1870.289185 1494.000000
1871.660034 1281.000000
1873.030518 1374.000000
1874.399902 1309.000000
1875.768799 1271.000000
1877.136108 1280.000000
1878.503296 1305.000000
1879.869507 1420.000000
1881.234985 1391.000000
1882.599731 1265.000000
1883.962891 1355.000000
1885.325928 1297.000000
1886.688110 1293.000000
1888.049438 1319.000000
1889.409424 1254.000000
1890.769043 1273.000000
1892.128052 1262.000000
1893.486084 1226.000000
1894.843262 1331.000000
1896.199219 1284.000000
1897.554932 1283.000000
1898.909668 1259.000000
1900.263550 1367.000000
1901.616333 1134.000000
1902.968628 1372.000000
1904.320190 1271.000000
1905.670898 1347.000000
1907.020386 1230.000000
1908.369385 1180.000000
1909.717529 1284.000000
1911.065063 1334.000000
1912.411865 1239.000000
1913.757080 1240.000000
1915.102051 1215.000000
1916.446289 1292.000000
1917.789673 1327.000000
1919.131714 1254.000000
1920.473511 1251.000000
1921.814453 1194.000000
1923.154663 1308.000000
1924.493896 1218.000000
1925.832153 1228.000000
1927.169800 1226.000000
1928.506714 1257.000000
1929.842773 1228.000000
1931.177612 1195.000000
1932.512085 1252.000000
1933.845825 1165.000000
1935.178711 1241.000000
1936.510132 1168.000000
1937.841675 1242.000000
1939.171875 1204.000000
1940.501587 1162.000000
1941.830444 1290.000000
1943.158081 1184.000000
1944.485229 1236.000000
1945.811646 1123.000000
1947.137329 1212.000000
1948.461670 1201.000000
1949.785767 1201.000000
1951.109009 1197.000000
1952.431519 1179.000000
1953.752930 1204.000000
1955.073364 1141.000000
1956.393188 1097.000000
1957.712646 1194.000000
1959.031128 1083.000000
1960.348267 1181.000000
1961.665039 1093.000000
1962.981079 1125.000000
1964.296387 1104.000000
1965.610229 1195.000000
1966.923828 1146.000000
1968.236694 1047.000000
1969.548706 1113.000000
1970.860107 1060.000000
1972.170166 1117.000000
1973.479736 1139.000000
1974.788574 1030.000000
1976.096802 1027.000000
1977.403687 1005.000000
1978.709961 1101.000000
1980.015869 1073.000000
1981.320557 1064.000000
1982.624756 978.000000
1983.927734 1114.000000
1985.230347 1151.000000
1986.531982 990.000000
1987.833008 1101.000000
1989.132446 996.000000
1990.432007 932.000000
1991.730469 942.000000
1993.028442 1051.000000
1994.324829 1031.000000
1995.621216 1007.000000
1996.916626 965.000000
1998.211304 1020.000000
1999.505127 987.000000
2000.797729 930.000000
2002.089844 1065.000000
2003.381470 977.000000
2004.672363 907.000000
2005.961670 1018.000000
2007.250732 939.000000
2008.539063 982.000000
2009.826660 991.000000
2011.113403 926.000000
2012.399048 877.000000
2013.684326 1039.000000
2014.968628 956.000000
2016.252319 989.000000
2017.534668 1000.000000
2018.816650 1018.000000
2020.098145 902.000000
2021.378662 976.000000
2022.658447 958.000000
2023.937134 992.000000
2025.215088 933.000000
2026.492554 921.000000
2027.769409 877.000000
2029.044556 968.000000
2030.319824 969.000000
2031.594116 994.000000
2032.867432 934.000000
2034.139893 1006.000000
2035.411987 927.000000
2036.682983 981.000000
2037.953735 928.000000
2039.223145 948.000000
2040.491455 893.000000
2041.759766 929.000000
2043.027100 954.000000
2044.293701 892.000000
2045.559082 992.000000
2046.823853 866.000000
2048.088379 961.000000
2049.351563 1004.000000
2050.614502 848.000000
2051.875488 869.000000
2053.136963 924.000000
2054.397217 866.000000
2055.656738 899.000000
2056.915527 861.000000
2058.173340 923.000000
2059.430664 860.000000
2060.687256 897.000000
2061.942383 882.000000
2063.197510 918.000000
2064.451660 895.000000
2065.705078 864.000000
2066.957764 855.000000
2068.209229 1000.000000
2069.460449 748.000000
2070.710938 843.000000
2071.960693 791.000000
2073.208984 1225.000000
2074.457275 861.000000
2075.704590 867.000000
2076.951172 855.000000
2078.197021 821.000000
2079.441650 798.000000
2080.685791 945.000000
2081.929443 777.000000
2083.172119 791.000000
2084.413574 801.000000
2085.654785 855.000000
2086.895508 778.000000
2088.135254 862.000000
2089.373779 882.000000
2090.611816 774.000000
2091.849121 777.000000
2093.086182 804.000000
2094.321777 800.000000
2095.556641 712.000000
2096.791260 756.000000
2098.024902 845.000000
2099.257568 760.000000
2100.489502 760.000000
2101.720947 768.000000
2102.951416 827.000000
2104.181152 745.000000
2105.410645 723.000000
2106.638184 684.000000
2107.865967 764.000000
2109.093018 690.000000
2110.319092 730.000000
2111.543701 783.000000
2112.768555 655.000000
2113.992188 741.000000
2115.215332 700.000000
2116.437256 728.000000
2117.658936 789.000000
2118.879639 702.000000
2120.099609 794.000000
2121.319092 799.000000
2122.537109 775.000000
2123.755127 802.000000
2124.972168 829.000000
2126.188721 665.000000
2127.403564 782.000000
2128.618652 802.000000
2129.832764 733.000000
2131.046143 678.000000
2132.258789 726.000000
2133.469971 760.000000
2134.681396 903.000000
2135.891602 721.000000
2137.101318 688.000000
2138.309570 785.000000
2139.517822 819.000000
2140.725342 654.000000
2141.931641 526.000000
2143.137207 636.000000
2144.342529 729.000000
2145.546875 750.000000
2146.750488 752.000000
2147.953613 756.000000
2149.155273 728.000000
2150.356689 762.000000
2151.557373 619.000000
2152.757324 709.000000
2153.956055 812.000000
2155.154541 664.000000
2156.352539 680.000000
2157.549561 578.000000
2158.745850 654.000000
2159.940918 769.000000
2161.135742 732.000000
2162.329834 676.000000
2163.522949 731.000000
2164.715088 701.000000
2165.906982 565.000000
2167.098145 625.000000
2168.288330 720.000000
2169.477783 650.000000
2170.666748 677.000000
2171.854736 642.000000
2173.042480 654.000000
2174.228760 712.000000
2175.414307 620.000000
2176.599609 570.000000
2177.784424 580.000000
2178.968018 588.000000
2180.150879 664.000000
2181.332764 619.000000
2182.514404 585.000000
2183.695557 660.000000
2184.875488 601.000000
2186.054443 653.000000
2187.232910 650.000000
2188.411133 747.000000
2189.588135 604.000000
2190.764160 546.000000
2191.939941 479.000000
2193.115234 587.000000
2194.289063 535.000000
2195.462402 628.000000
2196.635498 632.000000
2197.807373 535.000000
2198.978760 610.000000
2200.149658 543.000000
2201.318848 581.000000
2202.488037 520.000000
2203.656738 611.000000
2204.824463 607.000000
2205.991211 634.000000
2207.157227 643.000000
2208.322754 547.000000
2209.488037 610.000000
2210.651855 654.000000
2211.815186 556.000000
2212.977295 614.000000
2214.139648 601.000000
2215.300781 523.000000
2216.460938 456.000000
2217.620605 604.000000
2218.780029 619.000000
2219.938232 662.000000
2221.095459 557.000000
2222.252441 556.000000
2223.408691 567.000000
2224.564209 619.000000
2225.718994 604.000000
2226.872803 526.000000
2228.025635 579.000000
2229.178955 553.000000
2230.330322 581.000000
2231.481445 501.000000
2232.631836 492.000000
2233.781738 646.000000
2234.930664 521.000000
2236.079102 497.000000
2237.226074 265.000000
2238.373291 547.000000
2239.519287 573.000000
2240.665039 567.000000
2241.809082 517.000000
2242.953369 506.000000
2244.096680 470.000000
2245.239258 523.000000
2246.380859 622.000000
2247.522217 527.000000
2248.662598 471.000000
2249.802246 483.000000
2250.941406 363.000000
2252.079346 456.000000
2253.217285 486.000000
2254.354248 517.000000
2255.490479 558.000000
2256.625732 519.000000
2257.760254 392.000000
2258.894531 437.000000
2260.028320 570.000000
2261.160645 452.000000
2262.292480 475.000000
2263.423828 391.000000
2264.554199 463.000000
2265.684326 472.000000
2266.813232 372.000000
2267.941650 470.000000
2269.069580 517.000000
2270.196533 417.000000
2271.322754 392.000000
2272.447998 373.000000
2273.573242 508.000000
2274.697754 466.000000
2275.821045 410.000000
2276.943604 497.000000
2278.065674 495.000000
2279.187256 461.000000
2280.308105 477.000000
2281.427734 467.000000
2282.546875 530.000000
2283.665771 397.000000
2284.783936 418.000000
2285.901123 410.000000
2287.017334 442.000000
2288.133301 400.000000
2289.248535 450.000000
2290.363037 419.000000
2291.476318 425.000000
2292.589600 513.000000
2293.702148 485.000000
2294.813965 517.000000
2295.925049 475.000000
2297.034912 426.000000
2298.144287 450.000000
2299.253418 381.000000
2300.361572 521.000000
2301.468750 406.000000
2302.575684 453.000000
2303.681885 355.000000
2304.787598 443.000000
2305.891846 414.000000
2306.995850 464.000000
2308.099365 490.000000
2309.202393 533.000000
2310.304199 502.000000
2311.405273 547.000000
2312.505859 453.000000
2313.605957 468.000000
2314.705322 383.000000
2315.803223 499.000000
2316.901611 422.000000
2317.998535 438.000000
2319.095215 532.000000
2320.191406 425.000000
2321.285889 445.000000
2322.380371 359.000000
2323.474121 492.000000
2324.567627 457.000000
2325.659424 471.000000
2326.751221 471.000000
2327.842285 494.000000
2328.932617 441.000000
2330.021973 578.000000
2331.111328 471.000000
2332.199463 514.000000
2333.287109 436.000000
2334.374512 445.000000
2335.460205 380.000000
2336.545654 441.000000
2337.630859 347.000000
2338.715088 375.000000
2339.798340 430.000000
2340.881348 389.000000
2341.963379 226.000000
2343.045166 359.000000
2344.126221 453.000000
2345.206055 276.000000
2346.285400 409.000000
2347.364258 336.000000
2348.442627 325.000000
2349.519531 386.000000
2350.596191 332.000000
2351.672607 278.000000
2352.748047 345.000000
2353.822510 397.000000
2354.896729 340.000000
2355.970215 248.000000
2357.043213 367.000000
2358.114990 387.000000
2359.186523 374.000000
2360.257080 571.000000
2361.327393 476.000000
2362.396729 306.000000
2363.465088 322.000000
2364.533203 277.000000
2365.600586 305.000000
2366.667480 360.000000
2367.733643 332.000000
2368.798584 357.000000
2369.863525 261.000000
2370.927734 369.000000
2371.991211 237.000000
2373.053467 308.000000
2374.115723 329.000000
2375.177002 274.000000
2376.238037 246.000000
2377.297852 275.000000
2378.356934 452.000000
2379.416016 375.000000
2380.474121 276.000000
2381.531494 364.000000
2382.587891 359.000000
2383.644043 357.000000
2384.699707 327.000000
2385.754639 317.000000
2386.808105 272.000000
2387.861816 357.000000
2388.914551 307.000000
2389.966797 270.000000
2391.018311 386.000000
2392.068848 312.000000
2393.119141 302.000000
2394.168457 270.000000
2395.217773 331.000000
2396.265625 263.000000
2397.312988 337.000000
2398.360107 328.000000
2399.406250 339.000000
2400.451660 254.000000
2401.496338 250.000000
2402.541016 353.000000
2403.584229 331.000000
2404.627441 306.000000
2405.669189 332.000000
2406.711182 453.000000
2407.752441 334.000000
2408.792725 289.000000
2409.832275 248.000000
2410.870850 277.000000
2411.909668 306.000000
2412.947266 300.000000
2413.984619 250.000000
2415.020752 275.000000
2416.056641 334.000000
2417.091797 448.000000
2418.126465 313.000000
2419.159668 324.000000
2420.193115 330.000000
2421.225586 348.000000
2422.257813 287.000000
2423.288574 273.000000
2424.319336 292.000000
2425.349609 320.000000
2426.378662 357.000000
2427.407715 274.000000
2428.435059 377.000000
2429.462891 272.000000
2430.489502 328.000000
2431.515869 315.000000
2432.540771 295.000000
2433.565918 226.000000
2434.590088 316.000000
2435.614014 299.000000
2436.636719 251.000000
2437.658691 310.000000
2438.680420 269.000000
2439.701416 275.000000
2440.721924 249.000000
2441.741211 251.000000
2442.760498 259.000000
2443.778809 286.000000
2444.796875 319.000000
2445.813477 223.000000
2446.830078 298.000000
2447.845947 270.000000
2448.861816 344.000000
2449.876221 194.000000
2450.889893 318.000000
2451.903076 191.000000
2452.916016 268.000000
2453.928223 289.000000
2454.939453 225.000000
2455.950439 240.000000
2456.960693 258.000000
2457.970459 260.000000
2458.979248 330.000000
2459.987305 378.000000
2460.995361 257.000000
2462.002197 213.000000
2463.008789 332.000000
2464.014160 244.000000
2465.019287 208.000000
2466.024170 243.000000
2467.027832 271.000000
2468.031250 241.000000
2469.033691 239.000000
2470.035889 268.000000
2471.037598 206.000000
2472.038330 157.000000
2473.038086 246.000000
2474.037842 246.000000
2475.036621 299.000000
2476.034912 264.000000
2477.032227 239.000000
2478.029297 227.000000
2479.026367 289.000000
2480.021973 198.000000
2481.017578 167.000000
2482.011475 351.000000
2483.005371 242.000000
2483.998779 245.000000
2484.991699 371.000000
2485.983643 217.000000
2486.974854 198.000000
2487.965820 317.000000
2488.956299 141.000000
2489.945801 202.000000
2490.934570 214.000000
2491.923340 200.000000
2492.911133 283.000000
2493.897705 225.000000
2494.884277 220.000000
2495.870361 209.000000
2496.855713 140.000000
2497.840088 250.000000
2498.824219 309.000000
2499.808350 259.000000
2500.791016 210.000000
2501.773193 268.000000
2502.754883 272.000000
2503.735840 303.000000
2504.716309 150.000000
2505.696533 227.000000
2506.675293 244.000000
2507.653809 228.000000
2508.631836 190.000000
2509.609375 239.000000
2510.585938 193.000000
2511.562256 228.000000
2512.537842 148.000000
2513.512939 252.000000
2514.487549 270.000000
2515.460938 230.000000
2516.434082 188.000000
2517.406982 251.000000
2518.378906 237.000000
2519.350098 292.000000
2520.320801 92.000000
2521.291260 209.000000
2522.260986 298.000000
2523.229736 223.000000
2524.197754 260.000000
2525.165771 188.000000
2526.132813 241.000000
2527.099609 288.000000
2528.065186 179.000000
2529.030762 241.000000
2529.995605 257.000000
2530.959961 247.000000
2531.923096 169.000000
2532.886475 187.000000
2533.848877 218.000000
2534.811035 158.000000
2535.771973 161.000000
2536.732178 230.000000
2537.692627 162.000000
2538.652100 233.000000
2539.610840 124.000000
2540.568604 134.000000
2541.526611 188.000000
2542.483887 207.000000
2543.440186 206.000000
2544.396240 216.000000
2545.351074 216.000000
2546.306152 212.000000
2547.260498 147.000000
2548.214111 -280.000000
2549.166748 192.000000
2550.119141 196.000000
2551.071045 228.000000
2552.022217 203.000000
2552.972656 139.000000
2553.922607 203.000000
2554.872314 144.000000
2555.821289 220.000000
2556.769775 222.000000
2557.717041 158.000000
2558.664307 142.000000
2559.610840 209.000000
2560.556885 184.000000
2561.501953 212.000000
2562.446777 152.000000
2563.391113 124.000000
2564.334961 130.000000
2565.278320 176.000000
2566.220215 179.000000
2567.162354 196.000000
2568.103760 244.000000
2569.044434 133.000000
2569.984375 192.000000
2570.924316 129.000000
2571.863281 209.000000
2572.802002 236.000000
2573.739746 95.000000
2574.677246 171.000000
2575.614014 97.000000
2576.550049 210.000000
2577.485596 100.000000
2578.420410 117.000000
2579.355225 158.000000
2580.289063 238.000000
2581.222412 173.000000
2582.155029 168.000000
2583.087402 253.000000
2584.019043 219.000000
2584.950195 160.000000
2585.880859 109.000000
2586.810303 115.000000
2587.739746 130.000000
2588.668701 183.000000
2589.597412 276.000000
2590.524414 114.000000
2591.451660 157.000000
2592.378418 253.000000
2593.304443 214.000000
2594.230225 156.000000
2595.154785 60.000000
2596.079102 170.000000
2597.002930 151.000000
2597.926270 159.000000
2598.848633 177.000000
2599.770752 243.000000
2600.692383 159.000000
2601.613281 134.000000
2602.533447 85.000000
2603.453369 167.000000
2604.372803 145.000000
2605.291992 93.000000
2606.210205 100.000000
2607.127197 130.000000
2608.044434 167.000000
2608.961426 235.000000
2609.877441 117.000000
2610.792236 201.000000
2611.707520 180.000000
2612.622070 129.000000
2613.535645 205.000000
2614.449219 157.000000
2615.361572 138.000000
2616.273926 187.000000
2617.185303 85.000000
2618.096436 150.000000
2619.006836 143.000000
2619.916992 100.000000
2620.826416 203.000000
2621.735352 130.000000
2622.643311 153.000000
2623.551514 126.000000
2624.458740 160.000000
2625.365479 186.000000
2626.271484 183.000000
2627.177246 175.000000
2628.082275 197.000000
2628.987061 165.000000
2629.891113 161.000000
2630.794189 194.000000
2631.697266 154.000000
2632.599365 138.000000
2633.501465 155.000000
2634.403320 122.000000
2635.303467 121.000000
2636.203857 76.000000
2637.103516 159.000000
2638.002930 109.000000
2638.900879 89.000000
2639.799316 150.000000
2640.697266 161.000000
2641.594482 74.000000
2642.490479 34.000000
2643.386475 334.000000
2644.282227 156.000000
2645.177246 129.000000
2646.072021 200.000000
2646.965332 120.000000
2647.858643 89.000000
2648.751709 61.000000
2649.644531 129.000000
2650.535645 92.000000
2651.427002 116.000000
2652.317871 150.000000
2653.208008 150.000000
2654.097900 30.000000
2654.986572 64.000000
2655.875488 141.000000
2656.763916 164.000000
2657.651367 105.000000
2658.537842 159.000000
2659.424805 143.000000
2660.311035 150.000000
2661.196777 168.000000
2662.081299 181.000000
2662.965820 113.000000
2663.850098 10.000000
2664.733643 185.000000
2665.616699 191.000000
2666.499023 118.000000
2667.380859 118.000000
2668.261963 97.000000
2669.143311 114.000000
2670.023193 157.000000
2670.903320 228.000000
2671.782715 91.000000
2672.662109 53.000000
2673.540771 112.000000
2674.417725 55.000000
2675.295410 155.000000
2676.172363 114.000000
2677.048584 123.000000
2677.924316 56.000000
2678.799316 18.000000
2679.674561 106.000000
2680.548828 141.000000
2681.422607 101.000000
2682.295654 88.000000
2683.168457 139.000000
2684.041016 96.000000
2684.912842 99.000000
2685.783936 51.000000
2686.654785 65.000000
2687.525146 46.000000
2688.395264 139.000000
2689.263672 129.000000
2690.132813 165.000000
2691.001221 109.000000
2691.869385 80.000000
2692.736816 173.000000
2693.603027 54.000000
2694.469727 89.000000
2695.335449 73.000000
2696.201172 53.000000
2697.065430 246.000000
2697.930420 231.000000
2698.793945 118.000000
2699.657715 26.000000
2700.520020 81.000000
2701.382813 96.000000
2702.244629 133.000000
2703.105957 120.000000
2703.967285 112.000000
2704.827393 118.000000
2705.687500 148.000000
2706.547119 85.000000
2707.406494 109.000000
2708.264160 125.000000
2709.122070 177.000000
2709.980469 132.000000
2710.837646 94.000000
2711.694092 134.000000
2712.550049 87.000000
2713.406006 86.000000
2714.261230 41.000000
2715.115723 129.000000
2715.969727 45.000000
2716.823730 14.000000
2717.676758 96.000000
2718.530029 31.000000
2719.381592 115.000000
2720.233643 106.000000
2721.085449 -37.000000
2721.936035 108.000000
2722.786621 42.000000
2723.636719 90.000000
2724.486084 20.000000
2725.335449 206.000000
2726.183594 116.000000
2727.031250 -12.000000
2727.879395 53.000000
2728.726318 61.000000
2729.573730 155.000000
2730.419678 100.000000
2731.264893 143.000000
2732.110596 155.000000
2732.955322 138.000000
2733.800049 86.000000
2734.643555 79.000000
2735.487305 -27.000000
2736.330322 57.000000
2737.172852 124.000000
2738.014404 5.000000
2738.856445 125.000000
2739.697510 85.000000
2740.538330 142.000000
2741.378906 63.000000
2742.218262 98.000000
2743.057617 10.000000
2743.896973 113.000000
2744.735107 68.000000
2745.572754 46.000000
2746.410400 129.000000
2747.247559 -20.000000
2748.084473 86.000000
2748.920898 152.000000
2749.756104 53.000000
2750.591553 79.000000
2751.426514 132.000000
2752.260742 148.000000
2753.094727 60.000000
2753.928223 94.000000
2754.761719 18.000000
2755.594238 23.000000
2756.426270 69.000000
2757.257813 7.000000
2758.089355 33.000000
2758.919922 68.000000
2759.750732 54.000000
2760.580322 106.000000
2761.409912 90.000000
2762.239258 113.000000
2763.067871 96.000000
2763.895996 108.000000
2764.723633 -136.000000
2765.551270 128.000000
2766.378418 22.000000
2767.204834 37.000000
2768.030762 136.000000
2768.856201 8.000000
2769.681396 97.000000
2770.506592 119.000000
2771.330566 151.000000
2772.154541 129.000000
2772.978516 57.000000
2773.801270 27.000000
2774.624268 -79.000000
2775.446045 -5.000000
2776.267822 46.000000
2777.089600 90.000000
2777.910400 114.000000
2778.730469 61.000000
2779.550781 62.000000
2780.370605 56.000000
2781.190430 149.000000
2782.008301 68.000000
2782.827393 67.000000
2783.645264 131.000000
2784.462891 108.000000
2785.280029 79.000000
2786.096680 49.000000
2786.913086 22.000000
2787.729004 118.000000
2788.544678 143.000000
2789.359375 -6.000000
2790.174561 83.000000
2790.989014 16.000000
2791.802979 35.000000
2792.616699 26.000000
2793.429199 25.000000
2794.241943 154.000000
2795.054199 87.000000
2795.865967 82.000000
2796.677002 112.000000
2797.488770 195.000000
2798.299316 64.000000
2799.109863 21.000000
2799.918945 71.000000
2800.728760 80.000000
2801.537842 114.000000
2802.346680 9.000000
2803.155029 51.000000
2803.962402 27.000000
2804.770264 17.000000
2805.577393 32.000000
2806.384277 90.000000
2807.189941 49.000000
2807.996094 66.000000
2808.801514 53.000000
2809.606934 17.000000
2810.411621 21.000000
2811.215332 101.000000
2812.019531 100.000000
2812.823242 91.000000
2813.626709 90.000000
2814.428711 50.000000
2815.231445 22.000000
2816.033447 24.000000
2816.835205 -14.000000
2817.636475 91.000000
2818.437256 40.000000
2819.237549 79.000000
2820.038086 72.000000
2820.837646 76.000000
2821.636719 -57.000000
2822.435791 17.000000
2823.234619 7.000000
2824.032959 32.000000
2824.830322 76.000000
2825.627930 63.000000
2826.424805 38.000000
2827.221924 105.000000
2828.018311 9.000000
2828.813965 35.000000
2829.609619 82.000000
2830.405029 -116.000000
2831.199951 46.000000
2831.994141 90.000000
2832.788330 75.000000
2833.582275 140.000000
2834.375732 44.000000
2835.168457 87.000000
2835.960938 52.000000
2836.753418 10.000000
2837.545654 92.000000
2838.337402 20.000000
2839.128174 45.000000
2839.918945 -24.000000
2840.709961 156.000000
2841.500000 12.000000
2842.289551 53.000000
2843.079346 43.000000
2843.868164 -32.000000
2844.656982 89.000000
2845.445801 148.000000
2846.233643 30.000000
2847.020996 54.000000
2847.808594 21.000000
2848.595703 35.000000
2849.382080 24.000000
2850.168457 145.000000
2850.954590 53.000000
2851.740234 86.000000
2852.524902 106.000000
2853.310059 -13.000000
2854.094971 50.000000
2854.879150 -15.000000
2855.663330 123.000000
2856.446289 44.000000
2857.229492 57.000000
2858.012451 19.000000
2858.794922 89.000000
2859.577148 41.000000
2860.358887 63.000000
2861.140381 67.000000
2861.922119 38.000000
2862.703125 -10.000000
2863.483398 5.000000
2864.263428 17.000000
2865.043457 46.000000
2865.823242 97.000000
2866.602051 101.000000
2867.381104 17.000000
2868.159668 34.000000
2868.937988 45.000000
2869.715820 114.000000
2870.493408 143.000000
2871.270752 67.000000
2872.047852 68.000000
2872.824463 134.000000
2873.600586 41.000000
2874.376709 75.000000
2875.152344 15.000000
2875.927734 117.000000
2876.702637 112.000000
2877.477295 162.000000
2878.251953 130.000000
2879.026367 139.000000
2879.800049 31.000000
2880.572998 131.000000
2881.346680 139.000000
2882.119385 107.000000
2882.892090 34.000000
2883.664063 102.000000
2884.435791 51.000000
2885.208008 51.000000
2885.979004 151.000000
2886.749512 124.000000
2887.520508 105.000000
2888.291504 118.000000
2889.061768 134.000000
2889.831055 170.000000
2890.600586 157.000000
2891.370117 118.000000
2892.139160 168.000000
2892.907715 104.000000
2893.676270 35.000000
2894.443848 17.000000
2895.211914 81.000000
2895.979492 97.000000
2896.747070 -39.000000
2897.513428 89.000000
2898.280762 74.000000
2899.046875 10.000000
2899.813232 62.000000
2900.578125 1.000000
2901.343506 -47.000000
2902.109375 36.000000
2902.873779 -1.000000
2903.638184 40.000000
2904.402832 55.000000
2905.166504 54.000000
2905.930908 56.000000
2906.694580 62.000000
2907.457520 124.000000
2908.220215 26.000000
2908.983398 0.000000
2909.746094 75.000000
2910.507568 44.000000
2911.269531 44.000000
spectrumdark 2048
-96.961227 6212.000000
-94.334358 6212.000000
-91.709366 6090.000000
-89.086266 6504.000000
-86.465034 5848.000000
-83.845703 6256.000000
-81.228233 6112.000000
-78.612640 6461.000000
-75.998924 6173.000000
-73.387085 5900.000000
-70.777107 6085.000000
-68.169014 5976.000000
-65.562767 5967.000000
-62.958401 6035.000000
-60.355892 6133.000000
-57.755238 5611.000000
-55.156445 6176.000000
-52.559509 6887.000000
-49.964428 6543.000000
-47.371201 6535.000000
-44.779823 6274.000000
-42.190292 6764.000000
-39.602604 5903.000000
-37.016766 6079.000000
-34.432770 6503.000000
-31.850609 5676.000000
-29.270296 6332.000000
-26.691811 5730.000000
-24.115168 6127.000000
-21.540350 6283.000000
-18.967373 6465.000000
-16.396215 6460.000000
-13.826892 6741.000000
-11.259394 7767.000000
-8.693714 6291.000000
-6.129860 6463.000000
-3.567820 6004.000000
-1.007604 5839.000000
1.550804 6251.000000
4.107391 6998.000000
6.662173 6635.000000
9.215138 6048.000000
11.766303 6702.000000
14.315655 6463.000000
16.863211 6644.000000
19.408955 6035.000000
21.952906 5736.000000
24.495052 6676.000000
27.035402 6771.000000
29.573967 6780.000000
32.110733 6223.000000
34.645699 5824.000000
37.178886 7177.000000
39.710293 6311.000000
42.239906 7100.000000
44.767723 6531.000000
47.293781 7808.000000
49.818050 5710.000000
52.340549 6235.000000
54.861252 6748.000000
57.380199 6390.000000
59.897373 6464.000000
62.412769 6648.000000
64.926392 5610.000000
67.438255 5749.000000
69.948372 6552.000000
72.456696 6561.000000
74.963264 5952.000000
77.468086 6360.000000
79.971153 6482.000000
82.472443 6312.000000
84.971992 6195.000000
87.469788 6377.000000
89.965851 5740.000000
92.460136 7276.000000
94.952682 5797.000000
97.443512 6911.000000
99.932571 7178.000000
102.419884 6397.000000
104.905472 6220.000000
107.389320 6406.000000
109.871422 5702.000000
112.351799 6561.000000
114.830452 6274.000000
117.307381 6389.000000
119.782555 7188.000000
122.256020 6877.000000
124.727753 5862.000000
127.197777 6661.000000
129.666046 6211.000000
132.132645 6269.000000
134.597488 5735.000000
137.060638 6208.000000
139.522049 7262.000000
141.981766 6890.000000
144.439758 6347.000000
146.896057 6014.000000
149.350647 5836.000000
151.803513 6868.000000
154.254700 6421.000000
156.704193 6558.000000
159.151962 5916.000000
161.598022 6556.000000
164.042404 8684.000000
166.485107 6483.000000
168.926117 6765.000000
171.365417 6261.000000
173.803009 7197.000000
176.238968 6620.000000
178.673187 6975.000000
181.105728 7110.000000
183.536621 6654.000000
185.965790 6850.000000
188.393311 6728.000000
190.819153 6274.000000
193.243317 6692.000000
195.665817 7120.000000
198.086624 7381.000000
200.505768 6513.000000
202.923248 5993.000000
205.339035 7581.000000
207.753174 7076.000000
210.165680 6346.000000
212.576508 6050.000000
214.985657 6234.000000
217.393173 7363.000000
219.798981 6173.000000
222.203201 6517.000000
224.605713 6668.000000
227.006607 6929.000000
229.405853 6511.000000
231.803436 6822.000000
234.199356 7339.000000
236.593658 6520.000000
238.986298 5902.000000
241.377319 6874.000000
243.766678 6581.000000
246.154419 6423.000000
248.540512 6957.000000
250.924973 6100.000000
253.307785 7884.000000
255.689026 6610.000000
258.068542 6658.000000
260.446503 6526.000000
262.822784 7572.000000
265.197510 7560.000000
267.570587 7849.000000
269.942017 6189.000000
272.311798 6393.000000
274.680023 5932.000000
277.046600 6301.000000
279.411591 6727.000000
281.774963 6030.000000
284.136688 6230.000000
286.496826 7117.000000
288.855347 5962.000000
291.212280 6555.000000
293.567596 6449.000000
295.921326 5949.000000
298.273407 5918.000000
300.623932 6356.000000
302.972870 6363.000000
305.320160 6778.000000
307.665924 6386.000000
310.010010 6512.000000
312.352570 7377.000000
314.693512 7575.000000
317.032837 7213.000000
319.370605 6948.000000
321.706818 8084.000000
324.041382 6226.000000
326.374390 6434.000000
328.705841 5958.000000
331.035706 6600.000000
333.363983 6401.000000
335.690643 7176.000000
338.015808 6356.000000
340.339355 6224.000000
342.661346 6033.000000
344.981781 7482.000000
347.300598 7725.000000
349.617859 6013.000000
351.933594 5852.000000
354.247742 6919.000000
356.560303 6360.000000
358.871307 6371.000000
361.180786 7055.000000
363.488739 6393.000000
365.795074 5678.000000
368.099823 6400.000000
370.403107 6355.000000
372.704773 6286.000000
375.004944 6394.000000
377.303558 6340.000000
379.600616 5697.000000
381.896118 6087.000000
384.190094 5893.000000
386.482483 5256.000000
388.773376 5600.000000
391.062744 6163.000000
393.350525 6231.000000
395.636780 6563.000000
397.921539 7052.000000
400.204681 6033.000000
402.486389 6402.000000
404.766571 6142.000000
407.045166 7283.000000
409.322235 6453.000000
411.597778 6754.000000
413.871796 6476.000000
416.144379 6437.000000
418.415344 6434.000000
420.684814 6414.000000
422.952789 7096.000000
425.219208 7229.000000
427.484131 6330.000000
429.747589 6241.000000
432.009460 6452.000000
434.269867 6005.000000
436.528717 6635.000000
438.786102 6160.000000
441.041992 5631.000000
443.296387 5760.000000
445.549255 5443.000000
447.800568 6915.000000
450.050476 6020.000000
452.298798 6235.000000
454.545685 5660.000000
456.791107 6442.000000
459.034973 6518.000000
461.277344 6797.000000
463.518219 5642.000000
465.757690 6724.000000
467.995575 5408.000000
470.232025 5905.000000
472.466949 6098.000000
474.700409 7185.000000
476.932434 6692.000000
479.162933 5681.000000
481.391937 6419.000000
483.619476 6381.000000
485.845520 5919.000000
488.070129 6492.000000
490.293274 5907.000000
492.514954 6411.000000
494.735077 6699.000000
496.953796 5663.000000
499.171021 6300.000000
501.386871 5535.000000
503.601105 6175.000000
505.814026 6411.000000
508.025360 6427.000000
510.235260 6880.000000
512.443726 6422.000000
514.650818 6558.000000
516.856323 6378.000000
519.060425 6563.000000
521.263000 6177.000000
523.464172 6617.000000
525.664001 6693.000000
527.862305 6896.000000
530.059082 5347.000000
532.254517 5814.000000
534.448425 5506.000000
536.640991 7519.000000
538.832031 6716.000000
541.021667 5982.000000
543.209900 6900.000000
545.396606 7152.000000
547.581848 6818.000000
549.765808 6260.000000
551.948181 6408.000000
554.129211 6229.000000
556.308716 6040.000000
558.486938 5848.000000
560.663635 6013.000000
562.838928 6364.000000
565.012817 6375.000000
567.185242 5860.000000
569.356262 6061.000000
571.525818 6322.000000
573.694092 5240.000000
575.860840 6403.000000
578.026123 6284.000000
580.190002 6110.000000
582.352600 5692.000000
584.513672 6016.000000
586.673340 5655.000000
588.831665 5809.000000
590.988464 6184.000000
593.143921 6576.000000
595.297974 5740.000000
597.450684 6207.000000
599.601868 7243.000000
601.751709 6717.000000
603.900208 6660.000000
606.047119 6032.000000
608.192810 6459.000000
610.337097 6395.000000
612.479919 7023.000000
614.621277 6173.000000
616.761414 6444.000000
618.900024 7583.000000
621.037354 5718.000000
623.173218 6566.000000
625.307678 6854.000000
627.440674 7213.000000
629.572510 6694.000000
631.702881 6573.000000
633.831848 6820.000000
635.959351 6465.000000
638.085571 6254.000000
640.210266 7232.000000
642.333740 6415.000000
644.455872 6785.000000
646.576538 6811.000000
648.695862 6584.000000
650.813782 5713.000000
652.930359 5683.000000
655.045532 6442.000000
657.159363 6402.000000
659.271729 5836.000000
661.382874 6122.000000
663.492615 5450.000000
665.600891 6024.000000
667.708008 6188.000000
669.813660 6805.000000
671.917847 5732.000000
674.020813 5625.000000
676.122375 7060.000000
678.222595 5345.000000
680.321411 6739.000000
682.418884 6213.000000
684.515076 6971.000000
686.609802 6220.000000
688.703308 6991.000000
690.795471 6646.000000
692.886108 7883.000000
694.975525 6607.000000
697.063660 6456.000000
699.150330 5955.000000
701.235779 6764.000000
703.319702 5150.000000
705.402405 5955.000000
707.483826 5977.000000
709.563782 7547.000000
711.642517 6244.000000
713.719788 5572.000000
715.795776 6590.000000
717.870483 6151.000000
719.943909 6895.000000
722.015808 6240.000000
724.086548 7304.000000
726.155945 5837.000000
728.223938 6443.000000
730.290588 6378.000000
732.356018 7121.000000
734.420105 5805.000000
736.482849 6130.000000
738.544250 6478.000000
740.604370 6565.000000
742.663086 6039.000000
744.720581 6622.000000
746.776794 6461.000000
748.831604 6640.000000
750.885132 6394.000000
752.937256 7466.000000
754.988159 5789.000000
757.037842 6682.000000
759.086060 6332.000000
761.133057 6193.000000
763.178772 7029.000000
765.223083 5291.000000
767.266113 5740.000000
769.307922 14985.000000
771.348389 6935.000000
773.387451 6359.000000
775.425354 6094.000000
777.461914 5949.000000
779.497253 5331.000000
781.531250 5827.000000
783.563843 6855.000000
785.595276 5513.000000
787.625305 11554.000000
789.654053 6086.000000
791.681641 6323.000000
793.707886 6330.000000
795.732727 5819.000000
797.756470 5521.000000
799.778809 6389.000000
801.799927 5854.000000
803.819702 6648.000000
805.838196 4891.000000
807.855469 6671.000000
809.871338 6783.000000
811.886047 5737.000000
813.899414 6401.000000
815.911560 6259.000000
817.922485 6110.000000
819.932068 6587.000000
821.940430 5223.000000
823.947388 5714.000000
825.953125 6026.000000
827.957642 5757.000000
829.960876 5642.000000
831.962830 6474.000000
833.963501 6097.000000
835.962952 5908.000000
837.961060 6347.000000
839.958069 6960.000000
841.953674 6244.000000
843.948120 5994.000000
845.941223 6116.000000
847.933105 6782.000000
849.923645 5548.000000
851.912903 6761.000000
853.901123 5957.000000
855.887939 5612.000000
857.873535 6433.000000
859.857849 7269.000000
861.841064 6338.000000
863.822876 6399.000000
865.803467 5865.000000
867.782776 7783.000000
869.760925 7071.000000
871.737732 6161.000000
873.713257 5890.000000
875.687744 6178.000000
877.660767 6007.000000
879.632751 5423.000000
881.603394 6431.000000
883.572876 6025.000000
885.541016 5576.000000
887.507996 5227.000000
889.473633 6150.000000
891.438110 5719.000000
893.401367 5986.000000
895.363403 6501.000000
897.324158 5842.000000
899.283691 6433.000000
901.241943 6715.000000
903.199097 6380.000000
905.155090 6074.000000
907.109680 6805.000000
909.063049 6514.000000
911.015259 6423.000000
912.966248 6325.000000
914.915955 7072.000000
916.864502 6283.000000
918.811829 6121.000000
920.757874 6098.000000
922.702637 6078.000000
924.646362 6240.000000
926.588928 5994.000000
928.530212 5602.000000
930.470154 6460.000000
932.408997 5732.000000
934.346558 5501.000000
936.282898 5964.000000
938.218079 5813.000000
940.151978 6109.000000
942.084778 5897.000000
944.016357 6763.000000
945.946777 5156.000000
947.875977 6383.000000
949.803833 6995.000000
951.730652 6591.000000
953.656189 5946.000000
955.580444 5405.000000
957.503601 6006.000000
959.425598 6634.000000
961.346313 7307.000000
963.265869 6465.000000
965.184265 5346.000000
967.101624 6485.000000
969.017517 6412.000000
970.932312 6115.000000
972.845886 5914.000000
974.758301 6385.000000
976.669495 6462.000000
978.579529 5525.000000
980.488281 6246.000000
982.395996 6104.000000
984.302490 6402.000000
986.207764 5696.000000
988.111938 6750.000000
990.014893 6128.000000
991.916626 6820.000000
993.817200 6561.000000
995.716614 6596.000000
997.614807 5236.000000
999.511841 6613.000000
1001.407654 6513.000000
1003.302307 7610.000000
1005.195862 5536.000000
1007.088135 7056.000000
1008.979492 6094.000000
1010.869507 5330.000000
1012.758301 6653.000000
1014.645935 6400.000000
1016.532410 6809.000000
1018.417725 6701.000000
1020.301880 6017.000000
1022.184814 5839.000000
1024.066772 6192.000000
1025.947388 5235.000000
1027.826904 5838.000000
1029.705444 6087.000000
1031.582642 5454.000000
1033.458496 6173.000000
1035.333374 5930.000000
1037.207275 6521.000000
1039.079712 6990.000000
1040.951172 6692.000000
1042.821289 5510.000000
1044.690430 5581.000000
1046.558350 5766.000000
1048.425171 7128.000000
1050.290894 6720.000000
1052.155396 6445.000000
1054.018799 6475.000000
1055.880859 6469.000000
1057.741943 5860.000000
1059.601929 6449.000000
1061.460571 6582.000000
1063.318115 5734.000000
1065.174561 6699.000000
1067.029907 5916.000000
1068.884033 5778.000000
1070.737305 6264.000000
1072.589111 6296.000000
1074.439941 6151.000000
1076.289551 6156.000000
1078.137939 5709.000000
1079.985474 7961.000000
1081.831665 5609.000000
1083.676636 6211.000000
1085.520752 5456.000000
1087.363525 5546.000000
1089.205078 6498.000000
1091.045898 5482.000000
1092.885132 5755.000000
1094.723633 6057.000000
1096.560791 6061.000000
1098.396729 6817.000000
1100.231689 6641.000000
1102.065430 5471.000000
1103.898193 5502.000000
1105.729614 6159.000000
1107.560181 7254.000000
1109.389404 6491.000000
1111.217651 6483.000000
1113.044678 7105.000000
1114.870728 5446.000000
1116.695557 6288.000000
1118.519287 7090.000000
1120.341797 6134.000000
1122.163208 5791.000000
1123.983765 5884.000000
1125.802856 6560.000000
1127.621094 7097.000000
1129.437988 6868.000000
1131.254028 6639.000000
1133.068848 6480.000000
1134.882568 5577.000000
1136.695190 5790.000000
1138.506592 5544.000000
1140.317017 6171.000000
1142.126343 6728.000000
1143.934326 6918.000000
1145.741577 5917.000000
1147.547363 5864.000000
1149.352295 5451.000000
1151.156128 5369.000000
1152.958740 6169.000000
1154.760498 6071.000000
1156.560791 6049.000000
1158.360107 6095.000000
1160.158447 5850.000000
1161.955444 5466.000000
1163.751709 5870.000000
1165.546631 6091.000000
1167.340454 6286.000000
1169.133423 7685.000000
1170.925049 5744.000000
1172.715698 6480.000000
1174.505371 6010.000000
1176.293579 5860.000000
1178.080933 7459.000000
1179.867188 6812.000000
1181.652344 5753.000000
1183.436401 5932.000000
1185.219360 7700.000000
1187.001343 5866.000000
1188.782104 5821.000000
1190.561890 6314.000000
1192.340576 6885.000000
1194.118286 6705.000000
1195.894775 7196.000000
1197.670166 6547.000000
1199.444458 6593.000000
1201.217651 6666.000000
1202.989990 6547.000000
1204.760986 6760.000000
1206.531128 5719.000000
1208.300049 6110.000000
1210.067871 6300.000000
1211.834839 5838.000000
1213.600464 5920.000000
1215.365112 6959.000000
1217.128662 6541.000000
1218.891113 5933.000000
1220.652710 6724.000000
1222.413086 5865.000000
1224.172363 6274.000000
1225.930786 6122.000000
1227.687988 7142.000000
1229.444092 6457.000000
1231.199097 5551.000000
1232.953247 6004.000000
1234.706055 5880.000000
1236.457886 6009.000000
1238.208862 5890.000000
1239.958496 4963.000000
1241.707275 6985.000000
1243.454712 6488.000000
1245.201416 6542.000000
1246.946899 6505.000000
1248.691528 6455.000000
1250.434814 6734.000000
1252.177124 6700.000000
1253.918335 5412.000000
1255.658691 5047.000000
1257.397949 5831.000000
1259.135986 6584.000000
1260.873169 7129.000000
1262.609131 6085.000000
1264.344116 6391.000000
1266.078125 7211.000000
1267.811157 5964.000000
1269.542969 6198.000000
1271.273804 6406.000000
1273.003418 7226.000000
1274.732178 5930.000000
1276.459839 5641.000000
1278.186401 5489.000000
1279.912109 5548.000000
1281.636475 6504.000000
1283.359985 5165.000000
1285.082520 6914.000000
1286.804077 6507.000000
1288.524414 6136.000000
1290.243774 6664.000000
1291.962036 7271.000000
1293.679321 6417.000000
1295.395630 5747.000000
1297.110718 6364.000000
1298.824829 6169.000000
1300.537964 5803.000000
1302.250244 6495.000000
1303.961304 8295.000000
1305.671387 5637.000000
1307.380371 6303.000000
1309.088135 6647.000000
1310.795288 7030.000000
1312.500977 5798.000000
1314.205933 6878.000000
1315.909912 6175.000000
1317.612671 5971.000000
1319.314453 6524.000000
1321.015381 6029.000000
1322.714966 9524.000000
1324.413696 31111.000000
1326.111694 5607.000000
1327.808350 6477.000000
1329.503906 7227.000000
1331.198608 6852.000000
1332.892090 5714.000000
1334.584717 5427.000000
1336.276489 7194.000000
1337.966919 6330.000000
1339.656616 6556.000000
1341.345215 6108.000000
1343.032715 7570.000000
1344.719238 5604.000000
1346.404663 6796.000000
1348.089111 5984.000000
1349.772705 7268.000000
1351.455078 6360.000000
1353.136475 5973.000000
1354.817017 6533.000000
1356.496338 6657.000000
1358.175049 5865.000000
1359.852417 6453.000000
1361.528687 5746.000000
1363.203979 5555.000000
1364.878540 6606.000000
1366.551880 6478.000000
1368.224243 6763.000000
1369.895630 5212.000000
1371.566040 6746.000000
1373.235352 6092.000000
1374.903687 5725.000000
1376.571167 5882.000000
1378.237549 6341.000000
1379.902954 6040.000000
1381.567383 5849.000000
1383.230591 5930.000000
1384.893188 5713.000000
1386.554443 6398.000000
1388.214844 6557.000000
1389.874146 6478.000000
1391.532471 6509.000000
1393.190063 6818.000000
1394.846436 6460.000000
1396.501953 6987.000000
1398.156250 6320.000000
1399.809692 5838.000000
1401.462036 6069.000000
1403.113647 6429.000000
1404.764038 7178.000000
1406.413330 6244.000000
1408.061890 7576.000000
1409.709351 7874.000000
1411.355835 6043.000000
1413.001465 6197.000000
1414.646118 5977.000000
1416.289551 6965.000000
1417.932129 7172.000000
1419.573608 6863.000000
1421.214233 6430.000000
1422.853882 6410.000000
1424.492432 6078.000000
1426.130127 6628.000000
1427.766724 6315.000000
1429.402344 5936.000000
1431.037231 6329.000000
1432.671021 5881.000000
1434.303711 6137.000000
1435.935425 5650.000000
1437.566284 6097.000000
1439.196045 6066.000000
1440.824707 7799.000000
1442.452759 6031.000000
1444.079712 6100.000000
1445.705444 6190.000000
1447.330566 6212.000000
1448.954590 6519.000000
1450.577637 6063.000000
1452.199707 6044.000000
1453.820679 7277.000000
1455.440674 6341.000000
1457.059937 6894.000000
1458.677856 5622.000000
1460.295166 16941.000000
1461.911499 5551.000000
1463.526611 7259.000000
1465.140869 6244.000000
1466.754272 5188.000000
1468.366577 5627.000000
1469.978027 6191.000000
1471.588623 6374.000000
1473.197998 5989.000000
1474.806396 5969.000000
1476.413940 6191.000000
1478.020508 6699.000000
1479.626343 5364.000000
1481.230957 6259.000000
1482.834717 5507.000000
1484.437256 6647.000000
1486.039185 5506.000000
1487.639893 5556.000000
1489.239868 5623.000000
1490.838745 6278.000000
1492.436768 6503.000000
1494.033691 6669.000000
1495.629761 6280.000000
1497.224854 6002.000000
1498.818970 5460.000000
1500.412354 6578.000000
1502.004639 5502.000000
1503.595703 5964.000000
1505.186279 6857.000000
1506.775513 6425.000000
1508.364136 6136.000000
1509.951660 6549.000000
1511.538086 6852.000000
1513.123779 6078.000000
1514.708374 6659.000000
1516.292114 6208.000000
1517.874756 6206.000000
1519.456665 6592.000000
1521.037476 6672.000000
1522.617554 6002.000000
1524.196411 6256.000000
1525.774414 6385.000000
1527.351685 6313.000000
1528.927734 5628.000000
1530.503052 5868.000000
1532.077271 6241.000000
1533.650757 5442.000000
1535.223022 5951.000000
1536.794556 6372.000000
1538.365112 6437.000000
1539.934814 6278.000000
1541.503296 5413.000000
1543.071045 6514.000000
1544.637939 5656.000000
1546.203613 6763.000000
1547.768555 5993.000000
1549.332397 5018.000000
1550.895630 7516.000000
1552.457520 6280.000000
1554.018799 5934.000000
1555.578979 5699.000000
1557.138428 5737.000000
1558.696777 5797.000000
1560.254395 6248.000000
1561.810913 7020.000000
1563.366211 5858.000000
1564.920898 6306.000000
1566.474854 5618.000000
1568.027832 6337.000000
1569.579468 5629.000000
1571.130371 5852.000000
1572.680542 6188.000000
1574.229736 6373.000000
1575.777588 5759.000000
1577.324951 5526.000000
1578.871338 5708.000000
1580.416870 5037.000000
1581.961426 6643.000000
1583.504761 6299.000000
1585.047485 6617.000000
1586.589355 6405.000000
1588.130127 6654.000000
1589.669922 5826.000000
1591.208984 6622.000000
1592.746948 5891.000000
1594.284424 6170.000000
1595.820557 5856.000000
1597.355591 6653.000000
1598.890137 6261.000000
1600.423706 5967.000000
1601.956421 5860.000000
1603.487549 6276.000000
1605.018433 6398.000000
1606.548462 5722.000000
1608.077271 6118.000000
1609.604980 6129.000000
1611.132080 5949.000000
1612.658447 5804.000000
1614.183838 6253.000000
1615.708374 5868.000000
1617.231567 5763.000000
1618.754028 5675.000000
1620.275757 6592.000000
1621.796631 6859.000000
1623.316040 15569.000000
1624.834961 6094.000000
1626.353149 6122.000000
1627.870483 5924.000000
1629.386719 6395.000000
1630.901611 6926.000000
1632.416016 6677.000000
1633.929688 5784.000000
1635.442261 6796.000000
1636.953613 5919.000000
1638.464600 6516.000000
1639.974487 6191.000000
1641.483521 6168.000000
1642.991211 5609.000000
1644.498535 6066.000000
1646.005005 7093.000000
1647.510498 6195.000000
1649.015137 6856.000000
1650.518311 6114.000000
1652.020874 6613.000000
1653.523071 6327.000000
1655.023926 6618.000000
1656.523682 7529.000000
1658.022583 5916.000000
1659.521118 6530.000000
1661.018433 6207.000000
1662.515015 5961.000000
1664.010010 6475.000000
1665.504761 6372.000000
1666.998657 5189.000000
1668.491577 5646.000000
1669.983154 20894.000000
1671.474243 6442.000000
1672.964722 6069.000000
1674.454102 5958.000000
1675.942017 6917.000000
1677.429688 6917.000000
1678.916382 6033.000000
1680.402222 5391.000000
1681.887207 6088.000000
1683.370728 6199.000000
1684.854004 6175.000000
1686.336426 5843.000000
1687.817749 6218.000000
1689.297607 6137.000000
1690.777222 5567.000000
1692.256104 6579.000000
1693.734009 5739.000000
1695.210938 6136.000000
1696.686646 5738.000000
1698.161987 6247.000000
1699.636108 6350.000000
1701.109619 5458.000000
1702.581665 5612.000000
1704.053467 6816.000000
1705.524292 6383.000000
1706.994263 7077.000000
1708.462891 5173.000000
1709.931030 5853.000000
1711.398438 6480.000000
1712.864746 5531.000000
1714.330444 5727.000000
1715.794434 6162.000000
1717.258301 5955.000000
1718.721313 6920.000000
1720.183350 6366.000000
1721.644165 6611.000000
1723.104370 5440.000000
1724.563843 5651.000000
1726.022461 6185.000000
1727.480103 5960.000000
1728.936401 6199.000000
1730.392456 6069.000000
1731.847534 6463.000000
1733.301636 5950.000000
1734.754517 6889.000000
1736.207153 5970.000000
1737.658691 6687.000000
1739.109497 5966.000000
1740.559326 6573.000000
1742.007813 5967.000000
1743.455933 7296.000000
1744.903198 6467.000000
1746.349731 6677.000000
1747.794678 6643.000000
1749.239380 6143.000000
1750.683228 5945.000000
1752.126221 5518.000000
1753.567749 6535.000000
1755.009033 6382.000000
1756.449463 19427.000000
1757.888916 6331.000000
1759.327393 5285.000000
1760.764893 6035.000000
1762.201904 7577.000000
1763.637939 5790.000000
1765.073120 7123.000000
1766.506836 6183.000000
1767.940430 6374.000000
1769.373047 6654.000000
1770.804810 5913.000000
1772.235718 5755.000000
1773.665405 6414.000000
1775.094360 6120.000000
1776.522827 6321.000000
1777.950317 6674.000000
1779.376465 6219.000000
1780.802368 5541.000000
1782.227173 6828.000000
1783.651367 5571.000000
1785.074097 6641.000000
1786.496338 6506.000000
1787.917847 6846.000000
1789.338623 5921.000000
1790.758423 6147.000000
1792.176880 6138.000000
1793.594849 6869.000000
1795.012207 5449.000000
1796.428711 6078.000000
1797.843750 6559.000000
1799.258423 5800.000000
1800.672485 6562.000000
1802.085327 5987.000000
1803.497559 7029.000000
1804.908447 7151.000000
1806.318848 7713.000000
1807.728516 6449.000000
1809.137207 5934.000000
1810.544800 5422.000000
1811.951904 6403.000000
1813.358154 6311.000000
1814.763428 6710.000000
1816.167603 5873.000000
1817.571411 5960.000000
1818.974243 6246.000000
1820.376221 6007.000000
1821.777588 5885.000000
1823.177490 6371.000000
1824.576782 6389.000000
1825.975586 6601.000000
1827.373535 7370.000000
1828.770142 5783.000000
1830.166138 6779.000000
1831.561401 5859.000000
1832.956055 8059.000000
1834.349731 6032.000000
1835.742065 6830.000000
1837.133911 6367.000000
1838.525146 5934.000000
1839.915405 7090.000000
1841.304443 6057.000000
1842.693115 6072.000000
1844.080811 5995.000000
1845.467773 5804.000000
1846.853394 6912.000000
1848.238770 5871.000000
1849.623291 6365.000000
1851.007080 6278.000000
1852.389771 6380.000000
1853.771240 5396.000000
1855.152222 6590.000000
1856.532715 6286.000000
1857.912231 5700.000000
1859.290283 5976.000000
1860.668213 6296.000000
1862.045166 7769.000000
1863.421387 6088.000000
1864.796753 6048.000000
1866.170654 5697.000000
1867.544434 5712.000000
1868.917358 6235.000000
1870.289185 5928.000000
1871.660034 6948.000000
1873.030518 5418.000000
1874.399902 6013.000000
1875.768799 6094.000000
1877.136108 7109.000000
1878.503296 6081.000000
1879.869507 5981.000000
1881.234985 6738.000000
1882.599731 7517.000000
1883.962891 6747.000000
1885.325928 6947.000000
1886.688110 6318.000000
1888.049438 6428.000000
1889.409424 5646.000000
1890.769043 5771.000000
1892.128052 6115.000000
1893.486084 6685.000000
1894.843262 7284.000000
1896.199219 5929.000000
1897.554932 7578.000000
1898.909668 5827.000000
1900.263550 5551.000000
1901.616333 5953.000000
1902.968628 5971.000000
1904.320190 5920.000000
1905.670898 6770.000000
1907.020386 6554.000000
1908.369385 6662.000000
1909.717529 5759.000000
1911.065063 6088.000000
1912.411865 6304.000000
1913.757080 6853.000000
1915.102051 6049.000000
1916.446289 5458.000000
1917.789673 6477.000000
1919.131714 5969.000000
1920.473511 6687.000000
1921.814453 6982.000000
1923.154663 6132.000000
1924.493896 6287.000000
1925.832153 6246.000000
1927.169800 6430.000000
1928.506714 6968.000000
1929.842773 6720.000000
1931.177612 5587.000000
1932.512085 6660.000000
1933.845825 7268.000000
1935.178711 6241.000000
1936.510132 5804.000000
1937.841675 6335.000000
1939.171875 6624.000000
1940.501587 5793.000000
1941.830444 6034.000000
1943.158081 5840.000000
1944.485229 5010.000000
1945.811646 5881.000000
1947.137329 6490.000000
1948.461670 5780.000000
1949.785767 6640.000000
1951.109009 6308.000000
1952.431519 6402.000000
1953.752930 5756.000000
1955.073364 7405.000000
1956.393188 6065.000000
1957.712646 5524.000000
1959.031128 6888.000000
1960.348267 5884.000000
1961.665039 5867.000000
1962.981079 6555.000000
1964.296387 6580.000000
1965.610229 6256.000000
1966.923828 5628.000000
1968.236694 6294.000000
1969.548706 5975.000000
1970.860107 6056.000000
1972.170166 6293.000000
1973.479736 5837.000000
1974.788574 6193.000000
1976.096802 6646.000000
1977.403687 6120.000000
1978.709961 7271.000000
1980.015869 5571.000000
1981.320557 6367.000000
1982.624756 5928.000000
1983.927734 5696.000000
1985.230347 7470.000000
1986.531982 6119.000000
1987.833008 6738.000000
1989.132446 6036.000000
1990.432007 6600.000000
1991.730469 5317.000000
1993.028442 6095.000000
1994.324829 6084.000000
1995.621216 5785.000000
1996.916626 5608.000000
1998.211304 6479.000000
1999.505127 5670.000000
2000.797729 6581.000000
2002.089844 5647.000000
2003.381470 7121.000000
2004.672363 6455.000000
2005.961670 6237.000000
2007.250732 6791.000000
2008.539063 5926.000000
2009.826660 5994.000000
2011.113403 6851.000000
2012.399048 5686.000000
2013.684326 6302.000000
2014.968628 6004.000000
2016.252319 5589.000000
2017.534668 5999.000000
2018.816650 6424.000000
2020.098145 6768.000000
2021.378662 5916.000000
2022.658447 6095.000000
2023.937134 6750.000000
2025.215088 5852.000000
2026.492554 5900.000000
2027.769409 6288.000000
2029.044556 5771.000000
2030.319824 6524.000000
2031.594116 6041.000000
2032.867432 5909.000000
2034.139893 5912.000000
2035.411987 6151.000000
2036.682983 6937.000000
2037.953735 6586.000000
2039.223145 6035.000000
2040.491455 6752.000000
2041.759766 6599.000000
2043.027100 5939.000000
2044.293701 5997.000000
2045.559082 5582.000000
2046.823853 5528.000000
2048.088379 5399.000000
2049.351563 5822.000000
2050.614502 6459.000000
2051.875488 6120.000000
2053.136963 6097.000000
2054.397217 5935.000000
2055.656738 6429.000000
2056.915527 6250.000000
2058.173340 6836.000000
2059.430664 6150.000000
2060.687256 5982.000000
2061.942383 6467.000000
2063.197510 5620.000000
2064.451660 5624.000000
2065.705078 5600.000000
2066.957764 6868.000000
2068.209229 6154.000000
2069.460449 6397.000000
2070.710938 5612.000000
2071.960693 5437.000000
2073.208984 6121.000000
2074.457275 6496.000000
2075.704590 7419.000000
2076.951172 5612.000000
2078.197021 6027.000000
2079.441650 6983.000000
2080.685791 7553.000000
2081.929443 5527.000000
2083.172119 6048.000000
2084.413574 6931.000000
2085.654785 5991.000000
2086.895508 6378.000000
2088.135254 6742.000000
2089.373779 6972.000000
2090.611816 6219.000000
2091.849121 5827.000000
2093.086182 6644.000000
2094.321777 6092.000000
2095.556641 6204.000000
2096.791260 6071.000000
2098.024902 5579.000000
2099.257568 6101.000000
2100.489502 6877.000000
2101.720947 6424.000000
2102.951416 6739.000000
2104.181152 5983.000000
2105.410645 6003.000000
2106.638184 6079.000000
2107.865967 6000.000000
2109.093018 6259.000000
2110.319092 5459.000000
2111.543701 6370.000000
2112.768555 6999.000000
2113.992188 7044.000000
2115.215332 6194.000000
2116.437256 7515.000000
2117.658936 5949.000000
2118.879639 6843.000000
2120.099609 5984.000000
2121.319092 6109.000000
2122.537109 6591.000000
2123.755127 6991.000000
2124.972168 5742.000000
2126.188721 5836.000000
2127.403564 6519.000000
2128.618652 6350.000000
2129.832764 6794.000000
2131.046143 5705.000000
2132.258789 6065.000000
2133.469971 5850.000000
2134.681396 6409.000000
2135.891602 6653.000000
2137.101318 5918.000000
2138.309570 6170.000000
2139.517822 5585.000000
2140.725342 5922.000000
2141.931641 7663.000000
2143.137207 5953.000000
2144.342529 5657.000000
2145.546875 5538.000000
2146.750488 6261.000000
2147.953613 6159.000000
2149.155273 6546.000000
2150.356689 5306.000000
2151.557373 6341.000000
2152.757324 6010.000000
2153.956055 5886.000000
2155.154541 7012.000000
2156.352539 6173.000000
2157.549561 6086.000000
2158.745850 5153.000000
2159.940918 5220.000000
2161.135742 6100.000000
2162.329834 5579.000000
2163.522949 5981.000000
2164.715088 6874.000000
2165.906982 5929.000000
2167.098145 6364.000000
2168.288330 6219.000000
2169.477783 6531.000000
2170.666748 6821.000000
2171.854736 6215.000000
2173.042480 5729.000000
2174.228760 5923.000000
2175.414307 6534.000000
2176.599609 6039.000000
2177.784424 5871.000000
2178.968018 6331.000000
2180.150879 7474.000000
2181.332764 6305.000000
2182.514404 6090.000000
2183.695557 6491.000000
2184.875488 5738.000000
2186.054443 5512.000000
2187.232910 6342.000000
2188.411133 6864.000000
2189.588135 7167.000000
2190.764160 6693.000000
2191.939941 6136.000000
2193.115234 5597.000000
2194.289063 6700.000000
2195.462402 6158.000000
2196.635498 6146.000000
2197.807373 6432.000000
2198.978760 7102.000000
2200.149658 6392.000000
2201.318848 6912.000000
2202.488037 7588.000000
2203.656738 6228.000000
2204.824463 5837.000000
2205.991211 5668.000000
2207.157227 7064.000000
2208.322754 6701.000000
2209.488037 5969.000000
2210.651855 6666.000000
2211.815186 5432.000000
2212.977295 6189.000000
2214.139648 6151.000000
2215.300781 6663.000000
2216.460938 6700.000000
2217.620605 6268.000000
2218.780029 6619.000000
2219.938232 6318.000000
2221.095459 6267.000000
2222.252441 6765.000000
2223.408691 6561.000000
2224.564209 6726.000000
2225.718994 6264.000000
2226.872803 6402.000000
2228.025635 6023.000000
2229.178955 6899.000000
2230.330322 6205.000000
2231.481445 6236.000000
2232.631836 6564.000000
2233.781738 7583.000000
2234.930664 6319.000000
2236.079102 5275.000000
2237.226074 6777.000000
2238.373291 7061.000000
2239.519287 6038.000000
2240.665039 7210.000000
2241.809082 7295.000000
2242.953369 6718.000000
2244.096680 6194.000000
2245.239258 6016.000000
2246.380859 5705.000000
2247.522217 5838.000000
2248.662598 6417.000000
2249.802246 6457.000000
2250.941406 5904.000000
2252.079346 5895.000000
2253.217285 6176.000000
2254.354248 5311.000000
2255.490479 6294.000000
2256.625732 6108.000000
2257.760254 7323.000000
2258.894531 6420.000000
2260.028320 5351.000000
2261.160645 6160.000000
2262.292480 6816.000000
2263.423828 6295.000000
2264.554199 6508.000000
2265.684326 8034.000000
2266.813232 6693.000000
2267.941650 6037.000000
2269.069580 5491.000000
2270.196533 6097.000000
2271.322754 5976.000000
2272.447998 6774.000000
2273.573242 6454.000000
2274.697754 6394.000000
2275.821045 5927.000000
2276.943604 6300.000000
2278.065674 5944.000000
2279.187256 7348.000000
2280.308105 6424.000000
2281.427734 6423.000000
2282.546875 7044.000000
2283.665771 7633.000000
2284.783936 7188.000000
2285.901123 5880.000000
2287.017334 6382.000000
2288.133301 7016.000000
2289.248535 6835.000000
2290.363037 7425.000000
2291.476318 5848.000000
2292.589600 6320.000000
2293.702148 5968.000000
2294.813965 5366.000000
2295.925049 6738.000000
2297.034912 6456.000000
2298.144287 6172.000000
2299.253418 6741.000000
2300.361572 6333.000000
2301.468750 6781.000000
2302.575684 5868.000000
2303.681885 6301.000000
2304.787598 6618.000000
2305.891846 6555.000000
2306.995850 5438.000000
2308.099365 5709.000000
2309.202393 6503.000000
2310.304199 7385.000000
2311.405273 7255.000000
2312.505859 6568.000000
2313.605957 5478.000000
2314.705322 6398.000000
2315.803223 6559.000000
2316.901611 6990.000000
2317.998535 8176.000000
2319.095215 6832.000000
2320.191406 5805.000000
2321.285889 6771.000000
2322.380371 7609.000000
2323.474121 5780.000000
2324.567627 6000.000000
2325.659424 6462.000000
2326.751221 6882.000000
2327.842285 6110.000000
2328.932617 6304.000000
2330.021973 6881.000000
2331.111328 6028.000000
2332.199463 6277.000000
2333.287109 6865.000000
2334.374512 6473.000000
2335.460205 6775.000000
2336.545654 7733.000000
2337.630859 6307.000000
2338.715088 6759.000000
2339.798340 5886.000000
2340.881348 6414.000000
2341.963379 7902.000000
2343.045166 5998.000000
2344.126221 7391.000000
2345.206055 6641.000000
2346.285400 5685.000000
2347.364258 6797.000000
2348.442627 6545.000000
2349.519531 6335.000000
2350.596191 7002.000000
2351.672607 6126.000000
2352.748047 6410.000000
2353.822510 5919.000000
2354.896729 6311.000000
2355.970215 6825.000000
2357.043213 6149.000000
2358.114990 6984.000000
2359.186523 6303.000000
2360.257080 6583.000000
2361.327393 7470.000000
2362.396729 7551.000000
2363.465088 6837.000000
2364.533203 6786.000000
2365.600586 7079.000000
2366.667480 7088.000000
2367.733643 6095.000000
2368.798584 6802.000000
2369.863525 7017.000000
2370.927734 6335.000000
2371.991211 6960.000000
2373.053467 5779.000000
2374.115723 6273.000000
2375.177002 6386.000000
2376.238037 5979.000000
2377.297852 6320.000000
2378.356934 7835.000000
2379.416016 6398.000000
2380.474121 7580.000000
2381.531494 6867.000000
2382.587891 8012.000000
2383.644043 7746.000000
2384.699707 6232.000000
2385.754639 7016.000000
2386.808105 6794.000000
2387.861816 6509.000000
2388.914551 6300.000000
2389.966797 6796.000000
2391.018311 6116.000000
2392.068848 6652.000000
2393.119141 6523.000000
2394.168457 6268.000000
2395.217773 6217.000000
2396.265625 6941.000000
2397.312988 6964.000000
2398.360107 6258.000000
2399.406250 6665.000000
2400.451660 6238.000000
2401.496338 6779.000000
2402.541016 7625.000000
2403.584229 7481.000000
2404.627441 6591.000000
2405.669189 5752.000000
2406.711182 6642.000000
2407.752441 7063.000000
2408.792725 6131.000000
2409.832275 6455.000000
2410.870850 6320.000000
2411.909668 6040.000000
2412.947266 6490.000000
2413.984619 6898.000000
2415.020752 7339.000000
2416.056641 6201.000000
2417.091797 6165.000000
2418.126465 6864.000000
2419.159668 7173.000000
2420.193115 6442.000000
2421.225586 6650.000000
2422.257813 6843.000000
2423.288574 7061.000000
2424.319336 6375.000000
2425.349609 6821.000000
2426.378662 6820.000000
2427.407715 6655.000000
2428.435059 6895.000000
2429.462891 6718.000000
2430.489502 7215.000000
2431.515869 6908.000000
2432.540771 7735.000000
2433.565918 6631.000000
2434.590088 7112.000000
2435.614014 6735.000000
2436.636719 5832.000000
2437.658691 6355.000000
2438.680420 6610.000000
2439.701416 6669.000000
2440.721924 6007.000000
2441.741211 6516.000000
2442.760498 6575.000000
2443.778809 8440.000000
2444.796875 6230.000000
2445.813477 6530.000000
2446.830078 6517.000000
2447.845947 5978.000000
2448.861816 6980.000000
2449.876221 6861.000000
2450.889893 5548.000000
2451.903076 7307.000000
2452.916016 5961.000000
2453.928223 7172.000000
2454.939453 6734.000000
2455.950439 7737.000000
2456.960693 6307.000000
2457.970459 7598.000000
2458.979248 5877.000000
2459.987305 5884.000000
2460.995361 6322.000000
2462.002197 7386.000000
2463.008789 5380.000000
2464.014160 7387.000000
2465.019287 6964.000000
2466.024170 5836.000000
2467.027832 6500.000000
2468.031250 6440.000000
2469.033691 7571.000000
2470.035889 7341.000000
2471.037598 6929.000000
2472.038330 6673.000000
2473.038086 6880.000000
2474.037842 6738.000000
2475.036621 5659.000000
2476.034912 6579.000000
2477.032227 7030.000000
2478.029297 6141.000000
2479.026367 6848.000000
2480.021973 5795.000000
2481.017578 7187.000000
2482.011475 6608.000000
2483.005371 8090.000000
2483.998779 6857.000000
2484.991699 6735.000000
2485.983643 7483.000000
2486.974854 7236.000000
2487.965820 6704.000000
2488.956299 5895.000000
2489.945801 6615.000000
2490.934570 6531.000000
2491.923340 5704.000000
2492.911133 6764.000000
2493.897705 6595.000000
2494.884277 8054.000000
2495.870361 6750.000000
2496.855713 7137.000000
2497.840088 8377.000000
2498.824219 6043.000000
2499.808350 6837.000000
2500.791016 5785.000000
2501.773193 6926.000000
2502.754883 6875.000000
2503.735840 7206.000000
2504.716309 6594.000000
2505.696533 5747.000000
2506.675293 6285.000000
2507.653809 7599.000000
2508.631836 6745.000000
2509.609375 7109.000000
2510.585938 6099.000000
2511.562256 5950.000000
2512.537842 6478.000000
2513.512939 6215.000000
2514.487549 6402.000000
2515.460938 7502.000000
2516.434082 6804.000000
2517.406982 6873.000000
2518.378906 6114.000000
2519.350098 6829.000000
2520.320801 6976.000000
2521.291260 7780.000000
2522.260986 8011.000000
2523.229736 6100.000000
2524.197754 6090.000000
2525.165771 7765.000000
2526.132813 6293.000000
2527.099609 5486.000000
2528.065186 7280.000000
2529.030762 6960.000000
2529.995605 7786.000000
2530.959961 6322.000000
2531.923096 6376.000000
2532.886475 5872.000000
2533.848877 6000.000000
2534.811035 6720.000000
2535.771973 6389.000000
2536.732178 6113.000000
2537.692627 6188.000000
2538.652100 6764.000000
2539.610840 6836.000000
2540.568604 6727.000000
2541.526611 6242.000000
2542.483887 6757.000000
2543.440186 6053.000000
2544.396240 7061.000000
2545.351074 6242.000000
2546.306152 7725.000000
2547.260498 7054.000000
2548.214111 6979.000000
2549.166748 7231.000000
2550.119141 6708.000000
2551.071045 6930.000000
2552.022217 6420.000000
2552.972656 7735.000000
2553.922607 7271.000000
2554.872314 7377.000000
2555.821289 6616.000000
2556.769775 6236.000000
2557.717041 7118.000000
2558.664307 6295.000000
2559.610840 6542.000000
2560.556885 6752.000000
2561.501953 7336.000000
2562.446777 6709.000000
2563.391113 7183.000000
2564.334961 6844.000000
2565.278320 6604.000000
2566.220215 6561.000000
2567.162354 6522.000000
2568.103760 6150.000000
2569.044434 7160.000000
2569.984375 7288.000000
2570.924316 5719.000000
2571.863281 6136.000000
2572.802002 7496.000000
2573.739746 7228.000000
2574.677246 5477.000000
2575.614014 6999.000000
2576.550049 6824.000000
2577.485596 7529.000000
2578.420410 6389.000000
2579.355225 5959.000000
2580.289063 7050.000000
2581.222412 7108.000000
2582.155029 5863.000000
2583.087402 6855.000000
2584.019043 5455.000000
2584.950195 7080.000000
2585.880859 7045.000000
2586.810303 6911.000000
2587.739746 7271.000000
2588.668701 6478.000000
2589.597412 7365.000000
2590.524414 7306.000000
2591.451660 5867.000000
2592.378418 6778.000000
2593.304443 6273.000000
2594.230225 5667.000000
2595.154785 7661.000000
2596.079102 7598.000000
2597.002930 5384.000000
2597.926270 7255.000000
2598.848633 6278.000000
2599.770752 6811.000000
2600.692383 8301.000000
2601.613281 6452.000000
2602.533447 6027.000000
2603.453369 6300.000000
2604.372803 6407.000000
2605.291992 6499.000000
2606.210205 5860.000000
2607.127197 5983.000000
2608.044434 7288.000000
2608.961426 5822.000000
2609.877441 7615.000000
2610.792236 6572.000000
2611.707520 6595.000000
2612.622070 6557.000000
2613.535645 6509.000000
2614.449219 6111.000000
2615.361572 7688.000000
2616.273926 7003.000000
2617.185303 6815.000000
2618.096436 5666.000000
2619.006836 7130.000000
2619.916992 6700.000000
2620.826416 6114.000000
2621.735352 6631.000000
2622.643311 6212.000000
2623.551514 6828.000000
2624.458740 6620.000000
2625.365479 7032.000000
2626.271484 5999.000000
2627.177246 6552.000000
2628.082275 6424.000000
2628.987061 7812.000000
2629.891113 6468.000000
2630.794189 6411.000000
2631.697266 6429.000000
2632.599365 5628.000000
2633.501465 6748.000000
2634.403320 6929.000000
2635.303467 6710.000000
2636.203857 6442.000000
2637.103516 6577.000000
2638.002930 6033.000000
2638.900879 6882.000000
2639.799316 6681.000000
2640.697266 6292.000000
2641.594482 6195.000000
2642.490479 6246.000000
2643.386475 6749.000000
2644.282227 6079.000000
2645.177246 6493.000000
2646.072021 6590.000000
2646.965332 7044.000000
2647.858643 6310.000000
2648.751709 6810.000000
2649.644531 6439.000000
2650.535645 7445.000000
2651.427002 6413.000000
2652.317871 7584.000000
2653.208008 7261.000000
2654.097900 6675.000000
2654.986572 7323.000000
2655.875488 6638.000000
2656.763916 6613.000000
2657.651367 7318.000000
2658.537842 6491.000000
2659.424805 7143.000000
2660.311035 6832.000000
2661.196777 6834.000000
2662.081299 6497.000000
2662.965820 6347.000000
2663.850098 6254.000000
2664.733643 7020.000000
2665.616699 7741.000000
2666.499023 7318.000000
2667.380859 6218.000000
2668.261963 6664.000000
2669.143311 6113.000000
2670.023193 6567.000000
2670.903320 7305.000000
2671.782715 7225.000000
2672.662109 6321.000000
2673.540771 6171.000000
2674.417725 6474.000000
2675.295410 6727.000000
2676.172363 6379.000000
2677.048584 8094.000000
2677.924316 7230.000000
2678.799316 6325.000000
2679.674561 7743.000000
2680.548828 6958.000000
2681.422607 7353.000000
2682.295654 6992.000000
2683.168457 6195.000000
2684.041016 6087.000000
2684.912842 6972.000000
2685.783936 6562.000000
2686.654785 6900.000000
2687.525146 7094.000000
2688.395264 6667.000000
2689.263672 6293.000000
2690.132813 7361.000000
2691.001221 7097.000000
2691.869385 6681.000000
2692.736816 6887.000000
2693.603027 5923.000000
2694.469727 7179.000000
2695.335449 7387.000000
2696.201172 7254.000000
2697.065430 7867.000000
2697.930420 6551.000000
2698.793945 7279.000000
2699.657715 5910.000000
2700.520020 7489.000000
2701.382813 6823.000000
2702.244629 5931.000000
2703.105957 6807.000000
2703.967285 6716.000000
2704.827393 7471.000000
2705.687500 7323.000000
2706.547119 6623.000000
2707.406494 6898.000000
2708.264160 7144.000000
2709.122070 6826.000000
2709.980469 7330.000000
2710.837646 6710.000000
2711.694092 5948.000000
2712.550049 6888.000000
2713.406006 6092.000000
2714.261230 6992.000000
2715.115723 6128.000000
2715.969727 6816.000000
2716.823730 7344.000000
2717.676758 6273.000000
2718.530029 6444.000000
2719.381592 7752.000000
2720.233643 6733.000000
2721.085449 6373.000000
2721.936035 6482.000000
2722.786621 6429.000000
2723.636719 7097.000000
2724.486084 7058.000000
2725.335449 6926.000000
2726.183594 6637.000000
2727.031250 6610.000000
2727.879395 7070.000000
2728.726318 6836.000000
2729.573730 5529.000000
2730.419678 7471.000000
2731.264893 6997.000000
2732.110596 6372.000000
2732.955322 6972.000000
2733.800049 7362.000000
2734.643555 6895.000000
2735.487305 7895.000000
2736.330322 7157.000000
2737.172852 6048.000000
2738.014404 6316.000000
2738.856445 6823.000000
2739.697510 6915.000000
2740.538330 5783.000000
2741.378906 5929.000000
2742.218262 7789.000000
2743.057617 6882.000000
2743.896973 6919.000000
2744.735107 6811.000000
2745.572754 7795.000000
2746.410400 6334.000000
2747.247559 7185.000000
2748.084473 6178.000000
2748.920898 5975.000000
2749.756104 6710.000000
2750.591553 6292.000000
2751.426514 6323.000000
2752.260742 6236.000000
2753.094727 6851.000000
2753.928223 6836.000000
2754.761719 8009.000000
2755.594238 6819.000000
2756.426270 7276.000000
2757.257813 6839.000000
2758.089355 7144.000000
2758.919922 7275.000000
2759.750732 7275.000000
2760.580322 7300.000000
2761.409912 6675.000000
2762.239258 7249.000000
2763.067871 6842.000000
2763.895996 6826.000000
2764.723633 6953.000000
2765.551270 6630.000000
2766.378418 7910.000000
2767.204834 5836.000000
2768.030762 7468.000000
2768.856201 6899.000000
2769.681396 7728.000000
2770.506592 7033.000000
2771.330566 6700.000000
2772.154541 6516.000000
2772.978516 7690.000000
2773.801270 6440.000000
2774.624268 6947.000000
2775.446045 6956.000000
2776.267822 6996.000000
2777.089600 6512.000000
2777.910400 7944.000000
2778.730469 6551.000000
2779.550781 6964.000000
2780.370605 7316.000000
2781.190430 6408.000000
2782.008301 5928.000000
2782.827393 8050.000000
2783.645264 6477.000000
2784.462891 6717.000000
2785.280029 7136.000000
2786.096680 7216.000000
2786.913086 7264.000000
2787.729004 6263.000000
2788.544678 5935.000000
2789.359375 6456.000000
2790.174561 6960.000000
2790.989014 7185.000000
2791.802979 6595.000000
2792.616699 7447.000000
2793.429199 8768.000000
2794.241943 6932.000000
2795.054199 7447.000000
2795.865967 7187.000000
2796.677002 7311.000000
2797.488770 6464.000000
2798.299316 7228.000000
2799.109863 7027.000000
2799.918945 7379.000000
2800.728760 8303.000000
2801.537842 7744.000000
2802.346680 6684.000000
2803.155029 7202.000000
2803.962402 6214.000000
2804.770264 6514.000000
2805.577393 6917.000000
2806.384277 6817.000000
2807.189941 7169.000000
2807.996094 6653.000000
2808.801514 6489.000000
2809.606934 7398.000000
2810.411621 6266.000000
2811.215332 7627.000000
2812.019531 7470.000000
2812.823242 6338.000000
2813.626709 6136.000000
2814.428711 6313.000000
2815.231445 7326.000000
2816.033447 7796.000000
2816.835205 6177.000000
2817.636475 6481.000000
2818.437256 7239.000000
2819.237549 6517.000000
2820.038086 6657.000000
2820.837646 8015.000000
2821.636719 7214.000000
2822.435791 6518.000000
2823.234619 6966.000000
2824.032959 6391.000000
2824.830322 7055.000000
2825.627930 7036.000000
2826.424805 6677.000000
2827.221924 7309.000000
2828.018311 7998.000000
2828.813965 6999.000000
2829.609619 7312.000000
2830.405029 7663.000000
2831.199951 7463.000000
2831.994141 6657.000000
2832.788330 6806.000000
2833.582275 5736.000000
2834.375732 6875.000000
2835.168457 7151.000000
2835.960938 8139.000000
2836.753418 7733.000000
2837.545654 7517.000000
2838.337402 6487.000000
2839.128174 6787.000000
2839.918945 8931.000000
2840.709961 7391.000000
2841.500000 6310.000000
2842.289551 7662.000000
2843.079346 7202.000000
2843.868164 7434.000000
2844.656982 7802.000000
2845.445801 7697.000000
2846.233643 7512.000000
2847.020996 7216.000000
2847.808594 7528.000000
2848.595703 7348.000000
2849.382080 6655.000000
2850.168457 7412.000000
2850.954590 7220.000000
2851.740234 7537.000000
2852.524902 7149.000000
2853.310059 6931.000000
2854.094971 7501.000000
2854.879150 7189.000000
2855.663330 6903.000000
2856.446289 8315.000000
2857.229492 6827.000000
2858.012451 6803.000000
2858.794922 7739.000000
2859.577148 6239.000000
2860.358887 6675.000000
2861.140381 7558.000000
2861.922119 7482.000000
2862.703125 7670.000000
2863.483398 6627.000000
2864.263428 6783.000000
2865.043457 8156.000000
2865.823242 7460.000000
2866.602051 8084.000000
2867.381104 7699.000000
2868.159668 6803.000000
2868.937988 7048.000000
2869.715820 7176.000000
2870.493408 6932.000000
2871.270752 7466.000000
2872.047852 6962.000000
2872.824463 6384.000000
2873.600586 7548.000000
2874.376709 7148.000000
2875.152344 8276.000000
2875.927734 7200.000000
2876.702637 6600.000000
2877.477295 7960.000000
2878.251953 6576.000000
2879.026367 7816.000000
2879.800049 6796.000000
2880.572998 7157.000000
2881.346680 6745.000000
2882.119385 7557.000000
2882.892090 7881.000000
2883.664063 8233.000000
2884.435791 6222.000000
2885.208008 6762.000000
2885.979004 6862.000000
2886.749512 6130.000000
2887.520508 8342.000000
2888.291504 7357.000000
2889.061768 7985.000000
2889.831055 7557.000000
2890.600586 6936.000000
2891.370117 7248.000000
2892.139160 7330.000000
2892.907715 7871.000000
2893.676270 7943.000000
2894.443848 7025.000000
2895.211914 6608.000000
2895.979492 7432.000000
2896.747070 8426.000000
2897.513428 7399.000000
2898.280762 6515.000000
2899.046875 7269.000000
2899.813232 6965.000000
2900.578125 8349.000000
2901.343506 7091.000000
2902.109375 6459.000000
2902.873779 7743.000000
2903.638184 7746.000000
2904.402832 8458.000000
2905.166504 6594.000000
2905.930908 8443.000000
2906.694580 6727.000000
2907.457520 8388.000000
2908.220215 6477.000000
2908.983398 8985.000000
2909.746094 6983.000000
2910.507568 6846.000000
2911.269531 6846.000000
