scanname Analyse086
timestamp 2017-02-10 22:07:29
ccdbias 954.461426
ccdgain 3.473401
sigmaread 8.960639
laserwavenum -0.497807
wavenumcorrection 0.025157
scancount 1
totalexposurems 10000
singleexposurems 10000
measurementstate Unknown
scanmode Manual
snr 289.353577 9.961604 8.499533
replacelist 5
672 49814.000000 31208.000000
754 45016.000000 19150.000000
755 44877.000000 5558.000000
858 39492.000000 15592.000000
889 36782.000000 20404.000000
peaks 62
278.387299 0.719246 0.000000 1.418396 0.000183
285.221924 0.719373 0.000000 0.783836 0.000060
294.157166 0.721662 0.000000 0.619226 0.000029
302.525452 0.722411 0.000000 0.149712 0.000022
329.821350 0.739766 0.000000 0.969376 0.000154
336.136444 0.744722 0.000000 0.989452 0.000106
342.791840 0.742978 0.000000 0.714188 0.000033
349.509766 0.746215 0.000000 0.665782 0.000024
360.462921 0.749627 0.000000 0.695722 0.000061
386.191406 0.749427 0.000000 1.442854 0.000309
459.787750 0.763919 0.000000 0.185172 0.000037
486.773590 0.776576 0.000000 0.520641 0.000058
534.851746 0.780854 0.000000 0.686344 0.000152
559.711487 0.820230 0.000000 1.239407 0.000222
573.263977 0.826096 0.000000 0.285698 0.000074
582.450500 0.820661 0.000000 0.581760 0.000099
660.898315 0.853770 0.000000 0.984482 0.000215
673.218567 0.850759 0.000000 1.464530 0.000279
715.731018 0.870100 0.000000 5.661055 0.001186
724.546814 0.851992 0.000000 1.255011 0.000053
742.364197 0.875986 0.000000 1.110310 0.000120
757.089722 0.900221 0.000000 5.973034 0.000684
779.122620 0.902198 0.000000 8.435622 0.001315
831.966858 0.900354 0.000000 0.459699 0.000171
843.022827 0.906155 0.000000 1.110523 0.000055
853.003174 0.930881 0.000000 1.026195 0.000273
868.631104 0.927007 0.000000 0.720197 0.000150
937.253906 0.998652 0.000000 0.836758 0.000433
954.273071 0.977141 0.000000 3.581698 0.001083
1013.607788 1.016899 0.000000 1.990543 0.000767
1020.140747 1.018535 0.000000 0.985651 0.000152
1026.818237 1.029987 0.000000 0.656087 0.000265
1034.214233 1.020150 0.000000 0.816549 0.000101
1044.161011 1.027330 0.000000 4.201386 0.001366
1104.339844 1.037456 0.000000 2.082803 0.000583
1117.700684 1.075159 0.000000 2.139579 0.000619
1134.626953 1.053296 0.000000 2.026834 0.000876
1150.114990 1.036394 0.000000 2.339574 0.000955
1174.120239 1.060042 0.000000 1.425536 0.000481
1184.626465 1.061378 0.000000 0.874304 0.000071
1211.198364 1.125341 0.000000 0.817327 0.000250
1222.504639 1.137128 0.000000 1.591690 0.000578
1232.765259 1.120474 0.000000 1.379961 0.000357
1259.829468 1.151727 0.000000 2.547333 0.001228
1280.453003 1.097337 0.000000 0.483734 0.000502
1313.848022 1.135561 0.000000 2.034050 0.000752
1329.660522 1.169404 0.000000 3.099446 0.001570
1347.939819 1.173840 0.000000 0.535652 0.000608
1385.000122 1.123583 0.000000 0.390070 0.000320
1416.375854 1.121476 0.000000 1.403550 0.000660
1434.439453 1.152858 0.000000 0.926919 0.000251
1447.017212 1.176296 0.000000 2.840479 0.001180
1469.254395 1.130020 0.000000 6.552428 0.002390
1489.939575 1.147920 0.000000 3.394847 0.001999
1532.062744 1.084345 0.000000 0.666935 0.000488
1578.551392 1.080587 0.000000 1.150391 0.001077
1619.502930 1.082005 0.000000 0.917910 0.000633
1638.879517 1.042938 0.000000 0.497582 0.000118
1668.430542 1.108427 0.000000 6.228715 0.004162
1700.991333 1.009771 0.000000 1.417931 0.001427
1712.733154 0.991675 0.000000 0.521651 0.000353
1749.619751 1.042291 0.000000 12.616825 0.006296
finalresult GLS_NoMatch 0
spectrum 2048
-97.103645 44988.000000
-94.476776 44988.000000
-91.851784 45706.000000
-89.228683 45785.000000
-86.607452 46723.000000
-83.988121 46480.000000
-81.370651 46773.000000
-78.755058 46512.000000
-76.141342 46834.000000
-73.529503 47298.000000
-70.919525 47085.000000
-68.311432 47137.000000
-65.705185 47263.000000
-63.100819 47275.000000
-60.498310 47121.000000
-57.897655 47641.000000
-55.298862 47050.000000
-52.701927 46370.000000
-50.106846 46751.000000
-47.513618 46774.000000
-44.922241 47062.000000
-42.332710 46559.000000
-39.745022 47319.000000
-37.159184 47142.000000
-34.575188 46780.000000
-31.993029 47495.000000
-29.412716 46850.000000
-26.834230 47426.000000
-24.257587 47044.000000
-21.682770 46853.000000
-19.109793 46630.000000
-16.538635 46575.000000
-13.969311 46281.000000
-11.401813 45300.000000
-8.836133 46549.000000
-6.272279 46372.000000
-3.710239 46757.000000
-1.150023 46714.000000
1.408385 46291.000000
3.964972 45158.000000
6.519754 44919.000000
9.072720 44895.000000
11.623884 43080.000000
14.173236 41858.000000
16.720791 39907.000000
19.266535 39562.000000
21.810486 38543.000000
24.352633 35948.000000
26.892982 32908.000000
29.431547 29607.000000
31.968315 25467.000000
34.503281 19310.000000
37.036469 12619.000000
39.567875 8169.000000
42.097488 7607.000000
44.625305 7157.000000
47.151363 6432.000000
49.675632 5758.000000
52.198132 5101.000000
54.718834 4439.000000
57.237782 4742.000000
59.754955 5684.000000
62.270351 7589.000000
64.783974 8253.000000
67.295837 7738.000000
69.805954 5920.000000
72.314278 3900.000000
74.820847 3250.000000
77.325668 2738.000000
79.828735 2353.000000
82.330025 2232.000000
84.829575 2061.000000
87.327370 1961.000000
89.823433 2020.000000
92.317719 2374.000000
94.810265 2664.000000
97.301094 2598.000000
99.790154 2425.000000
102.277466 2015.000000
104.763054 1719.000000
107.246902 1592.000000
109.729004 1549.000000
112.209381 1485.000000
114.688034 1389.000000
117.164963 1462.000000
119.640137 16151.000000
122.113602 28725.000000
124.585335 35771.000000
127.055359 37102.000000
129.523621 40137.000000
131.990219 42649.000000
134.455063 44290.000000
136.918213 44495.000000
139.379623 44219.000000
141.839340 45145.000000
144.297333 45961.000000
146.753632 46584.000000
149.208221 46954.000000
151.661087 46063.000000
154.112274 46538.000000
156.561768 46434.000000
159.009537 47063.000000
161.455597 46553.000000
163.899979 44497.000000
166.342682 46756.000000
168.783691 46493.000000
171.222992 47126.000000
173.660583 45981.000000
176.096542 46702.000000
178.530762 46340.000000
180.963303 46194.000000
183.394196 46597.000000
185.823364 46529.000000
188.250885 46592.000000
190.676727 47004.000000
193.100891 46664.000000
195.523392 46234.000000
197.944199 46023.000000
200.363342 46851.000000
202.780823 47369.000000
205.196609 45796.000000
207.610748 46329.000000
210.023254 46973.000000
212.434082 47309.000000
214.843231 47189.000000
217.250748 45959.000000
219.656555 47238.000000
222.060776 46790.000000
224.463287 46734.000000
226.864182 46446.000000
229.263428 46877.000000
231.661011 46560.000000
234.056931 46067.000000
236.451233 46833.000000
238.843872 47568.000000
241.234894 46565.000000
243.624252 46764.000000
246.011993 47005.000000
248.398087 46413.000000
250.782547 47288.000000
253.165359 45449.000000
255.546600 46745.000000
257.926147 46663.000000
260.304108 46910.000000
262.680389 45892.000000
265.055115 45837.000000
267.428192 45475.000000
269.799622 47241.000000
272.169403 46960.000000
274.537628 47468.000000
276.904205 47062.000000
279.269196 46614.000000
281.632568 47334.000000
283.994293 47184.000000
286.354431 46272.000000
288.712952 47443.000000
291.069885 46880.000000
293.425201 47031.000000
295.778931 47452.000000
298.131012 47432.000000
300.481537 47062.000000
302.830475 47012.000000
305.177765 46579.000000
307.523529 46939.000000
309.867615 46844.000000
312.210175 46040.000000
314.551117 45848.000000
316.890442 46173.000000
319.228210 46366.000000
321.564423 45292.000000
323.898987 47140.000000
326.231995 46935.000000
328.563446 47351.000000
330.893311 46764.000000
333.221588 46973.000000
335.548248 46089.000000
337.873413 47010.000000
340.196960 47215.000000
342.518951 47341.000000
344.839386 45890.000000
347.158203 45670.000000
349.475464 47371.000000
351.791199 47549.000000
354.105347 46374.000000
356.417908 46993.000000
358.728912 46967.000000
361.038391 46354.000000
363.346344 47026.000000
365.652679 47728.000000
367.957428 46978.000000
370.260712 46890.000000
372.562378 47028.000000
374.862549 46963.000000
377.161163 47040.000000
379.458221 47648.000000
381.753723 47227.000000
384.047699 47475.000000
386.340088 48139.000000
388.630981 47751.000000
390.920349 47156.000000
393.208130 47086.000000
395.494385 46849.000000
397.779144 46397.000000
400.062286 47335.000000
402.343994 46883.000000
404.624176 47205.000000
406.902771 46098.000000
409.179840 46894.000000
411.455383 46647.000000
413.729401 46865.000000
416.001984 46925.000000
418.272949 46875.000000
420.542419 46975.000000
422.810394 46237.000000
425.076813 46065.000000
427.341736 47071.000000
429.605194 47011.000000
431.867065 46886.000000
434.127472 47315.000000
436.386322 46679.000000
438.643707 47313.000000
440.899597 47614.000000
443.153992 47536.000000
445.406860 47878.000000
447.658173 46454.000000
449.908081 47210.000000
452.156403 47131.000000
454.403290 47651.000000
456.648712 46841.000000
458.892578 46856.000000
461.134949 46616.000000
463.375824 47673.000000
465.615295 46734.000000
467.853180 47861.000000
470.089630 47544.000000
472.324554 47331.000000
474.558014 45910.000000
476.790039 46651.000000
479.020538 47682.000000
481.249542 46891.000000
483.477081 47006.000000
485.703125 47397.000000
487.927734 46797.000000
490.150879 47419.000000
492.372559 46878.000000
494.592682 46588.000000
496.811401 47671.000000
499.028625 47122.000000
501.244476 47794.000000
503.458710 47169.000000
505.671631 46832.000000
507.882965 46893.000000
510.092865 46536.000000
512.301331 46833.000000
514.508423 46777.000000
516.713928 46872.000000
518.918030 46782.000000
521.120605 47143.000000
523.321777 46641.000000
525.521606 46562.000000
527.719910 46360.000000
529.916687 47999.000000
532.112122 47463.000000
534.306030 47766.000000
536.498596 45752.000000
538.689636 46575.000000
540.879272 47227.000000
543.067505 46401.000000
545.254211 46148.000000
547.439453 46509.000000
549.623413 47093.000000
551.805786 46815.000000
553.986816 47075.000000
556.166321 47199.000000
558.344543 47398.000000
560.521240 47275.000000
562.696533 46886.000000
564.870422 46778.000000
567.042847 47362.000000
569.213867 47211.000000
571.383423 46886.000000
573.551697 48024.000000
575.718445 46860.000000
577.883728 46965.000000
580.047607 47134.000000
582.210205 47532.000000
584.371277 47236.000000
586.530945 47649.000000
588.689270 47422.000000
590.846069 47104.000000
593.001526 46648.000000
595.155579 47513.000000
597.308289 47131.000000
599.459473 46020.000000
601.609314 46532.000000
603.757813 46528.000000
605.904724 47209.000000
608.050415 46807.000000
610.194702 46785.000000
612.337524 46255.000000
614.478882 47076.000000
616.619019 46819.000000
618.757629 45667.000000
620.894958 47578.000000
623.030823 46658.000000
625.165283 46371.000000
627.298279 46014.000000
629.430115 46566.000000
631.560486 46684.000000
633.689453 46504.000000
635.816956 46758.000000
637.943176 47048.000000
640.067871 45935.000000
642.191345 46808.000000
644.313477 46404.000000
646.434143 46313.000000
648.553467 46711.000000
650.671387 47561.000000
652.787964 47635.000000
654.903137 46767.000000
657.016968 46763.000000
659.129333 47398.000000
661.240479 47134.000000
663.350220 47854.000000
665.458496 46617.000000
667.565613 46958.000000
669.671265 46361.000000
671.775452 47560.000000
673.878418 47508.000000
675.979980 46225.000000
678.080200 47901.000000
680.179016 46502.000000
682.276489 46965.000000
684.372681 46187.000000
686.467407 47014.000000
688.560913 46225.000000
690.653076 46647.000000
692.743713 45243.000000
694.833130 46551.000000
696.921265 46729.000000
699.007935 47190.000000
701.093384 46574.000000
703.177307 48018.000000
705.260010 47337.000000
707.341431 47251.000000
709.421387 45543.000000
711.500122 46887.000000
713.577393 47639.000000
715.653381 46625.000000
717.728088 47090.000000
719.801514 46167.000000
721.873413 46902.000000
723.944153 45838.000000
726.013550 47349.000000
728.081543 46681.000000
730.148193 46809.000000
732.213623 46099.000000
734.277710 47400.000000
736.340454 47030.000000
738.401855 46635.000000
740.461975 46613.000000
742.520691 47097.000000
744.578186 46492.000000
746.634399 46632.000000
748.689209 46402.000000
750.742737 46814.000000
752.794861 45634.000000
754.845764 47280.000000
756.895447 46443.000000
758.943665 46805.000000
760.990662 46875.000000
763.036377 46108.000000
765.080688 47820.000000
767.123718 47394.000000
769.165527 38138.000000
771.205994 46141.000000
773.245056 46804.000000
775.282959 46944.000000
777.319519 47116.000000
779.354858 47759.000000
781.388855 47327.000000
783.421448 46183.000000
785.452881 47567.000000
787.482910 40997.000000
789.511658 47114.000000
791.539246 46882.000000
793.565491 46762.000000
795.590332 47270.000000
797.614075 47582.000000
799.636414 46664.000000
801.657532 47268.000000
803.677307 46352.000000
805.695801 48128.000000
807.713074 46425.000000
809.728943 46219.000000
811.743652 47363.000000
813.757019 46657.000000
815.769165 46845.000000
817.780090 46945.000000
819.789673 46479.000000
821.798035 47726.000000
823.804993 47399.000000
825.810730 46989.000000
827.815247 47334.000000
829.818481 47378.000000
831.820435 46500.000000
833.821106 46935.000000
835.820557 47115.000000
837.818665 46651.000000
839.815674 45955.000000
841.811279 46689.000000
843.805725 47151.000000
845.798828 46851.000000
847.790710 46161.000000
849.781250 47431.000000
851.770508 46201.000000
853.758728 46967.000000
855.745544 47311.000000
857.731140 46558.000000
859.715454 45694.000000
861.698669 46766.000000
863.680481 46569.000000
865.661072 47185.000000
867.640381 45317.000000
869.618530 45948.000000
871.595337 46809.000000
873.570862 47034.000000
875.545349 46875.000000
877.518372 46965.000000
879.490356 47568.000000
881.460999 46625.000000
883.430481 46936.000000
885.398621 47477.000000
887.365601 47794.000000
889.331238 46845.000000
891.295715 47110.000000
893.258972 47041.000000
895.221008 46486.000000
897.181763 47061.000000
899.141296 46562.000000
901.099548 46215.000000
903.056702 46618.000000
905.012695 46869.000000
906.967285 45983.000000
908.920654 46428.000000
910.872864 46381.000000
912.823853 46504.000000
914.773560 45751.000000
916.722107 46590.000000
918.669434 46668.000000
920.615479 46754.000000
922.560242 46672.000000
924.503967 46587.000000
926.446533 46835.000000
928.387817 47168.000000
930.327759 46332.000000
932.266602 47077.000000
934.204163 47329.000000
936.140503 46826.000000
938.075684 46920.000000
940.009583 46661.000000
941.942383 46829.000000
943.873962 46018.000000
945.804382 47548.000000
947.733582 46307.000000
949.661438 45689.000000
951.588257 46098.000000
953.513794 46824.000000
955.438049 47348.000000
957.361206 46778.000000
959.283203 46067.000000
961.203918 45464.000000
963.123474 46279.000000
965.041870 47419.000000
966.959229 46320.000000
968.875122 46349.000000
970.789917 46645.000000
972.703491 46815.000000
974.615906 46346.000000
976.527100 46201.000000
978.437134 47153.000000
980.345886 46491.000000
982.253601 46562.000000
984.160095 46305.000000
986.065369 47003.000000
987.969543 45885.000000
989.872498 46402.000000
991.774231 45909.000000
993.674805 46385.000000
995.574219 46079.000000
997.472412 47386.000000
999.369446 46083.000000
1001.265259 46085.000000
1003.159912 44886.000000
1005.053467 47003.000000
1006.945740 45424.000000
1008.837097 46418.000000
1010.727112 47198.000000
1012.615906 45929.000000
1014.503540 46274.000000
1016.390015 45621.000000
1018.275330 45848.000000
1020.159485 46517.000000
1022.042419 46687.000000
1023.924316 46317.000000
1025.804932 47414.000000
1027.684448 46656.000000
1029.562988 46485.000000
1031.440186 47153.000000
1033.316040 46255.000000
1035.190918 46660.000000
1037.064819 46021.000000
1038.937256 45546.000000
1040.808716 45837.000000
1042.678833 47102.000000
1044.547974 47048.000000
1046.415894 46790.000000
1048.282715 45531.000000
1050.148438 45850.000000
1052.012939 46169.000000
1053.876343 46029.000000
1055.738403 46072.000000
1057.599487 46637.000000
1059.459473 45996.000000
1061.318115 45774.000000
1063.175659 46710.000000
1065.032104 45800.000000
1066.887451 46597.000000
1068.741577 46687.000000
1070.594849 46265.000000
1072.446655 46141.000000
1074.297485 46315.000000
1076.147095 46282.000000
1077.995483 46734.000000
1079.843018 44454.000000
1081.689209 46730.000000
1083.534180 46165.000000
1085.378296 46980.000000
1087.221069 46785.000000
1089.062622 45731.000000
1090.903442 46776.000000
1092.742676 46511.000000
1094.581177 46188.000000
1096.418335 46098.000000
1098.254272 45382.000000
1100.089233 45429.000000
1101.922974 46678.000000
1103.755737 46391.000000
1105.587158 45901.000000
1107.417725 44860.000000
1109.246948 45527.000000
1111.075195 45541.000000
1112.902222 44899.000000
1114.728271 46590.000000
1116.553101 45712.000000
1118.376831 44870.000000
1120.199341 45887.000000
1122.020752 46150.000000
1123.841309 46124.000000
1125.660400 45443.000000
1127.478638 44948.000000
1129.295532 45187.000000
1131.111572 45321.000000
1132.926392 45513.000000
1134.740112 46322.000000
1136.552734 46201.000000
1138.364136 46354.000000
1140.174561 45934.000000
1141.983887 45277.000000
1143.791870 45100.000000
1145.599121 46057.000000
1147.404907 46059.000000
1149.209839 46563.000000
1151.013672 46582.000000
1152.816284 45769.000000
1154.618042 45858.000000
1156.418335 45905.000000
1158.217651 45742.000000
1160.015991 45988.000000
1161.812988 46313.000000
1163.609253 45904.000000
1165.404175 45659.000000
1167.197998 45401.000000
1168.990967 44032.000000
1170.782593 45982.000000
1172.573242 45141.000000
1174.362915 45605.000000
1176.151123 45753.000000
1177.938477 44072.000000
1179.724731 44769.000000
1181.509888 45738.000000
1183.293945 45506.000000
1185.076904 43777.000000
1186.858887 45577.000000
1188.639648 45574.000000
1190.419434 45040.000000
1192.198120 44392.000000
1193.975830 44661.000000
1195.752319 44130.000000
1197.527710 44699.000000
1199.302002 44657.000000
1201.075195 44429.000000
1202.847534 44561.000000
1204.618530 44465.000000
1206.388672 45398.000000
1208.157593 44941.000000
1209.925415 44810.000000
1211.692383 45245.000000
1213.458008 45175.000000
1215.222656 44088.000000
1216.986206 44510.000000
1218.748657 45136.000000
1220.510254 44367.000000
1222.270630 45222.000000
1224.029907 44759.000000
1225.788330 45059.000000
1227.545532 43920.000000
1229.301636 44666.000000
1231.056641 45516.000000
1232.810791 45114.000000
1234.563599 45230.000000
1236.315430 45116.000000
1238.066406 45261.000000
1239.816040 46164.000000
1241.564819 44055.000000
1243.312256 44592.000000
1245.058960 44459.000000
1246.804443 44594.000000
1248.549072 44637.000000
1250.292358 44251.000000
1252.034668 44315.000000
1253.775879 45643.000000
1255.516235 45940.000000
1257.255493 45134.000000
1258.993530 44325.000000
1260.730713 43790.000000
1262.466675 44834.000000
1264.201660 44524.000000
1265.935669 43744.000000
1267.668701 45013.000000
1269.400513 44777.000000
1271.131348 44556.000000
1272.860962 43715.000000
1274.589722 45035.000000
1276.317383 45198.000000
1278.043945 45433.000000
1279.769653 45303.000000
1281.494019 44313.000000
1283.217529 45539.000000
1284.940063 43916.000000
1286.661621 44141.000000
1288.381958 44458.000000
1290.101318 43962.000000
1291.819580 43390.000000
1293.536865 44203.000000
1295.253174 44781.000000
1296.968262 44155.000000
1298.682373 44337.000000
1300.395508 44637.000000
1302.107788 43842.000000
1303.818848 41991.000000
1305.528931 44999.000000
1307.237915 43874.000000
1308.945679 43405.000000
1310.652832 43088.000000
1312.358521 44261.000000
1314.063477 43165.000000
1315.767456 43869.000000
1317.470215 44030.000000
1319.171997 43453.000000
1320.872925 43914.000000
1322.572510 40209.000000
1324.271240 42144.000000
1325.969238 44079.000000
1327.665894 42605.000000
1329.361450 41825.000000
1331.056152 42051.000000
1332.749634 43171.000000
1334.442261 43521.000000
1336.134033 41470.000000
1337.824463 42658.000000
1339.514160 42454.000000
1341.202759 42769.000000
1342.890259 41371.000000
1344.576782 43340.000000
1346.262207 42148.000000
1347.946655 42980.000000
1349.630249 41674.000000
1351.312622 42579.000000
1352.994019 43048.000000
1354.674561 42509.000000
1356.353882 42332.000000
1358.032593 43123.000000
1359.709961 42479.000000
1361.386230 43151.000000
1363.061523 43347.000000
1364.736084 42316.000000
1366.409424 42399.000000
1368.081787 41966.000000
1369.753174 43571.000000
1371.423584 41954.000000
1373.092896 42423.000000
1374.761230 42794.000000
1376.428711 42455.000000
1378.095093 41855.000000
1379.760498 42088.000000
1381.424927 42261.000000
1383.088135 41948.000000
1384.750732 42061.000000
1386.411987 41369.000000
1388.072388 40936.000000
1389.731689 41001.000000
1391.390015 40809.000000
1393.047607 40239.000000
1394.703979 40575.000000
1396.359497 39940.000000
1398.013794 40341.000000
1399.667236 40674.000000
1401.319580 40239.000000
1402.971191 39846.000000
1404.621582 38959.000000
1406.270874 39569.000000
1407.919434 38025.000000
1409.566895 37575.000000
1411.213379 39104.000000
1412.859009 38863.000000
1414.503662 39126.000000
1416.147095 38042.000000
1417.789673 37886.000000
1419.431152 38011.000000
1421.071777 38342.000000
1422.711426 38305.000000
1424.349976 38701.000000
1425.987671 38077.000000
1427.624268 38350.000000
1429.259888 38653.000000
1430.894775 38334.000000
1432.528564 38753.000000
1434.161255 38574.000000
1435.792969 39127.000000
1437.423828 38729.000000
1439.053589 38899.000000
1440.682251 37179.000000
1442.310303 38980.000000
1443.937256 38853.000000
1445.562988 38950.000000
1447.188110 39071.000000
1448.812134 38722.000000
1450.435181 39251.000000
1452.057251 39317.000000
1453.678223 37799.000000
1455.298218 38995.000000
1456.917480 38287.000000
1458.535400 39427.000000
1460.152710 39373.000000
1461.769043 31372.000000
1463.384155 36878.000000
1464.998413 37805.000000
1466.611816 38738.000000
1468.224121 38364.000000
1469.835571 37702.000000
1471.446167 37500.000000
1473.055542 37743.000000
1474.663940 37664.000000
1476.271484 37329.000000
1477.878052 36764.000000
1479.483887 38013.000000
1481.088501 36734.000000
1482.692261 37324.000000
1484.294800 35858.000000
1485.896729 36844.000000
1487.497437 36823.000000
1489.097412 36824.000000
1490.696289 36305.000000
1492.294312 36192.000000
1493.891235 36055.000000
1495.487305 36538.000000
1497.082397 36941.000000
1498.676514 37410.000000
1500.269897 36252.000000
1501.862183 37226.000000
1503.453247 36368.000000
1505.043823 35687.000000
1506.633057 35928.000000
1508.221680 36028.000000
1509.809204 35479.000000
1511.395630 35072.000000
1512.981323 35591.000000
1514.565918 35037.000000
1516.149658 35327.000000
1517.732300 35233.000000
1519.314209 34688.000000
1520.895020 34409.000000
1522.475098 34793.000000
1524.053955 34262.000000
1525.631958 33859.000000
1527.209229 33784.000000
1528.785278 34198.000000
1530.360596 33822.000000
1531.934814 33548.000000
1533.508301 34075.000000
1535.080566 33692.000000
1536.652100 33309.000000
1538.222656 33163.000000
1539.792358 33064.000000
1541.360840 33771.000000
1542.928589 32629.000000
1544.495483 33413.000000
1546.061157 32219.000000
1547.626099 32949.000000
1549.189941 33786.000000
1550.753174 31377.000000
1552.315063 32446.000000
1553.876343 32519.000000
1555.436523 32758.000000
1556.995972 32643.000000
1558.554321 32647.000000
1560.111938 32267.000000
1561.668457 31542.000000
1563.223755 32535.000000
1564.778442 32038.000000
1566.332397 32838.000000
1567.885376 32087.000000
1569.437012 32740.000000
1570.987915 32666.000000
1572.538086 32392.000000
1574.087280 32264.000000
1575.635132 32769.000000
1577.182495 32955.000000
1578.728882 32756.000000
1580.274414 33584.000000
1581.818970 32204.000000
1583.362305 32581.000000
1584.905029 32225.000000
1586.446899 32287.000000
1587.987671 32007.000000
1589.527466 32680.000000
1591.066528 31749.000000
1592.604492 32450.000000
1594.141968 32118.000000
1595.678101 32374.000000
1597.213135 31583.000000
1598.747681 31889.000000
1600.281250 32052.000000
1601.813965 32028.000000
1603.345093 31925.000000
1604.875977 31846.000000
1606.406006 32303.000000
1607.934814 31863.000000
1609.462524 31996.000000
1610.989624 32235.000000
1612.515991 32369.000000
1614.041382 32065.000000
1615.565918 32494.000000
1617.089111 32669.000000
1618.611572 33091.000000
1620.133301 32470.000000
1621.654175 32378.000000
1623.173584 32369.500000
1624.692505 32361.000000
1626.210693 31415.000000
1627.728027 31564.000000
1629.244263 31012.000000
1630.759155 30407.000000
1632.273560 30426.000000
1633.787231 31202.000000
1635.299805 30092.000000
1636.811157 30853.000000
1638.322144 30206.000000
1639.832031 30348.000000
1641.341064 30332.000000
1642.848755 30704.000000
1644.356079 30267.000000
1645.862549 29271.000000
1647.368042 30008.000000
1648.872681 29248.000000
1650.375854 29748.000000
1651.878418 29211.000000
1653.380615 29406.000000
1654.881470 29007.000000
1656.381226 27960.000000
1657.880127 29372.000000
1659.378662 28647.000000
1660.875977 28960.000000
1662.372559 29207.000000
1663.867554 28776.000000
1665.362305 28944.000000
1666.856201 30303.000000
1668.349121 30347.000000
1669.840698 29808.000000
1671.331787 29269.000000
1672.822266 27639.000000
1674.311646 27689.000000
1675.799561 26735.000000
1677.287231 26823.000000
1678.773926 27453.000000
1680.259766 27857.000000
1681.744751 27030.000000
1683.228271 26778.000000
1684.711548 26731.000000
1686.193970 26978.000000
1687.675293 26694.000000
1689.155151 26604.000000
1690.634766 27248.000000
1692.113647 26263.000000
1693.591553 26756.000000
1695.068481 26508.000000
1696.544189 26792.000000
1698.019531 26476.000000
1699.493652 26285.000000
1700.967163 26944.000000
1702.439209 27020.000000
1703.911011 26068.000000
1705.381836 26331.000000
1706.851807 25646.000000
1708.320435 27183.000000
1709.788574 26628.000000
1711.255981 26167.000000
1712.722290 26882.000000
1714.187988 26667.000000
1715.651978 26426.000000
1717.115845 26785.000000
1718.578857 25855.000000
1720.040894 26472.000000
1721.501709 25966.000000
1722.961914 26867.000000
1724.421387 26758.000000
1725.880005 26322.000000
1727.337646 26495.000000
1728.793945 26251.000000
1730.250000 26494.000000
1731.705078 26141.000000
1733.159180 26451.000000
1734.612061 25630.000000
1736.064697 26326.000000
1737.516235 25531.000000
1738.967041 26106.000000
1740.416870 25518.000000
1741.865356 26120.000000
1743.313477 24896.000000
1744.760742 25317.000000
1746.207275 25160.000000
1747.652222 25079.000000
1749.096924 25505.000000
1750.540771 26095.000000
1751.983765 27001.000000
1753.425293 26676.000000
1754.866577 27626.000000
1756.307007 15357.000000
1757.746460 25150.000000
1759.184937 25039.000000
1760.622437 24745.000000
1762.059448 23584.000000
1763.495483 24514.000000
1764.930664 23832.000000
1766.364380 24538.000000
1767.797974 24505.000000
1769.230591 24305.000000
1770.662354 24780.000000
1772.093262 24553.000000
1773.522949 24012.000000
1774.951904 23850.000000
1776.380371 23359.000000
1777.807861 22564.000000
1779.234009 21950.000000
1780.659912 23188.000000
1782.084717 22724.000000
1783.508911 23191.000000
1784.931641 22887.000000
1786.353882 22853.000000
1787.775391 22600.000000
1789.196167 22711.000000
1790.615967 22381.000000
1792.034424 22707.000000
1793.452393 22133.000000
1794.869751 22424.000000
1796.286255 22378.000000
1797.701294 22149.000000
1799.115967 22278.000000
1800.530029 22094.000000
1801.942871 22355.000000
1803.355103 22151.000000
1804.765991 21981.000000
1806.176392 21717.000000
1807.586060 21956.000000
1808.994751 21983.000000
1810.402344 22089.000000
1811.809448 21961.000000
1813.215698 22165.000000
1814.620972 21893.000000
1816.025146 22179.000000
1817.428955 22235.000000
1818.831787 22194.000000
1820.233765 22134.000000
1821.635132 22002.000000
1823.035034 22070.000000
1824.434326 22067.000000
1825.833130 22175.000000
1827.231079 21555.000000
1828.627686 22016.000000
1830.023682 21725.000000
1831.418945 21973.000000
1832.813599 21343.000000
1834.207275 21815.000000
1835.599609 21545.000000
1836.991455 21702.000000
1838.382690 21914.000000
1839.772949 21462.000000
1841.161987 21669.000000
1842.550659 21482.000000
1843.938354 21407.000000
1845.325317 21572.000000
1846.710938 21291.000000
1848.096313 21414.000000
1849.480835 21089.000000
1850.864624 21134.000000
1852.247314 20993.000000
1853.628784 21019.000000
1855.009766 20640.000000
1856.390259 20547.000000
1857.769775 20607.000000
1859.147827 20463.000000
1860.525757 20510.000000
1861.902710 20236.000000
1863.278931 20217.000000
1864.654297 20053.000000
1866.028198 20073.000000
1867.401978 20060.000000
1868.774902 19856.000000
1870.146729 19694.000000
1871.517578 19626.000000
1872.888062 19622.000000
1874.257446 19652.000000
1875.626343 19431.000000
1876.993652 19184.000000
1878.360840 19235.000000
1879.727051 19219.000000
1881.092529 19143.000000
1882.457275 18985.000000
1883.820435 19180.000000
1885.183472 19123.000000
1886.545654 18950.000000
1887.906982 18881.000000
1889.266968 18947.000000
1890.626587 18947.000000
1891.985596 18822.000000
1893.343628 18700.000000
1894.700806 18483.000000
1896.056763 18590.000000
1897.412476 18361.000000
1898.767212 18760.000000
1900.121094 18635.000000
1901.473877 18619.000000
1902.826172 18620.000000
1904.177734 18703.000000
1905.528442 18597.000000
1906.877930 18754.000000
1908.226929 18583.000000
1909.575073 18796.000000
1910.922607 18642.000000
1912.269409 18482.000000
1913.614624 18577.000000
1914.959595 18609.000000
1916.303833 18665.000000
1917.647217 18671.000000
1918.989258 18588.000000
1920.331055 18625.000000
1921.671997 18294.000000
1923.012207 18493.000000
1924.351440 18474.000000
1925.689697 18376.000000
1927.027344 18473.000000
1928.364258 18381.000000
1929.700317 18394.000000
1931.035156 18340.000000
1932.369629 18339.000000
1933.703369 18073.000000
1935.036255 18155.000000
1936.367676 18035.000000
1937.699219 18040.000000
1939.029419 17810.000000
1940.359131 18101.000000
1941.687988 18253.000000
1943.015625 18074.000000
1944.342773 17955.000000
1945.669189 18009.000000
1946.994873 17781.000000
1948.319214 17870.000000
1949.643311 17600.000000
1950.966553 17646.000000
1952.289063 17522.000000
1953.610474 17589.000000
1954.930908 17448.000000
1956.250732 17581.000000
1957.570190 17395.000000
1958.888672 17180.000000
1960.205811 17126.000000
1961.522583 17180.000000
1962.838623 16990.000000
1964.153931 17034.000000
1965.467773 17089.000000
1966.781372 16967.000000
1968.094238 16947.000000
1969.406250 16868.000000
1970.717651 16989.000000
1972.027710 16745.000000
1973.337280 16503.000000
1974.646118 16410.000000
1975.954346 16501.000000
1977.261230 16106.000000
1978.567505 16309.000000
1979.873413 16302.000000
1981.178101 16324.000000
1982.482300 16177.000000
1983.785278 16264.000000
1985.087891 16338.000000
1986.389526 16224.000000
1987.690552 15968.000000
1988.989990 15975.000000
1990.289551 15719.000000
1991.588013 15736.000000
1992.885986 15575.000000
1994.182373 15577.000000
1995.478760 15618.000000
1996.774170 15447.000000
1998.068848 15312.000000
1999.362671 15411.000000
2000.655273 15218.000000
2001.947388 15280.000000
2003.239014 15166.000000
2004.529907 15121.000000
2005.819214 15213.000000
2007.108276 15072.000000
2008.396606 15328.000000
2009.684204 15033.000000
2010.970947 15079.000000
2012.256592 14886.000000
2013.541870 14867.000000
2014.826172 14956.000000
2016.109863 15050.000000
2017.392212 14749.000000
2018.674194 14760.000000
2019.955688 14934.000000
2021.236206 14840.000000
2022.515991 14693.000000
2023.794678 14694.000000
2025.072632 14725.000000
2026.350098 14700.000000
2027.626953 14636.000000
2028.902100 14818.000000
2030.177368 14992.000000
2031.451660 14905.000000
2032.724976 14956.000000
2033.997437 15092.000000
2035.269531 15023.000000
2036.540527 14727.000000
2037.811279 14895.000000
2039.080688 14837.000000
2040.348999 14859.000000
2041.617310 14782.000000
2042.884644 14810.000000
2044.151245 14811.000000
2045.416626 14661.000000
2046.681396 14838.000000
2047.945923 14717.000000
2049.209229 14520.000000
2050.472168 14438.000000
2051.733154 14517.000000
2052.994629 14404.000000
2054.254883 14255.000000
2055.514404 14107.000000
2056.773193 14107.000000
2058.031006 14151.000000
2059.288330 14201.000000
2060.544922 14149.000000
2061.800049 14067.000000
2063.055176 14058.000000
2064.309326 14015.000000
2065.562744 13945.000000
2066.815430 13899.000000
2068.066895 13822.000000
2069.318115 13740.000000
2070.568604 13906.000000
2071.818359 14187.000000
2073.066650 13878.000000
2074.314941 13764.000000
2075.562256 13688.000000
2076.808838 13521.000000
2078.054688 13442.000000
2079.299316 13469.000000
2080.543457 13601.000000
2081.787109 13396.000000
2083.029785 13422.000000
2084.271240 13259.000000
2085.512451 13285.000000
2086.753174 13091.000000
2087.992920 13020.000000
2089.231445 13124.000000
2090.469482 13134.000000
2091.706787 13065.000000
2092.943848 12973.000000
2094.179443 12892.000000
2095.414307 12912.000000
2096.648926 12972.000000
2097.882568 13025.000000
2099.115234 12990.000000
2100.347168 12884.000000
2101.578613 12771.000000
2102.809082 12649.000000
2104.038818 12758.000000
2105.268311 12603.000000
2106.495850 12529.000000
2107.723633 12347.000000
2108.950684 12403.000000
2110.176758 12404.000000
2111.401367 12354.000000
2112.626221 12249.000000
2113.849854 12206.000000
2115.072998 12449.000000
2116.294922 12308.000000
2117.516602 12311.000000
2118.737305 12201.000000
2119.957275 12320.000000
2121.176758 12409.000000
2122.394775 12388.000000
2123.612793 12363.000000
2124.829834 12355.000000
2126.046387 12436.000000
2127.261230 12387.000000
2128.476318 12424.000000
2129.690430 12314.000000
2130.903809 12133.000000
2132.116455 11961.000000
2133.327637 12121.000000
2134.539063 12151.000000
2135.749268 12228.000000
2136.958984 12146.000000
2138.167236 12306.000000
2139.375488 12169.000000
2140.583008 12166.000000
2141.789307 11704.000000
2142.994873 12040.000000
2144.200195 11972.000000
2145.404541 12043.000000
2146.608154 11988.000000
2147.811279 11951.000000
2149.012939 11788.000000
2150.214355 11908.000000
2151.415039 11742.000000
2152.614990 11880.000000
2153.813721 11837.000000
2155.012207 11757.000000
2156.210205 11792.000000
2157.407227 11544.000000
2158.603516 11507.000000
2159.798584 11270.000000
2160.993408 11299.000000
2162.187500 11248.000000
2163.380615 11177.000000
2164.572754 11134.000000
2165.764648 11220.000000
2166.955811 11121.000000
2168.145996 11088.000000
2169.335449 10913.000000
2170.524414 10801.000000
2171.712402 10820.000000
2172.900146 10665.000000
2174.086426 10609.000000
2175.271973 10605.000000
2176.457275 10417.000000
2177.642090 10492.000000
2178.825684 10379.000000
2180.008545 10431.000000
2181.190430 10422.000000
2182.372070 10429.000000
2183.553223 10620.000000
2184.733154 10541.000000
2185.912109 10393.000000
2187.090576 10236.000000
2188.268799 10350.000000
2189.445801 10457.000000
2190.621826 10271.000000
2191.797607 10374.000000
2192.972900 10476.000000
2194.146729 10419.000000
2195.320068 10402.000000
2196.493164 10289.000000
2197.665039 10423.000000
2198.836426 10465.000000
2200.007324 10562.000000
2201.176514 10433.000000
2202.345703 10374.000000
2203.514404 10341.000000
2204.682129 10414.000000
2205.848877 10317.000000
2207.014893 10163.000000
2208.180420 10355.000000
2209.345703 10242.000000
2210.509521 10143.000000
2211.672852 10134.000000
2212.834961 10158.000000
2213.997314 10138.000000
2215.158447 10139.000000
2216.318604 10074.000000
2217.478271 10060.000000
2218.637695 10080.000000
2219.795898 10071.000000
2220.953125 9902.000000
2222.110107 9920.000000
2223.266357 9920.000000
2224.421875 9724.000000
2225.576660 9779.000000
2226.730469 9691.000000
2227.883301 9613.000000
2229.036621 9635.000000
2230.187988 9676.000000
2231.339111 9561.000000
2232.489502 9510.000000
2233.639404 9442.000000
2234.788330 9550.000000
2235.936768 9593.000000
2237.083740 9305.000000
2238.230957 9452.000000
2239.376953 9400.000000
2240.522705 9239.000000
2241.666748 9098.000000
2242.811035 9174.000000
2243.954346 9012.000000
2245.096924 9088.000000
2246.238525 8854.000000
2247.379883 9008.000000
2248.520264 8813.000000
2249.659912 8812.000000
2250.799072 8680.000000
2251.937012 8717.000000
2253.074951 8760.000000
2254.211914 8763.000000
2255.348145 8628.000000
2256.483398 8557.000000
2257.617920 8706.000000
2258.752197 8600.000000
2259.885986 8902.000000
2261.018311 9012.000000
2262.150146 8682.000000
2263.281494 8440.000000
2264.411865 8523.000000
2265.541992 8211.000000
2266.670898 8244.000000
2267.799316 8309.000000
2268.927246 8164.000000
2270.054199 8326.000000
2271.180420 8213.000000
2272.305664 8284.000000
2273.430908 8410.000000
2274.555420 8357.000000
2275.678711 8300.000000
2276.801270 8403.000000
2277.923340 8285.000000
2279.044922 8284.000000
2280.165771 8334.000000
2281.285400 8185.000000
2282.404541 8077.000000
2283.523438 8086.000000
2284.641602 7848.000000
2285.758789 7957.000000
2286.875000 8114.000000
2287.990967 8066.000000
2289.106201 8027.000000
2290.220703 8124.000000
2291.333984 8014.000000
2292.447266 8092.000000
2293.559814 8229.000000
2294.671631 8214.000000
2295.782715 8129.000000
2296.892578 8197.000000
2298.001953 8096.000000
2299.111084 8258.000000
2300.219238 8201.000000
2301.326416 8054.000000
2302.433350 8173.000000
2303.539551 7975.000000
2304.645264 8051.000000
2305.749512 7986.000000
2306.853516 7949.000000
2307.957031 7949.000000
2309.060059 7861.000000
2310.161865 7914.000000
2311.262939 7745.000000
2312.363525 7749.000000
2313.463623 7761.000000
2314.562988 7797.000000
2315.660889 7757.000000
2316.759277 7754.000000
2317.856201 7687.000000
2318.952881 7657.000000
2320.049072 7834.000000
2321.143555 7686.000000
2322.238037 7515.000000
2323.331787 7523.000000
2324.425293 7451.000000
2325.517090 7513.000000
2326.608887 7283.000000
2327.699951 7602.000000
2328.790283 7585.000000
2329.879639 7450.000000
2330.968994 7513.000000
2332.057129 7338.000000
2333.144775 7428.000000
2334.232178 7450.000000
2335.317871 7363.000000
2336.403320 7251.000000
2337.488525 7300.000000
2338.572754 7040.000000
2339.656006 7124.000000
2340.739014 7157.000000
2341.821045 7007.000000
2342.902832 7063.000000
2343.983887 6967.000000
2345.063721 6932.000000
2346.143066 6858.000000
2347.221924 6793.000000
2348.300293 6822.000000
2349.377197 6833.000000
2350.453857 6772.000000
2351.530273 6729.000000
2352.605713 6810.000000
2353.680176 6729.000000
2354.754395 6731.000000
2355.827881 6653.000000
2356.900879 6691.000000
2357.972656 6516.000000
2359.044189 6671.000000
2360.114746 6521.000000
2361.185059 6566.000000
2362.254395 6434.000000
2363.322754 6440.000000
2364.390869 6466.000000
2365.458252 6458.000000
2366.525146 6404.000000
2367.591309 6387.000000
2368.656250 6393.000000
2369.721191 6331.000000
2370.785400 6232.000000
2371.848877 6173.000000
2372.911133 6305.000000
2373.973389 6273.000000
2375.034668 6287.000000
2376.095703 6224.000000
2377.155518 6315.000000
2378.214600 6238.000000
2379.273682 6382.000000
2380.331787 6214.000000
2381.389160 6209.000000
2382.445557 6057.000000
2383.501709 6145.000000
2384.557373 6231.000000
2385.612305 6100.000000
2386.665771 6086.000000
2387.719482 6105.000000
2388.772217 5982.000000
2389.824463 6146.000000
2390.875977 6239.000000
2391.926514 6224.000000
2392.976807 6122.000000
2394.026123 6164.000000
2395.075439 6169.000000
2396.123291 6081.000000
2397.170654 6008.000000
2398.217773 6128.000000
2399.263916 6084.000000
2400.309326 5961.000000
2401.354004 6035.000000
2402.398682 5860.000000
2403.441895 5968.000000
2404.485107 5953.000000
2405.526855 5946.000000
2406.568848 6002.000000
2407.610107 5976.000000
2408.650391 5997.000000
2409.689941 6025.000000
2410.728516 6059.000000
2411.767334 5899.000000
2412.804932 5957.000000
2413.842285 5930.000000
2414.878418 5849.000000
2415.914307 5863.000000
2416.949463 5973.000000
2417.984131 5913.000000
2419.017334 5909.000000
2420.050781 5937.000000
2421.083252 5846.000000
2422.115479 5826.000000
2423.146240 5785.000000
2424.177002 5822.000000
2425.207275 5810.000000
2426.236328 5760.000000
2427.265381 5623.000000
2428.292725 5674.000000
2429.320557 5656.000000
2430.347168 5620.000000
2431.373535 5524.000000
2432.398438 5442.000000
2433.423584 5364.000000
2434.447754 5457.000000
2435.471680 5467.000000
2436.494385 5421.000000
2437.516357 5476.000000
2438.538086 5348.000000
2439.559082 5327.000000
2440.579590 5347.000000
2441.598877 5205.000000
2442.618164 5172.000000
2443.636475 5236.000000
2444.654541 5154.000000
2445.671143 5123.000000
2446.687744 5174.000000
2447.703613 5112.000000
2448.719482 5144.000000
2449.733887 5112.000000
2450.747559 5134.000000
2451.760742 5064.000000
2452.773682 5037.000000
2453.785889 5088.000000
2454.797119 4960.000000
2455.808105 4963.000000
2456.818359 5104.000000
2457.828125 4982.000000
2458.836914 5073.000000
2459.844971 5005.000000
2460.853027 4973.000000
2461.859863 4808.000000
2462.866455 4743.000000
2463.871826 4755.000000
2464.876953 4851.000000
2465.881836 4770.000000
2466.885498 4848.000000
2467.888916 4781.000000
2468.891357 4702.000000
2469.893555 4946.000000
2470.895264 4836.000000
2471.895996 4680.000000
2472.895752 4670.000000
2473.895508 4636.000000
2474.894287 4744.000000
2475.892578 4744.000000
2476.889893 4668.000000
2477.886963 4719.000000
2478.884033 4680.000000
2479.879639 4728.000000
2480.875244 4604.000000
2481.869141 4692.000000
2482.863037 4698.000000
2483.856445 4673.000000
2484.849365 4659.000000
2485.841309 4657.000000
2486.832520 4641.000000
2487.823486 4628.000000
2488.813965 4634.000000
2489.803467 4710.000000
2490.792236 4678.000000
2491.781006 4634.000000
2492.768799 4759.000000
2493.755371 4644.000000
2494.741943 4604.000000
2495.728027 4589.000000
2496.713379 4648.000000
2497.697754 4606.000000
2498.681885 4573.000000
2499.666016 4600.000000
2500.648682 4558.000000
2501.630859 4583.000000
2502.612549 4531.000000
2503.593506 4618.000000
2504.573975 4553.000000
2505.554199 4479.000000
2506.532959 4562.000000
2507.511475 4529.000000
2508.489502 4472.000000
2509.467041 4525.000000
2510.443604 4498.000000
2511.419922 4467.000000
2512.395508 4457.000000
2513.370605 4460.000000
2514.345215 4389.000000
2515.318604 4329.000000
2516.291748 4294.000000
2517.264648 4310.000000
2518.236572 4407.000000
2519.207764 4334.000000
2520.178467 4311.000000
2521.148926 4281.000000
2522.118652 4200.000000
2523.087402 4154.000000
2524.055420 4121.000000
2525.023438 4266.000000
2525.990479 4229.000000
2526.957275 4016.000000
2527.922852 4192.000000
2528.888428 4078.000000
2529.853271 4009.000000
2530.817627 4014.000000
2531.780762 4021.000000
2532.744141 4007.000000
2533.706543 3969.000000
2534.668701 3981.000000
2535.629639 3984.000000
2536.589844 4114.000000
2537.550293 3907.000000
2538.509766 3953.000000
2539.468506 4161.000000
2540.426270 3989.000000
2541.384277 3895.000000
2542.341553 3946.000000
2543.297852 3933.000000
2544.253906 3930.000000
2545.208740 3907.000000
2546.163818 3773.000000
2547.118164 3852.000000
2548.071777 4190.000000
2549.024414 3755.000000
2549.976807 3655.000000
2550.928711 3666.000000
2551.879883 3761.000000
2552.830322 3663.000000
2553.780273 3633.000000
2554.729980 3593.000000
2555.678955 3716.000000
2556.627441 3782.000000
2557.574707 3782.000000
2558.521973 3591.000000
2559.468506 3626.000000
2560.414551 3628.000000
2561.359619 3644.000000
2562.304443 3563.000000
2563.248779 3465.000000
2564.192627 3661.000000
2565.135986 3600.000000
2566.077881 3527.000000
2567.020020 3502.000000
2567.961426 3574.000000
2568.902100 3530.000000
2569.842041 3461.000000
2570.781982 3590.000000
2571.720947 3416.000000
2572.659668 3460.000000
2573.597412 3393.000000
2574.534912 3598.000000
2575.471680 3583.000000
2576.407715 3568.000000
2577.343262 3523.000000
2578.278076 3506.000000
2579.212891 3540.000000
2580.146729 3477.000000
2581.080078 3564.000000
2582.012695 3559.000000
2582.945068 3523.000000
2583.876709 3452.000000
2584.807861 3439.000000
2585.738525 3464.000000
2586.667969 3431.000000
2587.597412 3398.000000
2588.526367 3368.000000
2589.455078 3582.000000
2590.382080 3416.000000
2591.309326 3382.000000
2592.236084 3400.000000
2593.162109 3387.000000
2594.087891 3424.000000
2595.012451 3456.000000
2595.936768 3393.000000
2596.860596 3399.000000
2597.783936 3366.000000
2598.706299 3356.000000
2599.628418 3513.000000
2600.550049 3419.000000
2601.470947 3346.000000
2602.391113 3341.000000
2603.311035 3380.000000
2604.230469 3378.000000
2605.149658 3362.000000
2606.067871 3285.000000
2606.984863 3346.000000
2607.902100 3273.000000
2608.819092 3253.000000
2609.735107 3331.000000
2610.649902 3223.000000
2611.565186 3193.000000
2612.479736 3267.000000
2613.393311 3241.000000
2614.306885 3221.000000
2615.219238 3131.000000
2616.131592 3142.000000
2617.042969 3095.000000
2617.954102 3169.000000
2618.864502 3079.000000
2619.774658 3122.000000
2620.684082 3001.000000
2621.593018 3093.000000
2622.500977 3077.000000
2623.409180 3014.000000
2624.316406 3097.000000
2625.223145 3094.000000
2626.129150 3046.000000
2627.034912 2975.000000
2627.939941 3036.000000
2628.844727 2981.000000
2629.748779 2859.000000
2630.651855 3011.000000
2631.554932 3110.000000
2632.457031 2896.000000
2633.359131 2974.000000
2634.260986 3065.000000
2635.161133 2923.000000
2636.061523 2877.000000
2636.961182 2948.000000
2637.860596 2964.000000
2638.758545 2847.000000
2639.656982 2911.000000
2640.554932 2845.000000
2641.452148 2888.000000
2642.348145 2859.000000
2643.244141 2930.000000
2644.139893 2849.000000
2645.034912 2830.000000
2645.929688 2648.000000
2646.822998 2770.000000
2647.716309 2704.000000
2648.609375 2702.000000
2649.502197 2763.000000
2650.393311 2800.000000
2651.284668 2695.000000
2652.175537 2640.000000
2653.065674 2707.000000
2653.955566 2751.000000
2654.844238 2684.000000
2655.733154 2699.000000
2656.621582 2728.000000
2657.509033 2683.000000
2658.395508 2666.000000
2659.282471 2704.000000
2660.168701 2583.000000
2661.054443 2529.000000
2661.938965 2513.000000
2662.823486 2644.000000
2663.707764 2573.000000
2664.591309 2674.000000
2665.474365 2602.000000
2666.356689 2614.000000
2667.238525 2680.000000
2668.119629 2706.000000
2669.000977 2664.000000
2669.880859 2752.000000
2670.760986 2608.000000
2671.640381 2531.000000
2672.519775 2644.000000
2673.398438 2605.000000
2674.275391 2607.000000
2675.153076 2645.000000
2676.030029 2542.000000
2676.906250 2543.000000
2677.781982 2630.000000
2678.656982 2578.000000
2679.532227 2450.000000
2680.406494 2552.000000
2681.280273 2530.000000
2682.153320 2543.000000
2683.026123 2541.000000
2683.898682 2491.000000
2684.770508 2577.000000
2685.641602 2412.000000
2686.512451 2525.000000
2687.382813 2547.000000
2688.252930 2478.000000
2689.121338 2477.000000
2689.990479 2391.000000
2690.858887 2398.000000
2691.727051 2375.000000
2692.594482 2465.000000
2693.460693 2507.000000
2694.327393 2389.000000
2695.193115 2408.000000
2696.058838 2282.000000
2696.923096 2442.000000
2697.788086 2310.000000
2698.651611 2419.000000
2699.515381 2344.000000
2700.377686 2332.000000
2701.240479 2355.000000
2702.102295 2420.000000
2702.963623 2302.000000
2703.824951 2340.000000
2704.685059 2263.000000
2705.545166 2387.000000
2706.404785 2273.000000
2707.264160 2275.000000
2708.121826 2224.000000
2708.979736 2278.000000
2709.838135 2339.000000
2710.695313 2231.000000
2711.551758 2237.000000
2712.407715 2279.000000
2713.263672 2160.000000
2714.118896 2258.000000
2714.973389 2182.000000
2715.827393 2169.000000
2716.681396 2242.000000
2717.534424 2180.000000
2718.387695 2153.000000
2719.239258 2140.000000
2720.091309 2223.000000
2720.943115 2219.000000
2721.793701 2120.000000
2722.644287 2134.000000
2723.494385 2193.000000
2724.343750 2194.000000
2725.193115 2150.000000
2726.041260 2232.000000
2726.888916 2023.000000
2727.737061 2209.000000
2728.583984 2117.000000
2729.431396 2221.000000
2730.277344 2111.000000
2731.122559 2222.000000
2731.968262 2142.000000
2732.812988 2038.000000
2733.657715 2109.000000
2734.501221 2158.000000
2735.344971 2140.000000
2736.187988 1909.000000
2737.030518 2023.000000
2737.872070 1998.000000
2738.714111 2001.000000
2739.555176 2036.000000
2740.395996 2134.000000
2741.236572 2122.000000
2742.075928 2069.000000
2742.915283 2034.000000
2743.754639 2060.000000
2744.592773 2100.000000
2745.430420 2152.000000
2746.268066 2126.000000
2747.105225 1996.000000
2747.942139 2043.000000
2748.778564 2015.000000
2749.613770 2043.000000
2750.449219 2016.000000
2751.284180 2020.000000
2752.118408 2041.000000
2752.952393 2066.000000
2753.785889 2002.000000
2754.619385 1888.000000
2755.451904 1928.000000
2756.283936 1962.000000
2757.115479 1973.000000
2757.947021 2005.000000
2758.777588 1968.000000
2759.608398 1964.000000
2760.437988 2067.000000
2761.267578 1982.000000
2762.096924 1838.000000
2762.925537 1880.000000
2763.753662 1940.000000
2764.581299 1950.000000
2765.408936 1952.000000
2766.236084 1960.000000
2767.062500 1944.000000
2767.888428 1872.000000
2768.713867 1773.000000
2769.539063 1825.000000
2770.364258 1791.000000
2771.188232 1851.000000
2772.012207 1721.000000
2772.836182 1798.000000
2773.658936 1879.000000
2774.481934 1883.000000
2775.303711 1758.000000
2776.125488 1833.000000
2776.947266 1835.000000
2777.768066 1751.000000
2778.588135 1750.000000
2779.408447 1625.000000
2780.228271 1711.000000
2781.048096 1731.000000
2781.865967 1723.000000
2782.685059 1697.000000
2783.502930 1741.000000
2784.320557 1697.000000
2785.137695 1745.000000
2785.954346 1759.000000
2786.770752 1671.000000
2787.586670 1703.000000
2788.402344 1739.000000
2789.217041 1746.000000
2790.032227 1610.000000
2790.846680 1658.000000
2791.660645 1665.000000
2792.474365 1791.000000
2793.286865 1608.000000
2794.099609 1636.000000
2794.911865 1652.000000
2795.723633 1742.000000
2796.534668 1679.000000
2797.346436 1699.000000
2798.156982 1679.000000
2798.967529 1575.000000
2799.776611 1628.000000
2800.586426 1594.000000
2801.395508 1610.000000
2802.204346 1581.000000
2803.012695 1637.000000
2803.820068 1669.000000
2804.627930 1600.000000
2805.435059 1604.000000
2806.241943 1662.000000
2807.047607 1543.000000
2807.853760 1563.000000
2808.659180 1569.000000
2809.464600 1501.000000
2810.269287 1605.000000
2811.072998 1601.000000
2811.877197 1538.000000
2812.680908 1634.000000
2813.484375 1575.000000
2814.286377 1542.000000
2815.089111 1582.000000
2815.891113 1503.000000
2816.692871 1645.000000
2817.494141 1517.000000
2818.294922 1596.000000
2819.095215 1616.000000
2819.895752 1583.000000
2820.695313 1486.000000
2821.494385 1566.000000
2822.293457 1564.000000
2823.092285 1497.000000
2823.890625 1559.000000
2824.687988 1584.000000
2825.485596 1529.000000
2826.282471 1569.000000
2827.079590 1525.000000
2827.875977 1694.000000
2828.671631 1504.000000
2829.467285 1538.000000
2830.262695 1467.000000
2831.057617 1469.000000
2831.851807 1516.000000
2832.645996 1569.000000
2833.439941 1576.000000
2834.233398 1486.000000
2835.026123 1483.000000
2835.818604 1481.000000
2836.611084 1511.000000
2837.403320 1396.000000
2838.195068 1509.000000
2838.985840 1573.000000
2839.776611 1581.000000
2840.567627 1421.000000
2841.357666 1467.000000
2842.147217 1419.000000
2842.937012 1494.000000
2843.725830 1554.000000
2844.514648 1461.000000
2845.303467 1429.000000
2846.091309 1409.000000
2846.878662 1468.000000
2847.666260 1319.000000
2848.453369 1341.000000
2849.239746 1454.000000
2850.026123 1434.000000
2850.812256 1452.000000
2851.597900 1390.000000
2852.382568 1385.000000
2853.167725 1500.000000
2853.952637 1408.000000
2854.736816 1432.000000
2855.520996 1535.000000
2856.303955 1405.000000
2857.087158 1404.000000
2857.870117 1436.000000
2858.652588 1364.000000
2859.434814 1385.000000
2860.216553 1455.000000
2860.998047 1335.000000
2861.779785 1388.000000
2862.560791 1423.000000
2863.341064 1451.000000
2864.121094 1411.000000
2864.901123 1418.000000
2865.680908 1372.000000
2866.459717 1503.000000
2867.238770 1425.000000
2868.017334 1471.000000
2868.795654 1427.000000
2869.573486 1437.000000
2870.351074 1535.000000
2871.128418 1435.000000
2871.905518 1582.000000
2872.682129 1573.000000
2873.458252 1517.000000
2874.234375 1470.000000
2875.010010 1634.000000
2875.785400 1616.000000
2876.560303 1590.000000
2877.334961 1622.000000
2878.109619 1640.000000
2878.884033 1627.000000
2879.657715 1691.000000
2880.430664 1567.000000
2881.204346 1541.000000
2881.977051 1524.000000
2882.749756 1546.000000
2883.521729 1482.000000
2884.293457 1546.000000
2885.065674 1610.000000
2885.836670 1473.000000
2886.607178 1675.000000
2887.378174 1549.000000
2888.149170 1560.000000
2888.919434 1552.000000
2889.688721 1510.000000
2890.458252 1637.000000
2891.227783 1522.000000
2891.996826 1503.000000
2892.765381 1504.000000
2893.533936 1444.000000
2894.301514 1605.000000
2895.069580 1556.000000
2895.837158 1542.000000
2896.604736 1541.000000
2897.371094 1536.000000
2898.138428 1449.000000
2898.904541 1544.000000
2899.670898 1351.000000
2900.435791 1498.000000
2901.201172 1472.000000
2901.967041 1543.000000
2902.731445 1464.000000
2903.495850 1390.000000
2904.260498 1413.000000
2905.024170 1319.000000
2905.788574 1427.000000
2906.552246 1440.000000
2907.315186 1429.000000
2908.077881 1305.000000
2908.841064 1286.000000
2909.603760 1418.000000
2910.365234 1323.000000
2911.127197 1323.000000
spectrumdark 2048
-97.103645 6220.000000
-94.476776 6220.000000
-91.851784 6060.000000
-89.228683 6452.000000
-86.607452 5774.000000
-83.988121 6226.000000
-81.370651 6128.000000
-78.755058 6473.000000
-76.141342 6257.000000
-73.529503 5877.000000
-70.919525 6140.000000
-68.311432 6049.000000
-65.705185 5983.000000
-63.100819 6071.000000
-60.498310 6174.000000
-57.897655 5673.000000
-55.298862 6294.000000
-52.701927 6947.000000
-50.106846 6534.000000
-47.513618 6532.000000
-44.922241 6275.000000
-42.332710 6741.000000
-39.745022 5959.000000
-37.159184 6108.000000
-34.575188 6481.000000
-31.993029 5763.000000
-29.412716 6351.000000
-26.834230 5766.000000
-24.257587 6168.000000
-21.682770 6298.000000
-19.109793 6511.000000
-16.538635 6543.000000
-13.969311 6820.000000
-11.401813 7729.000000
-8.836133 6393.000000
-6.272279 6467.000000
-3.710239 5987.000000
-1.150023 5885.000000
1.408385 6151.000000
3.964972 6978.000000
6.519754 6715.000000
9.072720 6002.000000
11.623884 6782.000000
14.173236 6478.000000
16.720791 6729.000000
19.266535 6066.000000
21.810486 5796.000000
24.352633 6709.000000
26.892982 6765.000000
29.431547 6846.000000
31.968315 6201.000000
34.503281 5857.000000
37.036469 7291.000000
39.567875 6330.000000
42.097488 7108.000000
44.625305 6539.000000
47.151363 7870.000000
49.675632 5695.000000
52.198132 6201.000000
54.718834 6848.000000
57.237782 6331.000000
59.754955 6437.000000
62.270351 6682.000000
64.783974 5603.000000
67.295837 5796.000000
69.805954 6578.000000
72.314278 6606.000000
74.820847 6041.000000
77.325668 6403.000000
79.828735 6456.000000
82.330025 6240.000000
84.829575 6192.000000
87.327370 6438.000000
89.823433 5766.000000
92.317719 7237.000000
94.810265 5812.000000
97.301094 6916.000000
99.790154 7165.000000
102.277466 6389.000000
104.763054 6219.000000
107.246902 6453.000000
109.729004 5780.000000
112.209381 6623.000000
114.688034 6347.000000
117.164963 6507.000000
119.640137 7231.000000
122.113602 6825.000000
124.585335 5906.000000
127.055359 6747.000000
129.523621 6270.000000
131.990219 6275.000000
134.455063 5734.000000
136.918213 6304.000000
139.379623 7299.000000
141.839340 6833.000000
144.297333 6363.000000
146.753632 6000.000000
149.208221 5816.000000
151.661087 6854.000000
154.112274 6422.000000
156.561768 6643.000000
159.009537 6117.000000
161.455597 6632.000000
163.899979 8749.000000
166.342682 6469.000000
168.783691 6794.000000
171.222992 6238.000000
173.660583 7325.000000
176.096542 6658.000000
178.530762 7002.000000
180.963303 7169.000000
183.394196 6764.000000
185.823364 6807.000000
188.250885 6785.000000
190.676727 6409.000000
193.100891 6715.000000
195.523392 7156.000000
197.944199 7390.000000
200.363342 6563.000000
202.780823 6046.000000
205.196609 7586.000000
207.610748 7080.000000
210.023254 6389.000000
212.434082 6107.000000
214.843231 6241.000000
217.250748 7437.000000
219.656555 6161.000000
222.060776 6582.000000
224.463287 6675.000000
226.864182 6947.000000
229.263428 6547.000000
231.661011 6854.000000
234.056931 7325.000000
236.451233 6570.000000
238.843872 5851.000000
241.234894 6855.000000
243.624252 6621.000000
246.011993 6387.000000
248.398087 6977.000000
250.782547 6099.000000
253.165359 7923.000000
255.546600 6634.000000
257.926147 6758.000000
260.304108 6523.000000
262.680389 7547.000000
265.055115 7575.000000
267.428192 7940.000000
269.799622 6181.000000
272.169403 6467.000000
274.537628 5962.000000
276.904205 6323.000000
279.269196 6809.000000
281.632568 6091.000000
283.994293 6259.000000
286.354431 7157.000000
288.712952 5971.000000
291.069885 6558.000000
293.425201 6383.000000
295.778931 5958.000000
298.131012 5942.000000
300.481537 6339.000000
302.830475 6396.000000
305.177765 6818.000000
307.523529 6461.000000
309.867615 6536.000000
312.210175 7358.000000
314.551117 7584.000000
316.890442 7217.000000
319.228210 7070.000000
321.564423 8136.000000
323.898987 6253.000000
326.231995 6505.000000
328.563446 6046.000000
330.893311 6629.000000
333.221588 6424.000000
335.548248 7258.000000
337.873413 6387.000000
340.196960 6200.000000
342.518951 6042.000000
344.839386 7493.000000
347.158203 7712.000000
349.475464 6007.000000
351.791199 5877.000000
354.105347 6989.000000
356.417908 6382.000000
358.728912 6429.000000
361.038391 7038.000000
363.346344 6355.000000
365.652679 5679.000000
367.957428 6425.000000
370.260712 6486.000000
372.562378 6328.000000
374.862549 6411.000000
377.161163 6355.000000
379.458221 5731.000000
381.753723 6145.000000
384.047699 5905.000000
386.340088 5274.000000
388.630981 5651.000000
390.920349 6234.000000
393.208130 6283.000000
395.494385 6567.000000
397.779144 7033.000000
400.062286 6070.000000
402.343994 6481.000000
404.624176 6174.000000
406.902771 7270.000000
409.179840 6475.000000
411.455383 6772.000000
413.729401 6503.000000
416.001984 6437.000000
418.272949 6477.000000
420.542419 6407.000000
422.810394 7153.000000
425.076813 7291.000000
427.341736 6314.000000
429.605194 6322.000000
431.867065 6491.000000
434.127472 6030.000000
436.386322 6710.000000
438.643707 6057.000000
440.899597 5748.000000
443.153992 5835.000000
445.406860 5521.000000
447.658173 6941.000000
449.908081 6135.000000
452.156403 6269.000000
454.403290 5695.000000
456.648712 6494.000000
458.892578 6515.000000
461.134949 6754.000000
463.375824 5667.000000
465.615295 6659.000000
467.853180 5477.000000
470.089630 5799.000000
472.324554 6069.000000
474.558014 7431.000000
476.790039 6711.000000
479.020538 5691.000000
481.249542 6507.000000
483.477081 6338.000000
485.703125 5966.000000
487.927734 6599.000000
490.150879 5955.000000
492.372559 6455.000000
494.592682 6773.000000
496.811401 5700.000000
499.028625 6259.000000
501.244476 5579.000000
503.458710 6214.000000
505.671631 6515.000000
507.882965 6465.000000
510.092865 6854.000000
512.301331 6546.000000
514.508423 6577.000000
516.713928 6475.000000
518.918030 6606.000000
521.120605 6217.000000
523.321777 6669.000000
525.521606 6770.000000
527.719910 6959.000000
529.916687 5337.000000
532.112122 5874.000000
534.306030 5567.000000
536.498596 7569.000000
538.689636 6747.000000
540.879272 6094.000000
543.067505 6929.000000
545.254211 7179.000000
547.439453 6818.000000
549.623413 6231.000000
551.805786 6460.000000
553.986816 6210.000000
556.166321 6107.000000
558.344543 5961.000000
560.521240 6014.000000
562.696533 6377.000000
564.870422 6512.000000
567.042847 5935.000000
569.213867 6063.000000
571.383423 6420.000000
573.551697 5298.000000
575.718445 6425.000000
577.883728 6310.000000
580.047607 6187.000000
582.210205 5773.000000
584.371277 6068.000000
586.530945 5654.000000
588.689270 5877.000000
590.846069 6166.000000
593.001526 6586.000000
595.155579 5808.000000
597.308289 6172.000000
599.459473 7282.000000
601.609314 6813.000000
603.757813 6764.000000
605.904724 6081.000000
608.050415 6476.000000
610.194702 6492.000000
612.337524 7035.000000
614.478882 6245.000000
616.619019 6446.000000
618.757629 7596.000000
620.894958 5737.000000
623.030823 6638.000000
625.165283 6883.000000
627.298279 7268.000000
629.430115 6724.000000
631.560486 6594.000000
633.689453 6776.000000
635.816956 6518.000000
637.943176 6193.000000
640.067871 7329.000000
642.191345 6440.000000
644.313477 6840.000000
646.434143 6932.000000
648.553467 6555.000000
650.671387 5663.000000
652.787964 5637.000000
654.903137 6485.000000
657.016968 6500.000000
659.129333 5843.000000
661.240479 6122.000000
663.350220 5395.000000
665.458496 6651.000000
667.565613 6272.000000
669.671265 6866.000000
671.775452 5688.000000
673.878418 5742.000000
675.979980 7019.000000
678.080200 5356.000000
680.179016 6769.000000
682.276489 6256.000000
684.372681 7029.000000
686.467407 6222.000000
688.560913 7001.000000
690.653076 6631.000000
692.743713 7968.000000
694.833130 6654.000000
696.921265 6528.000000
699.007935 6067.000000
701.093384 6678.000000
703.177307 5264.000000
705.260010 5921.000000
707.341431 5976.000000
709.421387 7683.000000
711.500122 6337.000000
713.577393 5585.000000
715.653381 6583.000000
717.728088 6141.000000
719.801514 7022.000000
721.873413 6322.000000
723.944153 7406.000000
726.013550 5819.000000
728.081543 6470.000000
730.148193 6397.000000
732.213623 7085.000000
734.277710 5821.000000
736.340454 6191.000000
738.401855 6556.000000
740.461975 6575.000000
742.520691 6071.000000
744.578186 6659.000000
746.634399 6542.000000
748.689209 6764.000000
750.742737 6383.000000
752.794861 7531.000000
754.845764 5915.000000
756.895447 6741.000000
758.943665 6356.000000
760.990662 6267.000000
763.036377 7035.000000
765.080688 5326.000000
767.123718 5747.000000
769.165527 14977.000000
771.205994 6987.000000
773.245056 6366.000000
775.282959 6184.000000
777.319519 5999.000000
779.354858 5383.000000
781.388855 5774.000000
783.421448 6905.000000
785.452881 5585.000000
787.482910 12138.000000
789.511658 6030.000000
791.539246 6241.000000
793.565491 6386.000000
795.590332 5858.000000
797.614075 5536.000000
799.636414 6429.000000
801.657532 5858.000000
803.677307 6744.000000
805.695801 4977.000000
807.713074 6704.000000
809.728943 6891.000000
811.743652 5721.000000
813.757019 6440.000000
815.769165 6238.000000
817.780090 6117.000000
819.789673 6590.000000
821.798035 5358.000000
823.804993 5700.000000
825.810730 6073.000000
827.815247 5754.000000
829.818481 5664.000000
831.820435 6524.000000
833.821106 6140.000000
835.820557 5926.000000
837.818665 6401.000000
839.815674 7073.000000
841.811279 6332.000000
843.805725 5904.000000
845.798828 6184.000000
847.790710 6871.000000
849.781250 5610.000000
851.770508 6837.000000
853.758728 6060.000000
855.745544 5764.000000
857.731140 6474.000000
859.715454 7340.000000
861.698669 6286.000000
863.680481 6441.000000
865.661072 5865.000000
867.640381 7724.000000
869.618530 7080.000000
871.595337 6224.000000
873.570862 5995.000000
875.545349 6158.000000
877.518372 6077.000000
879.490356 5480.000000
881.460999 6417.000000
883.430481 6106.000000
885.398621 5561.000000
887.365601 5235.000000
889.331238 6156.000000
891.295715 5866.000000
893.258972 5988.000000
895.221008 6495.000000
897.181763 5902.000000
899.141296 6389.000000
901.099548 6757.000000
903.056702 6369.000000
905.012695 6078.000000
906.967285 6972.000000
908.920654 6518.000000
910.872864 6543.000000
912.823853 6394.000000
914.773560 7132.000000
916.722107 6320.000000
918.669434 6189.000000
920.615479 6127.000000
922.560242 6144.000000
924.503967 6256.000000
926.446533 5977.000000
928.387817 5655.000000
930.327759 6466.000000
932.266602 5720.000000
934.204163 5509.000000
936.140503 5986.000000
938.075684 5875.000000
940.009583 6132.000000
941.942383 5945.000000
943.873962 6783.000000
945.804382 5225.000000
947.733582 6455.000000
949.661438 7089.000000
951.588257 6675.000000
953.513794 5978.000000
955.438049 5426.000000
957.361206 6018.000000
959.283203 6714.000000
961.203918 7339.000000
963.123474 6481.000000
965.041870 5365.000000
966.959229 6453.000000
968.875122 6461.000000
970.789917 6134.000000
972.703491 5954.000000
974.615906 6431.000000
976.527100 6498.000000
978.437134 5567.000000
980.345886 6232.000000
982.253601 6160.000000
984.160095 6426.000000
986.065369 5704.000000
987.969543 6815.000000
989.872498 6252.000000
991.774231 6768.000000
993.674805 6285.000000
995.574219 6616.000000
997.472412 5294.000000
999.369446 6557.000000
1001.265259 6537.000000
1003.159912 7723.000000
1005.053467 5596.000000
1006.945740 7224.000000
1008.837097 6159.000000
1010.727112 5386.000000
1012.615906 6658.000000
1014.503540 6329.000000
1016.390015 6928.000000
1018.275330 6735.000000
1020.159485 6020.000000
1022.042419 5868.000000
1023.924316 6286.000000
1025.804932 5184.000000
1027.684448 5915.000000
1029.562988 6097.000000
1031.440186 5417.000000
1033.316040 6288.000000
1035.190918 5913.000000
1037.064819 6598.000000
1038.937256 7055.000000
1040.808716 6775.000000
1042.678833 5497.000000
1044.547974 5534.000000
1046.415894 5813.000000
1048.282715 7047.000000
1050.148438 6726.000000
1052.012939 6422.000000
1053.876343 6508.000000
1055.738403 6482.000000
1057.599487 5931.000000
1059.459473 6557.000000
1061.318115 6704.000000
1063.175659 5776.000000
1065.032104 6741.000000
1066.887451 5911.000000
1068.741577 5823.000000
1070.594849 6264.000000
1072.446655 6340.000000
1074.297485 6147.000000
1076.147095 6170.000000
1077.995483 5694.000000
1079.843018 7988.000000
1081.689209 5680.000000
1083.534180 6223.000000
1085.378296 5380.000000
1087.221069 5576.000000
1089.062622 6569.000000
1090.903442 5513.000000
1092.742676 5718.000000
1094.581177 6049.000000
1096.418335 6052.000000
1098.254272 6815.000000
1100.089233 6682.000000
1101.922974 5429.000000
1103.755737 5707.000000
1105.587158 6152.000000
1107.417725 7222.000000
1109.246948 6536.000000
1111.075195 6502.000000
1112.902222 7118.000000
1114.728271 5396.000000
1116.553101 6273.000000
1118.376831 7157.000000
1120.199341 6132.000000
1122.020752 5872.000000
1123.841309 5908.000000
1125.660400 6571.000000
1127.478638 7099.000000
1129.295532 6860.000000
1131.111572 6724.000000
1132.926392 6560.000000
1134.740112 5714.000000
1136.552734 5826.000000
1138.364136 5685.000000
1140.174561 6132.000000
1141.983887 6757.000000
1143.791870 6933.000000
1145.599121 5977.000000
1147.404907 5979.000000
1149.209839 5413.000000
1151.013672 5418.000000
1152.816284 6186.000000
1154.618042 6114.000000
1156.418335 6047.000000
1158.217651 6163.000000
1160.015991 5897.000000
1161.812988 5529.000000
1163.609253 5925.000000
1165.404175 6146.000000
1167.197998 6350.000000
1168.990967 7718.000000
1170.782593 5750.000000
1172.573242 6570.000000
1174.362915 6025.000000
1176.151123 5833.000000
1177.938477 7529.000000
1179.724731 6820.000000
1181.509888 5816.000000
1183.293945 6015.000000
1185.076904 7707.000000
1186.858887 5874.000000
1188.639648 5885.000000
1190.419434 6329.000000
1192.198120 6958.000000
1193.975830 6651.000000
1195.752319 7168.000000
1197.527710 6555.000000
1199.302002 6514.000000
1201.075195 6716.000000
1202.847534 6603.000000
1204.618530 6644.000000
1206.388672 5710.000000
1208.157593 6145.000000
1209.925415 6297.000000
1211.692383 5827.000000
1213.458008 5888.000000
1215.222656 6980.000000
1216.986206 6570.000000
1218.748657 5974.000000
1220.510254 6758.000000
1222.270630 5880.000000
1224.029907 6329.000000
1225.788330 6029.000000
1227.545532 7168.000000
1229.301636 6481.000000
1231.056641 5588.000000
1232.810791 6002.000000
1234.563599 5887.000000
1236.315430 6025.000000
1238.066406 5878.000000
1239.816040 4956.000000
1241.564819 7029.000000
1243.312256 6511.000000
1245.058960 6655.000000
1246.804443 6513.000000
1248.549072 6420.000000
1250.292358 6794.000000
1252.034668 6687.000000
1253.775879 5370.000000
1255.516235 5022.000000
1257.255493 5812.000000
1258.993530 6637.000000
1260.730713 7155.000000
1262.466675 6133.000000
1264.201660 6460.000000
1265.935669 7228.000000
1267.668701 6011.000000
1269.400513 6238.000000
1271.131348 6439.000000
1272.860962 7277.000000
1274.589722 5913.000000
1276.317383 5730.000000
1278.043945 5505.000000
1279.769653 5587.000000
1281.494019 6499.000000
1283.217529 5286.000000
1284.940063 6873.000000
1286.661621 6647.000000
1288.381958 6290.000000
1290.101318 6735.000000
1291.819580 7240.000000
1293.536865 6447.000000
1295.253174 5783.000000
1296.968262 6373.000000
1298.682373 6134.000000
1300.395508 5800.000000
1302.107788 6515.000000
1303.818848 8306.000000
1305.528931 5286.000000
1307.237915 6348.000000
1308.945679 6777.000000
1310.652832 7058.000000
1312.358521 5829.000000
1314.063477 6913.000000
1315.767456 6168.000000
1317.470215 6007.000000
1319.171997 6556.000000
1320.872925 6090.000000
1322.572510 9707.000000
1324.271240 7635.000000
1325.969238 5563.000000
1327.665894 6541.000000
1329.361450 7164.000000
1331.056152 6894.000000
1332.749634 5757.000000
1334.442261 5407.000000
1336.134033 7446.000000
1337.824463 6265.000000
1339.514160 6461.000000
1341.202759 6167.000000
1342.890259 7598.000000
1344.576782 5609.000000
1346.262207 6794.000000
1347.946655 6003.000000
1349.630249 7326.000000
1351.312622 6420.000000
1352.994019 5990.000000
1354.674561 6544.000000
1356.353882 6750.000000
1358.032593 5929.000000
1359.709961 6572.000000
1361.386230 5825.000000
1363.061523 5620.000000
1364.736084 6592.000000
1366.409424 6494.000000
1368.081787 6868.000000
1369.753174 5186.000000
1371.423584 6721.000000
1373.092896 6173.000000
1374.761230 5740.000000
1376.428711 6005.000000
1378.095093 6512.000000
1379.760498 6174.000000
1381.424927 5807.000000
1383.088135 5992.000000
1384.750732 5723.000000
1386.411987 6317.000000
1388.072388 6609.000000
1389.731689 6435.000000
1391.390015 6536.000000
1393.047607 6930.000000
1394.703979 6510.000000
1396.359497 7015.000000
1398.013794 6435.000000
1399.667236 5880.000000
1401.319580 6172.000000
1402.971191 6469.000000
1404.621582 7155.000000
1406.270874 6299.000000
1407.919434 7548.000000
1409.566895 7892.000000
1411.213379 6182.000000
1412.859009 6254.000000
1414.503662 5966.000000
1416.147095 7009.000000
1417.789673 7136.000000
1419.431152 6933.000000
1421.071777 6540.000000
1422.711426 6488.000000
1424.349976 6066.000000
1425.987671 6660.000000
1427.624268 6358.000000
1429.259888 6000.000000
1430.894775 6344.000000
1432.528564 5985.000000
1434.161255 6157.000000
1435.792969 5697.000000
1437.423828 6165.000000
1439.053589 6045.000000
1440.682251 7814.000000
1442.310303 6062.000000
1443.937256 6251.000000
1445.562988 6210.000000
1447.188110 6158.000000
1448.812134 6556.000000
1450.435181 6069.000000
1452.057251 6023.000000
1453.678223 7493.000000
1455.298218 6300.000000
1456.917480 6909.000000
1458.535400 5678.000000
1460.152710 5618.000000
1461.769043 13223.500000
1463.384155 7297.000000
1464.998413 6291.000000
1466.611816 5257.000000
1468.224121 5612.000000
1469.835571 6232.000000
1471.446167 6358.000000
1473.055542 6014.000000
1474.663940 6022.000000
1476.271484 6264.000000
1477.878052 6676.000000
1479.483887 5308.000000
1481.088501 6349.000000
1482.692261 5565.000000
1484.294800 6780.000000
1485.896729 5580.000000
1487.497437 5508.000000
1489.097412 5611.000000
1490.696289 6222.000000
1492.294312 6488.000000
1493.891235 6705.000000
1495.487305 6329.000000
1497.082397 6018.000000
1498.676514 5500.000000
1500.269897 6568.000000
1501.862183 5547.000000
1503.453247 6202.000000
1505.043823 6804.000000
1506.633057 6465.000000
1508.221680 6169.000000
1509.809204 6567.000000
1511.395630 6884.000000
1512.981323 6228.000000
1514.565918 6654.000000
1516.149658 6255.000000
1517.732300 6203.000000
1519.314209 6645.000000
1520.895020 6717.000000
1522.475098 6033.000000
1524.053955 6238.000000
1525.631958 6418.000000
1527.209229 6294.000000
1528.785278 5686.000000
1530.360596 5955.000000
1531.934814 6161.000000
1533.508301 5544.000000
1535.080566 5961.000000
1536.652100 6372.000000
1538.222656 6451.000000
1539.792358 6354.000000
1541.360840 5464.000000
1542.928589 6594.000000
1544.495483 5677.000000
1546.061157 6818.000000
1547.626099 5972.000000
1549.189941 5025.000000
1550.753174 7561.000000
1552.315063 6343.000000
1553.876343 6024.000000
1555.436523 5745.000000
1556.995972 5827.000000
1558.554321 5862.000000
1560.111938 6331.000000
1561.668457 7029.000000
1563.223755 5955.000000
1564.778442 6390.000000
1566.332397 5604.000000
1567.885376 6358.000000
1569.437012 5730.000000
1570.987915 5870.000000
1572.538086 6225.000000
1574.087280 6368.000000
1575.635132 5785.000000
1577.182495 5545.000000
1578.728882 5817.000000
1580.274414 5094.000000
1581.818970 6704.000000
1583.362305 6367.000000
1584.905029 6679.000000
1586.446899 6491.000000
1587.987671 6705.000000
1589.527466 5861.000000
1591.066528 6763.000000
1592.604492 5926.000000
1594.141968 6155.000000
1595.678101 5915.000000
1597.213135 6707.000000
1598.747681 6207.000000
1600.281250 6005.000000
1601.813965 6103.000000
1603.345093 6302.000000
1604.875977 6334.000000
1606.406006 5786.000000
1607.934814 6183.000000
1609.462524 6151.000000
1610.989624 6000.000000
1612.515991 5952.000000
1614.041382 6261.000000
1615.565918 5850.000000
1617.089111 5770.000000
1618.611572 5576.000000
1620.133301 6605.000000
1621.654175 6962.000000
1623.173584 6573.500000
1624.692505 6185.000000
1626.210693 6068.000000
1627.728027 5890.000000
1629.244263 6437.000000
1630.759155 7029.000000
1632.273560 6754.000000
1633.787231 5757.000000
1635.299805 6817.000000
1636.811157 5954.000000
1638.322144 6471.000000
1639.832031 6297.000000
1641.341064 6195.000000
1642.848755 5710.000000
1644.356079 6084.000000
1645.862549 7095.000000
1647.368042 6290.000000
1648.872681 6879.000000
1650.375854 6232.000000
1651.878418 6644.000000
1653.380615 6362.000000
1654.881470 6661.000000
1656.381226 7579.000000
1657.880127 5948.000000
1659.378662 6548.000000
1660.875977 6260.000000
1662.372559 5974.000000
1663.867554 6499.000000
1665.362305 6409.000000
1666.856201 5240.000000
1668.349121 5681.000000
1669.840698 6079.500000
1671.331787 6478.000000
1672.822266 6167.000000
1674.311646 6037.000000
1675.799561 7018.000000
1677.287231 6885.000000
1678.773926 6057.000000
1680.259766 5359.000000
1681.744751 6094.000000
1683.228271 6241.000000
1684.711548 6186.000000
1686.193970 5926.000000
1687.675293 6238.000000
1689.155151 6253.000000
1690.634766 5459.000000
1692.113647 6584.000000
1693.591553 6029.000000
1695.068481 6176.000000
1696.544189 5791.000000
1698.019531 6066.000000
1699.493652 6305.000000
1700.967163 5543.000000
1702.439209 5592.000000
1703.911011 6846.000000
1705.381836 6497.000000
1706.851807 7095.000000
1708.320435 5163.000000
1709.788574 5853.000000
1711.255981 6413.000000
1712.722290 5502.000000
1714.187988 5815.000000
1715.651978 6271.000000
1717.115845 5978.000000
1718.578857 7042.000000
1720.040894 6329.000000
1721.501709 6675.000000
1722.961914 5495.000000
1724.421387 5692.000000
1725.880005 6173.000000
1727.337646 6019.000000
1728.793945 6311.000000
1730.250000 6071.000000
1731.705078 6452.000000
1733.159180 6063.000000
1734.612061 6942.000000
1736.064697 5998.000000
1737.516235 6779.000000
1738.967041 5977.000000
1740.416870 6623.000000
1741.865356 5977.000000
1743.313477 7365.000000
1744.760742 6635.000000
1746.207275 6679.000000
1747.652222 6735.000000
1749.096924 6250.000000
1750.540771 5903.000000
1751.983765 5519.000000
1753.425293 6587.000000
1754.866577 6394.000000
1756.307007 19469.000000
1757.746460 6291.000000
1759.184937 5390.000000
1760.622437 6066.000000
1762.059448 7557.000000
1763.495483 5922.000000
1764.930664 7182.000000
1766.364380 6181.000000
1767.797974 6485.000000
1769.230591 6610.000000
1770.662354 5864.000000
1772.093262 5788.000000
1773.522949 6414.000000
1774.951904 6182.000000
1776.380371 6284.000000
1777.807861 6696.000000
1779.234009 6248.000000
1780.659912 5628.000000
1782.084717 6944.000000
1783.508911 5584.000000
1784.931641 6645.000000
1786.353882 6620.000000
1787.775391 6872.000000
1789.196167 5917.000000
1790.615967 6049.000000
1792.034424 6126.000000
1793.452393 6845.000000
1794.869751 5500.000000
1796.286255 6023.000000
1797.701294 6547.000000
1799.115967 5861.000000
1800.530029 6642.000000
1801.942871 6037.000000
1803.355103 6979.000000
1804.765991 7151.000000
1806.176392 7798.000000
1807.586060 6476.000000
1808.994751 5994.000000
1810.402344 5471.000000
1811.809448 6487.000000
1813.215698 6381.000000
1814.620972 6796.000000
1816.025146 6040.000000
1817.428955 6010.000000
1818.831787 6259.000000
1820.233765 6058.000000
1821.635132 5929.000000
1823.035034 6408.000000
1824.434326 6552.000000
1825.833130 6591.000000
1827.231079 7497.000000
1828.627686 5782.000000
1830.023682 6788.000000
1831.418945 5981.000000
1832.813599 8062.000000
1834.207275 6030.000000
1835.599609 6860.000000
1836.991455 6392.000000
1838.382690 5850.000000
1839.772949 7112.000000
1841.161987 6005.000000
1842.550659 6113.000000
1843.938354 6021.000000
1845.325317 5857.000000
1846.710938 6965.000000
1848.096313 5891.000000
1849.480835 6466.000000
1850.864624 6306.000000
1852.247314 6398.000000
1853.628784 5402.000000
1855.009766 6595.000000
1856.390259 6384.000000
1857.769775 5761.000000
1859.147827 6016.000000
1860.525757 6364.000000
1861.902710 7911.000000
1863.278931 6129.000000
1864.654297 6167.000000
1866.028198 5685.000000
1867.401978 5740.000000
1868.774902 6190.000000
1870.146729 5974.000000
1871.517578 6919.000000
1872.888062 5439.000000
1874.257446 6069.000000
1875.626343 6097.000000
1876.993652 7169.000000
1878.360840 6131.000000
1879.727051 6059.000000
1881.092529 6799.000000
1882.457275 7583.000000
1883.820435 6806.000000
1885.183472 6974.000000
1886.545654 6306.000000
1887.906982 6499.000000
1889.266968 5614.000000
1890.626587 5801.000000
1891.985596 6125.000000
1893.343628 6685.000000
1894.700806 7310.000000
1896.056763 5897.000000
1897.412476 7683.000000
1898.767212 5854.000000
1900.121094 5587.000000
1901.473877 5948.000000
1902.826172 6035.000000
1904.177734 5918.000000
1905.528442 6912.000000
1906.877930 6575.000000
1908.226929 6632.000000
1909.575073 5842.000000
1910.922607 6157.000000
1912.269409 6296.000000
1913.614624 6834.000000
1914.959595 6129.000000
1916.303833 5488.000000
1917.647217 6583.000000
1918.989258 6068.000000
1920.331055 6713.000000
1921.671997 7063.000000
1923.012207 6217.000000
1924.351440 6355.000000
1925.689697 6317.000000
1927.027344 6531.000000
1928.364258 7030.000000
1929.700317 6767.000000
1931.035156 5647.000000
1932.369629 6659.000000
1933.703369 7339.000000
1935.036255 6260.000000
1936.367676 5811.000000
1937.699219 6434.000000
1939.029419 6695.000000
1940.359131 5803.000000
1941.687988 6025.000000
1943.015625 5846.000000
1944.342773 5037.000000
1945.669189 5834.000000
1946.994873 6643.000000
1948.319214 5747.000000
1949.643311 6641.000000
1950.966553 6347.000000
1952.289063 6500.000000
1953.610474 5831.000000
1954.930908 7383.000000
1956.250732 6030.000000
1957.570190 5647.000000
1958.888672 6849.000000
1960.205811 5942.000000
1961.522583 5782.000000
1962.838623 6613.000000
1964.153931 6602.000000
1965.467773 6310.000000
1966.781372 5733.000000
1968.094238 6201.000000
1969.406250 6022.000000
1970.717651 6032.000000
1972.027710 6325.000000
1973.337280 5870.000000
1974.646118 6154.000000
1975.954346 6648.000000
1977.261230 6148.000000
1978.567505 7231.000000
1979.873413 5568.000000
1981.178101 6444.000000
1982.482300 5977.000000
1983.785278 5740.000000
1985.087891 7587.000000
1986.389526 6081.000000
1987.690552 6864.000000
1988.989990 6070.000000
1990.289551 6653.000000
1991.588013 5278.000000
1992.885986 6107.000000
1994.182373 6188.000000
1995.478760 5788.000000
1996.774170 5658.000000
1998.068848 6577.000000
1999.362671 5734.000000
2000.655273 6572.000000
2001.947388 5672.000000
2003.239014 7177.000000
2004.529907 6494.000000
2005.819214 6265.000000
2007.108276 6824.000000
2008.396606 5969.000000
2009.684204 5974.000000
2010.970947 6660.000000
2012.256592 5666.000000
2013.541870 6393.000000
2014.826172 6018.000000
2016.109863 5569.000000
2017.392212 6113.000000
2018.674194 6544.000000
2019.955688 6786.000000
2021.236206 5916.000000
2022.515991 6150.000000
2023.794678 6799.000000
2025.072632 5924.000000
2026.350098 5985.000000
2027.626953 6288.000000
2028.902100 5821.000000
2030.177368 6559.000000
2031.451660 6061.000000
2032.724976 5954.000000
2033.997437 5964.000000
2035.269531 6227.000000
2036.540527 6995.000000
2037.811279 6622.000000
2039.080688 6032.000000
2040.348999 6789.000000
2041.617310 6623.000000
2042.884644 5975.000000
2044.151245 5964.000000
2045.416626 5693.000000
2046.681396 5806.000000
2047.945923 5430.000000
2049.209229 5911.000000
2050.472168 6473.000000
2051.733154 6171.000000
2052.994629 6088.000000
2054.254883 5900.000000
2055.514404 6503.000000
2056.773193 6315.000000
2058.031006 7010.000000
2059.288330 6208.000000
2060.544922 6045.000000
2061.800049 6518.000000
2063.055176 5706.000000
2064.309326 5612.000000
2065.562744 5681.000000
2066.815430 6882.000000
2068.066895 6308.000000
2069.318115 6324.000000
2070.568604 5605.000000
2071.818359 5386.000000
2073.066650 6144.000000
2074.314941 6545.000000
2075.562256 7385.000000
2076.808838 5634.000000
2078.054688 6104.000000
2079.299316 7000.000000
2080.543457 7606.000000
2081.787109 5482.000000
2083.029785 6072.000000
2084.271240 7033.000000
2085.512451 5997.000000
2086.753174 6408.000000
2087.992920 6825.000000
2089.231445 7144.000000
2090.469482 6235.000000
2091.706787 5823.000000
2092.943848 6677.000000
2094.179443 6102.000000
2095.414307 6324.000000
2096.648926 6083.000000
2097.882568 5667.000000
2099.115234 6095.000000
2100.347168 6868.000000
2101.578613 6417.000000
2102.809082 6794.000000
2104.038818 6043.000000
2105.268311 6031.000000
2106.495850 5996.000000
2107.723633 6078.000000
2108.950684 6260.000000
2110.176758 5487.000000
2111.401367 6415.000000
2112.626221 6969.000000
2113.849854 7076.000000
2115.072998 6213.000000
2116.294922 7551.000000
2117.516602 6011.000000
2118.737305 6883.000000
2119.957275 6040.000000
2121.176758 6211.000000
2122.394775 6619.000000
2123.612793 7062.000000
2124.829834 5846.000000
2126.046387 5828.000000
2127.261230 6618.000000
2128.476318 6402.000000
2129.690430 6808.000000
2130.903809 5733.000000
2132.116455 6128.000000
2133.327637 5861.000000
2134.539063 6585.000000
2135.749268 6676.000000
2136.958984 6006.000000
2138.167236 6212.000000
2139.375488 5731.000000
2140.583008 5842.000000
2141.789307 7688.000000
2142.994873 5889.000000
2144.200195 5701.000000
2145.404541 5562.000000
2146.608154 6345.000000
2147.811279 6221.000000
2149.012939 6634.000000
2150.214355 5374.000000
2151.415039 6321.000000
2152.614990 6074.000000
2153.813721 6151.000000
2155.012207 7032.000000
2156.210205 6185.000000
2157.407227 6094.000000
2158.603516 5181.000000
2159.798584 5342.000000
2160.993408 6200.000000
2162.187500 5618.000000
2163.380615 6052.000000
2164.572754 6914.000000
2165.764648 5953.000000
2166.955811 6357.000000
2168.145996 6225.000000
2169.335449 6525.000000
2170.524414 6808.000000
2171.712402 6254.000000
2172.900146 5799.000000
2174.086426 5974.000000
2175.271973 6547.000000
2176.457275 6045.000000
2177.642090 5840.000000
2178.825684 6394.000000
2180.008545 7480.000000
2181.190430 6306.000000
2182.372070 6011.000000
2183.553223 6536.000000
2184.733154 5729.000000
2185.912109 5621.000000
2187.090576 6417.000000
2188.268799 6907.000000
2189.445801 7200.000000
2190.621826 6746.000000
2191.797607 6110.000000
2192.972900 5627.000000
2194.146729 6683.000000
2195.320068 6216.000000
2196.493164 6245.000000
2197.665039 6397.000000
2198.836426 7142.000000
2200.007324 6314.000000
2201.176514 6920.000000
2202.345703 7594.000000
2203.514404 6271.000000
2204.682129 5920.000000
2205.848877 5656.000000
2207.014893 7136.000000
2208.180420 6733.000000
2209.345703 6103.000000
2210.509521 6745.000000
2211.672852 5445.000000
2212.834961 6276.000000
2213.997314 6167.000000
2215.158447 6675.000000
2216.318604 6642.000000
2217.478271 6343.000000
2218.637695 6588.000000
2219.795898 6359.000000
2220.953125 6334.000000
2222.110107 6792.000000
2223.266357 6587.000000
2224.421875 6777.000000
2225.576660 6246.000000
2226.730469 6437.000000
2227.883301 6128.000000
2229.036621 6875.000000
2230.187988 6230.000000
2231.339111 6197.000000
2232.489502 6591.000000
2233.639404 7749.000000
2234.788330 6338.000000
2235.936768 5248.000000
2237.083740 6835.000000
2238.230957 7106.000000
2239.376953 6094.000000
2240.522705 7289.000000
2241.666748 7349.000000
2242.811035 6722.000000
2243.954346 6201.000000
2245.096924 6044.000000
2246.238525 5802.000000
2247.379883 5926.000000
2248.520264 6456.000000
2249.659912 6415.000000
2250.799072 5901.000000
2251.937012 5904.000000
2253.074951 6237.000000
2254.211914 5292.000000
2255.348145 6402.000000
2256.483398 6206.000000
2257.617920 7228.000000
2258.752197 6363.000000
2259.885986 5456.000000
2261.018311 6112.000000
2262.150146 6829.000000
2263.281494 6301.000000
2264.411865 6471.000000
2265.541992 8177.000000
2266.670898 6728.000000
2267.799316 6098.000000
2268.927246 5603.000000
2270.054199 6186.000000
2271.180420 5991.000000
2272.305664 6717.000000
2273.430908 6529.000000
2274.555420 6434.000000
2275.678711 5944.000000
2276.801270 6338.000000
2277.923340 5998.000000
2279.044922 7474.000000
2280.165771 6393.000000
2281.285400 6472.000000
2282.404541 7185.000000
2283.523438 7696.000000
2284.641602 7301.000000
2285.758789 5930.000000
2286.875000 6436.000000
2287.990967 6974.000000
2289.106201 6957.000000
2290.220703 7382.000000
2291.333984 5848.000000
2292.447266 6337.000000
2293.559814 6000.000000
2294.671631 5371.000000
2295.782715 6796.000000
2296.892578 6448.000000
2298.001953 6206.000000
2299.111084 6684.000000
2300.219238 6354.000000
2301.326416 6804.000000
2302.433350 5933.000000
2303.539551 6321.000000
2304.645264 6601.000000
2305.749512 6620.000000
2306.853516 5492.000000
2307.957031 5747.000000
2309.060059 6599.000000
2310.161865 7402.000000
2311.262939 7400.000000
2312.363525 6637.000000
2313.463623 5539.000000
2314.562988 6423.000000
2315.660889 6620.000000
2316.759277 7037.000000
2317.856201 8230.000000
2318.952881 6911.000000
2320.049072 5759.000000
2321.143555 6861.000000
2322.238037 7663.000000
2323.331787 5864.000000
2324.425293 6094.000000
2325.517090 6470.000000
2326.608887 7075.000000
2327.699951 6099.000000
2328.790283 6257.000000
2329.879639 6897.000000
2330.968994 6001.000000
2332.057129 6347.000000
2333.144775 6862.000000
2334.232178 6514.000000
2335.317871 6699.000000
2336.403320 7782.000000
2337.488525 6311.000000
2338.572754 6836.000000
2339.656006 5920.000000
2340.739014 6467.000000
2341.821045 7072.000000
2342.902832 5983.000000
2343.983887 7481.000000
2345.063721 6685.000000
2346.143066 5699.000000
2347.221924 6861.000000
2348.300293 6607.000000
2349.377197 6295.000000
2350.453857 7010.000000
2351.530273 6098.000000
2352.605713 6458.000000
2353.680176 5954.000000
2354.754395 6302.000000
2355.827881 6736.000000
2356.900879 6216.000000
2357.972656 7008.000000
2359.044189 6304.000000
2360.114746 6869.000000
2361.185059 7513.000000
2362.254395 7564.000000
2363.322754 6860.000000
2364.390869 6757.000000
2365.458252 7095.000000
2366.525146 7155.000000
2367.591309 6149.000000
2368.656250 6824.000000
2369.721191 7003.000000
2370.785400 6375.000000
2371.848877 6946.000000
2372.911133 5771.000000
2373.973389 6353.000000
2375.034668 6402.000000
2376.095703 5999.000000
2377.155518 6332.000000
2378.214600 7879.000000
2379.273682 6442.000000
2380.331787 7589.000000
2381.389160 6902.000000
2382.445557 8109.000000
2383.501709 7806.000000
2384.557373 6277.000000
2385.612305 7134.000000
2386.665771 6808.000000
2387.719482 6531.000000
2388.772217 6333.000000
2389.824463 6779.000000
2390.875977 6113.000000
2391.926514 6689.000000
2392.976807 6559.000000
2394.026123 6247.000000
2395.075439 6230.000000
2396.123291 6931.000000
2397.170654 7035.000000
2398.217773 6291.000000
2399.263916 6631.000000
2400.309326 6249.000000
2401.354004 6742.000000
2402.398682 7731.000000
2403.441895 7470.000000
2404.485107 6554.000000
2405.526855 5798.000000
2406.568848 6768.000000
2407.610107 7143.000000
2408.650391 6208.000000
2409.689941 6429.000000
2410.728516 6381.000000
2411.767334 5977.000000
2412.804932 6570.000000
2413.842285 6881.000000
2414.878418 7299.000000
2415.914307 6262.000000
2416.949463 6295.000000
2417.984131 6897.000000
2419.017334 7242.000000
2420.050781 6467.000000
2421.083252 6712.000000
2422.115479 6798.000000
2423.146240 7087.000000
2424.177002 6396.000000
2425.207275 6810.000000
2426.236328 6865.000000
2427.265381 6661.000000
2428.292725 7382.000000
2429.320557 6720.000000
2430.347168 7284.000000
2431.373535 6975.000000
2432.398438 7783.000000
2433.423584 6648.000000
2434.447754 7120.000000
2435.471680 6733.000000
2436.494385 5818.000000
2437.516357 6334.000000
2438.538086 6664.000000
2439.559082 6668.000000
2440.579590 6046.000000
2441.598877 6577.000000
2442.618164 6628.000000
2443.636475 8392.000000
2444.654541 6292.000000
2445.671143 6492.000000
2446.687744 6579.000000
2447.703613 6033.000000
2448.719482 6976.000000
2449.733887 6896.000000
2450.747559 5560.000000
2451.760742 7282.000000
2452.773682 6058.000000
2453.785889 7217.000000
2454.797119 6733.000000
2455.808105 7701.000000
2456.818359 6373.000000
2457.828125 7597.000000
2458.836914 5874.000000
2459.844971 5962.000000
2460.853027 6315.000000
2461.859863 7387.000000
2462.866455 5507.000000
2463.871826 7464.000000
2464.876953 6928.000000
2465.881836 5890.000000
2466.885498 6514.000000
2467.888916 6447.000000
2468.891357 7705.000000
2469.893555 7337.000000
2470.895264 6952.000000
2471.895996 6645.000000
2472.895752 6947.000000
2473.895508 6791.000000
2474.894287 5670.000000
2475.892578 6592.000000
2476.889893 7062.000000
2477.886963 6179.000000
2478.884033 7030.000000
2479.879639 5780.000000
2480.875244 7177.000000
2481.869141 6732.000000
2482.863037 8122.000000
2483.856445 6892.000000
2484.849365 6865.000000
2485.841309 7538.000000
2486.832520 7280.000000
2487.823486 6789.000000
2488.813965 5873.000000
2489.803467 6603.000000
2490.792236 6544.000000
2491.781006 5728.000000
2492.768799 6771.000000
2493.755371 6574.000000
2494.741943 8046.000000
2495.728027 6792.000000
2496.713379 7104.000000
2497.697754 8450.000000
2498.681885 6120.000000
2499.666016 6909.000000
2500.648682 5821.000000
2501.630859 7005.000000
2502.612549 6885.000000
2503.593506 7256.000000
2504.573975 6618.000000
2505.554199 5815.000000
2506.532959 6331.000000
2507.511475 7591.000000
2508.489502 6768.000000
2509.467041 7037.000000
2510.443604 6114.000000
2511.419922 5991.000000
2512.395508 6479.000000
2513.370605 6236.000000
2514.345215 6531.000000
2515.318604 7580.000000
2516.291748 6811.000000
2517.264648 6867.000000
2518.236572 6069.000000
2519.207764 6822.000000
2520.178467 6932.000000
2521.148926 7758.000000
2522.118652 8087.000000
2523.087402 6099.000000
2524.055420 6176.000000
2525.023438 7777.000000
2525.990479 6297.000000
2526.957275 5598.000000
2527.922852 7226.000000
2528.888428 7040.000000
2529.853271 7750.000000
2530.817627 6398.000000
2531.780762 6420.000000
2532.744141 5941.000000
2533.706543 6000.000000
2534.668701 6717.000000
2535.629639 6473.000000
2536.589844 6100.000000
2537.550293 6202.000000
2538.509766 6889.000000
2539.468506 6811.000000
2540.426270 6734.000000
2541.384277 6273.000000
2542.341553 6769.000000
2543.297852 6103.000000
2544.253906 7138.000000
2545.208740 6256.000000
2546.163818 7719.000000
2547.118164 7038.000000
2548.071777 6663.000000
2549.024414 7245.000000
2549.976807 6756.000000
2550.928711 7014.000000
2551.879883 6384.000000
2552.830322 7711.000000
2553.780273 7327.000000
2554.729980 7429.000000
2555.678955 6652.000000
2556.627441 6237.000000
2557.574707 7030.000000
2558.521973 6362.000000
2559.468506 6599.000000
2560.414551 6817.000000
2561.359619 7587.000000
2562.304443 6729.000000
2563.248779 7237.000000
2564.192627 6842.000000
2565.135986 6667.000000
2566.077881 6631.000000
2567.020020 6646.000000
2567.961426 6206.000000
2568.902100 7148.000000
2569.842041 7370.000000
2570.781982 5735.000000
2571.720947 6260.000000
2572.659668 7552.000000
2573.597412 7252.000000
2574.534912 5465.000000
2575.471680 6991.000000
2576.407715 6796.000000
2577.343262 7545.000000
2578.278076 6401.000000
2579.212891 5967.000000
2580.146729 7059.000000
2581.080078 7112.000000
2582.012695 5842.000000
2582.945068 6903.000000
2583.876709 5466.000000
2584.807861 7110.000000
2585.738525 7061.000000
2586.667969 6940.000000
2587.597412 7339.000000
2588.526367 6497.000000
2589.455078 7512.000000
2590.382080 7390.000000
2591.309326 5944.000000
2592.236084 6803.000000
2593.162109 6339.000000
2594.087891 5668.000000
2595.012451 7628.000000
2595.936768 7648.000000
2596.860596 5383.000000
2597.783936 7346.000000
2598.706299 6336.000000
2599.628418 6856.000000
2600.550049 8296.000000
2601.470947 6438.000000
2602.391113 6012.000000
2603.311035 6372.000000
2604.230469 6365.000000
2605.149658 6445.000000
2606.067871 5856.000000
2606.984863 5976.000000
2607.902100 7332.000000
2608.819092 5922.000000
2609.735107 7491.000000
2610.649902 6668.000000
2611.565186 6644.000000
2612.479736 6536.000000
2613.393311 6533.000000
2614.306885 6167.000000
2615.219238 7652.000000
2616.131592 7069.000000
2617.042969 6856.000000
2617.954102 5679.000000
2618.864502 7234.000000
2619.774658 6684.000000
2620.684082 6222.000000
2621.593018 6709.000000
2622.500977 6303.000000
2623.409180 6885.000000
2624.316406 6620.000000
2625.223145 7020.000000
2626.129150 6162.000000
2627.034912 6638.000000
2627.939941 6534.000000
2628.844727 7821.000000
2629.748779 6533.000000
2630.651855 6425.000000
2631.554932 6412.000000
2632.457031 5697.000000
2633.359131 6766.000000
2634.260986 6907.000000
2635.161133 6750.000000
2636.061523 6428.000000
2636.961182 6403.000000
2637.860596 6017.000000
2638.758545 6982.000000
2639.656982 6784.000000
2640.554932 6441.000000
2641.452148 6103.000000
2642.348145 6175.000000
2643.244141 6792.000000
2644.139893 6049.000000
2645.034912 6459.000000
2645.929688 6774.000000
2646.822998 7046.000000
2647.716309 6344.000000
2648.609375 6791.000000
2649.502197 6439.000000
2650.393311 7409.000000
2651.284668 6465.000000
2652.175537 7665.000000
2653.065674 7295.000000
2653.955566 6558.000000
2654.844238 7311.000000
2655.733154 6658.000000
2656.621582 6574.000000
2657.509033 7294.000000
2658.395508 6469.000000
2659.282471 7130.000000
2660.168701 6908.000000
2661.054443 6856.000000
2661.938965 6553.000000
2662.823486 6434.000000
2663.707764 6320.000000
2664.591309 7081.000000
2665.474365 7781.000000
2666.356689 7394.000000
2667.238525 6201.000000
2668.119629 6628.000000
2669.000977 6127.000000
2669.880859 6546.000000
2670.760986 7448.000000
2671.640381 7267.000000
2672.519775 6208.000000
2673.398438 6150.000000
2674.275391 6453.000000
2675.153076 6816.000000
2676.030029 6411.000000
2676.906250 8137.000000
2677.781982 7217.000000
2678.656982 6254.000000
2679.532227 7836.000000
2680.406494 6991.000000
2681.280273 7331.000000
2682.153320 6979.000000
2683.026123 6180.000000
2683.898682 6133.000000
2684.770508 6938.000000
2685.641602 6583.000000
2686.512451 6867.000000
2687.382813 7124.000000
2688.252930 6738.000000
2689.121338 6313.000000
2689.990479 7391.000000
2690.858887 7098.000000
2691.727051 6684.000000
2692.594482 6916.000000
2693.460693 5818.000000
2694.327393 7163.000000
2695.193115 7465.000000
2696.058838 7260.000000
2696.923096 7916.000000
2697.788086 6637.000000
2698.651611 7210.000000
2699.515381 5898.000000
2700.377686 7472.000000
2701.240479 6849.000000
2702.102295 5922.000000
2702.963623 6972.000000
2703.824951 6793.000000
2704.685059 7477.000000
2705.545166 7354.000000
2706.404785 6596.000000
2707.264160 6889.000000
2708.121826 7214.000000
2708.979736 6919.000000
2709.838135 7332.000000
2710.695313 6820.000000
2711.551758 5991.000000
2712.407715 6861.000000
2713.263672 6175.000000
2714.118896 6928.000000
2714.973389 6188.000000
2715.827393 6887.000000
2716.681396 7290.000000
2717.534424 6267.000000
2718.387695 6536.000000
2719.239258 7800.000000
2720.091309 6770.000000
2720.943115 6245.000000
2721.793701 6519.000000
2722.644287 6492.000000
2723.494385 7096.000000
2724.343750 7092.000000
2725.193115 6982.000000
2726.041260 6582.000000
2726.888916 6629.000000
2727.737061 6989.000000
2728.583984 6904.000000
2729.431396 5588.000000
2730.277344 7557.000000
2731.122559 7003.000000
2731.968262 6447.000000
2732.812988 7001.000000
2733.657715 7421.000000
2734.501221 6895.000000
2735.344971 7850.000000
2736.187988 7194.000000
2737.030518 6143.000000
2737.872070 6315.000000
2738.714111 6878.000000
2739.555176 6932.000000
2740.395996 5804.000000
2741.236572 5983.000000
2742.075928 7782.000000
2742.915283 6896.000000
2743.754639 6996.000000
2744.592773 6809.000000
2745.430420 7867.000000
2746.268066 6361.000000
2747.105225 7136.000000
2747.942139 6189.000000
2748.778564 6071.000000
2749.613770 6683.000000
2750.449219 6358.000000
2751.284180 6349.000000
2752.118408 6283.000000
2752.952393 6942.000000
2753.785889 6867.000000
2754.619385 8113.000000
2755.451904 6906.000000
2756.283936 7286.000000
2757.115479 6852.000000
2757.947021 7154.000000
2758.777588 7286.000000
2759.608398 7289.000000
2760.437988 7253.000000
2761.267578 6725.000000
2762.096924 7341.000000
2762.925537 6916.000000
2763.753662 6806.000000
2764.581299 6866.000000
2765.408936 6642.000000
2766.236084 7934.000000
2767.062500 5808.000000
2767.888428 7557.000000
2768.713867 6944.000000
2769.539063 7860.000000
2770.364258 7121.000000
2771.188232 6813.000000
2772.012207 6618.000000
2772.836182 7677.000000
2773.658936 6652.000000
2774.481934 6790.000000
2775.303711 6995.000000
2776.125488 6973.000000
2776.947266 6511.000000
2777.768066 8048.000000
2778.588135 6608.000000
2779.408447 7082.000000
2780.228271 7350.000000
2781.048096 6514.000000
2781.865967 5996.000000
2782.685059 8112.000000
2783.502930 6577.000000
2784.320557 6805.000000
2785.137695 7185.000000
2785.954346 7260.000000
2786.770752 7256.000000
2787.586670 6278.000000
2788.402344 5990.000000
2789.217041 6411.000000
2790.032227 7069.000000
2790.846680 7204.000000
2791.660645 6609.000000
2792.474365 7476.000000
2793.286865 8774.000000
2794.099609 7018.000000
2794.911865 7517.000000
2795.723633 7198.000000
2796.534668 7408.000000
2797.346436 6573.000000
2798.156982 7233.000000
2798.967529 7115.000000
2799.776611 7416.000000
2800.586426 8316.000000
2801.395508 7882.000000
2802.204346 6715.000000
2803.012695 7267.000000
2803.820068 6164.000000
2804.627930 6525.000000
2805.435059 6941.000000
2806.241943 7031.000000
2807.047607 7078.000000
2807.853760 6704.000000
2808.659180 6522.000000
2809.464600 7354.000000
2810.269287 6278.000000
2811.072998 7641.000000
2811.877197 7516.000000
2812.680908 6377.000000
2813.484375 6144.000000
2814.286377 6329.000000
2815.089111 7407.000000
2815.891113 7865.000000
2816.692871 6122.000000
2817.494141 6625.000000
2818.294922 7335.000000
2819.095215 6554.000000
2819.895752 6682.000000
2820.695313 8100.000000
2821.494385 7199.000000
2822.293457 6502.000000
2823.092285 7036.000000
2823.890625 6368.000000
2824.687988 7084.000000
2825.485596 7162.000000
2826.282471 6680.000000
2827.079590 7393.000000
2827.875977 7929.000000
2828.671631 7041.000000
2829.467285 7400.000000
2830.262695 7640.000000
2831.057617 7507.000000
2831.851807 6659.000000
2832.645996 6862.000000
2833.439941 5628.000000
2834.233398 6909.000000
2835.026123 7214.000000
2835.818604 8202.000000
2836.611084 7660.000000
2837.403320 7600.000000
2838.195068 6498.000000
2838.985840 6797.000000
2839.776611 8841.000000
2840.567627 7549.000000
2841.357666 6301.000000
2842.147217 7732.000000
2842.937012 7198.000000
2843.725830 7334.000000
2844.514648 7835.000000
2845.303467 7731.000000
2846.091309 7585.000000
2846.878662 7217.000000
2847.666260 7581.000000
2848.453369 7407.000000
2849.239746 6710.000000
2850.026123 7482.000000
2850.812256 7215.000000
2851.597900 7578.000000
2852.382568 7215.000000
2853.167725 6928.000000
2853.952637 7484.000000
2854.736816 7186.000000
2855.520996 6901.000000
2856.303955 8319.000000
2857.087158 6901.000000
2857.870117 6756.000000
2858.652588 7825.000000
2859.434814 6307.000000
2860.216553 6690.000000
2860.998047 7663.000000
2861.779785 7496.000000
2862.560791 7643.000000
2863.341064 6630.000000
2864.121094 6756.000000
2864.901123 8183.000000
2865.680908 7500.000000
2866.459717 8094.000000
2867.238770 7709.000000
2868.017334 6812.000000
2868.795654 7051.000000
2869.573486 7244.000000
2870.351074 6980.000000
2871.128418 7550.000000
2871.905518 6984.000000
2872.682129 6451.000000
2873.458252 7525.000000
2874.234375 7209.000000
2875.010010 8253.000000
2875.785400 7185.000000
2876.560303 6587.000000
2877.334961 7962.000000
2878.109619 6627.000000
2878.884033 7827.000000
2879.657715 6799.000000
2880.430664 7223.000000
2881.204346 6788.000000
2881.977051 7639.000000
2882.749756 7866.000000
2883.521729 8315.000000
2884.293457 6287.000000
2885.065674 6825.000000
2885.836670 7002.000000
2886.607178 6133.000000
2887.378174 8358.000000
2888.149170 7454.000000
2888.919434 7926.000000
2889.688721 7681.000000
2890.458252 6979.000000
2891.227783 7285.000000
2891.996826 7437.000000
2892.765381 7969.000000
2893.533936 7787.000000
2894.301514 7003.000000
2895.069580 6579.000000
2895.837158 7399.000000
2896.604736 8394.000000
2897.371094 7383.000000
2898.138428 6531.000000
2898.904541 7242.000000
2899.670898 7079.000000
2900.435791 8292.000000
2901.201172 7002.000000
2901.967041 6498.000000
2902.731445 7748.000000
2903.495850 7738.000000
2904.260498 8468.000000
2905.024170 6721.000000
2905.788574 8480.000000
2906.552246 6713.000000
2907.315186 8408.000000
2908.077881 6589.000000
2908.841064 9039.000000
2909.603760 6956.000000
2910.365234 6899.000000
2911.127197 6899.000000
