scanname Analyse055
timestamp 2017-02-10 21:13:30
ccdbias 895.358398
ccdgain 3.473401
sigmaread 8.960639
laserwavenum -0.717756
wavenumcorrection -0.194792
scancount 1
totalexposurems 10000
singleexposurems 10000
measurementstate Unknown
scanmode Manual
snr 153.750366 2.466537 1.936846
replacelist 2
373 29338.000000 5714.000000
671 28747.000000 9975.000000
peaks 13
277.923981 0.422940 0.000000 0.915734 0.000077
284.602997 0.424173 0.000000 0.512777 0.000039
299.333588 0.427279 0.000000 0.467791 0.000028
333.994995 0.430219 0.000000 0.565380 0.000096
340.629608 0.427926 0.000000 0.210961 0.000015
388.652344 0.437783 0.000000 1.456962 0.000252
449.622375 0.423296 0.000000 0.379229 0.000016
758.751038 0.407045 0.000000 4.928206 0.000615
778.909668 0.398724 0.000000 2.807936 0.000381
1029.277344 0.354142 0.000000 0.086133 0.000017
1154.479248 0.335469 0.000000 0.142192 0.000027
1315.539429 0.340805 0.000000 12.381033 0.002586
1334.888916 0.339059 0.000000 9.109586 0.001427
finalresult GLS_NoMatch 0
spectrum 2048
-96.883698 46219.000000
-94.256828 46219.000000
-91.631836 46611.000000
-89.008736 46438.000000
-86.387505 47127.000000
-83.768173 46817.000000
-81.150703 47158.000000
-78.535110 46771.000000
-75.921394 47035.000000
-73.309555 47439.000000
-70.699577 47281.000000
-68.091484 47448.000000
-65.485237 47366.000000
-62.880871 47346.000000
-60.278362 47246.000000
-57.677708 47739.000000
-55.078915 47163.000000
-52.481979 46503.000000
-49.886898 46864.000000
-47.293671 46820.000000
-44.702293 47021.000000
-42.112762 46558.000000
-39.525074 47466.000000
-36.939236 47308.000000
-34.355240 46841.000000
-31.773079 47629.000000
-29.192766 47031.000000
-26.614281 47612.000000
-24.037638 47111.000000
-21.462820 46990.000000
-18.889843 46743.000000
-16.318686 46771.000000
-13.749362 46407.000000
-11.181864 45442.000000
-8.616184 46808.000000
-6.052330 46678.000000
-3.490290 47030.000000
-0.930074 47126.000000
1.628334 46744.000000
4.184921 45884.000000
6.739703 46031.000000
9.292668 46505.000000
11.843833 45627.000000
14.393185 45651.000000
16.940741 44975.000000
19.486485 45158.000000
22.030436 44615.000000
24.572582 42187.000000
27.112932 39862.000000
29.651497 36006.000000
32.188263 32248.000000
34.723228 26625.000000
37.256416 16242.000000
39.787823 10473.000000
42.317436 9741.000000
44.845253 9167.000000
47.371311 7922.000000
49.895580 7024.000000
52.418079 5883.000000
54.938782 5454.000000
57.457729 5818.000000
59.974903 7157.000000
62.490299 9452.000000
65.003922 9830.000000
67.515785 10253.000000
70.025902 7761.000000
72.534225 5347.000000
75.040794 4236.000000
77.545616 3424.000000
80.048683 2738.000000
82.549973 2386.000000
85.049522 2309.000000
87.547318 2195.000000
90.043381 2376.000000
92.537666 2783.000000
95.030212 3193.000000
97.521042 3331.000000
100.010101 3123.000000
102.497414 2352.000000
104.983002 1930.000000
107.466850 1602.000000
109.948952 1562.000000
112.429329 1426.000000
114.907982 1407.000000
117.384911 1252.000000
119.860085 1180.000000
122.333549 1284.000000
124.805283 1292.000000
127.275307 1370.000000
129.743576 1287.000000
132.210175 1447.000000
134.675018 1557.000000
137.138168 1773.000000
139.599579 1813.000000
142.059296 2265.000000
144.517288 2617.000000
146.973587 3170.000000
149.428177 3846.000000
151.881042 4467.000000
154.332230 5343.000000
156.781723 6599.000000
159.229492 7640.000000
161.675552 8948.000000
164.119934 10023.000000
166.562637 11202.000000
169.003647 12190.000000
171.442947 12877.000000
173.880539 13384.000000
176.316498 13887.000000
178.750717 14045.000000
181.183258 14148.000000
183.614151 14333.000000
186.043320 14255.000000
188.470840 14490.000000
190.896683 14430.000000
193.320847 14584.000000
195.743347 14797.000000
198.164154 14991.000000
200.583298 15289.000000
203.000778 15900.000000
205.416565 16068.000000
207.830704 17085.000000
210.243210 17822.000000
212.654037 18881.000000
215.063187 20276.000000
217.470703 21517.000000
219.876511 23909.000000
222.280731 25004.000000
224.683243 25862.000000
227.084137 26191.000000
229.483383 26958.000000
231.880966 26939.000000
234.276886 26589.000000
236.671188 27509.000000
239.063828 28154.000000
241.454849 27427.000000
243.844208 27778.000000
246.231949 28069.000000
248.618042 27539.000000
251.002502 28460.000000
253.385315 26777.000000
255.766556 28052.000000
258.146088 27921.000000
260.524048 28122.000000
262.900330 27108.000000
265.275055 27123.000000
267.648132 26629.000000
270.019562 27918.000000
272.389343 27616.000000
274.757568 28187.000000
277.124146 27729.000000
279.489136 27395.000000
281.852509 28129.000000
284.214233 27799.000000
286.574371 27042.000000
288.932892 28115.000000
291.289825 27558.000000
293.645142 27701.000000
295.998871 28006.000000
298.350952 28016.000000
300.701477 27758.000000
303.050415 27752.000000
305.397705 27455.000000
307.743469 27741.000000
310.087555 27744.000000
312.430115 26932.000000
314.771057 26807.000000
317.110382 27017.000000
319.448151 27090.000000
321.784363 25893.000000
324.118927 27448.000000
326.451935 27123.000000
328.783386 27537.000000
331.113251 26988.000000
333.441528 27190.000000
335.768188 26416.000000
338.093353 27183.000000
340.416901 27285.000000
342.738892 27475.000000
345.059326 26151.000000
347.378143 25788.000000
349.695404 27267.000000
352.011139 27310.000000
354.325287 26342.000000
356.637848 26977.000000
358.948853 26844.000000
361.258331 26246.000000
363.566284 26796.000000
365.872620 27381.000000
368.177368 26742.000000
370.480652 26848.000000
372.782318 27004.000000
375.082489 26739.000000
377.381104 26850.000000
379.678162 27351.000000
381.973663 27101.000000
384.267639 27421.000000
386.560028 28150.000000
388.850922 27973.000000
391.140289 27609.000000
393.428070 27738.000000
395.714325 27574.000000
397.999084 27120.000000
400.282227 27993.000000
402.563934 27617.000000
404.844116 27868.000000
407.122711 26780.000000
409.399780 27535.000000
411.675323 27058.000000
413.949341 27311.000000
416.221924 27303.000000
418.492889 27400.000000
420.762360 27257.000000
423.030334 26532.000000
425.296753 26294.000000
427.561676 26937.000000
429.825134 26728.000000
432.087006 26569.000000
434.347412 26903.000000
436.606262 26287.000000
438.863647 26650.000000
441.119537 26888.000000
443.373932 26689.000000
445.626801 26981.000000
447.878113 25655.000000
450.128021 26319.000000
452.376343 26087.000000
454.623230 26539.000000
456.868652 25798.000000
459.112518 25886.000000
461.354889 25465.000000
463.595764 26410.000000
465.835236 25505.000000
468.073120 26503.000000
470.309570 26183.000000
472.544495 26050.000000
474.777954 24967.000000
477.009979 25394.000000
479.240479 26058.000000
481.469482 25469.000000
483.697021 25635.000000
485.923065 25854.000000
488.147675 25324.000000
490.370819 25948.000000
492.592499 25583.000000
494.812622 25374.000000
497.031342 26212.000000
499.248566 25668.000000
501.464417 26377.000000
503.678650 26017.000000
505.891571 25921.000000
508.102905 26080.000000
510.312805 25692.000000
512.521240 25999.000000
514.728333 25886.000000
516.933838 25923.000000
519.137939 25791.000000
521.340515 25977.000000
523.541687 25722.000000
525.741516 25548.000000
527.939819 25071.000000
530.136597 26227.000000
532.332031 25858.000000
534.525940 26207.000000
536.718506 24660.000000
538.909546 25309.000000
541.099182 25863.000000
543.287415 25148.000000
545.474121 24921.000000
547.659363 24772.000000
549.843323 24734.000000
552.025696 24503.000000
554.206726 24532.000000
556.386230 24467.000000
558.564453 24572.000000
560.741150 24467.000000
562.916443 24209.000000
565.090332 24120.000000
567.262756 24194.000000
569.433777 24125.000000
571.603333 24067.000000
573.771606 24627.000000
575.938354 24160.000000
578.103638 24227.000000
580.267517 24235.000000
582.430115 24427.000000
584.591187 24306.000000
586.750854 24497.000000
588.909180 24598.000000
591.065979 24566.000000
593.221436 24274.000000
595.375488 25047.000000
597.528198 24958.000000
599.679382 24205.000000
601.829224 24479.000000
603.977722 24260.000000
606.124634 24694.000000
608.270325 24577.000000
610.414612 24741.000000
612.557434 24258.000000
614.698792 24800.000000
616.838928 24660.000000
618.977539 23630.000000
621.114868 24822.000000
623.250732 24285.000000
625.385193 24175.000000
627.518188 23913.000000
629.650024 24037.000000
631.780396 23988.000000
633.909363 23862.000000
636.036865 23806.000000
638.163086 23830.000000
640.287781 23135.000000
642.411255 23568.000000
644.533386 23240.000000
646.654053 22963.000000
648.773376 22921.000000
650.891296 23298.000000
653.007874 23244.000000
655.123047 23084.000000
657.236877 22674.000000
659.349243 22822.000000
661.460388 22703.000000
663.570129 22869.000000
665.678406 22864.000000
667.785522 22761.000000
669.891174 22445.000000
671.995361 22686.000000
674.098328 22939.000000
676.199890 22572.000000
678.300110 23255.000000
680.398926 22862.000000
682.496399 23401.000000
684.592590 22939.000000
686.687317 23352.000000
688.780823 22935.000000
690.872986 23231.000000
692.963623 22715.000000
695.053040 23241.000000
697.141174 23301.000000
699.227844 23582.000000
701.313293 23078.000000
703.397217 23519.000000
705.479919 23242.000000
707.561340 23358.000000
709.641296 22183.000000
711.720032 21884.000000
713.797302 22189.000000
715.873291 22120.000000
717.947998 22276.000000
720.021423 21818.000000
722.093323 22823.000000
724.164063 22166.000000
726.233459 22307.000000
728.301453 21991.000000
730.368103 21941.000000
732.433533 21705.000000
734.497620 21668.000000
736.560364 21658.000000
738.621765 21565.000000
740.681885 21513.000000
742.740601 21609.000000
744.798096 21292.000000
746.854309 21240.000000
748.909119 21166.000000
750.962646 21346.000000
753.014771 20946.000000
755.065674 21135.000000
757.115356 21008.000000
759.163574 21020.000000
761.210571 21136.000000
763.256287 20684.000000
765.300598 21395.000000
767.343628 19247.500000
769.385437 17100.000000
771.425903 21003.000000
773.464966 20945.000000
775.502869 20982.000000
777.539429 21028.000000
779.574768 21292.000000
781.608765 21143.000000
783.641357 21117.000000
785.672791 22772.000000
787.702820 19377.000000
789.731567 21232.000000
791.759155 21473.000000
793.785400 21426.000000
795.810242 21336.000000
797.833984 21681.000000
799.856323 21544.000000
801.877441 21738.000000
803.897217 21521.000000
805.915710 21879.000000
807.932983 21502.000000
809.948853 21519.000000
811.963562 21539.000000
813.976929 21322.000000
815.989075 21138.000000
818.000000 21089.000000
820.009583 20846.000000
822.017944 20903.000000
824.024902 20616.000000
826.030640 20676.000000
828.035156 20523.000000
830.038391 20264.000000
832.040344 20179.000000
834.041016 20168.000000
836.040466 20112.000000
838.038574 20034.000000
840.035583 19952.000000
842.031189 19951.000000
844.025635 19972.000000
846.018738 19800.000000
848.010620 19528.000000
850.001160 19588.000000
851.990417 19438.000000
853.978638 19327.000000
855.965454 19273.000000
857.951050 19316.000000
859.935364 19108.000000
861.918579 19112.000000
863.900391 19202.000000
865.880981 19438.000000
867.860291 18951.000000
869.838440 18924.000000
871.815247 19243.000000
873.790771 19347.000000
875.765259 19376.000000
877.738281 19630.000000
879.710266 19773.000000
881.680908 19819.000000
883.650391 19970.000000
885.618530 20059.000000
887.585510 19821.000000
889.551147 19878.000000
891.515625 19702.000000
893.478882 19843.000000
895.440918 19542.000000
897.401672 19418.000000
899.361206 19485.000000
901.319458 19228.000000
903.276611 19225.000000
905.232605 19428.000000
907.187195 19308.000000
909.140564 19389.000000
911.092773 19384.000000
913.043762 19274.000000
914.993469 18825.000000
916.942017 18709.000000
918.889343 18890.000000
920.835388 18560.000000
922.780151 18424.000000
924.723877 18066.000000
926.666443 18034.000000
928.607727 17815.000000
930.547668 17493.000000
932.486511 17588.000000
934.424072 17460.000000
936.360413 17432.000000
938.295593 17358.000000
940.229492 17354.000000
942.162292 17375.000000
944.093872 17356.000000
946.024292 17396.000000
947.953491 17400.000000
949.881348 17436.000000
951.808167 17323.000000
953.733704 17488.000000
955.657959 17508.000000
957.581116 17696.000000
959.503113 17644.000000
961.423828 17774.000000
963.343384 17907.000000
965.261780 17933.000000
967.179138 18016.000000
969.095032 18093.000000
971.009827 17971.000000
972.923401 18062.000000
974.835815 18035.000000
976.747009 18004.000000
978.657043 18127.000000
980.565796 17963.000000
982.473511 17916.000000
984.380005 17883.000000
986.285278 17847.000000
988.189453 17730.000000
990.092407 17666.000000
991.994141 17495.000000
993.894714 17994.000000
995.794128 17442.000000
997.692322 17547.000000
999.589355 17329.000000
1001.485168 17062.000000
1003.379822 16791.000000
1005.273376 16643.000000
1007.165649 16658.000000
1009.057007 16665.000000
1010.947021 16456.000000
1012.835815 16253.000000
1014.723450 16209.000000
1016.609924 16089.000000
1018.495239 16118.000000
1020.379395 16063.000000
1022.262329 16046.000000
1024.144287 16158.000000
1026.024902 16066.000000
1027.904419 16077.000000
1029.782959 16222.000000
1031.660156 16063.000000
1033.536011 16040.000000
1035.410889 16128.000000
1037.284790 16219.000000
1039.157227 16329.000000
1041.028687 16002.000000
1042.898804 15977.000000
1044.767944 16012.000000
1046.635864 15901.000000
1048.502686 15981.000000
1050.368408 16113.000000
1052.232910 16134.000000
1054.096313 16233.000000
1055.958374 16350.000000
1057.819458 16366.000000
1059.679443 16390.000000
1061.538086 16165.000000
1063.395630 16323.000000
1065.252075 16364.000000
1067.107422 16452.000000
1068.961548 16473.000000
1070.814819 16202.000000
1072.666626 16198.000000
1074.517456 16284.000000
1076.367065 16288.000000
1078.215454 16209.000000
1080.062988 16036.000000
1081.909180 16312.000000
1083.754150 16132.000000
1085.598267 16179.000000
1087.441040 16162.000000
1089.282593 16055.000000
1091.123413 16053.000000
1092.962646 15685.000000
1094.801147 15894.000000
1096.638306 15816.000000
1098.474243 15639.000000
1100.309204 15291.000000
1102.142944 15074.000000
1103.975708 15045.000000
1105.807129 14947.000000
1107.637695 15233.000000
1109.466919 14982.000000
1111.295166 14461.000000
1113.122192 14483.000000
1114.948242 14499.000000
1116.773071 14485.000000
1118.596802 14477.000000
1120.419312 14563.000000
1122.240723 14243.000000
1124.061279 14398.000000
1125.880371 14405.000000
1127.698608 14375.000000
1129.515503 14438.000000
1131.331543 14430.000000
1133.146362 14695.000000
1134.960083 14593.000000
1136.772705 14607.000000
1138.584106 14800.000000
1140.394531 14979.000000
1142.203857 14907.000000
1144.011841 14921.000000
1145.819092 15150.000000
1147.624878 15087.000000
1149.429810 14930.000000
1151.233643 15003.000000
1153.036255 15146.000000
1154.838013 15156.000000
1156.638306 14990.000000
1158.437622 15029.000000
1160.235962 14869.000000
1162.032959 14919.000000
1163.829224 14840.000000
1165.624146 14672.000000
1167.417969 14410.000000
1169.210938 14242.000000
1171.002563 14223.000000
1172.793213 14051.000000
1174.582886 14048.000000
1176.371094 14073.000000
1178.158447 14044.000000
1179.944702 14135.000000
1181.729858 14078.000000
1183.513916 13904.000000
1185.296875 13894.000000
1187.078857 13941.000000
1188.859619 13919.000000
1190.639404 13952.000000
1192.418091 13860.000000
1194.195801 13735.000000
1195.972290 13651.000000
1197.747681 13530.000000
1199.521973 13317.000000
1201.295166 13193.000000
1203.067505 13085.000000
1204.838501 13122.000000
1206.608643 13096.000000
1208.377563 13129.000000
1210.145386 13002.000000
1211.912354 12986.000000
1213.677979 13041.000000
1215.442627 13009.000000
1217.206177 12929.000000
1218.968628 12939.000000
1220.730225 12976.000000
1222.490601 12937.000000
1224.249878 12906.000000
1226.008301 12762.000000
1227.765503 12883.000000
1229.521606 12880.000000
1231.276611 12979.000000
1233.030762 13088.000000
1234.783569 12892.000000
1236.535400 13197.000000
1238.286377 13219.000000
1240.036011 13267.000000
1241.784790 13021.000000
1243.532227 13328.000000
1245.278931 13234.000000
1247.024414 13234.000000
1248.769043 13302.000000
1250.512329 13262.000000
1252.254639 13021.000000
1253.995850 13108.000000
1255.736206 12940.000000
1257.475464 12608.000000
1259.213501 12305.000000
1260.950684 12171.000000
1262.686646 12275.000000
1264.421631 12445.000000
1266.155640 12588.000000
1267.888672 12819.000000
1269.620483 12875.000000
1271.351318 13033.000000
1273.080933 13171.000000
1274.809692 13040.000000
1276.537354 13025.000000
1278.263916 13111.000000
1279.989624 13077.000000
1281.713989 13042.000000
1283.437500 13000.000000
1285.160034 12874.000000
1286.881592 12938.000000
1288.601929 12878.000000
1290.321289 12880.000000
1292.039551 12632.000000
1293.756836 12776.000000
1295.473145 12765.000000
1297.188232 12724.000000
1298.902344 12796.000000
1300.615479 12585.000000
1302.327759 12407.000000
1304.038818 12207.000000
1305.748901 12244.000000
1307.457886 12232.000000
1309.165649 12101.000000
1310.872803 12085.000000
1312.578491 12041.000000
1314.283447 11864.000000
1315.987427 12028.000000
1317.690186 12209.000000
1319.391968 12389.000000
1321.092896 12893.000000
1322.792480 8146.000000
1324.491211 3399.000000
1326.189209 11625.000000
1327.885864 11638.000000
1329.581421 11607.000000
1331.276123 11583.000000
1332.969604 11638.000000
1334.662231 11473.000000
1336.354004 11313.000000
1338.044434 11257.000000
1339.734131 11239.000000
1341.422729 11221.000000
1343.110229 11174.000000
1344.796753 11194.000000
1346.482178 11286.000000
1348.166626 11198.000000
1349.850220 11150.000000
1351.532593 11339.000000
1353.213989 11431.000000
1354.894531 11571.000000
1356.573853 11647.000000
1358.252563 11737.000000
1359.929932 11858.000000
1361.606201 11846.000000
1363.281494 11994.000000
1364.956055 11898.000000
1366.629395 11757.000000
1368.301758 11785.000000
1369.973145 11772.000000
1371.643555 11768.000000
1373.312866 11716.000000
1374.981201 11742.000000
1376.648682 11675.000000
1378.315063 11791.000000
1379.980469 11631.000000
1381.644897 11604.000000
1383.308105 11324.000000
1384.970703 11299.000000
1386.631958 11258.000000
1388.292358 11198.000000
1389.951660 11221.000000
1391.609985 11092.000000
1393.267578 11055.000000
1394.923950 11036.000000
1396.579468 11085.000000
1398.233765 11066.000000
1399.887207 11143.000000
1401.539551 11163.000000
1403.191162 11120.000000
1404.841553 11075.000000
1406.490845 10885.000000
1408.139404 10567.000000
1409.786865 10362.000000
1411.433350 10299.000000
1413.078979 10369.000000
1414.723633 10234.000000
1416.367065 10193.000000
1418.009644 10124.000000
1419.651123 10227.000000
1421.291748 10166.000000
1422.931396 10336.000000
1424.569946 10217.000000
1426.207642 10025.000000
1427.844238 9886.000000
1429.479858 10109.000000
1431.114746 10036.000000
1432.748535 10006.000000
1434.381226 9854.000000
1436.012939 9968.000000
1437.643799 9885.000000
1439.273560 9920.000000
1440.902222 9853.000000
1442.530273 9988.000000
1444.157227 9864.000000
1445.782959 9870.000000
1447.408081 9975.000000
1449.032104 9847.000000
1450.655151 10044.000000
1452.277222 10076.000000
1453.898193 10028.000000
1455.518188 9966.000000
1457.137451 10209.000000
1458.755371 10560.000000
1460.372681 8999.000000
1461.989014 10019.000000
1463.604126 10000.000000
1465.218384 9838.000000
1466.831787 10008.000000
1468.444092 9954.000000
1470.055542 10095.000000
1471.666138 10004.000000
1473.275513 10080.000000
1474.883911 10021.000000
1476.491455 10124.000000
1478.098022 10109.000000
1479.703857 10067.000000
1481.308472 9937.000000
1482.912231 9771.000000
1484.514771 9531.000000
1486.116699 9259.000000
1487.717407 9438.000000
1489.317383 9070.000000
1490.916260 9199.000000
1492.514282 9302.000000
1494.111206 9142.000000
1495.707275 9467.000000
1497.302368 9965.000000
1498.896484 9794.000000
1500.489868 9732.000000
1502.082153 9624.000000
1503.673218 9674.000000
1505.263794 9622.000000
1506.853027 9556.000000
1508.441650 9516.000000
1510.029175 9337.000000
1511.615601 9352.000000
1513.201294 9236.000000
1514.785889 9208.000000
1516.369629 9240.000000
1517.952271 9165.000000
1519.534180 9107.000000
1521.114990 9231.000000
1522.695068 9120.000000
1524.273926 9040.000000
1525.851929 8970.000000
1527.429199 8950.000000
1529.005249 8878.000000
1530.580566 8759.000000
1532.154785 8820.000000
1533.728271 8788.000000
1535.300537 8648.000000
1536.872070 8743.000000
1538.442627 8778.000000
1540.012329 8668.000000
1541.580811 8685.000000
1543.148560 8508.000000
1544.715454 8538.000000
1546.281128 8589.000000
1547.846069 8500.000000
1549.409912 8395.000000
1550.973145 8439.000000
1552.535034 8488.000000
1554.096313 8491.000000
1555.656494 8485.000000
1557.215942 8425.000000
1558.774292 8470.000000
1560.331909 8384.000000
1561.888428 8351.000000
1563.443726 8438.000000
1564.998413 8218.000000
1566.552368 8321.000000
1568.105347 8328.000000
1569.656982 8293.000000
1571.207886 8359.000000
1572.758057 8532.000000
1574.307251 8245.000000
1575.855103 8352.000000
1577.402466 8294.000000
1578.948853 8369.000000
1580.494385 8361.000000
1582.038940 8338.000000
1583.582275 8307.000000
1585.125000 8264.000000
1586.666870 8314.000000
1588.207642 8334.000000
1589.747437 8387.000000
1591.286499 8070.000000
1592.824463 8191.000000
1594.361938 8180.000000
1595.898071 8263.000000
1597.433105 8267.000000
1598.967651 8044.000000
1600.501221 8026.000000
1602.033936 8123.000000
1603.565063 8206.000000
1605.095947 8045.000000
1606.625977 8187.000000
1608.154785 7923.000000
1609.682495 8146.000000
1611.209595 8093.000000
1612.735962 8226.000000
1614.261353 8042.000000
1615.785889 8143.000000
1617.309082 8111.000000
1618.831543 8019.000000
1620.353271 7977.000000
1621.874146 8100.000000
1623.393555 7599.000000
1624.912476 7951.000000
1626.430664 7978.000000
1627.947998 7910.000000
1629.464233 7885.000000
1630.979126 7835.000000
1632.493530 7766.000000
1634.007202 7764.000000
1635.519775 7672.000000
1637.031128 7634.000000
1638.542114 7622.000000
1640.052002 7599.000000
1641.561035 7644.000000
1643.068726 7631.000000
1644.576050 7548.000000
1646.082520 7435.000000
1647.588013 7573.000000
1649.092651 7517.000000
1650.595825 7353.000000
1652.098389 7407.000000
1653.600586 7378.000000
1655.101440 7346.000000
1656.601196 7138.000000
1658.100098 7139.000000
1659.598633 7190.000000
1661.095947 7235.000000
1662.592529 7120.000000
1664.087524 7100.000000
1665.582275 7083.000000
1667.076172 7005.000000
1668.569092 7325.000000
1670.060669 5845.000000
1671.551758 6927.000000
1673.042236 6941.000000
1674.531616 6851.000000
1676.019531 6841.000000
1677.507202 6778.000000
1678.993896 6927.000000
1680.479736 6858.000000
1681.964722 6786.000000
1683.448242 6766.000000
1684.931519 6719.000000
1686.413940 6711.000000
1687.895264 6817.000000
1689.375122 6680.000000
1690.854736 6645.000000
1692.333618 6623.000000
1693.811523 6682.000000
1695.288452 6690.000000
1696.764160 6685.000000
1698.239502 6587.000000
1699.713623 6646.000000
1701.187134 6595.000000
1702.659180 6632.000000
1704.130981 6591.000000
1705.601807 6570.000000
1707.071777 6685.000000
1708.540405 6734.000000
1710.008545 6607.000000
1711.475952 6518.000000
1712.942261 6585.000000
1714.407959 6641.000000
1715.871948 6637.000000
1717.335815 6591.000000
1718.798828 6559.000000
1720.260864 6589.000000
1721.721680 6538.000000
1723.181885 6534.000000
1724.641357 6678.000000
1726.099976 6646.000000
1727.557617 6561.000000
1729.013916 6547.000000
1730.469971 6520.000000
1731.925049 6583.000000
1733.379150 6568.000000
1734.832031 6483.000000
1736.284668 6613.000000
1737.736206 6421.000000
1739.187012 6587.000000
1740.636841 6408.000000
1742.085327 6335.000000
1743.533447 6414.000000
1744.980713 6298.000000
1746.427246 6246.000000
1747.872192 6444.000000
1749.316895 6343.000000
1750.760742 6325.000000
1752.203735 6257.000000
1753.645264 6256.000000
1755.086548 6328.000000
1756.526978 5774.000000
1757.966431 6246.000000
1759.404907 6130.000000
1760.842407 6156.000000
1762.279419 5980.000000
1763.715454 6087.000000
1765.150635 6067.000000
1766.584351 6048.000000
1768.017944 6212.000000
1769.450562 5973.000000
1770.882324 6139.000000
1772.313232 6173.000000
1773.742920 6112.000000
1775.171875 5876.000000
1776.600342 5819.000000
1778.027832 5563.000000
1779.453979 5310.000000
1780.879883 5673.000000
1782.304688 5735.000000
1783.728882 5710.000000
1785.151611 5702.000000
1786.573853 5572.000000
1787.995361 5619.000000
1789.416138 5702.000000
1790.835938 5616.000000
1792.254395 5571.000000
1793.672363 5496.000000
1795.089722 5442.000000
1796.506226 5447.000000
1797.921265 5500.000000
1799.335938 5453.000000
1800.750000 5404.000000
1802.162842 5404.000000
1803.575073 5393.000000
1804.985962 5373.000000
1806.396362 5369.000000
1807.806030 5360.000000
1809.214722 5377.000000
1810.622314 5433.000000
1812.029419 5311.000000
1813.435669 5390.000000
1814.840942 5363.000000
1816.245117 5374.000000
1817.648926 5481.000000
1819.051758 5401.000000
1820.453735 5532.000000
1821.855103 5379.000000
1823.255005 5368.000000
1824.654297 5390.000000
1826.053101 5375.000000
1827.451050 5353.000000
1828.847656 5426.000000
1830.243652 5341.000000
1831.638916 5380.000000
1833.033569 5258.000000
1834.427246 5314.000000
1835.819580 5472.000000
1837.211426 5334.000000
1838.602661 5269.000000
1839.992920 5319.000000
1841.381958 5265.000000
1842.770630 5305.000000
1844.158325 5372.000000
1845.545288 5130.000000
1846.930908 5166.000000
1848.316284 5198.000000
1849.700806 5175.000000
1851.084595 5204.000000
1852.467285 5205.000000
1853.848755 5096.000000
1855.229736 4968.000000
1856.610229 4998.000000
1857.989746 5020.000000
1859.367798 5170.000000
1860.745728 5117.000000
1862.122681 4981.000000
1863.498901 5052.000000
1864.874268 4936.000000
1866.248169 4943.000000
1867.621948 4922.000000
1868.994873 4962.000000
1870.366699 4829.000000
1871.737549 4708.000000
1873.108032 4769.000000
1874.477417 4692.000000
1875.846313 4729.000000
1877.213623 4618.000000
1878.580811 4644.000000
1879.947021 4673.000000
1881.312500 4752.000000
1882.677246 4750.000000
1884.040405 4652.000000
1885.403442 4608.000000
1886.765625 4597.000000
1888.126953 4516.000000
1889.486938 4628.000000
1890.846558 4515.000000
1892.205566 4584.000000
1893.563599 4562.000000
1894.920776 4480.000000
1896.276733 4529.000000
1897.632446 4414.000000
1898.987183 4584.000000
1900.341064 4568.000000
1901.693848 4576.000000
1903.046143 4446.000000
1904.397705 4555.000000
1905.748413 4504.000000
1907.097900 4495.000000
1908.446899 4525.000000
1909.795044 4491.000000
1911.142578 4351.000000
1912.489380 4481.000000
1913.834595 4342.000000
1915.179565 4589.000000
1916.523804 4525.000000
1917.867188 4546.000000
1919.209229 4519.000000
1920.551025 4532.000000
1921.891968 4598.000000
1923.232178 4601.000000
1924.571411 4451.000000
1925.909668 4426.000000
1927.247314 4417.000000
1928.584229 4501.000000
1929.920288 4437.000000
1931.255127 4407.000000
1932.589600 4439.000000
1933.923340 4395.000000
1935.256226 4353.000000
1936.587646 4337.000000
1937.919189 4330.000000
1939.249390 4263.000000
1940.579102 4326.000000
1941.907959 4229.000000
1943.235596 4298.000000
1944.562744 4313.000000
1945.889160 4318.000000
1947.214844 4272.000000
1948.539185 4318.000000
1949.863281 4285.000000
1951.186523 4242.000000
1952.509033 4247.000000
1953.830444 4249.000000
1955.150879 4164.000000
1956.470703 4142.000000
1957.790161 4188.000000
1959.108643 4122.000000
1960.425781 4199.000000
1961.742554 4075.000000
1963.058594 4199.000000
1964.373901 4112.000000
1965.687744 4132.000000
1967.001343 3998.000000
1968.314209 4085.000000
1969.626221 4049.000000
1970.937622 4064.000000
1972.247681 3996.000000
1973.557251 3899.000000
1974.866089 3885.000000
1976.174316 3954.000000
1977.481201 3892.000000
1978.787476 3861.000000
1980.093384 3814.000000
1981.398071 3982.000000
1982.702271 3864.000000
1984.005249 3912.000000
1985.307861 3749.000000
1986.609497 3905.000000
1987.910522 3656.000000
1989.209961 3747.000000
1990.509521 3731.000000
1991.807983 3758.000000
1993.105957 3738.000000
1994.402344 3680.000000
1995.698730 3609.000000
1996.994141 3670.000000
1998.288818 3632.000000
1999.582642 3673.000000
2000.875244 3605.000000
2002.167358 3601.000000
2003.458984 3513.000000
2004.749878 3547.000000
2006.039185 3566.000000
2007.328247 3550.000000
2008.616577 3501.000000
2009.904175 3562.000000
2011.190918 3517.000000
2012.476563 3477.000000
2013.761841 3512.000000
2015.046143 3497.000000
2016.329834 3499.000000
2017.612183 3459.000000
2018.894165 3478.000000
2020.175659 3483.000000
2021.456177 3510.000000
2022.735962 3447.000000
2024.014648 3365.000000
2025.292603 3440.000000
2026.570068 3427.000000
2027.846924 3408.000000
2029.122070 3458.000000
2030.397339 3423.000000
2031.671631 3469.000000
2032.944946 3477.000000
2034.217407 3444.000000
2035.489502 3548.000000
2036.760498 3342.000000
2038.031250 3526.000000
2039.300659 3414.000000
2040.568970 3491.000000
2041.837280 3376.000000
2043.104614 3449.000000
2044.371216 3464.000000
2045.636597 3568.000000
2046.901367 3118.000000
2048.165771 3357.000000
2049.429199 3373.000000
2050.692139 3364.000000
2051.953125 3412.000000
2053.214600 3273.000000
2054.474854 3255.000000
2055.734375 3339.000000
2056.993164 3293.000000
2058.250977 3252.000000
2059.508301 3227.000000
2060.764893 3273.000000
2062.020020 3227.000000
2063.275146 3250.000000
2064.529297 3260.000000
2065.782715 3093.000000
2067.035400 3242.000000
2068.286865 3190.000000
2069.538086 3177.000000
2070.788574 3172.000000
2072.038330 3281.000000
2073.286621 3533.000000
2074.534912 3143.000000
2075.782227 3119.000000
2077.028809 3243.000000
2078.274658 3163.000000
2079.519287 3146.000000
2080.763428 3026.000000
2082.007080 3051.000000
2083.249756 2982.000000
2084.491211 3051.000000
2085.732422 3048.000000
2086.973145 2987.000000
2088.212891 3042.000000
2089.451416 3012.000000
2090.689453 3018.000000
2091.926758 2959.000000
2093.163818 3003.000000
2094.399414 2964.000000
2095.634277 2931.000000
2096.868896 2940.000000
2098.102539 2926.000000
2099.335205 2877.000000
2100.567139 2967.000000
2101.798584 2930.000000
2103.029053 2880.000000
2104.258789 2820.000000
2105.488281 2829.000000
2106.715820 2819.000000
2107.943604 2809.000000
2109.170654 2792.000000
2110.396729 2841.000000
2111.621338 2843.000000
2112.846191 2677.000000
2114.069824 2745.000000
2115.292969 2828.000000
2116.514893 2753.000000
2117.736572 2754.000000
2118.957275 2798.000000
2120.177246 2897.000000
2121.396729 2828.000000
2122.614746 2837.000000
2123.832764 2776.000000
2125.049805 2772.000000
2126.266357 2798.000000
2127.481201 2896.000000
2128.696289 2834.000000
2129.910400 2747.000000
2131.123779 2699.000000
2132.336426 2720.000000
2133.547607 2771.000000
2134.759033 2749.000000
2135.969238 2783.000000
2137.178955 2674.000000
2138.387207 2808.000000
2139.595459 2737.000000
2140.802979 2677.000000
2142.009277 2423.000000
2143.214844 2672.000000
2144.420166 2680.000000
2145.624512 2771.000000
2146.828125 2673.000000
2148.031250 2662.000000
2149.232910 2613.000000
2150.434326 2680.000000
2151.635010 2602.000000
2152.834961 2766.000000
2154.033691 2672.000000
2155.232178 2690.000000
2156.430176 2632.000000
2157.627197 2624.000000
2158.823486 2604.000000
2160.018555 2609.000000
2161.213379 2581.000000
2162.407471 2564.000000
2163.600586 2556.000000
2164.792725 2408.000000
2165.984619 2445.000000
2167.175781 2466.000000
2168.365967 2368.000000
2169.555420 2420.000000
2170.744385 2459.000000
2171.932373 2403.000000
2173.120117 2304.000000
2174.306396 2343.000000
2175.491943 2324.000000
2176.677246 2273.000000
2177.862061 2381.000000
2179.045654 2305.000000
2180.228516 2297.000000
2181.410400 2333.000000
2182.592041 2305.000000
2183.773193 2299.000000
2184.953125 2273.000000
2186.132080 2203.000000
2187.310547 2181.000000
2188.488770 2289.000000
2189.665771 2218.000000
2190.841797 2238.000000
2192.017578 2343.000000
2193.192871 2246.000000
2194.366699 2258.000000
2195.540039 2248.000000
2196.713135 2300.000000
2197.885010 2310.000000
2199.056396 2276.000000
2200.227295 2089.000000
2201.396484 2299.000000
2202.565674 2236.000000
2203.734375 2272.000000
2204.902100 2307.000000
2206.068848 2323.000000
2207.234863 2227.000000
2208.400391 2288.000000
2209.565674 2220.000000
2210.729492 2190.000000
2211.892822 2235.000000
2213.054932 2245.000000
2214.217285 2239.000000
2215.378418 2156.000000
2216.538574 2212.000000
2217.698242 2110.000000
2218.857666 2178.000000
2220.015869 2206.000000
2221.173096 2177.000000
2222.330078 2260.000000
2223.486328 2208.000000
2224.641846 2127.000000
2225.796631 2196.000000
2226.950439 2090.000000
2228.103271 2049.000000
2229.256592 2109.000000
2230.407959 2139.000000
2231.559082 2007.000000
2232.709473 2147.000000
2233.859375 2066.000000
2235.008301 2070.000000
2236.156738 2158.000000
2237.303711 2158.000000
2238.450928 2114.000000
2239.596924 2032.000000
2240.742676 1965.000000
2241.886719 2023.000000
2243.031006 1937.000000
2244.174316 2061.000000
2245.316895 1851.000000
2246.458496 1907.000000
2247.599854 1923.000000
2248.740234 1935.000000
2249.879883 1930.000000
2251.019043 1809.000000
2252.156982 1855.000000
2253.294922 1801.000000
2254.431885 1833.000000
2255.568115 1855.000000
2256.703369 1886.000000
2257.837891 1934.000000
2258.972168 1874.000000
2260.105957 1967.000000
2261.238281 1795.000000
2262.370117 1824.000000
2263.501465 1823.000000
2264.631836 1867.000000
2265.761963 1678.000000
2266.890869 1633.000000
2268.019287 1737.000000
2269.147217 1731.000000
2270.274170 1650.000000
2271.400391 1724.000000
2272.525635 1742.000000
2273.650879 1761.000000
2274.775391 1695.000000
2275.898682 1713.000000
2277.021240 1788.000000
2278.143311 1813.000000
2279.264893 1786.000000
2280.385742 1681.000000
2281.505371 1834.000000
2282.624512 1697.000000
2283.743408 1782.000000
2284.861572 1564.000000
2285.978760 1653.000000
2287.094971 1708.000000
2288.210938 1687.000000
2289.326172 1740.000000
2290.440674 1708.000000
2291.553955 1726.000000
2292.667236 1633.000000
2293.779785 1782.000000
2294.891602 1669.000000
2296.002686 1728.000000
2297.112549 1699.000000
2298.221924 1763.000000
2299.331055 1664.000000
2300.439209 1773.000000
2301.546387 1700.000000
2302.653320 1703.000000
2303.759521 1654.000000
2304.865234 1740.000000
2305.969482 1746.000000
2307.073486 1608.000000
2308.177002 1849.000000
2309.280029 1652.000000
2310.381836 1641.000000
2311.482910 1679.000000
2312.583496 1620.000000
2313.683594 1674.000000
2314.782959 1669.000000
2315.880859 1649.000000
2316.979248 1630.000000
2318.076172 1539.000000
2319.172852 1665.000000
2320.269043 1547.000000
2321.363525 1663.000000
2322.458008 1516.000000
2323.551758 1583.000000
2324.645264 1698.000000
2325.737061 1507.000000
2326.828857 1587.000000
2327.919922 1693.000000
2329.010254 1605.000000
2330.099609 1760.000000
2331.188965 1673.000000
2332.277100 1705.000000
2333.364746 1642.000000
2334.452148 1589.000000
2335.537842 1520.000000
2336.623291 1506.000000
2337.708496 1498.000000
2338.792725 1495.000000
2339.875977 1446.000000
2340.958984 1436.000000
2342.041016 1528.000000
2343.122803 1431.000000
2344.203857 1438.000000
2345.283691 1525.000000
2346.363037 1428.000000
2347.441895 1365.000000
2348.520264 1502.000000
2349.597168 1464.000000
2350.673828 1366.000000
2351.750244 1472.000000
2352.825684 1413.000000
2353.900146 1441.000000
2354.974365 1363.000000
2356.047852 1456.000000
2357.120850 1361.000000
2358.192627 1378.000000
2359.264160 1409.000000
2360.334717 1447.000000
2361.405029 1327.000000
2362.474365 1253.000000
2363.542725 1319.000000
2364.610840 1303.000000
2365.678223 1378.000000
2366.745117 1349.000000
2367.811279 1303.000000
2368.876221 1350.000000
2369.941162 1242.000000
2371.005371 1237.000000
2372.068848 1217.000000
2373.131104 1266.000000
2374.193359 1204.000000
2375.254639 1331.000000
2376.315674 1198.000000
2377.375488 1274.000000
2378.434570 1261.000000
2379.493652 1327.000000
2380.551758 1251.000000
2381.609131 1216.000000
2382.665527 1155.000000
2383.721680 1374.000000
2384.777344 1206.000000
2385.832275 1226.000000
2386.885742 1213.000000
2387.939453 1199.000000
2388.992188 1267.000000
2390.044434 1352.000000
2391.095947 1216.000000
2392.146484 1241.000000
2393.196777 1303.000000
2394.246094 1263.000000
2395.295410 1165.000000
2396.343262 1193.000000
2397.390625 1358.000000
2398.437744 1282.000000
2399.483887 1285.000000
2400.529297 1266.000000
2401.573975 1263.000000
2402.618652 1251.000000
2403.661865 1208.000000
2404.705078 1186.000000
2405.746826 1228.000000
2406.788818 1315.000000
2407.830078 1222.000000
2408.870361 1227.000000
2409.909912 1197.000000
2410.948486 1284.000000
2411.987305 1161.000000
2413.024902 1244.000000
2414.062256 1235.000000
2415.098389 1158.000000
2416.134277 1248.000000
2417.169434 1175.000000
2418.204102 1211.000000
2419.237305 1333.000000
2420.270752 1240.000000
2421.303223 1148.000000
2422.335449 1182.000000
2423.366211 1238.000000
2424.396973 1262.000000
2425.427246 1209.000000
2426.456299 1236.000000
2427.485352 1181.000000
2428.512695 1120.000000
2429.540527 1144.000000
2430.567139 1127.000000
2431.593506 1136.000000
2432.618408 1155.000000
2433.643555 1095.000000
2434.667725 1161.000000
2435.691650 1262.000000
2436.714355 1095.000000
2437.736328 1058.000000
2438.758057 1054.000000
2439.779053 1058.000000
2440.799561 1140.000000
2441.818848 1066.000000
2442.838135 1071.000000
2443.856445 1117.000000
2444.874512 1017.000000
2445.891113 1035.000000
2446.907715 1111.000000
2447.923584 1049.000000
2448.939453 1153.000000
2449.953857 1021.000000
2450.967529 1122.000000
2451.980713 1053.000000
2452.993652 1082.000000
2454.005859 1034.000000
2455.017090 1085.000000
2456.028076 1047.000000
2457.038330 1010.000000
2458.048096 1072.000000
2459.056885 984.000000
2460.064941 957.000000
2461.072998 978.000000
2462.079834 1003.000000
2463.086426 945.000000
2464.091797 1000.000000
2465.096924 915.000000
2466.101807 935.000000
2467.105469 902.000000
2468.108887 994.000000
2469.111328 1008.000000
2470.113525 983.000000
2471.115234 927.000000
2472.115967 841.000000
2473.115723 724.000000
2474.115479 924.000000
2475.114258 974.000000
2476.112549 894.000000
2477.109863 883.000000
2478.106934 960.000000
2479.104004 976.000000
2480.099609 968.000000
2481.095215 883.000000
2482.089111 894.000000
2483.083008 892.000000
2484.076416 971.000000
2485.069336 957.000000
2486.061279 870.000000
2487.052490 928.000000
2488.043457 956.000000
2489.033936 998.000000
2490.023438 999.000000
2491.012207 975.000000
2492.000977 908.000000
2492.988770 927.000000
2493.975342 837.000000
2494.961914 915.000000
2495.947998 934.000000
2496.933350 864.000000
2497.917725 933.000000
2498.901855 970.000000
2499.885986 890.000000
2500.868652 879.000000
2501.850830 1041.000000
2502.832520 846.000000
2503.813477 923.000000
2504.793945 943.000000
2505.774170 919.000000
2506.752930 939.000000
2507.731445 875.000000
2508.709473 898.000000
2509.687012 790.000000
2510.663574 879.000000
2511.639893 850.000000
2512.615479 874.000000
2513.590576 885.000000
2514.565186 827.000000
2515.538574 793.000000
2516.511719 909.000000
2517.484619 848.000000
2518.456543 902.000000
2519.427734 898.000000
2520.398438 842.000000
2521.368896 918.000000
2522.338623 839.000000
2523.307373 848.000000
2524.275391 800.000000
2525.243408 928.000000
2526.210449 859.000000
2527.177246 842.000000
2528.142822 819.000000
2529.108398 896.000000
2530.073242 723.000000
2531.037598 826.000000
2532.000732 827.000000
2532.964111 819.000000
2533.926514 716.000000
2534.888672 674.000000
2535.849609 899.000000
2536.809814 850.000000
2537.770264 841.000000
2538.729736 884.000000
2539.688477 813.000000
2540.646240 846.000000
2541.604248 832.000000
2542.561523 753.000000
2543.517822 720.000000
2544.473877 738.000000
2545.428711 689.000000
2546.383789 725.000000
2547.338135 762.000000
2548.291748 221.000000
2549.244385 857.000000
2550.196777 669.000000
2551.148682 793.000000
2552.099854 772.000000
2553.050293 737.000000
2554.000244 778.000000
2554.949951 742.000000
2555.898926 810.000000
2556.847412 773.000000
2557.794678 702.000000
2558.741943 708.000000
2559.688477 760.000000
2560.634521 704.000000
2561.579590 755.000000
2562.524414 716.000000
2563.468750 689.000000
2564.412598 683.000000
2565.355957 824.000000
2566.297852 706.000000
2567.239990 693.000000
2568.181396 746.000000
2569.122070 673.000000
2570.062012 660.000000
2571.001953 696.000000
2571.940918 730.000000
2572.879639 741.000000
2573.817383 733.000000
2574.754883 701.000000
2575.691650 807.000000
2576.627686 744.000000
2577.563232 675.000000
2578.498047 749.000000
2579.432861 674.000000
2580.366699 754.000000
2581.300049 585.000000
2582.232666 678.000000
2583.165039 766.000000
2584.096680 649.000000
2585.027832 579.000000
2585.958496 758.000000
2586.887939 644.000000
2587.817383 640.000000
2588.746338 658.000000
2589.675049 726.000000
2590.602051 589.000000
2591.529297 620.000000
2592.456055 697.000000
2593.382080 477.000000
2594.307861 696.000000
2595.232422 717.000000
2596.156738 668.000000
2597.080566 691.000000
2598.003906 626.000000
2598.926270 647.000000
2599.848389 715.000000
2600.770020 611.000000
2601.690918 734.000000
2602.611084 645.000000
2603.531006 701.000000
2604.450439 603.000000
2605.369629 589.000000
2606.287842 705.000000
2607.204834 634.000000
2608.122070 702.000000
2609.039063 631.000000
2609.955078 626.000000
2610.869873 722.000000
2611.785156 671.000000
2612.699707 688.000000
2613.613281 615.000000
2614.526855 605.000000
2615.439209 659.000000
2616.351563 618.000000
2617.262939 587.000000
2618.174072 614.000000
2619.084473 586.000000
2619.994629 622.000000
2620.904053 636.000000
2621.812988 617.000000
2622.720947 611.000000
2623.629150 569.000000
2624.536377 759.000000
2625.443115 596.000000
2626.349121 658.000000
2627.254883 570.000000
2628.159912 743.000000
2629.064697 585.000000
2629.968750 588.000000
2630.871826 505.000000
2631.774902 580.000000
2632.677002 630.000000
2633.579102 571.000000
2634.480957 589.000000
2635.381104 606.000000
2636.281494 528.000000
2637.181152 612.000000
2638.080566 549.000000
2638.978516 610.000000
2639.876953 583.000000
2640.774902 563.000000
2641.672119 520.000000
2642.568115 507.000000
2643.464111 773.000000
2644.359863 437.000000
2645.254883 634.000000
2646.149658 484.000000
2647.042969 530.000000
2647.936279 502.000000
2648.829346 538.000000
2649.722168 592.000000
2650.613281 493.000000
2651.504639 541.000000
2652.395508 552.000000
2653.285645 484.000000
2654.175537 479.000000
2655.064209 498.000000
2655.953125 595.000000
2656.841553 504.000000
2657.729004 532.000000
2658.615479 499.000000
2659.502441 564.000000
2660.388672 423.000000
2661.274414 533.000000
2662.158936 433.000000
2663.043457 578.000000
2663.927734 489.000000
2664.811279 466.000000
2665.694336 545.000000
2666.576660 562.000000
2667.458496 504.000000
2668.339600 521.000000
2669.220947 508.000000
2670.100830 434.000000
2670.980957 493.000000
2671.860352 524.000000
2672.739746 441.000000
2673.618408 516.000000
2674.495361 508.000000
2675.373047 457.000000
2676.250000 559.000000
2677.126221 582.000000
2678.001953 552.000000
2678.876953 557.000000
2679.752197 478.000000
2680.626465 589.000000
2681.500244 535.000000
2682.373291 365.000000
2683.246094 514.000000
2684.118652 504.000000
2684.990479 441.000000
2685.861572 377.000000
2686.732422 370.000000
2687.602783 520.000000
2688.472900 517.000000
2689.341309 542.000000
2690.210449 529.000000
2691.078857 547.000000
2691.947021 444.000000
2692.814453 470.000000
2693.680664 515.000000
2694.547363 467.000000
2695.413086 402.000000
2696.278809 475.000000
2697.143066 512.000000
2698.008057 555.000000
2698.871582 415.000000
2699.735352 484.000000
2700.597656 462.000000
2701.460449 401.000000
2702.322266 381.000000
2703.183594 453.000000
2704.044922 528.000000
2704.905029 425.000000
2705.765137 383.000000
2706.624756 441.000000
2707.484131 454.000000
2708.341797 467.000000
2709.199707 453.000000
2710.058105 453.000000
2710.915283 481.000000
2711.771729 516.000000
2712.627686 434.000000
2713.483643 407.000000
2714.338867 378.000000
2715.193359 437.000000
2716.047363 484.000000
2716.901367 428.000000
2717.754395 534.000000
2718.607666 332.000000
2719.459229 411.000000
2720.311279 453.000000
2721.163086 352.000000
2722.013672 445.000000
2722.864258 396.000000
2723.714355 403.000000
2724.563721 438.000000
2725.413086 388.000000
2726.261230 398.000000
2727.108887 443.000000
2727.957031 397.000000
2728.803955 356.000000
2729.651367 420.000000
2730.497314 348.000000
2731.342529 359.000000
2732.188232 429.000000
2733.032959 472.000000
2733.877686 457.000000
2734.721191 324.000000
2735.564941 394.000000
2736.407959 398.000000
2737.250488 392.000000
2738.092041 346.000000
2738.934082 380.000000
2739.775146 440.000000
2740.615967 443.000000
2741.456543 443.000000
2742.295898 296.000000
2743.135254 368.000000
2743.974609 407.000000
2744.812744 385.000000
2745.650391 338.000000
2746.488037 451.000000
2747.325195 347.000000
2748.162109 353.000000
2748.998535 362.000000
2749.833740 285.000000
2750.669189 437.000000
2751.504150 358.000000
2752.338379 398.000000
2753.172363 328.000000
2754.005859 338.000000
2754.839355 311.000000
2755.671875 364.000000
2756.503906 380.000000
2757.335449 403.000000
2758.166992 380.000000
2758.997559 414.000000
2759.828369 357.000000
2760.657959 320.000000
2761.487549 305.000000
2762.316895 324.000000
2763.145508 304.000000
2763.973633 383.000000
2764.801270 485.000000
2765.628906 487.000000
2766.456055 353.000000
2767.282471 360.000000
2768.108398 462.000000
2768.933838 402.000000
2769.759033 374.000000
2770.584229 281.000000
2771.408203 309.000000
2772.232178 328.000000
2773.056152 379.000000
2773.878906 353.000000
2774.701904 318.000000
2775.523682 302.000000
2776.345459 331.000000
2777.167236 346.000000
2777.988037 295.000000
2778.808105 319.000000
2779.628418 384.000000
2780.448242 454.000000
2781.268066 279.000000
2782.085938 341.000000
2782.905029 286.000000
2783.722900 329.000000
2784.540527 312.000000
2785.357666 333.000000
2786.174316 358.000000
2786.990723 395.000000
2787.806641 267.000000
2788.622314 380.000000
2789.437012 223.000000
2790.252197 347.000000
2791.066650 319.000000
2791.880615 270.000000
2792.694336 277.000000
2793.506836 410.000000
2794.319580 299.000000
2795.131836 313.000000
2795.943604 336.000000
2796.754639 302.000000
2797.566406 291.000000
2798.376953 287.000000
2799.187500 267.000000
2799.996582 339.000000
2800.806396 301.000000
2801.615479 338.000000
2802.424316 346.000000
2803.232666 325.000000
2804.040039 269.000000
2804.847900 282.000000
2805.655029 264.000000
2806.461914 307.000000
2807.267578 351.000000
2808.073730 307.000000
2808.879150 425.000000
2809.684570 312.000000
2810.489258 294.000000
2811.292969 214.000000
2812.097168 282.000000
2812.900879 281.000000
2813.704346 292.000000
2814.506348 301.000000
2815.309082 252.000000
2816.111084 288.000000
2816.912842 253.000000
2817.714111 319.000000
2818.514893 245.000000
2819.315186 428.000000
2820.115723 372.000000
2820.915283 302.000000
2821.714355 310.000000
2822.513428 342.000000
2823.312256 357.000000
2824.110596 339.000000
2824.907959 392.000000
2825.705566 345.000000
2826.502441 356.000000
2827.299561 313.000000
2828.095947 262.000000
2828.891602 349.000000
2829.687256 209.000000
2830.482666 324.000000
2831.277588 267.000000
2832.071777 251.000000
2832.865967 335.000000
2833.659912 209.000000
2834.453369 192.000000
2835.246094 303.000000
2836.038574 203.000000
2836.831055 299.000000
2837.623291 258.000000
2838.415039 284.000000
2839.205811 225.000000
2839.996582 254.000000
2840.787598 342.000000
2841.577637 259.000000
2842.367188 256.000000
2843.156982 263.000000
2843.945801 260.000000
2844.734619 324.000000
2845.523438 142.000000
2846.311279 232.000000
2847.098633 269.000000
2847.886230 272.000000
2848.673340 281.000000
2849.459717 268.000000
2850.246094 212.000000
2851.032227 310.000000
2851.817871 255.000000
2852.602539 313.000000
2853.387695 303.000000
2854.172607 233.000000
2854.956787 324.000000
2855.740967 262.000000
2856.523926 162.000000
2857.307129 258.000000
2858.090088 282.000000
2858.872559 283.000000
2859.654785 228.000000
2860.436523 124.000000
2861.218018 204.000000
2861.999756 272.000000
2862.780762 263.000000
2863.561035 296.000000
2864.341064 276.000000
2865.121094 325.000000
2865.900879 216.000000
2866.679688 257.000000
2867.458740 241.000000
2868.237305 265.000000
2869.015625 249.000000
2869.793457 263.000000
2870.571045 251.000000
2871.348389 274.000000
2872.125488 206.000000
2872.902100 186.000000
2873.678223 235.000000
2874.454346 266.000000
2875.229980 284.000000
2876.005371 289.000000
2876.780273 264.000000
2877.554932 230.000000
2878.329590 292.000000
2879.104004 256.000000
2879.877686 338.000000
2880.650635 304.000000
2881.424316 352.000000
2882.197021 257.000000
2882.969727 304.000000
2883.741699 236.000000
2884.513428 288.000000
2885.285645 236.000000
2886.056641 189.000000
2886.827148 221.000000
2887.598145 315.000000
2888.369141 224.000000
2889.139404 236.000000
2889.908691 206.000000
2890.678223 122.000000
2891.447754 330.000000
2892.216797 264.000000
2892.985352 269.000000
2893.753906 228.000000
2894.521484 240.000000
2895.289551 168.000000
2896.057129 260.000000
2896.824707 242.000000
2897.591064 300.000000
2898.358398 212.000000
2899.124512 196.000000
2899.890869 192.000000
2900.655762 168.000000
2901.421143 261.000000
2902.187012 244.000000
2902.951416 160.000000
2903.715820 273.000000
2904.480469 140.000000
2905.244141 247.000000
2906.008545 352.000000
2906.772217 183.000000
2907.535156 247.000000
2908.297852 308.000000
2909.061035 279.000000
2909.823730 193.000000
2910.585205 218.000000
2911.347168 218.000000
spectrumdark 2048
-96.883698 6145.000000
-94.256828 6145.000000
-91.631836 6011.000000
-89.008736 6407.000000
-86.387505 5826.000000
-83.768173 6185.000000
-81.150703 6014.000000
-78.535110 6394.000000
-75.921394 6191.000000
-73.309555 5856.000000
-70.699577 6043.000000
-68.091484 5912.000000
-65.485237 5956.000000
-62.880871 6002.000000
-60.278362 6129.000000
-57.677708 5626.000000
-55.078915 6205.000000
-52.481979 6821.000000
-49.886898 6477.000000
-47.293671 6506.000000
-44.702293 6305.000000
-42.112762 6774.000000
-39.525074 5854.000000
-36.939236 6015.000000
-34.355240 6480.000000
-31.773079 5667.000000
-29.192766 6281.000000
-26.614281 5680.000000
-24.037638 6191.000000
-21.462820 6260.000000
-18.889843 6474.000000
-16.318686 6438.000000
-13.749362 6781.000000
-11.181864 7710.000000
-8.616184 6293.000000
-6.052330 6397.000000
-3.490290 6017.000000
-0.930074 5818.000000
1.628334 6128.000000
4.184921 6891.000000
6.739703 6639.000000
9.292668 6010.000000
11.843833 6737.000000
14.393185 6453.000000
16.940741 6719.000000
19.486485 6011.000000
22.030436 5732.000000
24.572582 6726.000000
27.112932 6715.000000
29.651497 6919.000000
32.188263 6094.000000
34.723228 5781.000000
37.256416 7264.000000
39.787823 6334.000000
42.317436 7066.000000
44.845253 6537.000000
47.371311 7827.000000
49.895580 5652.000000
52.418079 6224.000000
54.938782 6717.000000
57.457729 6274.000000
59.974903 6422.000000
62.490299 6620.000000
65.003922 5621.000000
67.515785 5622.000000
70.025902 6492.000000
72.534225 6492.000000
75.040794 5924.000000
77.545616 6374.000000
80.048683 6388.000000
82.549973 6284.000000
85.049522 6081.000000
87.547318 6321.000000
90.043381 5760.000000
92.537666 7273.000000
95.030212 5812.000000
97.521042 6850.000000
100.010101 7098.000000
102.497414 6349.000000
104.983002 6167.000000
107.466850 6476.000000
109.948952 5801.000000
112.429329 6536.000000
114.907982 6115.000000
117.384911 6455.000000
119.860085 7233.000000
122.333549 6806.000000
124.805283 5860.000000
127.275307 6675.000000
129.743576 6259.000000
132.210175 6271.000000
134.675018 5688.000000
137.138168 6176.000000
139.599579 7222.000000
142.059296 6807.000000
144.517288 6379.000000
146.973587 5980.000000
149.428177 5753.000000
151.881042 6788.000000
154.332230 6350.000000
156.781723 6602.000000
159.229492 6045.000000
161.675552 6515.000000
164.119934 8692.000000
166.562637 6421.000000
169.003647 6768.000000
171.442947 6210.000000
173.880539 7198.000000
176.316498 6592.000000
178.750717 6906.000000
181.183258 7108.000000
183.614151 6565.000000
186.043320 7121.000000
188.470840 6724.000000
190.896683 6289.000000
193.320847 6641.000000
195.743347 7155.000000
198.164154 7346.000000
200.583298 6456.000000
203.000778 5999.000000
205.416565 7594.000000
207.830704 6975.000000
210.243210 6357.000000
212.654037 6101.000000
215.063187 6178.000000
217.470703 7372.000000
219.876511 6103.000000
222.280731 6542.000000
224.683243 6607.000000
227.084137 6905.000000
229.483383 6525.000000
231.880966 6826.000000
234.276886 7348.000000
236.671188 6470.000000
239.063828 5891.000000
241.454849 6783.000000
243.844208 6488.000000
246.231949 6293.000000
248.618042 6940.000000
251.002502 6034.000000
253.385315 7847.000000
255.766556 6572.000000
258.146088 6619.000000
260.524048 6428.000000
262.900330 7540.000000
265.275055 7498.000000
267.648132 7792.000000
270.019562 6214.000000
272.389343 6380.000000
274.757568 5825.000000
277.124146 6309.000000
279.489136 6708.000000
281.852509 5960.000000
284.214233 6241.000000
286.574371 7098.000000
288.932892 5974.000000
291.289825 6440.000000
293.645142 6365.000000
295.998871 5971.000000
298.350952 5960.000000
300.701477 6305.000000
303.050415 6356.000000
305.397705 6750.000000
307.743469 6450.000000
310.087555 6417.000000
312.430115 7354.000000
314.771057 7485.000000
317.110382 7165.000000
319.448151 6925.000000
321.784363 8030.000000
324.118927 6228.000000
326.451935 6414.000000
328.783386 5967.000000
331.113251 6607.000000
333.441528 6436.000000
335.768188 7229.000000
338.093353 6344.000000
340.416901 6183.000000
342.738892 5995.000000
345.059326 7453.000000
347.378143 7766.000000
349.695404 5988.000000
352.011139 5831.000000
354.325287 6942.000000
356.637848 6287.000000
358.948853 6393.000000
361.258331 7021.000000
363.566284 6362.000000
365.872620 5688.000000
368.177368 6427.000000
370.480652 6383.000000
372.782318 6190.000000
375.082489 6397.000000
377.381104 6261.000000
379.678162 5747.000000
381.973663 6070.000000
384.267639 5832.000000
386.560028 5203.000000
388.850922 5542.000000
391.140289 6187.000000
393.428070 6237.000000
395.714325 6473.000000
397.999084 6947.000000
400.282227 6001.000000
402.563934 6335.000000
404.844116 6150.000000
407.122711 7302.000000
409.399780 6451.000000
411.675323 6751.000000
413.949341 6430.000000
416.221924 6385.000000
418.492889 6221.000000
420.762360 6351.000000
423.030334 7062.000000
425.296753 7225.000000
427.561676 6295.000000
429.825134 6291.000000
432.087006 6435.000000
434.347412 5981.000000
436.606262 6587.000000
438.863647 6086.000000
441.119537 5658.000000
443.373932 5763.000000
445.626801 5439.000000
447.878113 6902.000000
450.128021 6077.000000
452.376343 6205.000000
454.623230 5626.000000
456.868652 6507.000000
459.112518 6409.000000
461.354889 6783.000000
463.595764 5598.000000
465.835236 6637.000000
468.073120 5403.000000
470.309570 5827.000000
472.544495 6075.000000
474.777954 7349.000000
477.009979 6647.000000
479.240479 5678.000000
481.469482 6383.000000
483.697021 6235.000000
485.923065 5942.000000
488.147675 6583.000000
490.370819 5809.000000
492.592499 6370.000000
494.812622 6658.000000
497.031342 5644.000000
499.248566 6290.000000
501.464417 5542.000000
503.678650 6201.000000
505.891571 6424.000000
508.102905 6360.000000
510.312805 6832.000000
512.521240 6476.000000
514.728333 6522.000000
516.933838 6436.000000
519.137939 6513.000000
521.340515 6188.000000
523.541687 6496.000000
525.741516 6625.000000
527.939819 6884.000000
530.136597 5298.000000
532.332031 5761.000000
534.525940 5593.000000
536.718506 7514.000000
538.909546 6717.000000
541.099182 5992.000000
543.287415 6866.000000
545.474121 7011.000000
547.659363 6769.000000
549.843323 6251.000000
552.025696 6368.000000
554.206726 6188.000000
556.386230 5990.000000
558.564453 5834.000000
560.741150 6035.000000
562.916443 6377.000000
565.090332 6421.000000
567.262756 5888.000000
569.433777 6048.000000
571.603333 6262.000000
573.771606 5290.000000
575.938354 6363.000000
578.103638 6289.000000
580.267517 6072.000000
582.430115 5732.000000
584.591187 5996.000000
586.750854 5590.000000
588.909180 5802.000000
591.065979 6129.000000
593.221436 6544.000000
595.375488 5721.000000
597.528198 6140.000000
599.679382 7228.000000
601.829224 6743.000000
603.977722 6660.000000
606.124634 6015.000000
608.270325 6448.000000
610.414612 6365.000000
612.557434 7006.000000
614.698792 6144.000000
616.838928 6435.000000
618.977539 7696.000000
621.114868 5703.000000
623.250732 6580.000000
625.385193 6837.000000
627.518188 7098.000000
629.650024 6576.000000
631.780396 6583.000000
633.909363 6741.000000
636.036865 6495.000000
638.163086 6168.000000
640.287781 7232.000000
642.411255 6338.000000
644.533386 6762.000000
646.654053 6811.000000
648.773376 6576.000000
650.891296 5597.000000
653.007874 5596.000000
655.123047 6396.000000
657.236877 6450.000000
659.349243 5796.000000
661.460388 6079.000000
663.570129 5392.000000
665.678406 5997.000000
667.785522 6252.000000
669.891174 6816.000000
671.995361 5866.000000
674.098328 5736.000000
676.199890 6935.000000
678.300110 5292.000000
680.398926 6753.000000
682.496399 6252.000000
684.592590 7048.000000
686.687317 6167.000000
688.780823 6952.000000
690.872986 6615.000000
692.963623 7892.000000
695.053040 6705.000000
697.141174 6522.000000
699.227844 6028.000000
701.313293 6654.000000
703.397217 5064.000000
705.479919 5899.000000
707.561340 5889.000000
709.641296 7605.000000
711.720032 6308.000000
713.797302 5437.000000
715.873291 6538.000000
717.947998 6018.000000
720.021423 6962.000000
722.093323 6273.000000
724.164063 7279.000000
726.233459 5777.000000
728.301453 6449.000000
730.368103 6340.000000
732.433533 7019.000000
734.497620 5730.000000
736.560364 6139.000000
738.621765 6471.000000
740.681885 6521.000000
742.740601 5931.000000
744.798096 6664.000000
746.854309 6487.000000
748.909119 6658.000000
750.962646 6323.000000
753.014771 7430.000000
755.065674 5769.000000
757.115356 6703.000000
759.163574 6324.000000
761.210571 6115.000000
763.256287 6984.000000
765.300598 5314.000000
767.343628 10147.500000
769.385437 14981.000000
771.425903 6915.000000
773.464966 6336.000000
775.502869 6069.000000
777.539429 5973.000000
779.574768 5246.000000
781.608765 5782.000000
783.641357 6861.000000
785.672791 5411.000000
787.702820 11558.000000
789.731567 5973.000000
791.759155 6281.000000
793.785400 6306.000000
795.810242 5754.000000
797.833984 5453.000000
799.856323 6339.000000
801.877441 5794.000000
803.897217 6628.000000
805.915710 4889.000000
807.932983 6726.000000
809.948853 6771.000000
811.963562 5685.000000
813.976929 6381.000000
815.989075 6258.000000
818.000000 6068.000000
820.009583 6487.000000
822.017944 5278.000000
824.024902 5663.000000
826.030640 5937.000000
828.035156 5740.000000
830.038391 5646.000000
832.040344 6408.000000
834.041016 6062.000000
836.040466 5906.000000
838.038574 6325.000000
840.035583 6912.000000
842.031189 6156.000000
844.025635 5968.000000
846.018738 6153.000000
848.010620 6822.000000
850.001160 5604.000000
851.990417 6716.000000
853.978638 5969.000000
855.965454 5730.000000
857.951050 6397.000000
859.935364 7229.000000
861.918579 6292.000000
863.900391 6387.000000
865.880981 5792.000000
867.860291 7711.000000
869.838440 7043.000000
871.815247 6113.000000
873.790771 5959.000000
875.765259 6125.000000
877.738281 6054.000000
879.710266 5414.000000
881.680908 6410.000000
883.650391 6095.000000
885.618530 5507.000000
887.585510 5180.000000
889.551147 6104.000000
891.515625 5788.000000
893.478882 5935.000000
895.440918 6482.000000
897.401672 5937.000000
899.361206 6408.000000
901.319458 6697.000000
903.276611 6327.000000
905.232605 5965.000000
907.187195 6895.000000
909.140564 6449.000000
911.092773 6386.000000
913.043762 6335.000000
914.993469 7086.000000
916.942017 6282.000000
918.889343 6139.000000
920.835388 6144.000000
922.780151 6006.000000
924.723877 6253.000000
926.666443 5933.000000
928.607727 5515.000000
930.547668 6476.000000
932.486511 5617.000000
934.424072 5507.000000
936.360413 5899.000000
938.295593 5782.000000
940.229492 6036.000000
942.162292 5895.000000
944.093872 6735.000000
946.024292 5158.000000
947.953491 6384.000000
949.881348 7017.000000
951.808167 6642.000000
953.733704 5942.000000
955.657959 5337.000000
957.581116 5972.000000
959.503113 6755.000000
961.423828 7325.000000
963.343384 6429.000000
965.261780 5302.000000
967.179138 6389.000000
969.095032 6390.000000
971.009827 6087.000000
972.923401 5899.000000
974.835815 6320.000000
976.747009 6383.000000
978.657043 5432.000000
980.565796 6202.000000
982.473511 6103.000000
984.380005 6296.000000
986.285278 5671.000000
988.189453 6808.000000
990.092407 6172.000000
991.994141 6827.000000
993.894714 6289.000000
995.794128 6547.000000
997.692322 5225.000000
999.589355 6480.000000
1001.485168 6502.000000
1003.379822 7683.000000
1005.273376 5559.000000
1007.165649 7098.000000
1009.057007 6037.000000
1010.947021 5289.000000
1012.835815 6567.000000
1014.723450 6311.000000
1016.609924 6912.000000
1018.495239 6735.000000
1020.379395 5935.000000
1022.262329 5839.000000
1024.144287 6211.000000
1026.024902 5188.000000
1027.904419 5758.000000
1029.782959 6055.000000
1031.660156 5431.000000
1033.536011 6182.000000
1035.410889 5832.000000
1037.284790 6576.000000
1039.157227 6930.000000
1041.028687 6706.000000
1042.898804 5480.000000
1044.767944 5492.000000
1046.635864 5761.000000
1048.502686 7057.000000
1050.368408 6724.000000
1052.232910 6497.000000
1054.096313 6444.000000
1055.958374 6406.000000
1057.819458 5839.000000
1059.679443 6484.000000
1061.538086 6642.000000
1063.395630 5784.000000
1065.252075 6672.000000
1067.107422 5902.000000
1068.961548 5792.000000
1070.814819 6272.000000
1072.666626 6345.000000
1074.517456 6109.000000
1076.367065 6076.000000
1078.215454 5789.000000
1080.062988 7948.000000
1081.909180 5563.000000
1083.754150 6234.000000
1085.598267 5381.000000
1087.441040 5426.000000
1089.282593 6477.000000
1091.123413 5446.000000
1092.962646 5700.000000
1094.801147 6015.000000
1096.638306 6009.000000
1098.474243 6770.000000
1100.309204 6608.000000
1102.142944 5396.000000
1103.975708 5642.000000
1105.807129 6199.000000
1107.637695 7245.000000
1109.466919 6517.000000
1111.295166 6472.000000
1113.122192 6984.000000
1114.948242 5386.000000
1116.773071 6287.000000
1118.596802 7082.000000
1120.419312 6016.000000
1122.240723 5864.000000
1124.061279 5872.000000
1125.880371 6511.000000
1127.698608 7064.000000
1129.515503 6873.000000
1131.331543 6677.000000
1133.146362 6365.000000
1134.960083 5635.000000
1136.772705 5808.000000
1138.584106 5662.000000
1140.394531 6099.000000
1142.203857 6698.000000
1144.011841 6979.000000
1145.819092 5932.000000
1147.624878 5873.000000
1149.429810 5402.000000
1151.233643 5392.000000
1153.036255 6147.000000
1154.838013 6056.000000
1156.638306 6035.000000
1158.437622 6068.000000
1160.235962 5841.000000
1162.032959 5443.000000
1163.829224 5841.000000
1165.624146 6038.000000
1167.417969 6328.000000
1169.210938 7758.000000
1171.002563 5706.000000
1172.793213 6519.000000
1174.582886 6044.000000
1176.371094 5816.000000
1178.158447 7417.000000
1179.944702 6704.000000
1181.729858 5751.000000
1183.513916 5960.000000
1185.296875 7668.000000
1187.078857 5846.000000
1188.859619 5880.000000
1190.639404 6271.000000
1192.418091 6872.000000
1194.195801 6637.000000
1195.972290 7144.000000
1197.747681 6504.000000
1199.521973 6526.000000
1201.295166 6652.000000
1203.067505 6607.000000
1204.838501 6736.000000
1206.608643 5696.000000
1208.377563 6073.000000
1210.145386 6289.000000
1211.912354 5759.000000
1213.677979 5856.000000
1215.442627 6916.000000
1217.206177 6491.000000
1218.968628 5927.000000
1220.730225 6695.000000
1222.490601 5869.000000
1224.249878 6220.000000
1226.008301 6027.000000
1227.765503 7074.000000
1229.521606 6455.000000
1231.276611 5494.000000
1233.030762 5945.000000
1234.783569 5823.000000
1236.535400 5997.000000
1238.286377 5911.000000
1240.036011 4836.000000
1241.784790 7022.000000
1243.532227 6438.000000
1245.278931 6631.000000
1247.024414 6490.000000
1248.769043 6345.000000
1250.512329 6752.000000
1252.254639 6720.000000
1253.995850 5315.000000
1255.736206 5032.000000
1257.475464 5763.000000
1259.213501 6560.000000
1260.950684 7112.000000
1262.686646 6075.000000
1264.421631 6456.000000
1266.155640 7258.000000
1267.888672 5996.000000
1269.620483 6148.000000
1271.351318 6379.000000
1273.080933 7268.000000
1274.809692 5901.000000
1276.537354 5669.000000
1278.263916 5516.000000
1279.989624 5543.000000
1281.713989 6405.000000
1283.437500 5183.000000
1285.160034 6866.000000
1286.881592 6572.000000
1288.601929 6035.000000
1290.321289 6639.000000
1292.039551 7302.000000
1293.756836 6396.000000
1295.473145 5728.000000
1297.188232 6418.000000
1298.902344 6163.000000
1300.615479 5792.000000
1302.327759 6477.000000
1304.038818 8256.000000
1305.748901 5240.000000
1307.457886 6210.000000
1309.165649 6673.000000
1310.872803 7007.000000
1312.578491 5729.000000
1314.283447 6901.000000
1315.987427 6144.000000
1317.690186 6039.000000
1319.391968 6479.000000
1321.092896 6003.000000
1322.792480 18668.000000
1324.491211 31333.000000
1326.189209 5599.000000
1327.885864 6454.000000
1329.581421 7142.000000
1331.276123 6755.000000
1332.969604 5694.000000
1334.662231 5383.000000
1336.354004 7248.000000
1338.044434 6209.000000
1339.734131 6558.000000
1341.422729 6076.000000
1343.110229 7622.000000
1344.796753 5624.000000
1346.482178 6707.000000
1348.166626 5929.000000
1349.850220 7237.000000
1351.532593 6361.000000
1353.213989 5933.000000
1354.894531 6539.000000
1356.573853 6671.000000
1358.252563 5898.000000
1359.929932 6567.000000
1361.606201 5739.000000
1363.281494 5530.000000
1364.956055 6527.000000
1366.629395 6493.000000
1368.301758 6830.000000
1369.973145 5174.000000
1371.643555 6740.000000
1373.312866 6174.000000
1374.981201 5611.000000
1376.648682 5980.000000
1378.315063 6433.000000
1379.980469 6117.000000
1381.644897 5833.000000
1383.308105 5946.000000
1384.970703 5724.000000
1386.631958 6366.000000
1388.292358 6566.000000
1389.951660 6322.000000
1391.609985 6448.000000
1393.267578 6836.000000
1394.923950 6508.000000
1396.579468 6988.000000
1398.233765 6360.000000
1399.887207 5813.000000
1401.539551 6076.000000
1403.191162 6424.000000
1404.841553 7080.000000
1406.490845 6180.000000
1408.139404 7462.000000
1409.786865 7913.000000
1411.433350 6169.000000
1413.078979 6145.000000
1414.723633 5968.000000
1416.367065 6977.000000
1418.009644 7138.000000
1419.651123 6814.000000
1421.291748 6455.000000
1422.931396 6416.000000
1424.569946 5975.000000
1426.207642 6544.000000
1427.844238 6333.000000
1429.479858 5954.000000
1431.114746 6309.000000
1432.748535 5874.000000
1434.381226 6113.000000
1436.012939 5594.000000
1437.643799 6109.000000
1439.273560 5974.000000
1440.902222 7844.000000
1442.530273 5906.000000
1444.157227 6229.000000
1445.782959 6155.000000
1447.408081 6093.000000
1449.032104 6484.000000
1450.655151 6057.000000
1452.277222 6039.000000
1453.898193 7434.000000
1455.518188 6346.000000
1457.137451 6817.000000
1458.755371 5671.000000
1460.372681 19143.000000
1461.989014 5513.000000
1463.604126 7180.000000
1465.218384 6239.000000
1466.831787 5190.000000
1468.444092 5638.000000
1470.055542 6226.000000
1471.666138 6328.000000
1473.275513 5955.000000
1474.883911 6004.000000
1476.491455 6173.000000
1478.098022 6749.000000
1479.703857 5189.000000
1481.308472 6270.000000
1482.912231 5496.000000
1484.514771 6659.000000
1486.116699 5494.000000
1487.717407 5498.000000
1489.317383 5664.000000
1490.916260 6252.000000
1492.514282 6442.000000
1494.111206 6673.000000
1495.707275 6273.000000
1497.302368 5932.000000
1498.896484 5449.000000
1500.489868 6561.000000
1502.082153 5546.000000
1503.673218 6126.000000
1505.263794 6729.000000
1506.853027 6403.000000
1508.441650 6115.000000
1510.029175 6572.000000
1511.615601 6832.000000
1513.201294 6267.000000
1514.785889 6659.000000
1516.369629 6238.000000
1517.952271 6193.000000
1519.534180 6589.000000
1521.114990 6627.000000
1522.695068 6022.000000
1524.273926 6221.000000
1525.851929 6326.000000
1527.429199 6239.000000
1529.005249 5658.000000
1530.580566 5885.000000
1532.154785 6302.000000
1533.728271 5396.000000
1535.300537 5955.000000
1536.872070 6373.000000
1538.442627 6414.000000
1540.012329 6265.000000
1541.580811 5412.000000
1543.148560 6607.000000
1544.715454 5615.000000
1546.281128 6736.000000
1547.846069 5891.000000
1549.409912 5080.000000
1550.973145 7459.000000
1552.535034 6271.000000
1554.096313 5976.000000
1555.656494 5646.000000
1557.215942 5761.000000
1558.774292 5866.000000
1560.331909 6250.000000
1561.888428 7028.000000
1563.443726 5784.000000
1564.998413 6415.000000
1566.552368 5584.000000
1568.105347 6321.000000
1569.656982 5673.000000
1571.207886 5937.000000
1572.758057 6182.000000
1574.307251 6341.000000
1575.855103 5743.000000
1577.402466 5511.000000
1578.948853 5703.000000
1580.494385 5092.000000
1582.038940 6663.000000
1583.582275 6363.000000
1585.125000 6623.000000
1586.666870 6435.000000
1588.207642 6628.000000
1589.747437 5747.000000
1591.286499 6731.000000
1592.824463 5863.000000
1594.361938 6086.000000
1595.898071 5909.000000
1597.433105 6722.000000
1598.967651 6179.000000
1600.501221 5966.000000
1602.033936 5969.000000
1603.565063 6295.000000
1605.095947 6301.000000
1606.625977 5715.000000
1608.154785 6113.000000
1609.682495 6079.000000
1611.209595 5990.000000
1612.735962 5755.000000
1614.261353 6235.000000
1615.785889 5814.000000
1617.309082 5715.000000
1618.831543 5588.000000
1620.353271 6582.000000
1621.874146 6899.000000
1623.393555 15568.000000
1624.912476 6182.000000
1626.430664 6024.000000
1627.947998 5916.000000
1629.464233 6378.000000
1630.979126 6968.000000
1632.493530 6777.000000
1634.007202 5748.000000
1635.519775 6817.000000
1637.031128 5909.000000
1638.542114 6381.000000
1640.052002 6211.000000
1641.561035 6165.000000
1643.068726 5567.000000
1644.576050 6111.000000
1646.082520 7163.000000
1647.588013 6215.000000
1649.092651 6778.000000
1650.595825 6163.000000
1652.098389 6583.000000
1653.600586 6323.000000
1655.101440 6603.000000
1656.601196 7580.000000
1658.100098 5998.000000
1659.598633 6535.000000
1661.095947 6187.000000
1662.592529 5987.000000
1664.087524 6408.000000
1665.582275 6344.000000
1667.076172 5230.000000
1668.569092 5571.000000
1670.060669 21114.000000
1671.551758 6453.000000
1673.042236 6069.000000
1674.531616 5944.000000
1676.019531 6927.000000
1677.507202 6833.000000
1678.993896 5998.000000
1680.479736 5359.000000
1681.964722 6065.000000
1683.448242 6166.000000
1684.931519 6187.000000
1686.413940 5872.000000
1687.895264 6150.000000
1689.375122 6131.000000
1690.854736 5432.000000
1692.333618 6526.000000
1693.811523 5972.000000
1695.288452 6093.000000
1696.764160 5762.000000
1698.239502 6040.000000
1699.713623 6253.000000
1701.187134 5489.000000
1702.659180 5535.000000
1704.130981 6900.000000
1705.601807 6405.000000
1707.071777 7002.000000
1708.540405 5074.000000
1710.008545 5787.000000
1711.475952 6353.000000
1712.942261 5502.000000
1714.407959 5729.000000
1715.871948 6160.000000
1717.335815 5926.000000
1718.798828 6975.000000
1720.260864 6353.000000
1721.721680 6658.000000
1723.181885 5444.000000
1724.641357 6328.000000
1726.099976 6126.000000
1727.557617 5987.000000
1729.013916 6169.000000
1730.469971 6025.000000
1731.925049 6349.000000
1733.379150 5988.000000
1734.832031 6894.000000
1736.284668 5891.000000
1737.736206 6818.000000
1739.187012 5910.000000
1740.636841 6568.000000
1742.085327 5996.000000
1743.533447 7263.000000
1744.980713 6557.000000
1746.427246 6668.000000
1747.872192 6597.000000
1749.316895 6100.000000
1750.760742 5718.000000
1752.203735 5470.000000
1753.645264 6537.000000
1755.086548 6366.000000
1756.526978 19392.000000
1757.966431 6196.000000
1759.404907 5285.000000
1760.842407 6055.000000
1762.279419 7505.000000
1763.715454 5833.000000
1765.150635 7105.000000
1766.584351 6167.000000
1768.017944 6407.000000
1769.450562 6666.000000
1770.882324 5766.000000
1772.313232 5735.000000
1773.742920 6283.000000
1775.171875 6135.000000
1776.600342 6244.000000
1778.027832 6692.000000
1779.453979 6271.000000
1780.879883 5610.000000
1782.304688 6867.000000
1783.728882 5549.000000
1785.151611 6641.000000
1786.573853 6590.000000
1787.995361 6864.000000
1789.416138 5779.000000
1790.835938 5979.000000
1792.254395 6119.000000
1793.672363 6864.000000
1795.089722 5529.000000
1796.506226 6003.000000
1797.921265 6478.000000
1799.335938 5799.000000
1800.750000 6585.000000
1802.162842 6002.000000
1803.575073 7039.000000
1804.985962 7112.000000
1806.396362 7759.000000
1807.806030 6499.000000
1809.214722 5916.000000
1810.622314 5375.000000
1812.029419 6488.000000
1813.435669 6335.000000
1814.840942 6691.000000
1816.245117 5953.000000
1817.648926 5915.000000
1819.051758 6249.000000
1820.453735 5975.000000
1821.855103 5866.000000
1823.255005 6354.000000
1824.654297 6515.000000
1826.053101 6526.000000
1827.451050 7438.000000
1828.847656 5692.000000
1830.243652 6684.000000
1831.638916 5850.000000
1833.033569 8153.000000
1834.427246 5992.000000
1835.819580 6788.000000
1837.211426 6356.000000
1838.602661 5860.000000
1839.992920 7087.000000
1841.381958 6032.000000
1842.770630 6028.000000
1844.158325 5936.000000
1845.545288 5820.000000
1846.930908 6875.000000
1848.316284 5840.000000
1849.700806 6360.000000
1851.084595 6261.000000
1852.467285 6308.000000
1853.848755 5390.000000
1855.229736 6569.000000
1856.610229 6321.000000
1857.989746 5703.000000
1859.367798 5917.000000
1860.745728 6256.000000
1862.122681 7794.000000
1863.498901 6082.000000
1864.874268 6035.000000
1866.248169 5595.000000
1867.621948 5716.000000
1868.994873 6112.000000
1870.366699 5892.000000
1871.737549 6951.000000
1873.108032 5387.000000
1874.477417 6056.000000
1875.846313 6064.000000
1877.213623 7152.000000
1878.580811 6011.000000
1879.947021 6015.000000
1881.312500 6700.000000
1882.677246 7460.000000
1884.040405 6788.000000
1885.403442 6890.000000
1886.765625 6327.000000
1888.126953 6465.000000
1889.486938 5636.000000
1890.846558 5777.000000
1892.205566 6137.000000
1893.563599 6626.000000
1894.920776 7278.000000
1896.276733 5932.000000
1897.632446 7611.000000
1898.987183 5802.000000
1900.341064 5492.000000
1901.693848 5820.000000
1903.046143 5865.000000
1904.397705 5919.000000
1905.748413 6856.000000
1907.097900 6521.000000
1908.446899 6644.000000
1909.795044 5779.000000
1911.142578 6166.000000
1912.489380 6240.000000
1913.834595 6815.000000
1915.179565 6053.000000
1916.523804 5415.000000
1917.867188 6484.000000
1919.209229 5952.000000
1920.551025 6659.000000
1921.891968 6954.000000
1923.232178 6099.000000
1924.571411 6301.000000
1925.909668 6340.000000
1927.247314 6554.000000
1928.584229 6984.000000
1929.920288 6739.000000
1931.255127 5614.000000
1932.589600 6613.000000
1933.923340 7224.000000
1935.256226 6225.000000
1936.587646 5727.000000
1937.919189 6328.000000
1939.249390 6642.000000
1940.579102 5733.000000
1941.907959 6039.000000
1943.235596 5754.000000
1944.562744 5044.000000
1945.889160 5844.000000
1947.214844 6486.000000
1948.539185 5798.000000
1949.863281 6652.000000
1951.186523 6313.000000
1952.509033 6441.000000
1953.830444 5744.000000
1955.150879 7396.000000
1956.470703 6057.000000
1957.790161 5518.000000
1959.108643 6795.000000
1960.425781 5848.000000
1961.742554 5869.000000
1963.058594 6511.000000
1964.373901 6549.000000
1965.687744 6259.000000
1967.001343 5688.000000
1968.314209 6195.000000
1969.626221 5991.000000
1970.937622 6047.000000
1972.247681 6310.000000
1973.557251 5849.000000
1974.866089 6183.000000
1976.174316 6523.000000
1977.481201 6058.000000
1978.787476 7232.000000
1980.093384 5558.000000
1981.398071 6343.000000
1982.702271 5927.000000
1984.005249 5640.000000
1985.307861 7601.000000
1986.609497 6068.000000
1987.910522 6831.000000
1989.209961 6051.000000
1990.509521 6593.000000
1991.807983 5235.000000
1993.105957 6044.000000
1994.402344 6087.000000
1995.698730 5783.000000
1996.994141 5546.000000
1998.288818 6491.000000
1999.582642 5632.000000
2000.875244 6578.000000
2002.167358 5715.000000
2003.458984 7180.000000
2004.749878 6355.000000
2006.039185 6321.000000
2007.328247 6792.000000
2008.616577 5971.000000
2009.904175 5988.000000
2011.190918 6647.000000
2012.476563 5590.000000
2013.761841 6288.000000
2015.046143 5911.000000
2016.329834 5609.000000
2017.612183 6010.000000
2018.894165 6468.000000
2020.175659 6673.000000
2021.456177 5850.000000
2022.735962 6090.000000
2024.014648 6769.000000
2025.292603 5829.000000
2026.570068 5866.000000
2027.846924 6265.000000
2029.122070 5776.000000
2030.397339 6558.000000
2031.671631 6022.000000
2032.944946 5921.000000
2034.217407 5922.000000
2035.489502 6129.000000
2036.760498 6985.000000
2038.031250 6516.000000
2039.300659 5990.000000
2040.568970 6773.000000
2041.837280 6603.000000
2043.104614 5878.000000
2044.371216 5912.000000
2045.636597 5620.000000
2046.901367 5706.000000
2048.165771 5418.000000
2049.429199 5857.000000
2050.692139 6357.000000
2051.953125 6172.000000
2053.214600 6140.000000
2054.474854 5856.000000
2055.734375 6442.000000
2056.993164 6282.000000
2058.250977 6965.000000
2059.508301 6144.000000
2060.764893 5993.000000
2062.020020 6552.000000
2063.275146 5665.000000
2064.529297 5527.000000
2065.782715 5677.000000
2067.035400 6815.000000
2068.286865 6309.000000
2069.538086 6274.000000
2070.788574 5618.000000
2072.038330 5395.000000
2073.286621 6122.000000
2074.534912 6511.000000
2075.782227 7356.000000
2077.028809 5557.000000
2078.274658 6054.000000
2079.519287 6957.000000
2080.763428 7591.000000
2082.007080 5480.000000
2083.249756 6046.000000
2084.491211 6952.000000
2085.732422 5963.000000
2086.973145 6347.000000
2088.212891 6729.000000
2089.451416 7105.000000
2090.689453 6152.000000
2091.926758 5755.000000
2093.163818 6578.000000
2094.399414 6090.000000
2095.634277 6187.000000
2096.868896 6072.000000
2098.102539 5598.000000
2099.335205 6125.000000
2100.567139 6801.000000
2101.798584 6343.000000
2103.029053 6769.000000
2104.258789 6028.000000
2105.488281 6003.000000
2106.715820 6022.000000
2107.943604 5994.000000
2109.170654 6278.000000
2110.396729 5452.000000
2111.621338 6410.000000
2112.846191 6973.000000
2114.069824 7105.000000
2115.292969 6145.000000
2116.514893 7485.000000
2117.736572 6017.000000
2118.957275 6799.000000
2120.177246 5943.000000
2121.396729 6118.000000
2122.614746 6531.000000
2123.832764 7006.000000
2125.049805 5783.000000
2126.266357 5755.000000
2127.481201 6513.000000
2128.696289 6306.000000
2129.910400 6913.000000
2131.123779 5707.000000
2132.336426 6074.000000
2133.547607 5803.000000
2134.759033 6468.000000
2135.969238 6610.000000
2137.178955 5934.000000
2138.387207 6153.000000
2139.595459 5651.000000
2140.802979 5845.000000
2142.009277 7656.000000
2143.214844 5865.000000
2144.420166 5639.000000
2145.624512 5386.000000
2146.828125 6323.000000
2148.031250 6233.000000
2149.232910 6478.000000
2150.434326 5291.000000
2151.635010 6248.000000
2152.834961 5958.000000
2154.033691 5950.000000
2155.232178 6936.000000
2156.430176 6190.000000
2157.627197 5992.000000
2158.823486 5141.000000
2160.018555 5256.000000
2161.213379 6128.000000
2162.407471 5568.000000
2163.600586 5996.000000
2164.792725 6967.000000
2165.984619 5937.000000
2167.175781 6293.000000
2168.365967 6329.000000
2169.555420 6485.000000
2170.744385 6783.000000
2171.932373 5994.000000
2173.120117 5735.000000
2174.306396 5931.000000
2175.491943 6555.000000
2176.677246 6035.000000
2177.862061 5781.000000
2179.045654 6318.000000
2180.228516 7447.000000
2181.410400 6282.000000
2182.592041 5939.000000
2183.773193 6530.000000
2184.953125 5681.000000
2186.132080 5546.000000
2187.310547 6365.000000
2188.488770 6871.000000
2189.665771 7193.000000
2190.841797 6722.000000
2192.017578 6016.000000
2193.192871 5586.000000
2194.366699 6622.000000
2195.540039 6138.000000
2196.713135 6144.000000
2197.885010 6328.000000
2199.056396 7092.000000
2200.227295 6380.000000
2201.396484 6861.000000
2202.565674 7560.000000
2203.734375 6196.000000
2204.902100 5873.000000
2206.068848 5660.000000
2207.234863 7154.000000
2208.400391 6656.000000
2209.565674 6020.000000
2210.729492 6751.000000
2211.892822 5380.000000
2213.054932 6165.000000
2214.217285 6213.000000
2215.378418 6625.000000
2216.538574 6623.000000
2217.698242 6369.000000
2218.857666 6563.000000
2220.015869 6346.000000
2221.173096 6258.000000
2222.330078 6702.000000
2223.486328 6559.000000
2224.641846 6747.000000
2225.796631 6225.000000
2226.950439 6416.000000
2228.103271 6072.000000
2229.256592 6882.000000
2230.407959 6230.000000
2231.559082 6199.000000
2232.709473 6485.000000
2233.859375 7636.000000
2235.008301 6308.000000
2236.156738 5180.000000
2237.303711 6731.000000
2238.450928 6991.000000
2239.596924 6024.000000
2240.742676 7224.000000
2241.886719 7289.000000
2243.031006 6742.000000
2244.174316 6094.000000
2245.316895 6057.000000
2246.458496 5740.000000
2247.599854 5842.000000
2248.740234 6364.000000
2249.879883 6413.000000
2251.019043 5803.000000
2252.156982 5828.000000
2253.294922 6249.000000
2254.431885 5305.000000
2255.568115 6303.000000
2256.703369 6106.000000
2257.837891 7168.000000
2258.972168 6386.000000
2260.105957 5338.000000
2261.238281 6126.000000
2262.370117 6761.000000
2263.501465 6269.000000
2264.631836 6425.000000
2265.761963 8157.000000
2266.890869 6753.000000
2268.019287 6102.000000
2269.147217 5570.000000
2270.274170 6179.000000
2271.400391 5979.000000
2272.525635 6695.000000
2273.650879 6493.000000
2274.775391 6428.000000
2275.898682 5894.000000
2277.021240 6390.000000
2278.143311 5874.000000
2279.264893 7342.000000
2280.385742 6389.000000
2281.505371 6360.000000
2282.624512 7048.000000
2283.743408 7597.000000
2284.861572 7277.000000
2285.978760 5907.000000
2287.094971 6420.000000
2288.210938 6980.000000
2289.326172 6818.000000
2290.440674 7318.000000
2291.553955 5746.000000
2292.667236 6340.000000
2293.779785 5940.000000
2294.891602 5356.000000
2296.002686 6717.000000
2297.112549 6445.000000
2298.221924 6132.000000
2299.331055 6673.000000
2300.439209 6265.000000
2301.546387 6794.000000
2302.653320 5862.000000
2303.759521 6216.000000
2304.865234 6587.000000
2305.969482 6535.000000
2307.073486 5421.000000
2308.177002 5681.000000
2309.280029 6504.000000
2310.381836 7406.000000
2311.482910 7159.000000
2312.583496 6594.000000
2313.683594 5522.000000
2314.782959 6372.000000
2315.880859 6429.000000
2316.979248 6983.000000
2318.076172 8253.000000
2319.172852 6820.000000
2320.269043 5796.000000
2321.363525 6826.000000
2322.458008 7575.000000
2323.551758 5798.000000
2324.645264 5976.000000
2325.737061 6476.000000
2326.828857 6960.000000
2327.919922 6098.000000
2329.010254 6301.000000
2330.099609 6869.000000
2331.188965 6029.000000
2332.277100 6253.000000
2333.364746 6757.000000
2334.452148 6479.000000
2335.537842 6731.000000
2336.623291 7702.000000
2337.708496 6294.000000
2338.792725 6699.000000
2339.875977 5883.000000
2340.958984 6455.000000
2342.041016 7036.000000
2343.122803 6017.000000
2344.203857 7415.000000
2345.283691 6594.000000
2346.363037 5694.000000
2347.441895 6780.000000
2348.520264 6483.000000
2349.597168 6298.000000
2350.673828 6965.000000
2351.750244 5976.000000
2352.825684 6413.000000
2353.900146 5922.000000
2354.974365 6329.000000
2356.047852 6775.000000
2357.120850 6344.000000
2358.192627 7003.000000
2359.264160 6229.000000
2360.334717 6702.000000
2361.405029 7511.000000
2362.474365 7553.000000
2363.542725 6827.000000
2364.610840 6722.000000
2365.678223 7033.000000
2366.745117 7099.000000
2367.811279 6054.000000
2368.876221 6818.000000
2369.941162 6993.000000
2371.005371 6334.000000
2372.068848 6915.000000
2373.131104 5832.000000
2374.193359 6301.000000
2375.254639 6295.000000
2376.315674 5965.000000
2377.375488 6255.000000
2378.434570 7912.000000
2379.493652 6435.000000
2380.551758 7558.000000
2381.609131 6934.000000
2382.665527 8055.000000
2383.721680 7733.000000
2384.777344 6230.000000
2385.832275 7029.000000
2386.885742 6772.000000
2387.939453 6526.000000
2388.992188 6323.000000
2390.044434 6664.000000
2391.095947 6095.000000
2392.146484 6601.000000
2393.196777 6456.000000
2394.246094 6170.000000
2395.295410 6216.000000
2396.343262 6854.000000
2397.390625 6935.000000
2398.437744 6232.000000
2399.483887 6613.000000
2400.529297 6101.000000
2401.573975 6732.000000
2402.618652 7683.000000
2403.661865 7489.000000
2404.705078 6591.000000
2405.746826 5743.000000
2406.788818 6624.000000
2407.830078 7050.000000
2408.870361 6091.000000
2409.909912 6414.000000
2410.948486 6291.000000
2411.987305 6081.000000
2413.024902 6509.000000
2414.062256 6838.000000
2415.098389 7405.000000
2416.134277 6182.000000
2417.169434 6318.000000
2418.204102 6571.000000
2419.237305 7133.000000
2420.270752 6415.000000
2421.303223 6708.000000
2422.335449 6804.000000
2423.366211 6999.000000
2424.396973 6311.000000
2425.427246 6770.000000
2426.456299 6761.000000
2427.485352 6564.000000
2428.512695 7358.000000
2429.540527 6683.000000
2430.567139 7248.000000
2431.593506 6914.000000
2432.618408 7720.000000
2433.643555 6545.000000
2434.667725 7046.000000
2435.691650 6577.000000
2436.714355 5813.000000
2437.736328 6340.000000
2438.758057 6691.000000
2439.779053 6628.000000
2440.799561 5938.000000
2441.818848 6498.000000
2442.838135 6549.000000
2443.856445 8418.000000
2444.874512 6212.000000
2445.891113 6429.000000
2446.907715 6533.000000
2447.923584 6035.000000
2448.939453 6949.000000
2449.953857 6841.000000
2450.967529 5486.000000
2451.980713 7203.000000
2452.993652 5910.000000
2454.005859 7167.000000
2455.017090 6671.000000
2456.028076 7605.000000
2457.038330 6342.000000
2458.048096 7588.000000
2459.056885 5899.000000
2460.064941 5951.000000
2461.072998 6298.000000
2462.079834 7309.000000
2463.086426 5396.000000
2464.091797 7350.000000
2465.096924 6886.000000
2466.101807 5877.000000
2467.105469 6599.000000
2468.108887 6412.000000
2469.111328 7592.000000
2470.113525 7320.000000
2471.115234 6890.000000
2472.115967 6618.000000
2473.115723 7072.000000
2474.115479 6756.000000
2475.114258 5628.000000
2476.112549 6605.000000
2477.109863 7028.000000
2478.106934 6045.000000
2479.104004 6941.000000
2480.099609 5820.000000
2481.095215 7131.000000
2482.089111 6664.000000
2483.083008 8111.000000
2484.076416 6803.000000
2485.069336 6720.000000
2486.061279 7478.000000
2487.052490 7197.000000
2488.043457 6695.000000
2489.033936 5783.000000
2490.023438 6484.000000
2491.012207 6481.000000
2492.000977 5611.000000
2492.988770 6767.000000
2493.975342 6610.000000
2494.961914 8048.000000
2495.947998 6706.000000
2496.933350 7067.000000
2497.917725 8035.000000
2498.901855 5993.000000
2499.885986 6876.000000
2500.868652 5753.000000
2501.850830 6942.000000
2502.832520 6886.000000
2503.813477 7235.000000
2504.793945 6453.000000
2505.774170 5726.000000
2506.752930 6276.000000
2507.731445 7585.000000
2508.709473 6714.000000
2509.687012 7087.000000
2510.663574 6064.000000
2511.639893 5920.000000
2512.615479 6371.000000
2513.590576 6208.000000
2514.565186 6447.000000
2515.538574 7661.000000
2516.511719 6700.000000
2517.484619 6899.000000
2518.456543 6068.000000
2519.427734 6735.000000
2520.398438 6894.000000
2521.368896 7788.000000
2522.338623 8063.000000
2523.307373 6080.000000
2524.275391 6119.000000
2525.243408 7685.000000
2526.210449 6249.000000
2527.177246 5518.000000
2528.142822 7265.000000
2529.108398 6963.000000
2530.073242 7743.000000
2531.037598 6326.000000
2532.000732 6353.000000
2532.964111 5882.000000
2533.926514 6022.000000
2534.888672 6790.000000
2535.849609 6309.000000
2536.809814 6074.000000
2537.770264 6117.000000
2538.729736 6649.000000
2539.688477 6800.000000
2540.646240 6658.000000
2541.604248 6189.000000
2542.561523 6715.000000
2543.517822 6110.000000
2544.473877 7104.000000
2545.428711 6216.000000
2546.383789 7726.000000
2547.338135 6963.000000
2548.291748 6952.000000
2549.244385 7172.000000
2550.196777 6789.000000
2551.148682 6925.000000
2552.099854 6410.000000
2553.050293 7697.000000
2554.000244 7273.000000
2554.949951 7339.000000
2555.898926 6547.000000
2556.847412 6204.000000
2557.794678 7110.000000
2558.741943 6290.000000
2559.688477 6502.000000
2560.634521 6759.000000
2561.579590 7380.000000
2562.524414 6684.000000
2563.468750 7156.000000
2564.412598 6873.000000
2565.355957 6526.000000
2566.297852 6516.000000
2567.239990 6572.000000
2568.181396 6157.000000
2569.122070 7183.000000
2570.062012 7289.000000
2571.001953 5693.000000
2571.940918 6132.000000
2572.879639 7486.000000
2573.817383 7167.000000
2574.754883 5442.000000
2575.691650 6891.000000
2576.627686 6749.000000
2577.563232 7476.000000
2578.498047 6367.000000
2579.432861 5933.000000
2580.366699 6987.000000
2581.300049 7242.000000
2582.232666 5860.000000
2583.165039 6838.000000
2584.096680 5458.000000
2585.027832 7115.000000
2585.958496 6969.000000
2586.887939 6925.000000
2587.817383 7233.000000
2588.746338 6428.000000
2589.675049 7578.000000
2590.602051 7342.000000
2591.529297 5926.000000
2592.456055 6802.000000
2593.382080 6360.000000
2594.307861 5572.000000
2595.232422 7593.000000
2596.156738 7569.000000
2597.080566 5312.000000
2598.003906 7332.000000
2598.926270 6225.000000
2599.848389 6798.000000
2600.770020 8343.000000
2601.690918 6397.000000
2602.611084 5768.000000
2603.531006 6355.000000
2604.450439 6368.000000
2605.369629 6459.000000
2606.287842 5806.000000
2607.204834 6001.000000
2608.122070 7219.000000
2609.039063 5892.000000
2609.955078 7587.000000
2610.869873 6613.000000
2611.785156 6599.000000
2612.699707 6494.000000
2613.613281 6580.000000
2614.526855 6106.000000
2615.439209 7623.000000
2616.351563 7067.000000
2617.262939 6805.000000
2618.174072 5709.000000
2619.084473 7253.000000
2619.994629 6614.000000
2620.904053 6142.000000
2621.812988 6575.000000
2622.720947 6219.000000
2623.629150 6834.000000
2624.536377 6541.000000
2625.443115 7000.000000
2626.349121 5890.000000
2627.254883 6562.000000
2628.159912 6360.000000
2629.064697 7811.000000
2629.968750 6472.000000
2630.871826 6396.000000
2631.774902 6400.000000
2632.677002 5576.000000
2633.579102 6722.000000
2634.480957 6952.000000
2635.381104 6705.000000
2636.281494 6461.000000
2637.181152 6389.000000
2638.080566 5977.000000
2638.978516 6845.000000
2639.876953 6715.000000
2640.774902 6391.000000
2641.672119 6111.000000
2642.568115 6178.000000
2643.464111 6714.000000
2644.359863 6107.000000
2645.254883 6426.000000
2646.149658 6611.000000
2647.042969 7073.000000
2647.936279 6329.000000
2648.829346 6758.000000
2649.722168 6396.000000
2650.613281 7478.000000
2651.504639 6358.000000
2652.395508 7579.000000
2653.285645 7329.000000
2654.175537 6613.000000
2655.064209 7316.000000
2655.953125 6548.000000
2656.841553 6618.000000
2657.729004 7274.000000
2658.615479 6474.000000
2659.502441 7000.000000
2660.388672 6920.000000
2661.274414 6764.000000
2662.158936 6492.000000
2663.043457 6332.000000
2663.927734 6176.000000
2664.811279 7057.000000
2665.694336 7693.000000
2666.576660 7232.000000
2667.458496 6176.000000
2668.339600 6573.000000
2669.220947 6074.000000
2670.100830 6582.000000
2670.980957 7452.000000
2671.860352 7157.000000
2672.739746 6359.000000
2673.618408 6117.000000
2674.495361 6417.000000
2675.373047 6761.000000
2676.250000 6315.000000
2677.126221 7998.000000
2678.001953 7098.000000
2678.876953 6198.000000
2679.752197 7787.000000
2680.626465 6895.000000
2681.500244 7313.000000
2682.373291 7032.000000
2683.246094 6172.000000
2684.118652 6086.000000
2684.990479 6915.000000
2685.861572 6611.000000
2686.732422 6932.000000
2687.602783 7061.000000
2688.472900 6628.000000
2689.341309 6263.000000
2690.210449 7343.000000
2691.078857 7113.000000
2691.947021 6586.000000
2692.814453 6920.000000
2693.680664 5827.000000
2694.547363 7126.000000
2695.413086 7426.000000
2696.278809 7141.000000
2697.143066 7900.000000
2698.008057 6562.000000
2698.871582 7264.000000
2699.735352 5813.000000
2700.597656 7383.000000
2701.460449 6796.000000
2702.322266 5929.000000
2703.183594 6877.000000
2704.044922 6683.000000
2704.905029 7462.000000
2705.765137 7272.000000
2706.624756 6587.000000
2707.484131 6838.000000
2708.341797 7143.000000
2709.199707 6813.000000
2710.058105 7309.000000
2710.915283 6723.000000
2711.771729 5917.000000
2712.627686 6855.000000
2713.483643 6078.000000
2714.338867 6930.000000
2715.193359 6075.000000
2716.047363 6711.000000
2716.901367 7243.000000
2717.754395 6185.000000
2718.607666 6616.000000
2719.459229 7694.000000
2720.311279 6738.000000
2721.163086 6262.000000
2722.013672 6434.000000
2722.864258 6385.000000
2723.714355 7084.000000
2724.563721 7016.000000
2725.413086 7001.000000
2726.261230 6661.000000
2727.108887 6551.000000
2727.957031 6953.000000
2728.803955 6836.000000
2729.651367 5515.000000
2730.497314 7479.000000
2731.342529 6998.000000
2732.188232 6403.000000
2733.032959 6933.000000
2733.877686 7326.000000
2734.721191 6886.000000
2735.564941 7800.000000
2736.407959 7138.000000
2737.250488 5986.000000
2738.092041 6236.000000
2738.934082 6796.000000
2739.775146 6829.000000
2740.615967 5769.000000
2741.456543 5841.000000
2742.295898 7752.000000
2743.135254 6876.000000
2743.974609 6863.000000
2744.812744 6779.000000
2745.650391 7879.000000
2746.488037 6309.000000
2747.325195 7145.000000
2748.162109 6167.000000
2748.998535 6015.000000
2749.833740 6678.000000
2750.669189 6223.000000
2751.504150 6331.000000
2752.338379 6251.000000
2753.172363 6871.000000
2754.005859 6793.000000
2754.839355 7994.000000
2755.671875 6738.000000
2756.503906 7274.000000
2757.335449 6807.000000
2758.166992 7103.000000
2758.997559 7169.000000
2759.828369 7240.000000
2760.657959 7289.000000
2761.487549 6659.000000
2762.316895 7286.000000
2763.145508 6862.000000
2763.973633 6784.000000
2764.801270 6910.000000
2765.628906 6614.000000
2766.456055 7820.000000
2767.282471 5764.000000
2768.108398 7380.000000
2768.933838 6828.000000
2769.759033 7704.000000
2770.584229 7125.000000
2771.408203 6752.000000
2772.232178 6520.000000
2773.056152 7557.000000
2773.878906 6588.000000
2774.701904 6970.000000
2775.523682 6880.000000
2776.345459 6949.000000
2777.167236 6479.000000
2777.988037 7992.000000
2778.808105 6541.000000
2779.628418 6977.000000
2780.448242 7247.000000
2781.268066 6455.000000
2782.085938 5933.000000
2782.905029 8098.000000
2783.722900 6498.000000
2784.540527 6710.000000
2785.357666 7119.000000
2786.174316 7215.000000
2786.990723 7145.000000
2787.806641 6288.000000
2788.622314 5896.000000
2789.437012 6430.000000
2790.252197 6935.000000
2791.066650 7158.000000
2791.880615 6577.000000
2792.694336 7404.000000
2793.506836 8712.000000
2794.319580 6962.000000
2795.131836 7449.000000
2795.943604 7143.000000
2796.754639 7336.000000
2797.566406 6517.000000
2798.376953 7188.000000
2799.187500 7074.000000
2799.996582 7319.000000
2800.806396 8160.000000
2801.615479 7798.000000
2802.424316 6601.000000
2803.232666 7169.000000
2804.040039 6207.000000
2804.847900 6428.000000
2805.655029 6913.000000
2806.461914 6967.000000
2807.267578 7094.000000
2808.073730 6618.000000
2808.879150 6444.000000
2809.684570 7311.000000
2810.489258 6194.000000
2811.292969 7657.000000
2812.097168 7481.000000
2812.900879 6341.000000
2813.704346 6086.000000
2814.506348 6232.000000
2815.309082 7323.000000
2816.111084 7806.000000
2816.912842 6155.000000
2817.714111 6525.000000
2818.514893 7281.000000
2819.315186 6470.000000
2820.115723 6585.000000
2820.915283 7898.000000
2821.714355 7111.000000
2822.513428 6395.000000
2823.312256 6808.000000
2824.110596 6379.000000
2824.907959 6940.000000
2825.705566 7410.000000
2826.502441 6607.000000
2827.299561 7317.000000
2828.095947 7923.000000
2828.891602 6912.000000
2829.687256 7365.000000
2830.482666 7538.000000
2831.277588 7410.000000
2832.071777 6663.000000
2832.865967 6760.000000
2833.659912 5699.000000
2834.453369 6868.000000
2835.246094 7096.000000
2836.038574 8182.000000
2836.831055 7572.000000
2837.623291 7466.000000
2838.415039 6440.000000
2839.205811 6801.000000
2839.996582 8820.000000
2840.787598 7457.000000
2841.577637 6249.000000
2842.367188 7680.000000
2843.156982 7158.000000
2843.945801 7333.000000
2844.734619 7723.000000
2845.523438 7755.000000
2846.311279 7501.000000
2847.098633 7205.000000
2847.886230 7431.000000
2848.673340 7334.000000
2849.459717 6639.000000
2850.246094 7454.000000
2851.032227 7179.000000
2851.817871 7511.000000
2852.602539 7109.000000
2853.387695 6827.000000
2854.172607 7420.000000
2854.956787 7054.000000
2855.740967 6910.000000
2856.523926 8235.000000
2857.307129 6755.000000
2858.090088 6705.000000
2858.872559 7713.000000
2859.654785 6260.000000
2860.436523 6727.000000
2861.218018 7583.000000
2861.999756 7439.000000
2862.780762 7618.000000
2863.561035 6589.000000
2864.341064 6711.000000
2865.121094 8138.000000
2865.900879 7507.000000
2866.679688 8033.000000
2867.458740 7634.000000
2868.237305 6738.000000
2869.015625 6989.000000
2869.793457 7239.000000
2870.571045 6882.000000
2871.348389 7473.000000
2872.125488 6941.000000
2872.902100 6442.000000
2873.678223 7518.000000
2874.454346 7152.000000
2875.229980 8283.000000
2876.005371 7150.000000
2876.780273 6600.000000
2877.554932 8013.000000
2878.329590 6540.000000
2879.104004 7819.000000
2879.877686 6757.000000
2880.650635 7144.000000
2881.424316 6691.000000
2882.197021 7584.000000
2882.969727 7762.000000
2883.741699 8235.000000
2884.513428 6197.000000
2885.285645 6766.000000
2886.056641 6901.000000
2886.827148 6140.000000
2887.598145 8275.000000
2888.369141 7363.000000
2889.139404 7992.000000
2889.908691 7658.000000
2890.678223 6981.000000
2891.447754 7174.000000
2892.216797 7359.000000
2892.985352 7880.000000
2893.753906 7645.000000
2894.521484 6951.000000
2895.289551 6593.000000
2896.057129 7334.000000
2896.824707 8313.000000
2897.591064 7270.000000
2898.358398 6546.000000
2899.124512 7199.000000
2899.890869 6989.000000
2900.655762 8326.000000
2901.421143 7024.000000
2902.187012 6456.000000
2902.951416 7818.000000
2903.715820 7590.000000
2904.480469 8433.000000
2905.244141 6624.000000
2906.008545 8381.000000
2906.772217 6709.000000
2907.535156 8376.000000
2908.297852 6474.000000
2909.061035 8932.000000
2909.823730 7030.000000
2910.585205 6783.000000
2911.347168 6783.000000
