scanname Analyse030
timestamp 2017-02-10 20:37:31
ccdbias 900.618652
ccdgain 3.473401
sigmaread 8.960639
laserwavenum -0.661488
wavenumcorrection -0.138524
scancount 1
totalexposurems 10000
singleexposurems 10000
measurementstate Unknown
scanmode Manual
snr 292.972412 9.881371 8.493946
replacelist 5
672 50864.000000 31421.000000
754 47782.000000 16453.000000
858 42437.000000 15579.000000
889 40214.000000 20777.000000
948 37404.000000 19452.000000
peaks 68
278.434082 0.719901 0.000000 1.427653 0.000184
284.881866 0.719555 0.000000 0.790260 0.000060
293.937988 0.721605 0.000000 0.587569 0.000028
303.136047 0.722764 0.000000 0.179385 0.000023
330.334259 0.739865 0.000000 0.779363 0.000136
342.687988 0.743475 0.000000 0.746685 0.000034
351.003021 0.747104 0.000000 0.580456 0.000023
360.898956 0.750849 0.000000 0.726331 0.000063
386.057343 0.750390 0.000000 1.259223 0.000286
458.743744 0.763548 0.000000 0.218465 0.000039
486.797943 0.776860 0.000000 0.567410 0.000061
534.884644 0.781521 0.000000 0.696194 0.000153
559.519104 0.820925 0.000000 1.345166 0.000234
573.611816 0.826480 0.000000 0.209670 0.000067
582.891907 0.821787 0.000000 0.607271 0.000101
660.731628 0.852475 0.000000 1.247573 0.000120
673.403259 0.850171 0.000000 1.420101 0.000273
680.342712 0.850586 0.000000 0.364448 0.000044
715.813293 0.870149 0.000000 5.612975 0.001177
724.711853 0.852342 0.000000 1.269524 0.000054
739.506226 0.873612 0.000000 1.103236 0.000168
757.272461 0.900917 0.000000 6.108266 0.000699
779.337524 0.902695 0.000000 8.535772 0.001330
823.968689 0.899147 0.000000 0.369115 0.000158
833.328918 0.903246 0.000000 1.053576 0.000177
843.365906 0.906472 0.000000 1.116766 0.000055
853.492249 0.930330 0.000000 0.972467 0.000265
868.444397 0.926312 0.000000 0.648153 0.000142
937.781494 0.998192 0.000000 0.737021 0.000410
954.352051 0.977728 0.000000 3.509160 0.001066
1005.217163 1.010587 0.000000 0.918906 0.000105
1013.537903 1.016213 0.000000 2.250220 0.000833
1020.304443 1.017367 0.000000 0.959193 0.000149
1027.240723 1.029122 0.000000 0.632694 0.000260
1044.346436 1.026715 0.000000 4.233953 0.001375
1104.477051 1.038481 0.000000 2.135442 0.000594
1117.923706 1.076842 0.000000 2.128083 0.000618
1134.868652 1.056770 0.000000 2.253041 0.000946
1150.316650 1.039943 0.000000 2.447779 0.000988
1174.322754 1.065215 0.000000 1.423525 0.000481
1185.394897 1.067879 0.000000 0.898132 0.000073
1211.572876 1.134389 0.000000 0.818626 0.000251
1222.721313 1.145485 0.000000 1.413737 0.000535
1232.654663 1.129804 0.000000 1.203614 0.000326
1260.138550 1.164468 0.000000 2.931151 0.001367
1281.114014 1.111283 0.000000 0.345212 0.000458
1314.053345 1.160173 0.000000 2.313068 0.000836
1331.659424 1.213045 0.000000 3.755517 0.001297
1348.363892 1.213864 0.000000 0.754287 0.000704
1387.415161 1.170768 0.000000 0.662687 0.000270
1414.124023 1.193444 0.000000 1.609378 0.000738
1427.573120 1.203546 0.000000 0.659912 0.000109
1434.689819 1.225102 0.000000 0.814586 0.000237
1448.271606 1.241204 0.000000 1.636449 0.000551
1459.264893 1.243867 0.000000 3.235449 0.001924
1490.031128 1.244437 0.000000 3.659056 0.002188
1532.534302 1.194030 0.000000 0.930465 0.000604
1545.131714 1.194492 0.000000 0.482939 0.000293
1578.474976 1.204737 0.000000 1.639456 0.001378
1616.920898 1.205053 0.000000 1.794496 0.001516
1668.615112 1.237522 0.000000 5.835293 0.004112
1701.170898 1.153924 0.000000 1.417122 0.001498
1711.764282 1.143291 0.000000 0.898536 0.000498
1756.376709 1.172407 0.000000 3.339787 0.002873
1780.269775 1.114072 0.000000 1.217034 0.000990
1794.320557 1.104590 0.000000 0.369727 0.000251
1812.753052 1.099085 0.000000 0.787665 0.000805
2326.762451 0.793913 0.000000 0.145625 0.000243
finalresult GLS_NoMatch 0
spectrum 2048
-96.939964 46093.000000
-94.313095 46093.000000
-91.688103 46448.000000
-89.065002 46394.000000
-86.443771 47129.000000
-83.824440 46735.000000
-81.206970 46987.000000
-78.591377 46841.000000
-75.977661 47084.000000
-73.365822 47466.000000
-70.755844 47259.000000
-68.147751 47502.000000
-65.541504 47506.000000
-62.937138 47509.000000
-60.334629 47348.000000
-57.733974 47846.000000
-55.135181 47227.000000
-52.538246 46588.000000
-49.943165 47041.000000
-47.349937 46937.000000
-44.758560 47212.000000
-42.169029 46702.000000
-39.581341 47539.000000
-36.995502 47375.000000
-34.411507 46943.000000
-31.829346 47740.000000
-29.249033 47060.000000
-26.670547 47657.000000
-24.093904 47230.000000
-21.519087 47027.000000
-18.946110 46792.000000
-16.374952 46839.000000
-13.805630 46542.000000
-11.238132 45424.000000
-8.672452 46897.000000
-6.108598 46737.000000
-3.546557 47086.000000
-0.986342 47223.000000
1.572066 46616.000000
4.128654 45958.000000
6.683435 46037.000000
9.236401 46615.000000
11.787565 45710.000000
14.336917 45640.000000
16.884474 45048.000000
19.430218 45106.000000
21.974169 44498.000000
24.516315 42029.000000
27.056665 39245.000000
29.595230 35363.000000
32.131996 30943.000000
34.666962 23767.000000
37.200150 14334.000000
39.731556 9371.000000
42.261169 8810.000000
44.788986 8102.000000
47.315044 7270.000000
49.839314 6332.000000
52.361813 5690.000000
54.882515 5269.000000
57.401463 5567.000000
59.918636 6684.000000
62.434032 8036.000000
64.947655 8819.000000
67.459518 9590.000000
69.969635 7363.000000
72.477959 5112.000000
74.984528 4304.000000
77.489349 3487.000000
79.992416 2808.000000
82.493706 2422.000000
84.993256 2363.000000
87.491051 2227.000000
89.987114 2545.000000
92.481400 3084.000000
94.973946 3380.000000
97.464775 3474.000000
99.953835 3282.000000
102.441147 2559.000000
104.926735 2048.000000
107.410583 1888.000000
109.892685 1767.000000
112.373062 1668.000000
114.851715 1610.000000
117.328644 1552.000000
119.803818 1507.000000
122.277283 1702.000000
124.749016 1760.000000
127.219040 1876.000000
129.687302 2148.000000
132.153900 2367.000000
134.618744 2684.000000
137.081894 3180.000000
139.543304 3728.000000
142.003021 10792.000000
144.461014 26010.000000
146.917313 34051.000000
149.371902 36505.000000
151.824768 37825.000000
154.275955 40427.000000
156.725449 42241.000000
159.173218 43643.000000
161.619278 43833.000000
164.063660 42322.000000
166.506363 44965.000000
168.947372 44875.000000
171.386673 45757.000000
173.824265 44969.000000
176.260223 45809.000000
178.694443 45643.000000
181.126984 45526.000000
183.557877 46067.000000
185.987045 45631.000000
188.414566 46186.000000
190.840408 46661.000000
193.264572 46436.000000
195.687073 45898.000000
198.107880 45681.000000
200.527023 46592.000000
202.944504 47226.000000
205.360291 45625.000000
207.774429 46123.000000
210.186935 46933.000000
212.597763 47188.000000
215.006912 47060.000000
217.414429 45994.000000
219.820236 47111.000000
222.224457 46801.000000
224.626968 46696.000000
227.027863 46508.000000
229.427109 46936.000000
231.824692 46447.000000
234.220612 46131.000000
236.614914 46887.000000
239.007553 47308.000000
241.398575 46549.000000
243.787933 46822.000000
246.175674 47131.000000
248.561768 46463.000000
250.946228 47305.000000
253.329041 45531.000000
255.710281 46809.000000
258.089813 46722.000000
260.467773 46895.000000
262.844055 45917.000000
265.218781 45925.000000
267.591858 45542.000000
269.963287 47312.000000
272.333069 47001.000000
274.701294 47542.000000
277.067871 47066.000000
279.432861 46692.000000
281.796234 47401.000000
284.157959 47146.000000
286.518097 46312.000000
288.876617 47391.000000
291.233551 46857.000000
293.588867 47035.000000
295.942596 47428.000000
298.294678 47465.000000
300.645203 47090.000000
302.994141 47106.000000
305.341431 46662.000000
307.687195 46877.000000
310.031281 46897.000000
312.373840 46017.000000
314.714783 45828.000000
317.054108 46265.000000
319.391876 46478.000000
321.728088 45321.000000
324.062653 47134.000000
326.395660 46864.000000
328.727112 47437.000000
331.056976 46757.000000
333.385254 47006.000000
335.711914 46165.000000
338.037079 47099.000000
340.360626 47203.000000
342.682617 47403.000000
345.003052 45899.000000
347.321869 45670.000000
349.639130 47410.000000
351.954865 47566.000000
354.269012 46490.000000
356.581573 47175.000000
358.892578 47052.000000
361.202057 46420.000000
363.510010 47033.000000
365.816345 47791.000000
368.121094 46965.000000
370.424377 47004.000000
372.726044 47187.000000
375.026215 47098.000000
377.324829 47178.000000
379.621887 47738.000000
381.917389 47408.000000
384.211365 47498.000000
386.503754 48179.000000
388.794647 47829.000000
391.084015 47196.000000
393.371796 47176.000000
395.658051 46908.000000
397.942810 46449.000000
400.225952 47393.000000
402.507660 46977.000000
404.787842 47209.000000
407.066437 46111.000000
409.343506 46873.000000
411.619049 46517.000000
413.893066 46894.000000
416.165649 46907.000000
418.436615 47025.000000
420.706085 46929.000000
422.974060 46222.000000
425.240479 46160.000000
427.505402 47069.000000
429.768860 47167.000000
432.030731 47010.000000
434.291138 47387.000000
436.549988 46773.000000
438.807373 47234.000000
441.063263 47679.000000
443.317657 47572.000000
445.570526 47981.000000
447.821838 46509.000000
450.071747 47212.000000
452.320068 47035.000000
454.566956 47696.000000
456.812378 46889.000000
459.056244 46838.000000
461.298615 46553.000000
463.539490 47702.000000
465.778961 46655.000000
468.016846 47866.000000
470.253296 47516.000000
472.488220 47266.000000
474.721680 46009.000000
476.953705 46679.000000
479.184204 47712.000000
481.413208 46881.000000
483.640747 47024.000000
485.866791 47319.000000
488.091400 46733.000000
490.314545 47541.000000
492.536224 46898.000000
494.756348 46665.000000
496.975067 47658.000000
499.192291 47046.000000
501.408142 47802.000000
503.622375 47223.000000
505.835297 46902.000000
508.046631 46879.000000
510.256531 46483.000000
512.465027 46877.000000
514.672119 46769.000000
516.877625 46904.000000
519.081726 46779.000000
521.284302 47150.000000
523.485474 46794.000000
525.685303 46673.000000
527.883606 46364.000000
530.080383 47995.000000
532.275818 47560.000000
534.469727 47744.000000
536.662292 45858.000000
538.853333 46620.000000
541.042969 47253.000000
543.231201 46391.000000
545.417908 46177.000000
547.603149 46591.000000
549.787109 47092.000000
551.969482 46927.000000
554.150513 47099.000000
556.330017 47326.000000
558.508240 47450.000000
560.684937 47263.000000
562.860229 46905.000000
565.034119 46855.000000
567.206543 47368.000000
569.377563 47224.000000
571.547119 46961.000000
573.715393 48033.000000
575.882141 46862.000000
578.047424 47051.000000
580.211304 47124.000000
582.373901 47562.000000
584.534973 47366.000000
586.694641 47724.000000
588.852966 47594.000000
591.009766 47080.000000
593.165222 46748.000000
595.319275 47591.000000
597.471985 47213.000000
599.623169 46115.000000
601.773010 46572.000000
603.921509 46603.000000
606.068420 47190.000000
608.214111 46815.000000
610.358398 46861.000000
612.501221 46228.000000
614.642578 47182.000000
616.782715 46864.000000
618.921326 45647.000000
621.058655 47602.000000
623.194519 46728.000000
625.328979 46420.000000
627.461975 46063.000000
629.593811 46678.000000
631.724182 46701.000000
633.853149 46479.000000
635.980652 46816.000000
638.106873 47097.000000
640.231567 46017.000000
642.355042 46918.000000
644.477173 46467.000000
646.597839 46355.000000
648.717163 46667.000000
650.835083 47562.000000
652.951660 47488.000000
655.066833 46835.000000
657.180664 46749.000000
659.293030 47382.000000
661.404175 47084.000000
663.513916 47856.000000
665.622192 47194.000000
667.729309 46918.000000
669.834961 46420.000000
671.939148 47375.000000
674.042114 47548.000000
676.143677 46216.000000
678.243896 47853.000000
680.342712 46513.000000
682.440186 46950.000000
684.536377 46200.000000
686.631104 46956.000000
688.724609 46178.000000
690.816772 46525.000000
692.907410 45223.000000
694.996826 46572.000000
697.084961 46760.000000
699.171631 47056.000000
701.257080 46523.000000
703.341003 48118.000000
705.423706 47308.000000
707.505127 47336.000000
709.585083 45633.000000
711.663818 46986.000000
713.741089 47596.000000
715.817078 46605.000000
717.891785 47112.000000
719.965210 46182.000000
722.037109 46817.000000
724.107849 45799.000000
726.177246 47382.000000
728.245239 46741.000000
730.311890 46868.000000
732.377319 46055.000000
734.441406 47371.000000
736.504150 46912.000000
738.565552 46637.000000
740.625671 46491.000000
742.684387 47083.000000
744.741882 46478.000000
746.798096 46519.000000
748.852905 46441.000000
750.906433 46706.000000
752.958557 45686.000000
755.009460 47305.000000
757.059143 46434.000000
759.107361 46802.000000
761.154358 47076.000000
763.200073 46084.000000
765.244385 47786.000000
767.287415 47353.000000
769.329224 38088.000000
771.369690 45924.000000
773.408752 46756.000000
775.446655 47029.000000
777.483215 47094.000000
779.518555 47781.000000
781.552551 47363.000000
783.585144 46249.000000
785.616577 47590.000000
787.646606 41469.000000
789.675354 47078.000000
791.702942 46797.000000
793.729187 46762.000000
795.754028 47312.000000
797.777771 47590.000000
799.800110 46719.000000
801.821228 47254.000000
803.841003 46404.000000
805.859497 48136.000000
807.876770 46360.000000
809.892639 46238.000000
811.907349 47340.000000
813.920715 46680.000000
815.932861 46748.000000
817.943787 46955.000000
819.953369 46436.000000
821.961731 47776.000000
823.968689 47311.000000
825.974426 46967.000000
827.978943 47250.000000
829.982178 47428.000000
831.984131 46524.000000
833.984802 46933.000000
835.984253 47086.000000
837.982361 46741.000000
839.979370 46069.000000
841.974976 46781.000000
843.969421 47003.000000
845.962524 46863.000000
847.954407 46143.000000
849.944946 47310.000000
851.934204 46211.000000
853.922424 46989.000000
855.909241 47186.000000
857.894836 46569.000000
859.879150 45795.000000
861.862366 46678.000000
863.844177 46613.000000
865.824768 47145.000000
867.804077 45231.000000
869.782227 45935.000000
871.759033 46843.000000
873.734558 46806.000000
875.709045 46850.000000
877.682068 46963.000000
879.654053 47594.000000
881.624695 46638.000000
883.594177 46836.000000
885.562317 47460.000000
887.529297 47761.000000
889.494934 46839.000000
891.459412 47115.000000
893.422668 46948.000000
895.384705 46404.000000
897.345459 47122.000000
899.304993 46518.000000
901.263245 46239.000000
903.220398 46589.000000
905.176392 46928.000000
907.130981 46048.000000
909.084351 46452.000000
911.036560 46406.000000
912.987549 46471.000000
914.937256 45771.000000
916.885803 46531.000000
918.833130 46540.000000
920.779175 46708.000000
922.723938 46775.000000
924.667664 46506.000000
926.610229 46787.000000
928.551514 47201.000000
930.491455 46264.000000
932.430298 47001.000000
934.367859 47275.000000
936.304199 46805.000000
938.239380 46898.000000
940.173279 46672.000000
942.106079 46903.000000
944.037659 46022.000000
945.968079 47566.000000
947.897278 46369.000000
949.825134 45821.000000
951.751953 46097.000000
953.677490 46785.000000
955.601746 47463.000000
957.524902 46795.000000
959.446899 46061.000000
961.367615 45458.000000
963.287170 46242.000000
965.205566 47474.000000
967.122925 46354.000000
969.038818 46346.000000
970.953613 46625.000000
972.867188 46772.000000
974.779602 46407.000000
976.690796 46316.000000
978.600830 47272.000000
980.509583 46486.000000
982.417297 46635.000000
984.323792 46405.000000
986.229065 47028.000000
988.133240 45895.000000
990.036194 46448.000000
991.937927 45914.000000
993.838501 46115.000000
995.737915 46059.000000
997.636108 47319.000000
999.533142 46044.000000
1001.428955 46076.000000
1003.323608 44934.000000
1005.217163 46941.000000
1007.109436 45323.000000
1009.000793 46500.000000
1010.890808 47185.000000
1012.779602 45833.000000
1014.667236 46226.000000
1016.553711 45557.000000
1018.439026 45652.000000
1020.323181 46586.000000
1022.206116 46634.000000
1024.088013 46276.000000
1025.968628 47250.000000
1027.848145 46696.000000
1029.726685 46443.000000
1031.603882 47121.000000
1033.479736 46328.000000
1035.354614 46716.000000
1037.228516 45903.000000
1039.100952 45522.000000
1040.972412 45743.000000
1042.842529 47080.000000
1044.711670 47013.000000
1046.579590 46793.000000
1048.446411 45512.000000
1050.312134 45809.000000
1052.176636 46092.000000
1054.040039 46097.000000
1055.902100 46029.000000
1057.763184 46605.000000
1059.623169 46026.000000
1061.481812 45809.000000
1063.339355 46746.000000
1065.195801 45782.000000
1067.051147 46569.000000
1068.905273 46700.000000
1070.758545 46238.000000
1072.610352 46177.000000
1074.461182 46224.000000
1076.310791 46263.000000
1078.159180 46652.000000
1080.006714 44356.000000
1081.852905 46783.000000
1083.697876 46107.000000
1085.541992 46890.000000
1087.384766 46696.000000
1089.226318 45803.000000
1091.067139 46821.000000
1092.906372 46465.000000
1094.744873 46141.000000
1096.582031 46248.000000
1098.417969 45293.000000
1100.252930 45550.000000
1102.086670 46717.000000
1103.919434 46482.000000
1105.750854 45864.000000
1107.581421 44870.000000
1109.410645 45596.000000
1111.238892 45670.000000
1113.065918 44929.000000
1114.891968 46640.000000
1116.716797 45768.000000
1118.540527 44892.000000
1120.363037 46028.000000
1122.184448 46227.000000
1124.005005 46104.000000
1125.824097 45556.000000
1127.642334 45012.000000
1129.459229 45295.000000
1131.275269 45386.000000
1133.090088 45660.000000
1134.903809 46524.000000
1136.716431 46335.000000
1138.527832 46485.000000
1140.338257 45977.000000
1142.147583 45351.000000
1143.955566 45168.000000
1145.762817 46185.000000
1147.568604 46210.000000
1149.373535 46734.000000
1151.177368 46669.000000
1152.979980 45984.000000
1154.781738 45990.000000
1156.582031 46053.000000
1158.381348 45999.000000
1160.179688 46198.000000
1161.976685 46597.000000
1163.772949 46055.000000
1165.567871 45910.000000
1167.361694 45606.000000
1169.154663 44167.000000
1170.946289 46198.000000
1172.736938 45406.000000
1174.526611 45844.000000
1176.314819 45944.000000
1178.102173 44354.000000
1179.888428 44960.000000
1181.673584 46001.000000
1183.457642 45823.000000
1185.240601 44089.000000
1187.022583 45856.000000
1188.803345 45803.000000
1190.583130 45370.000000
1192.361816 44698.000000
1194.139526 44995.000000
1195.916016 44397.000000
1197.691406 44938.000000
1199.465698 44903.000000
1201.238892 44844.000000
1203.011230 44913.000000
1204.782227 44701.000000
1206.552368 45793.000000
1208.321289 45322.000000
1210.089111 45087.000000
1211.856079 45627.000000
1213.621704 45529.000000
1215.386353 44511.000000
1217.149902 44873.000000
1218.912354 45457.000000
1220.673950 44745.000000
1222.434326 45487.000000
1224.193604 45129.000000
1225.952026 45402.000000
1227.709229 44362.000000
1229.465332 45058.000000
1231.220337 45978.000000
1232.974487 45359.000000
1234.727295 45688.000000
1236.479126 45524.000000
1238.230103 45556.000000
1239.979736 46597.000000
1241.728516 44450.000000
1243.475952 45047.000000
1245.222656 44949.000000
1246.968140 44977.000000
1248.712769 45062.000000
1250.456055 44636.000000
1252.198364 44735.000000
1253.939575 46045.000000
1255.679932 46259.000000
1257.419189 45592.000000
1259.157227 44780.000000
1260.894409 44330.000000
1262.630371 45323.000000
1264.365356 44919.000000
1266.099365 44181.000000
1267.832397 45472.000000
1269.564209 45223.000000
1271.295044 45073.000000
1273.024658 44222.000000
1274.753418 45625.000000
1276.481079 45712.000000
1278.207642 45902.000000
1279.933350 45883.000000
1281.657715 44948.000000
1283.381226 46151.000000
1285.103760 44567.000000
1286.825317 44725.000000
1288.545654 44906.000000
1290.265015 44724.000000
1291.983276 43919.000000
1293.700562 44810.000000
1295.416870 45477.000000
1297.131958 44784.000000
1298.846069 44997.000000
1300.559204 45295.000000
1302.271484 44608.000000
1303.982544 42727.000000
1305.692627 45772.000000
1307.401611 44679.000000
1309.109375 44326.000000
1310.816528 43980.000000
1312.522217 45166.000000
1314.227173 44043.000000
1315.931152 44766.000000
1317.633911 44969.000000
1319.335693 44421.000000
1321.036621 44912.000000
1322.736206 40766.000000
1324.434937 42985.500000
1326.132935 45205.000000
1327.829590 44033.000000
1329.525146 43168.000000
1331.219849 43431.000000
1332.913330 44543.000000
1334.605957 44917.000000
1336.297729 42813.000000
1337.988159 44060.000000
1339.677856 43711.000000
1341.366455 44218.000000
1343.053955 42677.000000
1344.740479 44687.000000
1346.425903 43575.000000
1348.110352 44397.000000
1349.793945 43152.000000
1351.476318 44077.000000
1353.157715 44479.000000
1354.838257 43906.000000
1356.517578 43690.000000
1358.196289 44471.000000
1359.873657 43865.000000
1361.549927 44599.000000
1363.225220 44821.000000
1364.899780 43759.000000
1366.573120 43766.000000
1368.245483 43402.000000
1369.916870 44998.000000
1371.587280 43294.000000
1373.256592 43867.000000
1374.924927 44289.000000
1376.592407 44015.000000
1378.258789 43296.000000
1379.924194 43607.000000
1381.588623 43822.000000
1383.251831 43662.000000
1384.914429 43846.000000
1386.575684 43019.000000
1388.236084 42809.000000
1389.895386 42863.000000
1391.553711 42715.000000
1393.211304 42368.000000
1394.867676 42650.000000
1396.523193 41959.000000
1398.177490 42690.000000
1399.830933 43047.000000
1401.483276 42760.000000
1403.134888 42357.000000
1404.785278 41434.000000
1406.434570 42253.000000
1408.083130 40797.000000
1409.730591 40344.000000
1411.377075 41767.000000
1413.022705 41591.000000
1414.667358 41765.000000
1416.310791 40614.000000
1417.953369 40428.000000
1419.594849 40599.000000
1421.235474 40905.000000
1422.875122 40794.000000
1424.513672 41205.000000
1426.151367 40583.000000
1427.787964 40795.000000
1429.423584 41110.000000
1431.058472 40764.000000
1432.692261 41154.000000
1434.324951 40946.000000
1435.956665 41582.000000
1437.587524 41167.000000
1439.217285 41364.000000
1440.845947 39575.000000
1442.473999 41481.000000
1444.100952 41231.000000
1445.726685 41305.000000
1447.351807 41428.000000
1448.975830 41206.000000
1450.598877 41679.000000
1452.220947 41815.000000
1453.841919 40513.000000
1455.461914 41628.000000
1457.081177 40885.000000
1458.699097 42049.000000
1460.316406 42083.500000
1461.932739 42118.000000
1463.547852 39849.000000
1465.162109 40714.000000
1466.775513 41703.000000
1468.387817 41290.000000
1469.999268 40580.000000
1471.609863 40495.000000
1473.219238 40680.000000
1474.827637 40626.000000
1476.435181 40287.000000
1478.041748 39653.000000
1479.647583 40810.000000
1481.252197 39644.000000
1482.855957 40336.000000
1484.458496 38853.000000
1486.060425 40013.000000
1487.661133 40008.000000
1489.261108 39935.000000
1490.859985 39320.000000
1492.458008 39091.000000
1494.054932 39118.000000
1495.651001 39500.000000
1497.246094 39858.000000
1498.840210 40243.000000
1500.433594 39009.000000
1502.025879 39988.000000
1503.616943 39204.000000
1505.207520 38369.000000
1506.796753 38581.000000
1508.385376 38734.000000
1509.972900 38249.000000
1511.559326 37816.000000
1513.145020 38390.000000
1514.729614 37789.000000
1516.313354 38041.000000
1517.895996 38071.000000
1519.477905 37455.000000
1521.058716 37293.000000
1522.638794 37771.000000
1524.217651 37386.000000
1525.795654 37106.000000
1527.372925 37075.000000
1528.948975 37633.000000
1530.524292 37274.000000
1532.098511 36824.000000
1533.671997 37611.000000
1535.244263 37102.000000
1536.815796 36626.000000
1538.386353 36548.000000
1539.956055 36531.000000
1541.524536 37318.000000
1543.092285 36112.000000
1544.659180 37056.000000
1546.224854 35789.000000
1547.789795 36534.000000
1549.353638 37379.000000
1550.916870 34887.000000
1552.478760 36092.000000
1554.040039 36214.000000
1555.600220 36472.000000
1557.159668 36427.000000
1558.718018 36149.000000
1560.275635 35871.000000
1561.832153 35172.000000
1563.387451 36359.000000
1564.942139 35731.000000
1566.496094 36559.000000
1568.049072 35946.000000
1569.600708 36569.000000
1571.151611 36327.000000
1572.701782 36097.000000
1574.250977 35939.000000
1575.798828 36529.000000
1577.346191 36781.000000
1578.892578 36598.000000
1580.438110 37317.000000
1581.982666 35715.000000
1583.526001 36150.000000
1585.068726 35754.000000
1586.610596 35841.000000
1588.151367 35529.000000
1589.691162 36315.000000
1591.230225 35401.000000
1592.768188 36075.000000
1594.305664 35813.000000
1595.841797 36090.000000
1597.376831 35334.000000
1598.911377 35610.000000
1600.444946 35786.000000
1601.977661 35617.000000
1603.508789 35581.000000
1605.039673 35533.000000
1606.569702 36071.000000
1608.098511 35676.000000
1609.626221 35626.000000
1611.153320 35970.000000
1612.679688 36191.000000
1614.205078 35839.000000
1615.729614 36279.000000
1617.252808 36379.000000
1618.775269 36644.000000
1620.296997 35846.000000
1621.817871 35485.000000
1623.337280 35553.000000
1624.856201 35621.000000
1626.374390 34948.000000
1627.891724 34993.000000
1629.407959 34526.000000
1630.922852 33707.000000
1632.437256 33894.000000
1633.950928 34624.000000
1635.463501 33501.000000
1636.974854 34220.000000
1638.485840 33690.000000
1639.995728 33864.000000
1641.504761 33811.000000
1643.012451 34253.000000
1644.519775 33735.000000
1646.026245 32835.000000
1647.531738 33535.000000
1649.036377 32869.000000
1650.539551 33394.000000
1652.042114 32938.000000
1653.544312 32930.000000
1655.045166 32595.000000
1656.544922 31598.000000
1658.043823 32948.000000
1659.542358 32356.000000
1661.039673 32540.000000
1662.536255 32827.000000
1664.031250 32348.000000
1665.526001 32529.000000
1667.019897 33855.000000
1668.512817 33937.000000
1670.004395 33299.000000
1671.495483 32661.000000
1672.985962 31254.000000
1674.475342 31315.000000
1675.963257 30369.000000
1677.450928 30382.000000
1678.937622 31094.000000
1680.423462 31444.000000
1681.908447 30679.000000
1683.391968 30443.000000
1684.875244 30423.000000
1686.357666 30588.000000
1687.838989 30311.000000
1689.318848 30267.000000
1690.798462 30878.000000
1692.277344 29802.000000
1693.755249 30537.000000
1695.232178 30266.000000
1696.707886 30522.000000
1698.183228 30229.000000
1699.657349 30081.000000
1701.130859 30910.000000
1702.602905 30848.000000
1704.074707 29652.000000
1705.545532 30277.000000
1707.015503 29429.000000
1708.484131 31207.000000
1709.952271 30637.000000
1711.419678 30132.000000
1712.885986 31058.000000
1714.351685 30753.000000
1715.815674 30394.000000
1717.279541 30774.000000
1718.742554 29832.000000
1720.204590 30429.000000
1721.665405 30089.000000
1723.125610 31144.000000
1724.585083 30224.000000
1726.043701 30444.000000
1727.501343 30482.000000
1728.957642 30350.000000
1730.413696 30467.000000
1731.868774 30068.000000
1733.322876 30484.000000
1734.775757 29652.000000
1736.228394 30495.000000
1737.679932 29710.000000
1739.130737 30360.000000
1740.580566 29653.000000
1742.029053 30189.000000
1743.477173 28699.000000
1744.924438 29548.000000
1746.370972 29328.000000
1747.815918 29173.000000
1749.260620 29762.000000
1750.704468 30133.000000
1752.147461 30595.000000
1753.588989 29976.000000
1755.030273 30579.000000
1756.470703 30407.000000
1757.910156 30235.000000
1759.348633 29527.000000
1760.786133 28656.000000
1762.223145 27377.000000
1763.659180 28959.000000
1765.094360 27562.000000
1766.528076 28470.000000
1767.961670 28145.000000
1769.394287 27762.000000
1770.826050 28510.000000
1772.256958 28236.000000
1773.686646 27468.000000
1775.115601 27346.000000
1776.544067 26951.000000
1777.971558 26135.000000
1779.397705 26341.000000
1780.823608 27397.000000
1782.248413 26355.000000
1783.672607 27534.000000
1785.095337 26453.000000
1786.517578 26586.000000
1787.939087 26059.000000
1789.359863 26847.000000
1790.779663 26513.000000
1792.198120 26317.000000
1793.616089 25624.000000
1795.033447 26678.000000
1796.449951 26273.000000
1797.864990 25949.000000
1799.279663 26457.000000
1800.693726 25987.000000
1802.106567 26635.000000
1803.518799 25798.000000
1804.929688 25585.000000
1806.340088 24859.000000
1807.749756 25666.000000
1809.158447 25875.000000
1810.566040 26441.000000
1811.973145 25857.000000
1813.379395 26066.000000
1814.784668 25632.000000
1816.188843 26246.000000
1817.592651 26155.000000
1818.995483 26022.000000
1820.397461 26129.000000
1821.798828 26345.000000
1823.198730 26043.000000
1824.598022 25850.000000
1825.996826 25916.000000
1827.394775 25078.000000
1828.791382 26398.000000
1830.187378 25606.000000
1831.582642 26483.000000
1832.977295 24435.000000
1834.370972 26143.000000
1835.763306 25356.000000
1837.155151 25508.000000
1838.546387 25931.000000
1839.936646 24945.000000
1841.325684 25591.000000
1842.714355 25469.000000
1844.102051 25376.000000
1845.489014 25510.000000
1846.874634 24686.000000
1848.260010 25382.000000
1849.644531 24954.000000
1851.028320 24932.000000
1852.411011 24761.000000
1853.792480 25128.000000
1855.173462 24397.000000
1856.553955 24400.000000
1857.933472 24605.000000
1859.311523 24615.000000
1860.689453 24784.000000
1862.066406 23435.000000
1863.442627 24185.000000
1864.817993 24042.000000
1866.191895 24094.000000
1867.565674 23968.000000
1868.938599 23605.000000
1870.310425 23702.000000
1871.681274 22980.000000
1873.051758 23676.000000
1874.421143 23461.000000
1875.790039 23373.000000
1877.157349 22739.000000
1878.524536 23175.000000
1879.890747 23175.000000
1881.256226 22963.000000
1882.620972 22689.000000
1883.984131 22953.000000
1885.347168 22803.000000
1886.709351 22870.000000
1888.070679 22555.000000
1889.430664 22618.000000
1890.790283 22506.000000
1892.149292 22510.000000
1893.507324 22365.000000
1894.864502 22018.000000
1896.220459 22697.000000
1897.576172 21908.000000
1898.930908 22264.000000
1900.284790 22433.000000
1901.637573 22324.000000
1902.989868 22251.000000
1904.341431 22473.000000
1905.692139 22284.000000
1907.041626 22645.000000
1908.390625 22368.000000
1909.738770 22401.000000
1911.086304 22290.000000
1912.433105 22271.000000
1913.778320 22366.000000
1915.123291 22497.000000
1916.467529 22710.000000
1917.810913 22443.000000
1919.152954 22518.000000
1920.494751 22416.000000
1921.835693 22158.000000
1923.175903 22420.000000
1924.515137 22318.000000
1925.853394 22460.000000
1927.191040 22433.000000
1928.527954 22200.000000
1929.864014 22327.000000
1931.198853 22597.000000
1932.533325 22216.000000
1933.867065 21826.000000
1935.199951 21803.000000
1936.531372 22111.000000
1937.862915 21963.000000
1939.193115 21411.000000
1940.522827 21740.000000
1941.851685 21711.000000
1943.179321 21770.000000
1944.506470 21830.000000
1945.832886 21734.000000
1947.158569 21584.000000
1948.482910 21737.000000
1949.807007 21424.000000
1951.130249 21479.000000
1952.452759 21231.000000
1953.774170 21464.000000
1955.094604 20987.000000
1956.414429 21227.000000
1957.733887 21346.000000
1959.052368 20897.000000
1960.369507 21040.000000
1961.686279 20914.000000
1963.002319 20614.000000
1964.317627 20779.000000
1965.631470 20678.000000
1966.945068 20544.000000
1968.257935 20448.000000
1969.569946 20587.000000
1970.881348 20703.000000
1972.191406 20487.000000
1973.500977 20281.000000
1974.809814 19884.000000
1976.118042 19893.000000
1977.424927 19929.000000
1978.731201 19750.000000
1980.037109 19993.000000
1981.341797 20036.000000
1982.645996 20026.000000
1983.948975 19818.000000
1985.251587 19687.000000
1986.553223 19566.000000
1987.854248 19309.000000
1989.153687 19172.000000
1990.453247 19128.000000
1991.751709 19174.000000
1993.049683 18988.000000
1994.346069 19086.000000
1995.642456 19000.000000
1996.937866 18961.000000
1998.232544 18700.000000
1999.526367 18792.000000
2000.818970 18529.000000
2002.111084 18499.000000
2003.402710 18309.000000
2004.693604 18440.000000
2005.982910 18532.000000
2007.271973 18321.000000
2008.560303 18507.000000
2009.847900 18443.000000
2011.134644 18433.000000
2012.420288 18068.000000
2013.705566 18203.000000
2014.989868 18147.000000
2016.273560 18338.000000
2017.555908 18094.000000
2018.837891 18145.000000
2020.119385 18029.000000
2021.399902 18178.000000
2022.679688 18049.000000
2023.958374 17973.000000
2025.236328 18006.000000
2026.513794 17909.000000
2027.790649 18139.000000
2029.065796 18159.000000
2030.341064 18117.000000
2031.615356 18229.000000
2032.888672 18242.000000
2034.161133 18138.000000
2035.433228 18294.000000
2036.704224 18202.000000
2037.974976 18278.000000
2039.244385 18237.000000
2040.512695 18187.000000
2041.781006 18203.000000
2043.048340 18128.000000
2044.314941 18097.000000
2045.580322 17910.000000
2046.845093 17731.000000
2048.109619 18009.000000
2049.372803 17824.000000
2050.635742 17738.000000
2051.896729 17792.000000
2053.158203 17590.000000
2054.418457 17395.000000
2055.677979 17537.000000
2056.936768 17400.000000
2058.194580 17300.000000
2059.451904 17480.000000
2060.708496 17333.000000
2061.963623 17319.000000
2063.218750 17383.000000
2064.472900 17467.000000
2065.726318 17121.000000
2066.979004 17199.000000
2068.230469 17135.000000
2069.481689 16993.000000
2070.732178 17270.000000
2071.981934 17194.000000
2073.230225 17082.000000
2074.478516 16890.000000
2075.725830 16797.000000
2076.972412 16896.000000
2078.218262 16729.000000
2079.462891 16792.000000
2080.707031 16488.000000
2081.950684 16623.000000
2083.193359 16608.000000
2084.434814 16314.000000
2085.676025 16292.000000
2086.916748 16389.000000
2088.156494 16310.000000
2089.395020 16236.000000
2090.633057 16235.000000
2091.870361 16193.000000
2093.107422 15977.000000
2094.343018 16108.000000
2095.577881 16000.000000
2096.812500 16174.000000
2098.046143 16143.000000
2099.278809 15989.000000
2100.510742 15793.000000
2101.742188 15825.000000
2102.972656 15841.000000
2104.202393 15707.000000
2105.431885 15623.000000
2106.659424 15590.000000
2107.887207 15357.000000
2109.114258 15282.000000
2110.340332 15342.000000
2111.564941 15311.000000
2112.789795 15093.000000
2114.013428 15102.000000
2115.236572 15117.000000
2116.458496 15033.000000
2117.680176 15165.000000
2118.900879 15257.000000
2120.120850 15279.000000
2121.340332 15406.000000
2122.558350 15502.000000
2123.776367 15394.000000
2124.993408 15322.000000
2126.209961 15402.000000
2127.424805 15420.000000
2128.639893 15397.000000
2129.854004 15263.000000
2131.067383 15079.000000
2132.280029 14992.000000
2133.491211 15176.000000
2134.702637 15250.000000
2135.912842 15027.000000
2137.122559 15254.000000
2138.330811 15097.000000
2139.539063 15129.000000
2140.746582 15016.000000
2141.952881 14690.000000
2143.158447 15012.000000
2144.363770 14902.000000
2145.568115 14983.000000
2146.771729 14841.000000
2147.974854 14787.000000
2149.176514 14900.000000
2150.377930 14908.000000
2151.578613 14693.000000
2152.778564 14778.000000
2153.977295 14714.000000
2155.175781 14675.000000
2156.373779 14748.000000
2157.570801 14466.000000
2158.767090 14428.000000
2159.962158 14423.000000
2161.156982 14157.000000
2162.351074 14104.000000
2163.544189 14049.000000
2164.736328 13945.000000
2165.928223 13813.000000
2167.119385 13815.000000
2168.309570 13592.000000
2169.499023 13698.000000
2170.687988 13649.000000
2171.875977 13350.000000
2173.063721 13310.000000
2174.250000 13159.000000
2175.435547 13101.000000
2176.620850 12889.000000
2177.805664 13036.000000
2178.989258 13015.000000
2180.172119 13059.000000
2181.354004 13053.000000
2182.535645 12905.000000
2183.716797 12983.000000
2184.896729 13050.000000
2186.075684 12941.000000
2187.254150 12745.000000
2188.432373 12730.000000
2189.609375 12878.000000
2190.785400 12700.000000
2191.961182 12882.000000
2193.136475 13031.000000
2194.310303 12889.000000
2195.483643 12903.000000
2196.656738 12872.000000
2197.828613 12981.000000
2199.000000 13003.000000
2200.170898 12857.000000
2201.340088 12919.000000
2202.509277 12963.000000
2203.677979 12882.000000
2204.845703 12922.000000
2206.012451 12966.000000
2207.178467 12922.000000
2208.343994 12833.000000
2209.509277 13005.000000
2210.673096 12831.000000
2211.836426 12828.000000
2212.998535 12736.000000
2214.160889 12817.000000
2215.322021 12785.000000
2216.482178 12711.000000
2217.641846 12545.000000
2218.801270 12683.000000
2219.959473 12403.000000
2221.116699 12435.000000
2222.273682 12502.000000
2223.429932 12598.000000
2224.585449 12358.000000
2225.740234 12386.000000
2226.894043 12135.000000
2228.046875 12331.000000
2229.200195 12213.000000
2230.351563 12144.000000
2231.502686 12128.000000
2232.653076 12023.000000
2233.802979 11866.000000
2234.951904 11962.000000
2236.100342 11953.000000
2237.247314 11947.000000
2238.394531 11827.000000
2239.540527 11908.000000
2240.686279 11707.000000
2241.830322 11549.000000
2242.974609 11583.000000
2244.117920 11422.000000
2245.260498 11492.000000
2246.402100 11386.000000
2247.543457 11237.000000
2248.683838 11097.000000
2249.823486 11029.000000
2250.962646 11045.000000
2252.100586 11011.000000
2253.238525 10925.000000
2254.375488 10925.000000
2255.511719 10938.000000
2256.646973 11002.000000
2257.781494 10906.000000
2258.915771 10998.000000
2260.049561 11078.000000
2261.181885 11259.000000
2262.313721 11096.000000
2263.445068 10812.000000
2264.575439 10668.000000
2265.705566 10521.000000
2266.834473 10459.000000
2267.962891 10456.000000
2269.090820 10452.000000
2270.217773 10524.000000
2271.343994 10371.000000
2272.469238 10470.000000
2273.594482 10400.000000
2274.718994 10433.000000
2275.842285 10617.000000
2276.964844 10437.000000
2278.086914 10484.000000
2279.208496 10416.000000
2280.329346 10266.000000
2281.448975 10401.000000
2282.568115 10313.000000
2283.687012 10160.000000
2284.805176 9947.000000
2285.922363 10129.000000
2287.038574 10078.000000
2288.154541 10097.000000
2289.269775 10044.000000
2290.384277 10198.000000
2291.497559 10365.000000
2292.610840 10192.000000
2293.723389 10273.000000
2294.835205 10268.000000
2295.946289 10216.000000
2297.056152 10311.000000
2298.165527 10480.000000
2299.274658 10343.000000
2300.382813 10367.000000
2301.489990 10332.000000
2302.596924 10418.000000
2303.703125 10416.000000
2304.808838 10341.000000
2305.913086 10186.000000
2307.017090 10152.000000
2308.120605 10151.000000
2309.223633 10119.000000
2310.325439 10007.000000
2311.426514 10045.000000
2312.527100 9992.000000
2313.627197 9986.000000
2314.726563 9975.000000
2315.824463 9965.000000
2316.922852 9946.000000
2318.019775 9815.000000
2319.116455 9768.000000
2320.212646 9898.000000
2321.307129 9782.000000
2322.401611 9860.000000
2323.495361 9686.000000
2324.588867 9565.000000
2325.680664 9716.000000
2326.772461 10011.000000
2327.863525 9684.000000
2328.953857 9592.000000
2330.043213 9705.000000
2331.132568 9660.000000
2332.220703 9563.000000
2333.308350 9547.000000
2334.395752 9436.000000
2335.481445 9378.000000
2336.566895 9320.000000
2337.652100 9241.000000
2338.736328 9237.000000
2339.819580 9264.000000
2340.902588 9163.000000
2341.984619 8936.000000
2343.066406 9125.000000
2344.147461 8927.000000
2345.227295 9033.000000
2346.306641 8889.000000
2347.385498 8731.000000
2348.463867 8875.000000
2349.540771 8891.000000
2350.617432 8775.000000
2351.693848 8802.000000
2352.769287 8737.000000
2353.843750 8790.000000
2354.917969 8578.000000
2355.991455 8611.000000
2357.064453 8649.000000
2358.136230 8482.000000
2359.207764 8564.000000
2360.278320 8400.000000
2361.348633 8458.000000
2362.417969 8330.000000
2363.486328 8364.000000
2364.554443 8419.000000
2365.621826 8245.000000
2366.688721 8288.000000
2367.754883 8224.000000
2368.819824 8239.000000
2369.884766 8075.000000
2370.948975 8023.000000
2372.012451 8128.000000
2373.074707 8072.000000
2374.136963 8074.000000
2375.198242 8189.000000
2376.259277 7901.000000
2377.319092 7963.000000
2378.378174 8023.000000
2379.437256 7968.000000
2380.495361 7987.000000
2381.552734 8131.000000
2382.609131 7987.000000
2383.665283 7914.000000
2384.720947 7807.000000
2385.775879 7943.000000
2386.829346 7954.000000
2387.883057 7789.000000
2388.935791 7943.000000
2389.988037 7818.000000
2391.039551 7986.000000
2392.090088 7872.000000
2393.140381 8022.000000
2394.189697 7902.000000
2395.239014 7845.000000
2396.286865 7923.000000
2397.334229 7889.000000
2398.381348 7879.000000
2399.427490 7777.000000
2400.472900 7921.000000
2401.517578 7810.000000
2402.562256 7758.000000
2403.605469 7758.000000
2404.648682 7773.000000
2405.690430 7826.000000
2406.732422 7689.000000
2407.773682 7780.000000
2408.813965 7727.000000
2409.853516 7879.000000
2410.892090 7809.000000
2411.930908 7678.000000
2412.968506 7675.000000
2414.005859 7694.000000
2415.041992 7591.000000
2416.077881 7693.000000
2417.113037 7696.000000
2418.147705 7721.000000
2419.180908 7641.000000
2420.214355 7646.000000
2421.246826 7534.000000
2422.279053 7780.000000
2423.309814 7693.000000
2424.340576 7583.000000
2425.370850 7399.000000
2426.399902 7464.000000
2427.428955 7497.000000
2428.456299 7423.000000
2429.484131 7386.000000
2430.510742 7450.000000
2431.537109 7335.000000
2432.562012 7239.000000
2433.587158 7190.000000
2434.611328 7212.000000
2435.635254 7168.000000
2436.657959 7139.000000
2437.679932 7126.000000
2438.701660 7075.000000
2439.722656 7007.000000
2440.743164 6883.000000
2441.762451 6826.000000
2442.781738 6821.000000
2443.800049 6830.000000
2444.818115 6827.000000
2445.834717 6789.000000
2446.851318 6756.000000
2447.867188 6877.000000
2448.883057 6692.000000
2449.897461 6769.000000
2450.911133 6678.000000
2451.924316 6660.000000
2452.937256 6606.000000
2453.949463 6553.000000
2454.960693 6542.000000
2455.971680 6616.000000
2456.981934 6732.000000
2457.991699 6641.000000
2459.000488 6510.000000
2460.008545 6564.000000
2461.016602 6505.000000
2462.023438 6461.000000
2463.030029 6338.000000
2464.035400 6320.000000
2465.040527 6284.000000
2466.045410 6429.000000
2467.049072 6298.000000
2468.052490 6291.000000
2469.054932 6403.000000
2470.057129 6383.000000
2471.058838 6386.000000
2472.059570 6273.000000
2473.059326 6126.000000
2474.059082 6194.000000
2475.057861 6230.000000
2476.056152 6140.000000
2477.053467 6102.000000
2478.050537 6104.000000
2479.047607 6181.000000
2480.043213 6176.000000
2481.038818 6128.000000
2482.032715 6131.000000
2483.026611 6113.000000
2484.020020 6090.000000
2485.012939 6257.000000
2486.004883 6156.000000
2486.996094 5983.000000
2487.987061 6155.000000
2488.977539 6088.000000
2489.967041 6157.000000
2490.955811 6172.000000
2491.944580 6146.000000
2492.932373 6162.000000
2493.918945 6105.000000
2494.905518 6037.000000
2495.891602 6104.000000
2496.876953 6100.000000
2497.861328 6075.000000
2498.845459 6178.000000
2499.829590 6014.000000
2500.812256 6139.000000
2501.794434 6088.000000
2502.776123 6062.000000
2503.757080 6128.000000
2504.737549 6096.000000
2505.717773 6138.000000
2506.696533 5981.000000
2507.675049 5941.000000
2508.653076 5884.000000
2509.630615 5820.000000
2510.607178 5997.000000
2511.583496 6013.000000
2512.559082 5951.000000
2513.534180 5891.000000
2514.508789 5808.000000
2515.482178 5917.000000
2516.455322 5905.000000
2517.428223 5890.000000
2518.400146 5762.000000
2519.371338 5828.000000
2520.342041 5814.000000
2521.312500 5690.000000
2522.282227 5575.000000
2523.250977 5608.000000
2524.218994 5552.000000
2525.187012 5628.000000
2526.154053 5496.000000
2527.120850 5594.000000
2528.086426 5520.000000
2529.052002 5492.000000
2530.016846 5600.000000
2530.981201 5495.000000
2531.944336 5529.000000
2532.907715 5496.000000
2533.870117 5487.000000
2534.832275 5496.000000
2535.793213 5483.000000
2536.753418 5498.000000
2537.713867 5339.000000
2538.673340 5571.000000
2539.632080 5461.000000
2540.589844 5422.000000
2541.547852 5297.000000
2542.505127 5325.000000
2543.461426 5274.000000
2544.417480 5103.000000
2545.372314 5233.000000
2546.327393 5233.000000
2547.281738 5143.000000
2548.235352 5293.000000
2549.187988 5049.000000
2550.140381 5099.000000
2551.092285 5069.000000
2552.043457 4951.000000
2552.993896 5195.000000
2553.943848 5093.000000
2554.893555 4978.000000
2555.842529 5030.000000
2556.791016 5071.000000
2557.738281 4871.000000
2558.685547 5002.000000
2559.632080 4976.000000
2560.578125 4915.000000
2561.523193 4973.000000
2562.468018 4947.000000
2563.412354 4820.000000
2564.356201 4879.000000
2565.299561 4870.000000
2566.241455 4795.000000
2567.183594 4725.000000
2568.125000 4697.000000
2569.065674 4854.000000
2570.005615 4824.000000
2570.945557 4818.000000
2571.884521 4823.000000
2572.823242 4725.000000
2573.760986 4793.000000
2574.698486 4784.000000
2575.635254 4852.000000
2576.571289 4818.000000
2577.506836 4839.000000
2578.441650 4918.000000
2579.376465 4800.000000
2580.310303 4712.000000
2581.243652 4737.000000
2582.176270 4758.000000
2583.108643 4692.000000
2584.040283 4868.000000
2584.971436 4755.000000
2585.902100 4535.000000
2586.831543 4596.000000
2587.760986 4636.000000
2588.689941 4657.000000
2589.618652 4755.000000
2590.545654 4685.000000
2591.472900 4660.000000
2592.399658 4601.000000
2593.325684 4573.000000
2594.251465 4626.000000
2595.176025 4670.000000
2596.100342 4540.000000
2597.024170 4623.000000
2597.947510 4554.000000
2598.869873 4616.000000
2599.791992 4589.000000
2600.713623 4543.000000
2601.634521 4558.000000
2602.554688 4589.000000
2603.474609 4587.000000
2604.394043 4513.000000
2605.313232 4443.000000
2606.231445 4579.000000
2607.148438 4487.000000
2608.065674 4434.000000
2608.982666 4486.000000
2609.898682 4363.000000
2610.813477 4474.000000
2611.728760 4317.000000
2612.643311 4324.000000
2613.556885 4377.000000
2614.470459 4329.000000
2615.382813 4421.000000
2616.295166 4422.000000
2617.206543 4255.000000
2618.117676 4251.000000
2619.028076 4270.000000
2619.938232 4250.000000
2620.847656 4299.000000
2621.756592 4186.000000
2622.664551 4281.000000
2623.572754 4264.000000
2624.479980 4284.000000
2625.386719 4170.000000
2626.292725 4163.000000
2627.198486 4099.000000
2628.103516 4119.000000
2629.008301 4180.000000
2629.912354 4040.000000
2630.815430 4155.000000
2631.718506 4138.000000
2632.620605 4023.000000
2633.522705 4055.000000
2634.424561 4049.000000
2635.324707 4023.000000
2636.225098 4156.000000
2637.124756 4050.000000
2638.024170 4066.000000
2638.922119 3994.000000
2639.820557 3975.000000
2640.718506 3977.000000
2641.615723 4056.000000
2642.511719 3895.000000
2643.407715 3884.000000
2644.303467 3978.000000
2645.198486 3926.000000
2646.093262 3796.000000
2646.986572 3878.000000
2647.879883 3804.000000
2648.772949 3853.000000
2649.665771 3809.000000
2650.556885 3793.000000
2651.448242 3757.000000
2652.339111 3773.000000
2653.229248 3894.000000
2654.119141 3669.000000
2655.007813 3706.000000
2655.896729 3741.000000
2656.785156 3602.000000
2657.672607 3657.000000
2658.559082 3695.000000
2659.446045 3652.000000
2660.332275 3727.000000
2661.218018 3625.000000
2662.102539 3647.000000
2662.987061 3630.000000
2663.871338 3655.000000
2664.754883 3646.000000
2665.637939 3742.000000
2666.520264 3591.000000
2667.402100 3672.000000
2668.283203 3634.000000
2669.164551 3721.000000
2670.044434 3740.000000
2670.924561 3631.000000
2671.803955 3680.000000
2672.683350 3645.000000
2673.562012 3630.000000
2674.438965 3693.000000
2675.316650 3647.000000
2676.193604 3571.000000
2677.069824 3511.000000
2677.945557 3576.000000
2678.820557 3515.000000
2679.695801 3526.000000
2680.570068 3525.000000
2681.443848 3543.000000
2682.316895 3389.000000
2683.189697 3490.000000
2684.062256 3576.000000
2684.934082 3515.000000
2685.805176 3343.000000
2686.676025 3434.000000
2687.546387 3391.000000
2688.416504 3380.000000
2689.284912 3430.000000
2690.154053 3365.000000
2691.022461 3393.000000
2691.890625 3382.000000
2692.758057 3276.000000
2693.624268 3321.000000
2694.490967 3311.000000
2695.356689 3290.000000
2696.222412 3320.000000
2697.086670 3264.000000
2697.951660 3319.000000
2698.815186 3283.000000
2699.678955 3348.000000
2700.541260 3220.000000
2701.404053 3257.000000
2702.265869 3239.000000
2703.127197 3311.000000
2703.988525 3164.000000
2704.848633 3331.000000
2705.708740 3199.000000
2706.568359 3299.000000
2707.427734 3134.000000
2708.285400 3243.000000
2709.143311 3110.000000
2710.001709 3126.000000
2710.858887 3229.000000
2711.715332 3121.000000
2712.571289 3185.000000
2713.427246 3083.000000
2714.282471 3163.000000
2715.136963 3082.000000
2715.990967 3162.000000
2716.844971 3055.000000
2717.697998 3022.000000
2718.551270 2994.000000
2719.402832 3020.000000
2720.254883 3043.000000
2721.106689 2950.000000
2721.957275 3008.000000
2722.807861 2936.000000
2723.657959 2957.000000
2724.507324 2971.000000
2725.356689 2892.000000
2726.204834 2968.000000
2727.052490 3016.000000
2727.900635 2881.000000
2728.747559 2962.000000
2729.594971 2959.000000
2730.440918 2821.000000
2731.286133 2948.000000
2732.131836 2874.000000
2732.976563 2904.000000
2733.821289 2895.000000
2734.664795 2933.000000
2735.508545 2835.000000
2736.351563 2887.000000
2737.194092 2861.000000
2738.035645 2898.000000
2738.877686 2903.000000
2739.718750 3001.000000
2740.559570 2842.000000
2741.400146 2810.000000
2742.239502 2819.000000
2743.078857 2850.000000
2743.918213 2890.000000
2744.756348 2948.000000
2745.593994 2883.000000
2746.431641 2826.000000
2747.268799 2768.000000
2748.105713 2775.000000
2748.942139 2765.000000
2749.777344 2798.000000
2750.612793 2840.000000
2751.447754 2908.000000
2752.281982 2846.000000
2753.115967 2722.000000
2753.949463 2756.000000
2754.782959 2711.000000
2755.615479 2735.000000
2756.447510 2727.000000
2757.279053 2688.000000
2758.110596 2668.000000
2758.941162 2699.000000
2759.771973 2687.000000
2760.601563 2703.000000
2761.431152 2759.000000
2762.260498 2679.000000
2763.089111 2658.000000
2763.917236 2619.000000
2764.744873 2705.000000
2765.572510 2658.000000
2766.399658 2570.000000
2767.226074 2521.000000
2768.052002 2510.000000
2768.877441 2567.000000
2769.702637 2628.000000
2770.527832 2532.000000
2771.351807 2611.000000
2772.175781 2556.000000
2772.999756 2550.000000
2773.822510 2573.000000
2774.645508 2544.000000
2775.467285 2543.000000
2776.289063 2532.000000
2777.110840 2515.000000
2777.931641 2479.000000
2778.751709 2548.000000
2779.572021 2402.000000
2780.391846 2408.000000
2781.211670 2515.000000
2782.029541 2415.000000
2782.848633 2423.000000
2783.666504 2571.000000
2784.484131 2540.000000
2785.301270 2474.000000
2786.117920 2441.000000
2786.934326 2394.000000
2787.750244 2391.000000
2788.565918 2371.000000
2789.380615 2339.000000
2790.195801 2431.000000
2791.010254 2355.000000
2791.824219 2326.000000
2792.637939 2291.000000
2793.450439 2295.000000
2794.263184 2309.000000
2795.075439 2419.000000
2795.887207 2264.000000
2796.698242 2275.000000
2797.510010 2358.000000
2798.320557 2263.000000
2799.131104 2267.000000
2799.940186 2292.000000
2800.750000 2215.000000
2801.559082 2216.000000
2802.367920 2223.000000
2803.176270 2342.000000
2803.983643 2231.000000
2804.791504 2279.000000
2805.598633 2216.000000
2806.405518 2334.000000
2807.211182 1975.000000
2808.017334 2253.000000
2808.822754 2233.000000
2809.628174 2276.000000
2810.432861 2172.000000
2811.236572 2194.000000
2812.040771 2270.000000
2812.844482 2161.000000
2813.647949 2185.000000
2814.449951 2185.000000
2815.252686 2276.000000
2816.054688 2149.000000
2816.856445 2198.000000
2817.657715 2146.000000
2818.458496 2174.000000
2819.258789 2105.000000
2820.059326 2306.000000
2820.858887 2097.000000
2821.657959 2125.000000
2822.457031 2165.000000
2823.255859 2117.000000
2824.054199 2128.000000
2824.851563 2106.000000
2825.649170 2179.000000
2826.446045 2126.000000
2827.243164 2025.000000
2828.039551 2144.000000
2828.835205 2101.000000
2829.630859 2021.000000
2830.426270 2048.000000
2831.221191 2091.000000
2832.015381 2077.000000
2832.809570 2117.000000
2833.603516 2186.000000
2834.396973 2088.000000
2835.189697 2107.000000
2835.982178 1991.000000
2836.774658 2086.000000
2837.566895 2053.000000
2838.358643 2137.000000
2839.149414 1979.000000
2839.940186 2111.000000
2840.731201 2136.000000
2841.521240 2090.000000
2842.310791 1998.000000
2843.100586 2129.000000
2843.889404 1898.000000
2844.678223 2024.000000
2845.467041 1940.000000
2846.254883 1956.000000
2847.042236 1937.000000
2847.829834 1932.000000
2848.616943 2005.000000
2849.403320 1996.000000
2850.189697 1900.000000
2850.975830 1870.000000
2851.761475 1909.000000
2852.546143 1821.000000
2853.331299 1956.000000
2854.116211 1849.000000
2854.900391 1976.000000
2855.684570 1863.000000
2856.467529 1923.000000
2857.250732 1811.000000
2858.033691 1902.000000
2858.816162 1848.000000
2859.598389 1922.000000
2860.380127 1830.000000
2861.161621 1726.000000
2861.943359 1896.000000
2862.724365 1827.000000
2863.504639 1860.000000
2864.284668 1804.000000
2865.064697 1845.000000
2865.844482 1828.000000
2866.623291 1811.000000
2867.402344 1821.000000
2868.180908 1923.000000
2868.959229 1839.000000
2869.737061 1865.000000
2870.514648 1893.000000
2871.291992 1826.000000
2872.069092 1886.000000
2872.845703 1849.000000
2873.621826 2019.000000
2874.397949 1938.000000
2875.173584 1832.000000
2875.948975 1880.000000
2876.723877 1933.000000
2877.498535 1854.000000
2878.273193 2016.000000
2879.047607 1909.000000
2879.821289 1796.000000
2880.594238 1974.000000
2881.367920 1923.000000
2882.140625 1801.000000
2882.913330 1802.000000
2883.685303 1829.000000
2884.457031 1804.000000
2885.229248 1674.000000
2886.000244 1770.000000
2886.770752 1733.000000
2887.541748 1801.000000
2888.312744 1741.000000
2889.083008 1640.000000
2889.852295 1768.000000
2890.621826 1851.000000
2891.391357 1786.000000
2892.160400 1761.000000
2892.928955 1608.000000
2893.697510 1728.000000
2894.465088 1855.000000
2895.233154 1752.000000
2896.000732 1699.000000
2896.768311 1751.000000
2897.534668 1644.000000
2898.302002 1658.000000
2899.068115 1697.000000
2899.834473 1686.000000
2900.599365 1669.000000
2901.364746 1508.000000
2902.130615 1568.000000
2902.895020 1594.000000
2903.659424 1640.000000
2904.424072 1662.000000
2905.187744 1636.000000
2905.952148 1549.000000
2906.715820 1749.000000
2907.478760 1687.000000
2908.241455 1557.000000
2909.004639 1573.000000
2909.767334 1630.000000
2910.528809 1585.000000
2911.290771 1585.000000
spectrumdark 2048
-96.939964 6177.000000
-94.313095 6177.000000
-91.688103 6092.000000
-89.065002 6401.000000
-86.443771 5851.000000
-83.824440 6284.000000
-81.206970 6138.000000
-78.591377 6432.000000
-75.977661 6222.000000
-73.365822 5875.000000
-70.755844 6128.000000
-68.147751 5908.000000
-65.541504 5973.000000
-62.937138 5984.000000
-60.334629 6103.000000
-57.733974 5657.000000
-55.135181 6217.000000
-52.538246 6866.000000
-49.943165 6413.000000
-47.349937 6502.000000
-44.758560 6235.000000
-42.169029 6734.000000
-39.581341 5885.000000
-36.995502 6046.000000
-34.411507 6472.000000
-31.829346 5626.000000
-29.249033 6308.000000
-26.670547 5699.000000
-24.093904 6088.000000
-21.519087 6272.000000
-18.946110 6480.000000
-16.374952 6449.000000
-13.805630 6699.000000
-11.238132 7773.000000
-8.672452 6289.000000
-6.108598 6440.000000
-3.546557 6006.000000
-0.986342 5831.000000
1.572066 6307.000000
4.128654 6882.000000
6.683435 6677.000000
9.236401 6005.000000
11.787565 6719.000000
14.336917 6503.000000
16.884474 6700.000000
19.430218 6007.000000
21.974169 5766.000000
24.516315 6682.000000
27.056665 6810.000000
29.595230 6853.000000
32.131996 6175.000000
34.666962 5749.000000
37.200150 7189.000000
39.731556 6364.000000
42.261169 7102.000000
44.788986 6502.000000
47.315044 7826.000000
49.839314 5678.000000
52.361813 6204.000000
54.882515 6708.000000
57.401463 6321.000000
59.918636 6429.000000
62.434032 6576.000000
64.947655 5609.000000
67.459518 5720.000000
69.969635 6546.000000
72.477959 6535.000000
74.984528 5984.000000
77.489349 6310.000000
79.992416 6376.000000
82.493706 6256.000000
84.993256 6083.000000
87.491051 6345.000000
89.987114 5741.000000
92.481400 7273.000000
94.973946 5821.000000
97.464775 6883.000000
99.953835 7147.000000
102.441147 6350.000000
104.926735 6194.000000
107.410583 6394.000000
109.892685 5775.000000
112.373062 6751.000000
114.851715 6153.000000
117.328644 6448.000000
119.803818 7229.000000
122.277283 6827.000000
124.749016 5911.000000
127.219040 6807.000000
129.687302 6240.000000
132.153900 6306.000000
134.618744 5735.000000
137.081894 6183.000000
139.543304 7271.000000
142.003021 6900.000000
144.461014 6356.000000
146.917313 5935.000000
149.371902 5774.000000
151.824768 6862.000000
154.275955 6397.000000
156.725449 6600.000000
159.173218 6106.000000
161.619278 6589.000000
164.063660 8633.000000
166.506363 6463.000000
168.947372 6816.000000
171.386673 6261.000000
173.824265 7283.000000
176.260223 6594.000000
178.694443 6958.000000
181.126984 7129.000000
183.557877 6698.000000
185.987045 7134.000000
188.414566 6721.000000
190.840408 6305.000000
193.264572 6611.000000
195.687073 7169.000000
198.107880 7417.000000
200.527023 6555.000000
202.944504 5986.000000
205.360291 7614.000000
207.774429 7155.000000
210.186935 6359.000000
212.597763 6071.000000
215.006912 6233.000000
217.414429 7320.000000
219.820236 6166.000000
222.224457 6523.000000
224.626968 6694.000000
227.027863 6926.000000
229.427109 6476.000000
231.824692 6948.000000
234.220612 7270.000000
236.614914 6517.000000
239.007553 6129.000000
241.398575 6852.000000
243.787933 6572.000000
246.175674 6296.000000
248.561768 6974.000000
250.946228 6110.000000
253.329041 7864.000000
255.710281 6588.000000
258.089813 6680.000000
260.467773 6500.000000
262.844055 7529.000000
265.218781 7493.000000
267.591858 7884.000000
269.963287 6129.000000
272.333069 6409.000000
274.701294 5874.000000
277.067871 6318.000000
279.432861 6720.000000
281.796234 5998.000000
284.157959 6263.000000
286.518097 7105.000000
288.876617 6025.000000
291.233551 6560.000000
293.588867 6428.000000
295.942596 5991.000000
298.294678 5966.000000
300.645203 6343.000000
302.994141 6328.000000
305.341431 6761.000000
307.687195 6502.000000
310.031281 6513.000000
312.373840 7382.000000
314.714783 7581.000000
317.054108 7138.000000
319.391876 6941.000000
321.728088 8067.000000
324.062653 6224.000000
326.395660 6514.000000
328.727112 5941.000000
331.056976 6658.000000
333.385254 6411.000000
335.711914 7244.000000
338.037079 6317.000000
340.360626 6214.000000
342.682617 6012.000000
345.003052 7531.000000
347.321869 7740.000000
349.639130 5995.000000
351.954865 5864.000000
354.269012 6904.000000
356.581573 6262.000000
358.892578 6352.000000
361.202057 6999.000000
363.510010 6388.000000
365.816345 5661.000000
368.121094 6437.000000
370.424377 6401.000000
372.726044 6247.000000
375.026215 6332.000000
377.324829 6243.000000
379.621887 5707.000000
381.917389 6043.000000
384.211365 5894.000000
386.503754 5221.000000
388.794647 5610.000000
391.084015 6206.000000
393.371796 6222.000000
395.658051 6476.000000
397.942810 6963.000000
400.225952 6017.000000
402.507660 6428.000000
404.787842 6164.000000
407.066437 7285.000000
409.343506 6535.000000
411.619049 6891.000000
413.893066 6536.000000
416.165649 6472.000000
418.436615 6355.000000
420.706085 6475.000000
422.974060 7138.000000
425.240479 7237.000000
427.505402 6305.000000
429.768860 6266.000000
432.030731 6430.000000
434.291138 6009.000000
436.549988 6618.000000
438.807373 6150.000000
441.063263 5680.000000
443.317657 5824.000000
445.570526 5427.000000
447.821838 6885.000000
450.071747 6137.000000
452.320068 6332.000000
454.566956 5673.000000
456.812378 6475.000000
459.056244 6519.000000
461.298615 6794.000000
463.539490 5633.000000
465.778961 6731.000000
468.016846 5490.000000
470.253296 5850.000000
472.488220 6064.000000
474.721680 7318.000000
476.953705 6678.000000
479.184204 5653.000000
481.413208 6456.000000
483.640747 6316.000000
485.866791 6040.000000
488.091400 6641.000000
490.314545 5838.000000
492.536224 6453.000000
494.756348 6680.000000
496.975067 5681.000000
499.192291 6286.000000
501.408142 5540.000000
503.622375 6135.000000
505.835297 6432.000000
508.046631 6459.000000
510.256531 6877.000000
512.465027 6484.000000
514.672119 6563.000000
516.877625 6432.000000
519.081726 6594.000000
521.284302 6207.000000
523.485474 6553.000000
525.685303 6671.000000
527.883606 6984.000000
530.080383 5364.000000
532.275818 5838.000000
534.469727 5590.000000
536.662292 7483.000000
538.853333 6645.000000
541.042969 6085.000000
543.231201 6945.000000
545.417908 7160.000000
547.603149 6759.000000
549.787109 6250.000000
551.969482 6406.000000
554.150513 6222.000000
556.330017 6001.000000
558.508240 5898.000000
560.684937 6025.000000
562.860229 6413.000000
565.034119 6488.000000
567.206543 5982.000000
569.377563 6089.000000
571.547119 6343.000000
573.715393 5271.000000
575.882141 6461.000000
578.047424 6297.000000
580.211304 6179.000000
582.373901 5742.000000
584.534973 5990.000000
586.694641 5638.000000
588.852966 5751.000000
591.009766 6270.000000
593.165222 6588.000000
595.319275 5725.000000
597.471985 6136.000000
599.623169 7195.000000
601.773010 6745.000000
603.921509 6721.000000
606.068420 6094.000000
608.214111 6472.000000
610.358398 6419.000000
612.501221 7087.000000
614.642578 6146.000000
616.782715 6437.000000
618.921326 7656.000000
621.058655 5719.000000
623.194519 6611.000000
625.328979 6884.000000
627.461975 7179.000000
629.593811 6597.000000
631.724182 6554.000000
633.853149 6819.000000
635.980652 6452.000000
638.106873 6223.000000
640.231567 7266.000000
642.355042 6368.000000
644.477173 6842.000000
646.597839 6889.000000
648.717163 6566.000000
650.835083 5649.000000
652.951660 5725.000000
655.066833 6376.000000
657.180664 6495.000000
659.293030 5844.000000
661.404175 6167.000000
663.513916 5347.000000
665.622192 6012.000000
667.729309 6298.000000
669.834961 6801.000000
671.939148 5879.000000
674.042114 5718.000000
676.143677 6985.000000
678.243896 5360.000000
680.342712 6738.000000
682.440186 6287.000000
684.536377 6993.000000
686.631104 6298.000000
688.724609 7028.000000
690.816772 6685.000000
692.907410 7959.000000
694.996826 6639.000000
697.084961 6432.000000
699.171631 6105.000000
701.257080 6670.000000
703.341003 5130.000000
705.423706 5899.000000
707.505127 5869.000000
709.585083 7562.000000
711.663818 6188.000000
713.741089 5533.000000
715.817078 6554.000000
717.891785 6103.000000
719.965210 6964.000000
722.037109 6292.000000
724.107849 7395.000000
726.177246 5761.000000
728.245239 6414.000000
730.311890 6320.000000
732.377319 7088.000000
734.441406 5782.000000
736.504150 6202.000000
738.565552 6501.000000
740.625671 6653.000000
742.684387 6068.000000
744.741882 6661.000000
746.798096 6573.000000
748.852905 6703.000000
750.906433 6411.000000
752.958557 7444.000000
755.009460 5830.000000
757.059143 6675.000000
759.107361 6342.000000
761.154358 6099.000000
763.200073 7044.000000
765.244385 5372.000000
767.287415 5790.000000
769.329224 15024.000000
771.369690 7243.000000
773.408752 6381.000000
775.446655 6096.000000
777.483215 6037.000000
779.518555 5364.000000
781.552551 5735.000000
783.585144 6846.000000
785.616577 5541.000000
787.646606 11646.000000
789.675354 6012.000000
791.702942 6295.000000
793.729187 6389.000000
795.754028 5810.000000
797.777771 5481.000000
799.800110 6369.000000
801.821228 5858.000000
803.841003 6674.000000
805.859497 4928.000000
807.876770 6662.000000
809.892639 6835.000000
811.907349 5720.000000
813.920715 6397.000000
815.932861 6276.000000
817.943787 6069.000000
819.953369 6610.000000
821.961731 5292.000000
823.968689 5767.000000
825.974426 6045.000000
827.978943 5770.000000
829.982178 5604.000000
831.984131 6501.000000
833.984802 6087.000000
835.984253 5938.000000
837.982361 6288.000000
839.979370 6972.000000
841.974976 6230.000000
843.969421 5982.000000
845.962524 6145.000000
847.954407 6816.000000
849.944946 5680.000000
851.934204 6812.000000
853.922424 5997.000000
855.909241 5803.000000
857.894836 6389.000000
859.879150 7221.000000
861.862366 6312.000000
863.844177 6419.000000
865.824768 5842.000000
867.804077 7762.000000
869.782227 7094.000000
871.759033 6145.000000
873.734558 6166.000000
875.709045 6148.000000
877.682068 6044.000000
879.654053 5401.000000
881.624695 6366.000000
883.594177 6164.000000
885.562317 5552.000000
887.529297 5189.000000
889.494934 6103.000000
891.459412 5833.000000
893.422668 5988.000000
895.384705 6529.000000
897.345459 5774.000000
899.304993 6399.000000
901.263245 6694.000000
903.220398 6332.000000
905.176392 5959.000000
907.130981 6860.000000
909.084351 6482.000000
911.036560 6460.000000
912.987549 6404.000000
914.937256 7071.000000
916.885803 6321.000000
918.833130 6233.000000
920.779175 6081.000000
922.723938 6060.000000
924.667664 6298.000000
926.610229 6002.000000
928.551514 5598.000000
930.491455 6507.000000
932.430298 5725.000000
934.367859 5497.000000
936.304199 5937.000000
938.239380 5877.000000
940.173279 6095.000000
942.106079 5898.000000
944.037659 6803.000000
945.968079 5218.000000
947.897278 6438.000000
949.825134 7006.000000
951.751953 6677.000000
953.677490 5974.000000
955.601746 5353.000000
957.524902 5996.000000
959.446899 6721.000000
961.367615 7298.000000
963.287170 6556.000000
965.205566 5331.000000
967.122925 6460.000000
969.038818 6438.000000
970.953613 6160.000000
972.867188 6001.000000
974.779602 6355.000000
976.690796 6473.000000
978.600830 5493.000000
980.509583 6241.000000
982.417297 6115.000000
984.323792 6315.000000
986.229065 5723.000000
988.133240 6811.000000
990.036194 6266.000000
991.937927 6771.000000
993.838501 6538.000000
995.737915 6595.000000
997.636108 5298.000000
999.533142 6568.000000
1001.428955 6518.000000
1003.323608 7656.000000
1005.217163 5595.000000
1007.109436 7208.000000
1009.000793 6049.000000
1010.890808 5348.000000
1012.779602 6672.000000
1014.667236 6290.000000
1016.553711 6933.000000
1018.439026 6823.000000
1020.323181 5968.000000
1022.206116 5885.000000
1024.088013 6225.000000
1025.968628 5262.000000
1027.848145 5847.000000
1029.726685 6089.000000
1031.603882 5442.000000
1033.479736 6211.000000
1035.354614 5845.000000
1037.228516 6619.000000
1039.100952 7031.000000
1040.972412 6788.000000
1042.842529 5463.000000
1044.711670 5542.000000
1046.579590 5775.000000
1048.446411 7022.000000
1050.312134 6753.000000
1052.176636 6467.000000
1054.040039 6469.000000
1055.902100 6495.000000
1057.763184 5904.000000
1059.623169 6486.000000
1061.481812 6706.000000
1063.339355 5762.000000
1065.195801 6742.000000
1067.051147 5925.000000
1068.905273 5784.000000
1070.758545 6216.000000
1072.610352 6292.000000
1074.461182 6164.000000
1076.310791 6130.000000
1078.159180 5745.000000
1080.006714 7996.000000
1081.852905 5588.000000
1083.697876 6233.000000
1085.541992 5396.000000
1087.384766 5575.000000
1089.226318 6481.000000
1091.067139 5457.000000
1092.906372 5815.000000
1094.744873 6072.000000
1096.582031 5979.000000
1098.417969 6899.000000
1100.252930 6622.000000
1102.086670 5419.000000
1103.919434 5636.000000
1105.750854 6235.000000
1107.581421 7258.000000
1109.410645 6513.000000
1111.238892 6426.000000
1113.065918 7160.000000
1114.891968 5426.000000
1116.716797 6313.000000
1118.540527 7187.000000
1120.363037 6081.000000
1122.184448 5904.000000
1124.005005 5965.000000
1125.824097 6534.000000
1127.642334 7123.000000
1129.459229 6831.000000
1131.275269 6729.000000
1133.090088 6487.000000
1134.903809 5629.000000
1136.716431 5799.000000
1138.527832 5663.000000
1140.338257 6166.000000
1142.147583 6767.000000
1143.955566 6951.000000
1145.762817 5963.000000
1147.568604 5939.000000
1149.373535 5388.000000
1151.177368 5447.000000
1152.979980 6102.000000
1154.781738 6094.000000
1156.582031 6022.000000
1158.381348 6085.000000
1160.179688 5879.000000
1161.976685 5448.000000
1163.772949 5937.000000
1165.567871 6045.000000
1167.361694 6319.000000
1169.154663 7751.000000
1170.946289 5696.000000
1172.736938 6491.000000
1174.526611 5991.000000
1176.314819 5870.000000
1178.102173 7463.000000
1179.888428 6833.000000
1181.673584 5782.000000
1183.457642 5939.000000
1185.240601 7660.000000
1187.022583 5886.000000
1188.803345 5895.000000
1190.583130 6340.000000
1192.361816 6958.000000
1194.139526 6644.000000
1195.916016 7200.000000
1197.691406 6599.000000
1199.465698 6597.000000
1201.238892 6649.000000
1203.011230 6549.000000
1204.782227 6733.000000
1206.552368 5686.000000
1208.321289 6135.000000
1210.089111 6315.000000
1211.856079 5750.000000
1213.621704 5899.000000
1215.386353 6928.000000
1217.149902 6554.000000
1218.912354 5983.000000
1220.673950 6693.000000
1222.434326 5926.000000
1224.193604 6261.000000
1225.952026 6072.000000
1227.709229 7110.000000
1229.465332 6430.000000
1231.220337 5477.000000
1232.974487 6090.000000
1234.727295 5813.000000
1236.479126 6020.000000
1238.230103 5933.000000
1239.979736 4914.000000
1241.728516 7060.000000
1243.475952 6459.000000
1245.222656 6572.000000
1246.968140 6514.000000
1248.712769 6433.000000
1250.456055 6801.000000
1252.198364 6662.000000
1253.939575 5389.000000
1255.679932 5124.000000
1257.419189 5770.000000
1259.157227 6582.000000
1260.894409 7073.000000
1262.630371 6078.000000
1264.365356 6488.000000
1266.099365 7248.000000
1267.832397 5960.000000
1269.564209 6215.000000
1271.295044 6405.000000
1273.024658 7265.000000
1274.753418 5873.000000
1276.481079 5732.000000
1278.207642 5539.000000
1279.933350 5554.000000
1281.657715 6474.000000
1283.381226 5210.000000
1285.103760 6813.000000
1286.825317 6598.000000
1288.545654 6385.000000
1290.265015 6572.000000
1291.983276 7300.000000
1293.700562 6415.000000
1295.416870 5725.000000
1297.131958 6366.000000
1298.846069 6140.000000
1300.559204 5796.000000
1302.271484 6443.000000
1303.982544 8306.000000
1305.692627 5233.000000
1307.401611 6260.000000
1309.109375 6657.000000
1310.816528 6986.000000
1312.522217 5800.000000
1314.227173 6911.000000
1315.931152 6172.000000
1317.633911 5986.000000
1319.335693 6540.000000
1321.036621 6016.000000
1322.736206 10147.000000
1324.434937 7858.000000
1326.132935 5569.000000
1327.829590 6493.000000
1329.525146 7136.000000
1331.219849 6867.000000
1332.913330 5766.000000
1334.605957 5359.000000
1336.297729 7487.000000
1337.988159 6244.000000
1339.677856 6570.000000
1341.366455 6112.000000
1343.053955 7663.000000
1344.740479 5638.000000
1346.425903 6769.000000
1348.110352 5969.000000
1349.793945 7245.000000
1351.476318 6347.000000
1353.157715 5960.000000
1354.838257 6570.000000
1356.517578 6727.000000
1358.196289 5963.000000
1359.873657 6563.000000
1361.549927 5792.000000
1363.225220 5552.000000
1364.899780 6563.000000
1366.573120 6494.000000
1368.245483 6826.000000
1369.916870 5169.000000
1371.587280 6773.000000
1373.256592 6142.000000
1374.924927 5656.000000
1376.592407 5913.000000
1378.258789 6518.000000
1379.924194 6123.000000
1381.588623 5848.000000
1383.251831 5905.000000
1384.914429 5667.000000
1386.575684 6429.000000
1388.236084 6587.000000
1389.895386 6445.000000
1391.553711 6507.000000
1393.211304 6807.000000
1394.867676 6474.000000
1396.523193 7094.000000
1398.177490 6351.000000
1399.830933 5874.000000
1401.483276 6086.000000
1403.134888 6428.000000
1404.785278 7197.000000
1406.434570 6206.000000
1408.083130 7485.000000
1409.730591 7792.000000
1411.377075 6196.000000
1413.022705 6239.000000
1414.667358 5977.000000
1416.310791 7047.000000
1417.953369 7197.000000
1419.594849 6892.000000
1421.235474 6507.000000
1422.875122 6502.000000
1424.513672 6062.000000
1426.151367 6643.000000
1427.787964 6380.000000
1429.423584 6006.000000
1431.058472 6353.000000
1432.692261 5976.000000
1434.324951 6182.000000
1435.956665 5656.000000
1437.587524 6137.000000
1439.217285 6030.000000
1440.845947 7845.000000
1442.473999 6020.000000
1444.100952 6221.000000
1445.726685 6203.000000
1447.351807 6169.000000
1448.975830 6503.000000
1450.598877 6068.000000
1452.220947 6002.000000
1453.841919 7367.000000
1455.461914 6246.000000
1457.081177 6902.000000
1458.699097 5697.000000
1460.316406 5643.500000
1461.932739 5590.000000
1463.547852 7184.000000
1465.162109 6344.000000
1466.775513 5254.000000
1468.387817 5587.000000
1469.999268 6329.000000
1471.609863 6336.000000
1473.219238 6020.000000
1474.827637 5980.000000
1476.435181 6199.000000
1478.041748 6742.000000
1479.647583 5361.000000
1481.252197 6317.000000
1482.855957 5477.000000
1484.458496 6803.000000
1486.060425 5557.000000
1487.661133 5503.000000
1489.261108 5619.000000
1490.859985 6290.000000
1492.458008 6586.000000
1494.054932 6667.000000
1495.651001 6323.000000
1497.246094 5979.000000
1498.840210 5509.000000
1500.433594 6609.000000
1502.025879 5490.000000
1503.616943 6130.000000
1505.207520 6806.000000
1506.796753 6483.000000
1508.385376 6130.000000
1509.972900 6520.000000
1511.559326 6828.000000
1513.145020 6101.000000
1514.729614 6619.000000
1516.313354 6304.000000
1517.895996 6160.000000
1519.477905 6613.000000
1521.058716 6666.000000
1522.638794 6050.000000
1524.217651 6221.000000
1525.795654 6428.000000
1527.372925 6330.000000
1528.948975 5665.000000
1530.524292 5925.000000
1532.098511 6351.000000
1533.671997 5473.000000
1535.244263 5921.000000
1536.815796 6387.000000
1538.386353 6455.000000
1539.956055 6347.000000
1541.524536 5450.000000
1543.092285 6578.000000
1544.659180 5598.000000
1546.224854 6750.000000
1547.789795 5959.000000
1549.353638 5025.000000
1550.916870 7493.000000
1552.478760 6321.000000
1554.040039 5997.000000
1555.600220 5674.000000
1557.159668 5730.000000
1558.718018 6003.000000
1560.275635 6307.000000
1561.832153 7075.000000
1563.387451 5853.000000
1564.942139 6420.000000
1566.496094 5646.000000
1568.049072 6287.000000
1569.600708 5662.000000
1571.151611 5922.000000
1572.701782 6217.000000
1574.250977 6400.000000
1575.798828 5766.000000
1577.346191 5489.000000
1578.892578 5704.000000
1580.438110 5063.000000
1581.982666 6708.000000
1583.526001 6309.000000
1585.068726 6614.000000
1586.610596 6476.000000
1588.151367 6739.000000
1589.691162 5852.000000
1591.230225 6662.000000
1592.768188 5941.000000
1594.305664 6129.000000
1595.841797 5887.000000
1597.376831 6609.000000
1598.911377 6253.000000
1600.444946 6019.000000
1601.977661 6219.000000
1603.508789 6314.000000
1605.039673 6362.000000
1606.569702 5747.000000
1608.098511 6147.000000
1609.626221 6247.000000
1611.153320 6029.000000
1612.679688 5840.000000
1614.205078 6254.000000
1615.729614 5803.000000
1617.252808 5739.000000
1618.775269 5602.000000
1620.296997 6508.000000
1621.817871 6965.000000
1623.337280 6610.000000
1624.856201 6255.000000
1626.374390 6041.000000
1627.891724 5916.000000
1629.407959 6374.000000
1630.922852 7051.000000
1632.437256 6714.000000
1633.950928 5774.000000
1635.463501 6877.000000
1636.974854 6000.000000
1638.485840 6466.000000
1639.995728 6253.000000
1641.504761 6173.000000
1643.012451 5611.000000
1644.519775 6109.000000
1646.026245 7125.000000
1647.531738 6283.000000
1649.036377 6871.000000
1650.539551 6174.000000
1652.042114 6538.000000
1653.544312 6383.000000
1655.045166 6670.000000
1656.544922 7599.000000
1658.043823 5984.000000
1659.542358 6516.000000
1661.039673 6287.000000
1662.536255 5952.000000
1664.031250 6490.000000
1665.526001 6360.000000
1667.019897 5229.000000
1668.512817 5726.000000
1670.004395 6111.000000
1671.495483 6496.000000
1672.985962 6076.000000
1674.475342 5982.000000
1675.963257 6993.000000
1677.450928 6898.000000
1678.937622 6024.000000
1680.423462 5465.000000
1681.908447 6100.000000
1683.391968 6230.000000
1684.875244 6137.000000
1686.357666 5924.000000
1687.838989 6227.000000
1689.318848 6196.000000
1690.798462 5516.000000
1692.277344 6618.000000
1693.755249 5912.000000
1695.232178 6091.000000
1696.707886 5777.000000
1698.183228 6064.000000
1699.657349 6252.000000
1701.130859 5444.000000
1702.602905 5551.000000
1704.074707 6910.000000
1705.545532 6369.000000
1707.015503 7097.000000
1708.484131 5161.000000
1709.952271 5790.000000
1711.419678 6416.000000
1712.885986 5475.000000
1714.351685 5775.000000
1715.815674 6239.000000
1717.279541 5957.000000
1718.742554 6984.000000
1720.204590 6330.000000
1721.665405 6587.000000
1723.125610 5463.000000
1724.585083 6386.000000
1726.043701 6156.000000
1727.501343 6052.000000
1728.957642 6211.000000
1730.413696 6091.000000
1731.868774 6520.000000
1733.322876 6049.000000
1734.775757 6876.000000
1736.228394 5951.000000
1737.679932 6706.000000
1739.130737 5956.000000
1740.580566 6602.000000
1742.029053 6048.000000
1743.477173 7570.000000
1744.924438 6564.000000
1746.370972 6661.000000
1747.815918 6777.000000
1749.260620 6168.000000
1750.704468 5821.000000
1752.147461 5581.000000
1753.588989 6570.000000
1755.030273 6338.000000
1756.470703 6318.000000
1757.910156 6298.000000
1759.348633 5246.000000
1760.786133 6157.000000
1762.223145 7549.000000
1763.659180 5845.000000
1765.094360 7173.000000
1766.528076 6201.000000
1767.961670 6442.000000
1769.394287 6687.000000
1770.826050 5754.000000
1772.256958 5886.000000
1773.686646 6414.000000
1775.115601 6209.000000
1776.544067 6287.000000
1777.971558 6733.000000
1779.397705 6244.000000
1780.823608 5544.000000
1782.248413 6915.000000
1783.672607 5594.000000
1785.095337 6707.000000
1786.517578 6565.000000
1787.939087 6916.000000
1789.359863 5814.000000
1790.779663 5952.000000
1792.198120 6155.000000
1793.616089 6835.000000
1795.033447 5501.000000
1796.449951 6029.000000
1797.864990 6473.000000
1799.279663 5839.000000
1800.693726 6539.000000
1802.106567 5963.000000
1803.518799 6982.000000
1804.929688 7167.000000
1806.340088 7806.000000
1807.749756 6499.000000
1809.158447 5990.000000
1810.566040 5460.000000
1811.973145 6403.000000
1813.379395 6328.000000
1814.784668 6751.000000
1816.188843 5992.000000
1817.592651 6008.000000
1818.995483 6226.000000
1820.397461 6056.000000
1821.798828 5834.000000
1823.198730 6305.000000
1824.598022 6581.000000
1825.996826 6589.000000
1827.394775 7481.000000
1828.791382 5785.000000
1830.187378 6747.000000
1831.582642 5875.000000
1832.977295 8151.000000
1834.370972 6023.000000
1835.763306 6835.000000
1837.155151 6479.000000
1838.546387 5946.000000
1839.936646 7095.000000
1841.325684 5974.000000
1842.714355 5990.000000
1844.102051 6014.000000
1845.489014 5861.000000
1846.874634 6946.000000
1848.260010 5889.000000
1849.644531 6413.000000
1851.028320 6345.000000
1852.411011 6378.000000
1853.792480 5420.000000
1855.173462 6530.000000
1856.553955 6243.000000
1857.933472 5690.000000
1859.311523 5948.000000
1860.689453 6201.000000
1862.066406 7900.000000
1863.442627 6162.000000
1864.817993 6049.000000
1866.191895 5632.000000
1867.565674 5730.000000
1868.938599 6209.000000
1870.310425 5952.000000
1871.681274 6954.000000
1873.051758 5432.000000
1874.421143 6052.000000
1875.790039 6123.000000
1877.157349 7221.000000
1878.524536 5989.000000
1879.890747 5993.000000
1881.256226 6800.000000
1882.620972 7467.000000
1883.984131 6811.000000
1885.347168 6930.000000
1886.709351 6354.000000
1888.070679 6388.000000
1889.430664 5619.000000
1890.790283 5822.000000
1892.149292 6209.000000
1893.507324 6724.000000
1894.864502 7324.000000
1896.220459 5922.000000
1897.576172 7605.000000
1898.930908 5850.000000
1900.284790 5569.000000
1901.637573 5920.000000
1902.989868 5916.000000
1904.341431 5922.000000
1905.692139 6941.000000
1907.041626 6491.000000
1908.390625 6633.000000
1909.738770 5841.000000
1911.086304 6117.000000
1912.433105 6327.000000
1913.778320 6859.000000
1915.123291 6082.000000
1916.467529 5419.000000
1917.810913 6503.000000
1919.152954 6039.000000
1920.494751 6750.000000
1921.835693 6996.000000
1923.175903 6183.000000
1924.515137 6259.000000
1925.853394 6322.000000
1927.191040 6480.000000
1928.527954 7064.000000
1929.864014 6735.000000
1931.198853 5542.000000
1932.533325 6697.000000
1933.867065 7285.000000
1935.199951 6337.000000
1936.531372 5730.000000
1937.862915 6300.000000
1939.193115 6695.000000
1940.522827 5810.000000
1941.851685 6086.000000
1943.179321 5857.000000
1944.506470 4984.000000
1945.832886 5874.000000
1947.158569 6525.000000
1948.482910 5785.000000
1949.807007 6694.000000
1951.130249 6313.000000
1952.452759 6437.000000
1953.774170 5807.000000
1955.094604 7394.000000
1956.414429 6077.000000
1957.733887 5519.000000
1959.052368 6815.000000
1960.369507 5942.000000
1961.686279 5904.000000
1963.002319 6591.000000
1964.317627 6595.000000
1965.631470 6294.000000
1966.945068 5685.000000
1968.257935 6233.000000
1969.569946 5975.000000
1970.881348 6010.000000
1972.191406 6337.000000
1973.500977 5854.000000
1974.809814 6227.000000
1976.118042 6627.000000
1977.424927 6097.000000
1978.731201 7210.000000
1980.037109 5621.000000
1981.341797 6455.000000
1982.645996 5871.000000
1983.948975 5759.000000
1985.251587 7577.000000
1986.553223 6135.000000
1987.854248 6810.000000
1989.153687 6075.000000
1990.453247 6611.000000
1991.751709 5322.000000
1993.049683 6070.000000
1994.346069 6124.000000
1995.642456 5758.000000
1996.937866 5586.000000
1998.232544 6553.000000
1999.526367 5668.000000
2000.818970 6500.000000
2002.111084 5797.000000
2003.402710 7197.000000
2004.693604 6474.000000
2005.982910 6248.000000
2007.271973 6829.000000
2008.560303 5882.000000
2009.847900 6026.000000
2011.134644 6612.000000
2012.420288 5656.000000
2013.705566 6406.000000
2014.989868 6004.000000
2016.273560 5584.000000
2017.555908 5992.000000
2018.837891 6432.000000
2020.119385 6765.000000
2021.399902 5944.000000
2022.679688 6096.000000
2023.958374 6808.000000
2025.236328 5897.000000
2026.513794 5955.000000
2027.790649 6277.000000
2029.065796 5740.000000
2030.341064 6581.000000
2031.615356 6030.000000
2032.888672 5983.000000
2034.161133 5943.000000
2035.433228 6132.000000
2036.704224 6950.000000
2037.974976 6580.000000
2039.244385 5966.000000
2040.512695 6975.000000
2041.781006 6605.000000
2043.048340 5937.000000
2044.314941 5972.000000
2045.580322 5656.000000
2046.845093 5882.000000
2048.109619 5399.000000
2049.372803 5843.000000
2050.635742 6433.000000
2051.896729 6125.000000
2053.158203 6076.000000
2054.418457 5958.000000
2055.677979 6622.000000
2056.936768 6262.000000
2058.194580 6954.000000
2059.451904 6140.000000
2060.708496 6009.000000
2061.963623 6500.000000
2063.218750 5597.000000
2064.472900 5629.000000
2065.726318 5652.000000
2066.979004 6790.000000
2068.230469 6268.000000
2069.481689 6403.000000
2070.732178 5567.000000
2071.981934 5364.000000
2073.230225 6181.000000
2074.478516 6493.000000
2075.725830 7443.000000
2076.972412 5590.000000
2078.218262 6084.000000
2079.462891 7051.000000
2080.707031 7630.000000
2081.950684 5498.000000
2083.193359 6033.000000
2084.434814 6993.000000
2085.676025 5955.000000
2086.916748 6348.000000
2088.156494 6784.000000
2089.395020 7106.000000
2090.633057 6131.000000
2091.870361 5798.000000
2093.107422 6653.000000
2094.343018 6069.000000
2095.577881 6256.000000
2096.812500 5998.000000
2098.046143 5588.000000
2099.278809 6131.000000
2100.510742 6838.000000
2101.742188 6376.000000
2102.972656 6760.000000
2104.202393 6020.000000
2105.431885 5986.000000
2106.659424 6044.000000
2107.887207 5993.000000
2109.114258 6409.000000
2110.340332 5448.000000
2111.564941 6356.000000
2112.789795 6924.000000
2114.013428 7074.000000
2115.236572 6178.000000
2116.458496 7576.000000
2117.680176 6017.000000
2118.900879 6829.000000
2120.120850 6025.000000
2121.340332 6145.000000
2122.558350 6580.000000
2123.776367 7011.000000
2124.993408 5779.000000
2126.209961 5799.000000
2127.424805 6594.000000
2128.639893 6372.000000
2129.854004 6975.000000
2131.067383 5759.000000
2132.280029 6103.000000
2133.491211 5836.000000
2134.702637 6444.000000
2135.912842 6694.000000
2137.122559 5879.000000
2138.330811 6194.000000
2139.539063 5720.000000
2140.746582 5868.000000
2141.952881 7457.000000
2143.158447 5911.000000
2144.363770 5753.000000
2145.568115 5552.000000
2146.771729 6356.000000
2147.974854 6275.000000
2149.176514 6410.000000
2150.377930 5318.000000
2151.578613 6321.000000
2152.778564 6121.000000
2153.977295 5934.000000
2155.175781 6961.000000
2156.373779 6181.000000
2157.570801 6019.000000
2158.767090 5126.000000
2159.962158 5229.000000
2161.156982 6167.000000
2162.351074 5618.000000
2163.544189 6062.000000
2164.736328 6928.000000
2165.928223 5943.000000
2167.119385 6374.000000
2168.309570 6309.000000
2169.499023 6448.000000
2170.687988 6709.000000
2171.875977 6063.000000
2173.063721 5820.000000
2174.250000 5919.000000
2175.435547 6556.000000
2176.620850 6079.000000
2177.805664 5855.000000
2178.989258 6357.000000
2180.172119 7470.000000
2181.354004 6349.000000
2182.535645 6055.000000
2183.716797 6559.000000
2184.896729 5703.000000
2186.075684 5549.000000
2187.254150 6331.000000
2188.432373 6886.000000
2189.609375 7195.000000
2190.785400 6755.000000
2191.961182 6083.000000
2193.136475 5630.000000
2194.310303 6664.000000
2195.483643 6239.000000
2196.656738 6159.000000
2197.828613 6534.000000
2199.000000 7120.000000
2200.170898 6305.000000
2201.340088 6914.000000
2202.509277 7563.000000
2203.677979 6329.000000
2204.845703 5913.000000
2206.012451 5699.000000
2207.178467 7189.000000
2208.343994 6707.000000
2209.509277 5922.000000
2210.673096 6755.000000
2211.836426 5451.000000
2212.998535 6194.000000
2214.160889 6131.000000
2215.322021 6693.000000
2216.482178 6666.000000
2217.641846 6334.000000
2218.801270 6577.000000
2219.959473 6394.000000
2221.116699 6298.000000
2222.273682 6764.000000
2223.429932 6525.000000
2224.585449 6706.000000
2225.740234 6280.000000
2226.894043 6532.000000
2228.046875 6009.000000
2229.200195 6918.000000
2230.351563 6209.000000
2231.502686 6189.000000
2232.653076 6544.000000
2233.802979 7715.000000
2234.951904 6377.000000
2236.100342 5202.000000
2237.247314 6771.000000
2238.394531 6936.000000
2239.540527 6022.000000
2240.686279 7251.000000
2241.830322 7349.000000
2242.974609 6746.000000
2244.117920 6201.000000
2245.260498 6020.000000
2246.402100 5787.000000
2247.543457 5831.000000
2248.683838 6421.000000
2249.823486 6406.000000
2250.962646 5852.000000
2252.100586 5839.000000
2253.238525 6227.000000
2254.375488 5315.000000
2255.511719 6280.000000
2256.646973 6069.000000
2257.781494 7310.000000
2258.915771 6442.000000
2260.049561 5475.000000
2261.181885 6129.000000
2262.313721 6782.000000
2263.445068 6241.000000
2264.575439 6500.000000
2265.705566 8138.000000
2266.834473 6730.000000
2267.962891 6081.000000
2269.090820 5570.000000
2270.217773 6076.000000
2271.343994 5988.000000
2272.469238 6744.000000
2273.594482 6555.000000
2274.718994 6408.000000
2275.842285 5892.000000
2276.964844 6313.000000
2278.086914 5973.000000
2279.208496 7363.000000
2280.329346 6433.000000
2281.448975 6437.000000
2282.568115 7115.000000
2283.687012 7698.000000
2284.805176 7227.000000
2285.922363 5934.000000
2287.038574 6467.000000
2288.154541 6999.000000
2289.269775 6904.000000
2290.384277 7370.000000
2291.497559 5821.000000
2292.610840 6383.000000
2293.723389 5979.000000
2294.835205 5352.000000
2295.946289 6785.000000
2297.056152 6442.000000
2298.165527 6143.000000
2299.274658 6698.000000
2300.382813 6237.000000
2301.489990 6787.000000
2302.596924 5853.000000
2303.703125 6250.000000
2304.808838 6605.000000
2305.913086 6611.000000
2307.017090 5454.000000
2308.120605 5763.000000
2309.223633 6581.000000
2310.325439 7466.000000
2311.426514 7378.000000
2312.527100 6641.000000
2313.627197 5507.000000
2314.726563 6434.000000
2315.824463 6501.000000
2316.922852 6948.000000
2318.019775 8239.000000
2319.116455 7031.000000
2320.212646 5812.000000
2321.307129 6875.000000
2322.401611 7560.000000
2323.495361 5794.000000
2324.588867 6106.000000
2325.680664 6476.000000
2326.772461 6863.000000
2327.863525 6144.000000
2328.953857 6276.000000
2330.043213 6933.000000
2331.132568 6005.000000
2332.220703 6334.000000
2333.308350 6849.000000
2334.395752 6548.000000
2335.481445 6710.000000
2336.566895 7787.000000
2337.652100 6269.000000
2338.736328 6755.000000
2339.819580 5865.000000
2340.902588 6437.000000
2341.984619 7194.000000
2343.066406 5991.000000
2344.147461 7446.000000
2345.227295 6658.000000
2346.306641 5715.000000
2347.385498 6785.000000
2348.463867 6578.000000
2349.540771 6312.000000
2350.617432 7024.000000
2351.693848 5995.000000
2352.769287 6459.000000
2353.843750 5940.000000
2354.917969 6284.000000
2355.991455 6840.000000
2357.064453 6206.000000
2358.136230 7058.000000
2359.207764 6309.000000
2360.278320 6852.000000
2361.348633 7501.000000
2362.417969 7592.000000
2363.486328 6792.000000
2364.554443 6727.000000
2365.621826 7124.000000
2366.688721 7102.000000
2367.754883 6113.000000
2368.819824 6905.000000
2369.884766 7014.000000
2370.948975 6360.000000
2372.012451 6916.000000
2373.074707 5846.000000
2374.136963 6318.000000
2375.198242 6317.000000
2376.259277 5997.000000
2377.319092 6361.000000
2378.378174 7905.000000
2379.437256 6553.000000
2380.495361 7682.000000
2381.552734 6850.000000
2382.609131 8054.000000
2383.665283 7827.000000
2384.720947 6263.000000
2385.775879 6996.000000
2386.829346 6736.000000
2387.883057 6661.000000
2388.935791 6255.000000
2389.988037 6747.000000
2391.039551 6113.000000
2392.090088 6672.000000
2393.140381 6454.000000
2394.189697 6323.000000
2395.239014 6222.000000
2396.286865 6875.000000
2397.334229 7008.000000
2398.381348 6321.000000
2399.427490 6658.000000
2400.472900 6089.000000
2401.517578 6687.000000
2402.562256 7708.000000
2403.605469 7471.000000
2404.648682 6613.000000
2405.690430 5702.000000
2406.732422 6738.000000
2407.773682 7056.000000
2408.813965 6091.000000
2409.853516 6410.000000
2410.892090 6316.000000
2411.930908 6164.000000
2412.968506 6577.000000
2414.005859 6882.000000
2415.041992 7404.000000
2416.077881 6201.000000
2417.113037 6244.000000
2418.147705 6619.000000
2419.180908 7180.000000
2420.214355 6464.000000
2421.246826 6742.000000
2422.279053 6764.000000
2423.309814 7035.000000
2424.340576 6372.000000
2425.370850 6849.000000
2426.399902 6853.000000
2427.428955 6664.000000
2428.456299 7374.000000
2429.484131 6685.000000
2430.510742 7234.000000
2431.537109 6979.000000
2432.562012 7728.000000
2433.587158 6585.000000
2434.611328 7131.000000
2435.635254 6645.000000
2436.657959 5850.000000
2437.679932 6352.000000
2438.701660 6627.000000
2439.722656 6671.000000
2440.743164 6027.000000
2441.762451 6525.000000
2442.781738 6592.000000
2443.800049 8435.000000
2444.818115 6246.000000
2445.834717 6467.000000
2446.851318 6534.000000
2447.867188 5945.000000
2448.883057 7067.000000
2449.897461 6745.000000
2450.911133 5571.000000
2451.924316 7273.000000
2452.937256 6018.000000
2453.949463 7230.000000
2454.960693 6695.000000
2455.971680 7679.000000
2456.981934 6330.000000
2457.991699 7580.000000
2459.000488 5949.000000
2460.008545 5966.000000
2461.016602 6310.000000
2462.023438 7344.000000
2463.030029 5461.000000
2464.035400 7642.000000
2465.040527 6940.000000
2466.045410 5817.000000
2467.049072 6524.000000
2468.052490 6359.000000
2469.054932 7673.000000
2470.057129 7361.000000
2471.058838 6867.000000
2472.059570 6600.000000
2473.059326 6963.000000
2474.059082 6767.000000
2475.057861 5630.000000
2476.056152 6627.000000
2477.053467 7069.000000
2478.050537 6115.000000
2479.047607 6958.000000
2480.043213 5805.000000
2481.038818 7179.000000
2482.032715 6727.000000
2483.026611 8062.000000
2484.020020 6893.000000
2485.012939 6666.000000
2486.004883 7491.000000
2486.996094 7246.000000
2487.987061 6680.000000
2488.977539 5858.000000
2489.967041 6585.000000
2490.955811 6502.000000
2491.944580 5641.000000
2492.932373 6745.000000
2493.918945 6568.000000
2494.905518 7991.000000
2495.891602 6761.000000
2496.876953 7091.000000
2497.861328 8083.000000
2498.845459 6057.000000
2499.829590 6894.000000
2500.812256 5755.000000
2501.794434 7043.000000
2502.776123 6882.000000
2503.757080 7270.000000
2504.737549 6493.000000
2505.717773 5658.000000
2506.696533 6322.000000
2507.675049 7604.000000
2508.653076 6788.000000
2509.630615 7091.000000
2510.607178 6064.000000
2511.583496 5933.000000
2512.559082 6436.000000
2513.534180 6217.000000
2514.508789 6515.000000
2515.482178 7629.000000
2516.455322 6779.000000
2517.428223 6905.000000
2518.400146 6094.000000
2519.371338 6803.000000
2520.342041 6895.000000
2521.312500 7810.000000
2522.282227 8143.000000
2523.250977 6113.000000
2524.218994 6139.000000
2525.187012 7675.000000
2526.154053 6353.000000
2527.120850 5510.000000
2528.086426 7238.000000
2529.052002 7051.000000
2530.016846 7663.000000
2530.981201 6359.000000
2531.944336 6320.000000
2532.907715 5876.000000
2533.870117 5979.000000
2534.832275 6671.000000
2535.793213 6330.000000
2536.753418 6132.000000
2537.713867 6165.000000
2538.673340 6666.000000
2539.632080 6822.000000
2540.589844 6717.000000
2541.547852 6244.000000
2542.505127 6731.000000
2543.461426 6097.000000
2544.417480 7144.000000
2545.372314 6186.000000
2546.327393 7673.000000
2547.281738 7022.000000
2548.235352 6722.000000
2549.187988 7197.000000
2550.140381 6764.000000
2551.092285 6959.000000
2552.043457 6440.000000
2552.993896 7684.000000
2553.943848 7219.000000
2554.893555 7420.000000
2555.842529 6603.000000
2556.791016 6232.000000
2557.738281 7176.000000
2558.685547 6283.000000
2559.632080 6545.000000
2560.578125 6751.000000
2561.523193 7369.000000
2562.468018 6732.000000
2563.412354 7246.000000
2564.356201 6847.000000
2565.299561 6691.000000
2566.241455 6586.000000
2567.183594 6605.000000
2568.125000 6192.000000
2569.065674 7099.000000
2570.005615 7299.000000
2570.945557 5693.000000
2571.884521 6150.000000
2572.823242 7545.000000
2573.760986 7226.000000
2574.698486 5466.000000
2575.635254 6982.000000
2576.571289 6789.000000
2577.506836 7506.000000
2578.441650 6253.000000
2579.376465 5993.000000
2580.310303 7029.000000
2581.243652 7106.000000
2582.176270 5861.000000
2583.108643 6963.000000
2584.040283 5382.000000
2584.971436 7011.000000
2585.902100 7076.000000
2586.831543 6935.000000
2587.760986 7263.000000
2588.689941 6460.000000
2589.618652 7606.000000
2590.545654 7385.000000
2591.472900 5943.000000
2592.399658 6810.000000
2593.325684 6317.000000
2594.251465 5641.000000
2595.176025 7583.000000
2596.100342 7667.000000
2597.024170 5360.000000
2597.947510 7354.000000
2598.869873 6286.000000
2599.791992 6870.000000
2600.713623 8303.000000
2601.634521 6392.000000
2602.554688 5760.000000
2603.474609 6333.000000
2604.394043 6381.000000
2605.313232 6466.000000
2606.231445 5793.000000
2607.148438 6000.000000
2608.065674 7282.000000
2608.982666 5926.000000
2609.898682 7572.000000
2610.813477 6598.000000
2611.728760 6665.000000
2612.643311 6593.000000
2613.556885 6504.000000
2614.470459 6117.000000
2615.382813 7624.000000
2616.295166 7070.000000
2617.206543 6771.000000
2618.117676 5768.000000
2619.028076 7198.000000
2619.938232 6676.000000
2620.847656 6381.000000
2621.756592 6643.000000
2622.664551 6205.000000
2623.572754 6933.000000
2624.479980 6628.000000
2625.386719 7042.000000
2626.292725 5971.000000
2627.198486 6622.000000
2628.103516 6535.000000
2629.008301 7789.000000
2629.912354 6485.000000
2630.815430 6354.000000
2631.718506 6380.000000
2632.620605 5654.000000
2633.522705 6795.000000
2634.424561 7014.000000
2635.324707 6712.000000
2636.225098 6392.000000
2637.124756 6408.000000
2638.024170 5947.000000
2638.922119 6889.000000
2639.820557 6700.000000
2640.718506 6360.000000
2641.615723 6020.000000
2642.511719 6171.000000
2643.407715 6778.000000
2644.303467 6016.000000
2645.198486 6461.000000
2646.093262 6636.000000
2646.986572 7231.000000
2647.879883 6292.000000
2648.772949 6724.000000
2649.665771 6462.000000
2650.556885 7464.000000
2651.448242 6430.000000
2652.339111 7612.000000
2653.229248 7253.000000
2654.119141 6573.000000
2655.007813 7333.000000
2655.896729 6609.000000
2656.785156 6616.000000
2657.672607 7342.000000
2658.559082 6482.000000
2659.446045 7119.000000
2660.332275 6830.000000
2661.218018 6788.000000
2662.102539 6476.000000
2662.987061 6421.000000
2663.871338 6195.000000
2664.754883 7012.000000
2665.637939 7800.000000
2666.520264 7248.000000
2667.402100 6202.000000
2668.283203 6631.000000
2669.164551 6076.000000
2670.044434 6497.000000
2670.924561 7412.000000
2671.803955 7245.000000
2672.683350 6354.000000
2673.562012 6109.000000
2674.438965 6370.000000
2675.316650 6740.000000
2676.193604 6375.000000
2677.069824 8128.000000
2677.945557 7202.000000
2678.820557 6292.000000
2679.695801 7765.000000
2680.570068 6971.000000
2681.443848 7348.000000
2682.316895 7080.000000
2683.189697 6212.000000
2684.062256 6095.000000
2684.934082 6930.000000
2685.805176 6576.000000
2686.676025 6836.000000
2687.546387 7153.000000
2688.416504 6747.000000
2689.284912 6329.000000
2690.154053 7353.000000
2691.022461 7128.000000
2691.890625 6763.000000
2692.758057 6926.000000
2693.624268 5830.000000
2694.490967 7178.000000
2695.356689 7444.000000
2696.222412 7135.000000
2697.086670 7989.000000
2697.951660 6616.000000
2698.815186 7284.000000
2699.678955 5856.000000
2700.541260 7459.000000
2701.404053 6814.000000
2702.265869 5928.000000
2703.127197 6896.000000
2703.988525 6741.000000
2704.848633 7363.000000
2705.708740 7324.000000
2706.568359 6532.000000
2707.427734 6832.000000
2708.285400 7127.000000
2709.143311 6954.000000
2710.001709 7344.000000
2710.858887 6741.000000
2711.715332 5976.000000
2712.571289 6843.000000
2713.427246 6121.000000
2714.282471 6901.000000
2715.136963 6130.000000
2715.990967 6760.000000
2716.844971 7350.000000
2717.697998 6278.000000
2718.551270 6614.000000
2719.402832 7773.000000
2720.254883 6733.000000
2721.106689 6333.000000
2721.957275 6521.000000
2722.807861 6736.000000
2723.657959 7106.000000
2724.507324 7018.000000
2725.356689 7022.000000
2726.204834 6602.000000
2727.052490 6549.000000
2727.900635 7033.000000
2728.747559 6829.000000
2729.594971 5569.000000
2730.440918 7476.000000
2731.286133 6966.000000
2732.131836 6423.000000
2732.976563 6951.000000
2733.821289 7338.000000
2734.664795 6869.000000
2735.508545 7805.000000
2736.351563 7135.000000
2737.194092 6022.000000
2738.035645 6172.000000
2738.877686 6690.000000
2739.718750 6859.000000
2740.559570 5814.000000
2741.400146 5932.000000
2742.239502 7757.000000
2743.078857 6848.000000
2743.918213 6863.000000
2744.756348 6768.000000
2745.593994 7845.000000
2746.431641 6342.000000
2747.268799 7149.000000
2748.105713 6235.000000
2748.942139 6048.000000
2749.777344 6635.000000
2750.612793 6285.000000
2751.447754 6267.000000
2752.281982 6170.000000
2753.115967 6969.000000
2753.949463 6887.000000
2754.782959 7967.000000
2755.615479 6807.000000
2756.447510 7309.000000
2757.279053 6823.000000
2758.110596 7182.000000
2758.941162 7262.000000
2759.771973 7246.000000
2760.601563 7266.000000
2761.431152 6639.000000
2762.260498 7325.000000
2763.089111 6848.000000
2763.917236 6764.000000
2764.744873 6817.000000
2765.572510 6603.000000
2766.399658 7898.000000
2767.226074 5868.000000
2768.052002 7521.000000
2768.877441 6926.000000
2769.702637 7787.000000
2770.527832 7133.000000
2771.351807 6772.000000
2772.175781 6511.000000
2772.999756 7692.000000
2773.822510 6638.000000
2774.645508 6959.000000
2775.467285 6900.000000
2776.289063 6910.000000
2777.110840 6525.000000
2777.931641 7988.000000
2778.751709 6571.000000
2779.572021 7052.000000
2780.391846 7337.000000
2781.211670 6486.000000
2782.029541 5968.000000
2782.848633 8119.000000
2783.666504 6481.000000
2784.484131 6803.000000
2785.301270 7181.000000
2786.117920 7277.000000
2786.934326 7194.000000
2787.750244 6298.000000
2788.565918 6011.000000
2789.380615 6419.000000
2790.195801 6998.000000
2791.010254 7129.000000
2791.824219 6572.000000
2792.637939 7466.000000
2793.450439 8814.000000
2794.263184 6953.000000
2795.075439 7382.000000
2795.887207 7201.000000
2796.698242 7356.000000
2797.510010 6560.000000
2798.320557 7258.000000
2799.131104 6988.000000
2799.940186 7355.000000
2800.750000 8192.000000
2801.559082 7809.000000
2802.367920 6652.000000
2803.176270 7156.000000
2803.983643 6179.000000
2804.791504 6508.000000
2805.598633 6774.000000
2806.405518 6965.000000
2807.211182 7241.000000
2808.017334 6615.000000
2808.822754 6509.000000
2809.628174 7285.000000
2810.432861 6226.000000
2811.236572 7643.000000
2812.040771 7478.000000
2812.844482 6367.000000
2813.647949 6082.000000
2814.449951 6624.000000
2815.252686 7330.000000
2816.054688 7872.000000
2816.856445 6159.000000
2817.657715 6541.000000
2818.458496 7245.000000
2819.258789 6572.000000
2820.059326 6713.000000
2820.858887 8098.000000
2821.657959 7194.000000
2822.457031 6474.000000
2823.255859 6889.000000
2824.054199 6342.000000
2824.851563 7021.000000
2825.649170 7032.000000
2826.446045 6692.000000
2827.243164 7411.000000
2828.039551 8036.000000
2828.835205 7010.000000
2829.630859 7405.000000
2830.426270 7605.000000
2831.221191 7494.000000
2832.015381 6644.000000
2832.809570 6849.000000
2833.603516 5635.000000
2834.396973 6875.000000
2835.189697 7192.000000
2835.982178 8208.000000
2836.774658 7671.000000
2837.566895 7466.000000
2838.358643 6386.000000
2839.149414 6800.000000
2839.940186 8820.000000
2840.731201 7419.000000
2841.521240 6265.000000
2842.310791 7665.000000
2843.100586 7057.000000
2843.889404 7376.000000
2844.678223 7815.000000
2845.467041 7706.000000
2846.254883 7511.000000
2847.042236 7223.000000
2847.829834 7525.000000
2848.616943 7314.000000
2849.403320 6621.000000
2850.189697 7459.000000
2850.975830 7223.000000
2851.761475 7518.000000
2852.546143 7229.000000
2853.331299 6863.000000
2854.116211 7490.000000
2854.900391 7090.000000
2855.684570 6932.000000
2856.467529 8302.000000
2857.250732 6835.000000
2858.033691 6761.000000
2858.816162 7813.000000
2859.598389 6184.000000
2860.380127 6665.000000
2861.161621 7667.000000
2861.943359 7458.000000
2862.724365 7615.000000
2863.504639 6560.000000
2864.284668 6730.000000
2865.064697 8218.000000
2865.844482 7456.000000
2866.623291 8134.000000
2867.402344 7692.000000
2868.180908 6769.000000
2868.959229 7044.000000
2869.737061 7196.000000
2870.514648 6941.000000
2871.291992 7549.000000
2872.069092 6978.000000
2872.845703 6465.000000
2873.621826 7436.000000
2874.397949 7163.000000
2875.173584 8354.000000
2875.948975 7217.000000
2876.723877 6671.000000
2877.498535 8084.000000
2878.273193 6611.000000
2879.047607 7924.000000
2879.821289 6858.000000
2880.594238 7187.000000
2881.367920 6753.000000
2882.140625 7598.000000
2882.913330 7896.000000
2883.685303 8280.000000
2884.457031 6255.000000
2885.229248 6855.000000
2886.000244 6917.000000
2886.770752 6140.000000
2887.541748 8297.000000
2888.312744 7394.000000
2889.083008 8031.000000
2889.852295 7691.000000
2890.621826 6896.000000
2891.391357 7214.000000
2892.160400 7377.000000
2892.928955 7967.000000
2893.697510 7670.000000
2894.465088 6944.000000
2895.233154 6557.000000
2896.000732 7418.000000
2896.768311 8355.000000
2897.534668 7337.000000
2898.302002 6549.000000
2899.068115 7230.000000
2899.834473 6961.000000
2900.599365 8295.000000
2901.364746 7083.000000
2902.130615 6506.000000
2902.895020 7808.000000
2903.659424 7715.000000
2904.424072 8410.000000
2905.187744 6678.000000
2905.952148 8460.000000
2906.715820 6616.000000
2907.478760 8383.000000
2908.241455 6516.000000
2909.004639 9040.000000
2909.767334 6988.000000
2910.528809 6797.000000
2911.290771 6797.000000
