scanname Analyse071
timestamp 2017-02-10 21:36:50
ccdbias 892.741699
ccdgain 3.473401
sigmaread 8.960639
laserwavenum -0.721975
wavenumcorrection -0.199011
scancount 1
totalexposurems 10000
singleexposurems 10000
measurementstate Unknown
scanmode Manual
snr 316.716003 10.437271 8.910645
replacelist 5
672 53550.000000 31247.000000
754 53377.000000 17273.000000
858 52967.000000 15621.000000
889 52537.000000 21135.000000
948 51949.000000 19447.000000
peaks 85
278.513947 0.723232 0.000000 1.462486 0.000187
285.517273 0.723278 0.000000 0.773348 0.000060
295.311432 0.725923 0.000000 0.563740 0.000027
303.370850 0.726937 0.000000 0.199696 0.000024
332.399567 0.746014 0.000000 0.830983 0.000142
349.482880 0.750436 0.000000 0.690217 0.000025
360.875763 0.753888 0.000000 0.699118 0.000062
386.118408 0.753655 0.000000 1.369265 0.000300
417.872925 0.733457 0.000000 0.869259 0.000239
459.952545 0.770548 0.000000 0.309134 0.000044
486.990967 0.781535 0.000000 0.539184 0.000059
535.187622 0.785836 0.000000 0.525861 0.000134
559.943848 0.825756 0.000000 1.194964 0.000217
571.503784 0.834478 0.000000 0.704325 0.000165
583.351746 0.826463 0.000000 0.707637 0.000110
660.669739 0.858840 0.000000 1.240181 0.000120
673.510376 0.856456 0.000000 1.343792 0.000264
680.403198 0.856523 0.000000 0.369150 0.000044
715.897583 0.877608 0.000000 5.547153 0.001169
724.725281 0.859488 0.000000 1.266272 0.000054
742.763428 0.885370 0.000000 1.177217 0.000125
757.344299 0.910131 0.000000 5.991999 0.000689
777.455200 0.917118 0.000000 11.029297 0.002319
826.034912 0.917627 0.000000 1.042655 0.000053
833.464783 0.913745 0.000000 1.002096 0.000172
853.409119 0.942577 0.000000 1.055695 0.000279
868.909912 0.938236 0.000000 0.729023 0.000153
937.826050 1.016300 0.000000 0.836048 0.000436
954.417419 0.994995 0.000000 3.548976 0.001083
1013.772461 1.039708 0.000000 2.052658 0.000790
1020.125671 1.041304 0.000000 1.068046 0.000161
1026.908813 1.052460 0.000000 0.669604 0.000269
1034.456909 1.042571 0.000000 0.840814 0.000104
1044.359253 1.049750 0.000000 4.248984 0.001391
1104.752563 1.072089 0.000000 2.208263 0.000617
1117.780884 1.112842 0.000000 2.294930 0.000663
1134.782715 1.089994 0.000000 2.132101 0.000922
1150.485962 1.072462 0.000000 2.352378 0.000972
1174.546265 1.105476 0.000000 1.595208 0.000528
1187.787720 1.111305 0.000000 0.865033 0.000072
1212.121460 1.187829 0.000000 0.807945 0.000253
1222.621216 1.200564 0.000000 1.560834 0.000583
1232.309204 1.182032 0.000000 1.188849 0.000329
1260.141968 1.219456 0.000000 2.831485 0.001357
1279.557983 1.159855 0.000000 0.192436 0.000413
1313.683105 1.228367 0.000000 2.092478 0.001172
1330.509644 1.292490 0.000000 3.563072 0.001811
1347.770386 1.299178 0.000000 0.743784 0.000719
1389.997192 1.283869 0.000000 0.799679 0.000311
1415.416382 1.358966 0.000000 1.920993 0.000880
1434.233032 1.421715 0.000000 1.865978 0.000911
1447.510010 1.413807 0.000000 1.641603 0.000583
1460.064331 1.415134 0.000000 2.759903 0.001800
1490.052734 1.488033 0.000000 4.258080 0.002648
1517.529663 1.430758 0.000000 0.262039 0.000158
1533.858276 1.518551 0.000000 0.977919 0.000679
1558.419800 1.566657 0.000000 1.407676 0.000907
1563.815430 1.559959 0.000000 0.822240 0.000168
1578.244141 1.558689 0.000000 1.690091 0.001557
1598.280884 1.549059 0.000000 0.390509 0.000310
1607.025391 1.551563 0.000000 0.110191 0.000076
1616.521362 1.564350 0.000000 1.835227 0.001708
1627.388550 1.570437 0.000000 1.868809 0.001762
1653.246826 1.615274 0.000000 0.213758 0.000098
1671.283813 1.720639 0.000000 1.463151 0.001117
1687.657471 1.744146 0.000000 0.881549 0.000567
1699.518677 1.759119 0.000000 1.256870 0.001640
1711.939209 1.734500 0.000000 1.015379 0.000936
1762.633667 1.772648 0.000000 0.730318 0.000392
1778.985962 1.885384 0.000000 5.222775 0.005201
1796.234863 1.881331 0.000000 0.712447 0.000607
1809.984497 1.886137 0.000000 1.570469 0.001495
1855.995728 1.864531 0.000000 2.277689 0.002064
1871.262207 1.870960 0.000000 0.988620 0.000816
1889.852905 1.873145 0.000000 1.416866 0.001585
1902.158936 1.871567 0.000000 1.733783 0.001848
1912.149780 1.838958 0.000000 0.660170 0.000683
1943.374756 1.799827 0.000000 0.435908 0.000576
1975.643433 1.779340 0.000000 0.682137 0.000534
1995.530273 1.767792 0.000000 1.071954 0.000537
2011.744995 1.745883 0.000000 0.285216 0.000380
2025.857788 1.749725 0.000000 0.899724 0.001443
2094.722412 1.641655 0.000000 0.457947 0.000749
2108.130127 1.632694 0.000000 0.464033 0.000775
2132.074463 1.614716 0.000000 1.045832 0.002862
finalresult GLS_NoMatch 0
spectrum 2048
-96.879478 47421.000000
-94.252609 47421.000000
-91.627617 47576.000000
-89.004517 47176.000000
-86.383286 47762.000000
-83.763954 47343.000000
-81.146484 47575.000000
-78.530891 47184.000000
-75.917175 47432.000000
-73.305336 47776.000000
-70.695358 47602.000000
-68.087265 47610.000000
-65.481018 47727.000000
-62.876648 47687.000000
-60.274139 47552.000000
-57.673485 48016.000000
-55.074692 47451.000000
-52.477757 46786.000000
-49.882675 47183.000000
-47.289448 47225.000000
-44.698071 47372.000000
-42.108540 46923.000000
-39.520851 47693.000000
-36.935013 47610.000000
-34.351017 47134.000000
-31.768860 48008.000000
-29.188547 47299.000000
-26.610062 47978.000000
-24.033419 47468.000000
-21.458601 47405.000000
-18.885624 47153.000000
-16.314466 47101.000000
-13.745143 46911.000000
-11.177645 45879.000000
-8.611965 47407.000000
-6.048111 47147.000000
-3.486071 47667.000000
-0.925855 47874.000000
1.632553 47510.000000
4.189140 46679.000000
6.743922 46974.000000
9.296887 47635.000000
11.848052 46881.000000
14.397404 47195.000000
16.944960 46922.000000
19.490704 47539.000000
22.034655 47886.000000
24.576801 47023.000000
27.117151 46861.000000
29.655716 46700.000000
32.192486 47441.000000
34.727451 47864.000000
37.260639 46390.000000
39.792046 47323.000000
42.321659 46531.000000
44.849476 47235.000000
47.375534 45876.000000
49.899803 48012.000000
52.422302 47430.000000
54.943005 46969.000000
57.461952 47387.000000
59.979126 47271.000000
62.494522 47077.000000
65.008141 48059.000000
67.520004 47862.000000
70.030121 47105.000000
72.538445 47090.000000
75.045013 47701.000000
77.549835 47382.000000
80.052902 47280.000000
82.554192 47414.000000
85.053741 47520.000000
87.551537 47305.000000
90.047600 47947.000000
92.541885 46388.000000
95.034431 47872.000000
97.525261 46761.000000
100.014320 46442.000000
102.501633 47223.000000
104.987221 47484.000000
107.471069 47355.000000
109.953171 47953.000000
112.433548 47112.000000
114.912201 47451.000000
117.389130 47152.000000
119.864304 46545.000000
122.337769 46830.000000
124.809502 47793.000000
127.279526 46902.000000
129.747787 47468.000000
132.214386 47418.000000
134.679230 47980.000000
137.142380 47429.000000
139.603790 46400.000000
142.063507 46880.000000
144.521500 47203.000000
146.977798 47756.000000
149.432388 47865.000000
151.885254 46828.000000
154.336441 47356.000000
156.785934 47113.000000
159.233704 47585.000000
161.679764 47130.000000
164.124146 44944.000000
166.566849 47195.000000
169.007858 46865.000000
171.447159 47411.000000
173.884750 46449.000000
176.320709 47052.000000
178.754929 46743.000000
181.187469 46430.000000
183.618362 46946.000000
186.047531 46838.000000
188.475052 46964.000000
190.900894 47270.000000
193.325058 46948.000000
195.747559 46516.000000
198.168365 46199.000000
200.587509 47144.000000
203.004990 47588.000000
205.420776 46024.000000
207.834915 46600.000000
210.247421 47277.000000
212.658249 47484.000000
215.067398 47416.000000
217.474915 46228.000000
219.880722 47421.000000
222.284943 47126.000000
224.687454 46900.000000
227.088348 46668.000000
229.487595 47077.000000
231.885178 46769.000000
234.281097 46367.000000
236.675400 47143.000000
239.068039 47788.000000
241.459061 46811.000000
243.848419 47037.000000
246.236160 47354.000000
248.622253 46653.000000
251.006714 47507.000000
253.389526 45742.000000
255.770767 46989.000000
258.150299 46988.000000
260.528259 47134.000000
262.904541 46133.000000
265.279266 46072.000000
267.652344 45814.000000
270.023773 47420.000000
272.393555 47176.000000
274.761780 47738.000000
277.128357 47332.000000
279.493347 46909.000000
281.856720 47636.000000
284.218445 47416.000000
286.578583 46463.000000
288.937103 47693.000000
291.294037 47147.000000
293.649353 47312.000000
296.003082 47716.000000
298.355164 47745.000000
300.705688 47391.000000
303.054626 47307.000000
305.401917 46801.000000
307.747681 47264.000000
310.091766 47174.000000
312.434326 46315.000000
314.775269 46051.000000
317.114594 46546.000000
319.452362 46685.000000
321.788574 45540.000000
324.123138 47330.000000
326.456146 47163.000000
328.787598 47716.000000
331.117462 46954.000000
333.445740 47295.000000
335.772400 46400.000000
338.097565 47257.000000
340.421112 47451.000000
342.743103 47656.000000
345.063538 46094.000000
347.382355 45856.000000
349.699615 47691.000000
352.015350 47834.000000
354.329498 46636.000000
356.642059 47376.000000
358.953064 47213.000000
361.262543 46519.000000
363.570496 47255.000000
365.876831 47999.000000
368.181580 47231.000000
370.484863 47186.000000
372.786530 47354.000000
375.086700 47263.000000
377.385315 47337.000000
379.682373 47874.000000
381.977875 47603.000000
384.271851 47700.000000
386.564240 48382.000000
388.855133 48035.000000
391.144501 47377.000000
393.432281 47346.000000
395.718536 47028.000000
398.003296 46588.000000
400.286438 47554.000000
402.568146 47202.000000
404.848328 47432.000000
407.126923 46365.000000
409.403992 47164.000000
411.679535 47000.000000
413.953552 47203.000000
416.226135 47259.000000
418.497101 47403.000000
420.766571 47188.000000
423.034546 46536.000000
425.300964 46378.000000
427.565887 47314.000000
429.829346 47454.000000
432.091217 47167.000000
434.351624 47645.000000
436.610474 46920.000000
438.867859 47488.000000
441.123749 47931.000000
443.378143 47890.000000
445.631012 48219.000000
447.882324 46676.000000
450.132233 47560.000000
452.380554 47461.000000
454.627441 48032.000000
456.872864 47222.000000
459.116730 47225.000000
461.359100 46844.000000
463.599976 47975.000000
465.839447 46943.000000
468.077332 48148.000000
470.313782 47746.000000
472.548706 47572.000000
474.782166 46287.000000
477.014191 46918.000000
479.244690 48024.000000
481.473694 47135.000000
483.701233 47304.000000
485.927277 47678.000000
488.151886 47084.000000
490.375031 47753.000000
492.596710 47122.000000
494.816833 46972.000000
497.035553 47976.000000
499.252777 47376.000000
501.468628 48107.000000
503.682861 47484.000000
505.895782 47176.000000
508.107117 47092.000000
510.317017 46788.000000
512.525513 47158.000000
514.732605 47059.000000
516.938110 47212.000000
519.142212 47009.000000
521.344788 47440.000000
523.545959 47084.000000
525.745789 47009.000000
527.944092 46644.000000
530.140869 48243.000000
532.336304 47769.000000
534.530212 48140.000000
536.722778 46014.000000
538.913818 46949.000000
541.103455 47594.000000
543.291687 46746.000000
545.478394 46528.000000
547.663635 46844.000000
549.847595 47426.000000
552.029968 47276.000000
554.210999 47348.000000
556.390503 47503.000000
558.568726 47708.000000
560.745422 47560.000000
562.920715 47241.000000
565.094604 47204.000000
567.267029 47726.000000
569.438049 47628.000000
571.607605 47320.000000
573.775879 48349.000000
575.942627 47212.000000
578.107910 47276.000000
580.271790 47424.000000
582.434387 47828.000000
584.595459 47553.000000
586.755127 48017.000000
588.913452 47816.000000
591.070251 47517.000000
593.225708 46976.000000
595.379761 47826.000000
597.532471 47465.000000
599.683655 46316.000000
601.833496 46826.000000
603.981995 46945.000000
606.128906 47572.000000
608.274597 47114.000000
610.418884 47132.000000
612.561707 46944.000000
614.703064 47418.000000
616.843201 47167.000000
618.981812 45928.000000
621.119141 47916.000000
623.255005 47053.000000
625.389465 46692.000000
627.522461 46393.000000
629.654297 46995.000000
631.784668 46960.000000
633.913635 46841.000000
636.041138 47133.000000
638.167358 47391.000000
640.292053 46306.000000
642.415527 47255.000000
644.537659 46810.000000
646.658325 46786.000000
648.777649 47065.000000
650.895569 47919.000000
653.012146 47930.000000
655.127319 47125.000000
657.241150 47120.000000
659.353516 47666.000000
661.464661 47419.000000
663.574402 48252.000000
665.682678 47554.000000
667.789795 47331.000000
669.895447 46695.000000
671.999634 47710.000000
674.102600 47883.000000
676.204163 46624.000000
678.304382 48246.000000
680.403198 46870.000000
682.500671 47369.000000
684.596863 46626.000000
686.691589 47363.000000
688.785095 46624.000000
690.877258 46969.000000
692.967896 45711.000000
695.057312 46939.000000
697.145447 47127.000000
699.232117 47591.000000
701.317566 46894.000000
703.401489 48458.000000
705.484192 47747.000000
707.565613 47667.000000
709.645569 46054.000000
711.724304 47333.000000
713.801575 48068.000000
715.877563 47018.000000
717.952271 47519.000000
720.025696 46547.000000
722.097595 47313.000000
724.168335 46195.000000
726.237732 47772.000000
728.305725 47071.000000
730.372375 47255.000000
732.437805 46546.000000
734.501892 47922.000000
736.564636 47425.000000
738.626038 47305.000000
740.686157 46978.000000
742.744873 47616.000000
744.802368 46956.000000
746.858582 47109.000000
748.913391 46955.000000
750.966919 47213.000000
753.019043 46151.000000
755.069946 47835.000000
757.119629 46930.000000
759.167847 47346.000000
761.214844 47457.000000
763.260559 46635.000000
765.304871 48314.000000
767.347900 47887.000000
769.389709 38668.000000
771.430176 46715.000000
773.469238 47198.000000
775.507141 47575.000000
777.543701 47635.000000
779.579041 48289.000000
781.613037 47850.000000
783.645630 46717.000000
785.677063 48063.000000
787.707092 41481.000000
789.735840 47518.000000
791.763428 47241.000000
793.789673 47225.000000
795.814514 47726.000000
797.838257 48134.000000
799.860596 47312.000000
801.881714 47735.000000
803.901489 47039.000000
805.919983 48689.000000
807.937256 46985.000000
809.953125 46875.000000
811.967834 47918.000000
813.981201 47214.000000
815.993347 47391.000000
818.004272 47487.000000
820.013855 47082.000000
822.022217 48272.000000
824.029175 47913.000000
826.034912 47501.000000
828.039429 47815.000000
830.042664 47988.000000
832.044617 47009.000000
834.045288 47518.000000
836.044739 47723.000000
838.042847 47226.000000
840.039856 46632.000000
842.035461 47274.000000
844.029907 47645.000000
846.023010 47398.000000
848.014893 46800.000000
850.005432 47959.000000
851.994690 46815.000000
853.982910 47553.000000
855.969727 47820.000000
857.955322 47204.000000
859.939636 46314.000000
861.922852 47350.000000
863.904663 47158.000000
865.885254 47717.000000
867.864563 45853.000000
869.842712 46520.000000
871.819519 47337.000000
873.795044 47724.000000
875.769531 47355.000000
877.742554 47558.000000
879.714539 48144.000000
881.685181 47230.000000
883.654663 47496.000000
885.622803 48039.000000
887.589783 48444.000000
889.555420 47436.000000
891.519897 47761.000000
893.483154 47651.000000
895.445190 47186.000000
897.405945 47759.000000
899.365479 47220.000000
901.323730 47005.000000
903.280884 47254.000000
905.236877 47540.000000
907.191467 46687.000000
909.144836 47084.000000
911.097046 47222.000000
913.048035 47195.000000
914.997742 46397.000000
916.946289 47293.000000
918.893616 47453.000000
920.839661 47496.000000
922.784424 47517.000000
924.728149 47318.000000
926.670715 47630.000000
928.612000 48093.000000
930.551941 47060.000000
932.490784 47858.000000
934.428345 48060.000000
936.364685 47696.000000
938.299866 47746.000000
940.233765 47515.000000
942.166565 47729.000000
944.098145 46824.000000
946.028564 48440.000000
947.957764 47257.000000
949.885620 46571.000000
951.812439 46970.000000
953.737976 47675.000000
955.662231 48288.000000
957.585388 47578.000000
959.507385 46815.000000
961.428101 46331.000000
963.347656 47123.000000
965.266052 48316.000000
967.183411 47176.000000
969.099304 47191.000000
971.014099 47459.000000
972.927673 47734.000000
974.840088 47193.000000
976.751282 47160.000000
978.661316 48138.000000
980.570068 47359.000000
982.477783 47468.000000
984.384277 47238.000000
986.289551 47903.000000
988.193726 46875.000000
990.096680 47363.000000
991.998413 46773.000000
993.898987 47231.000000
995.798401 46926.000000
997.696594 48294.000000
999.593628 47033.000000
1001.489441 47077.000000
1003.384094 45958.000000
1005.277649 47935.000000
1007.169922 46448.000000
1009.061279 47497.000000
1010.951294 48266.000000
1012.840088 46952.000000
1014.727722 47291.000000
1016.614197 46655.000000
1018.499512 46843.000000
1020.383667 47631.000000
1022.266602 47692.000000
1024.148438 47333.000000
1026.029053 48411.000000
1027.908569 47725.000000
1029.787109 47501.000000
1031.664307 48113.000000
1033.540161 47370.000000
1035.415039 47706.000000
1037.288940 46994.000000
1039.161377 46559.000000
1041.032837 46877.000000
1042.902954 48100.000000
1044.772095 48033.000000
1046.640015 47940.000000
1048.506836 46401.000000
1050.372559 46871.000000
1052.237061 47167.000000
1054.100464 47083.000000
1055.962524 47060.000000
1057.823608 47687.000000
1059.683594 47087.000000
1061.542236 46933.000000
1063.399780 47814.000000
1065.256226 46832.000000
1067.111572 47650.000000
1068.965698 47730.000000
1070.818970 47357.000000
1072.670776 47265.000000
1074.521606 47363.000000
1076.371216 47372.000000
1078.219604 47828.000000
1080.067139 45625.000000
1081.913330 48014.000000
1083.758301 47370.000000
1085.602417 48120.000000
1087.445190 48067.000000
1089.286743 47022.000000
1091.127563 48119.000000
1092.966797 47787.000000
1094.805298 47487.000000
1096.642456 47574.000000
1098.478394 46792.000000
1100.313354 46994.000000
1102.147095 48178.000000
1103.979858 47919.000000
1105.811279 47347.000000
1107.641846 46379.000000
1109.471069 47135.000000
1111.299316 47247.000000
1113.126343 46485.000000
1114.952393 48165.000000
1116.777222 47290.000000
1118.600952 46438.000000
1120.423462 47538.000000
1122.244873 47686.000000
1124.065430 47686.000000
1125.884521 47027.000000
1127.702759 46412.000000
1129.519653 46780.000000
1131.335693 46889.000000
1133.150513 47127.000000
1134.964233 47966.000000
1136.776855 47780.000000
1138.588257 47928.000000
1140.398682 47459.000000
1142.208008 46798.000000
1144.015991 46580.000000
1145.823242 47687.000000
1147.629028 47608.000000
1149.433960 48187.000000
1151.237793 48132.000000
1153.040405 47471.000000
1154.842163 47510.000000
1156.642456 47511.000000
1158.441772 47474.000000
1160.240112 47721.000000
1162.037109 48117.000000
1163.833374 47684.000000
1165.628296 47455.000000
1167.422119 47199.000000
1169.215088 45902.000000
1171.006714 47850.000000
1172.797363 47027.000000
1174.587036 47606.000000
1176.375244 47677.000000
1178.162598 46084.000000
1179.948853 46644.000000
1181.734009 47827.000000
1183.518066 47604.000000
1185.301025 45827.000000
1187.083008 47765.000000
1188.863770 47724.000000
1190.643555 47266.000000
1192.422241 46613.000000
1194.199951 46875.000000
1195.976440 46406.000000
1197.751831 46992.000000
1199.526123 46975.000000
1201.299316 46819.000000
1203.071655 47030.000000
1204.842651 46792.000000
1206.612793 47828.000000
1208.381714 47406.000000
1210.149536 47229.000000
1211.916504 47845.000000
1213.682129 47616.000000
1215.446777 46677.000000
1217.210327 47044.000000
1218.972778 47658.000000
1220.734375 46846.000000
1222.494751 47676.000000
1224.254028 47318.000000
1226.012451 47543.000000
1227.769653 46512.000000
1229.525757 47075.000000
1231.280762 48136.000000
1233.034912 47572.000000
1234.787720 47783.000000
1236.539551 47499.000000
1238.290527 47597.000000
1240.040161 48615.000000
1241.788940 46569.000000
1243.536377 47102.000000
1245.283081 46910.000000
1247.028564 47045.000000
1248.773193 47134.000000
1250.516479 46802.000000
1252.258789 46943.000000
1254.000000 48217.000000
1255.740356 48535.000000
1257.479614 47767.000000
1259.217651 46924.000000
1260.954834 46433.000000
1262.690796 47407.000000
1264.425781 47122.000000
1266.159790 46319.000000
1267.892822 47627.000000
1269.624634 47351.000000
1271.355469 47101.000000
1273.085083 46304.000000
1274.813843 47597.000000
1276.541504 47843.000000
1278.268066 47955.000000
1279.993774 47938.000000
1281.718140 47096.000000
1283.441650 48378.000000
1285.164185 46599.000000
1286.885742 46902.000000
1288.606079 47404.000000
1290.325439 46888.000000
1292.043701 46328.000000
1293.760986 47150.000000
1295.477295 47793.000000
1297.192383 47245.000000
1298.906494 47369.000000
1300.619629 47732.000000
1302.331909 47081.000000
1304.042969 45166.000000
1305.753052 48209.000000
1307.462036 47237.000000
1309.169800 46899.000000
1310.876953 46478.000000
1312.582642 47748.000000
1314.287598 46606.000000
1315.991577 47394.000000
1317.694336 47587.000000
1319.396118 46925.000000
1321.097046 47465.000000
1322.796631 43845.000000
1324.495361 45911.000000
1326.193359 47977.000000
1327.890015 47050.000000
1329.585571 46359.000000
1331.280273 46669.000000
1332.973755 47766.000000
1334.666382 48123.000000
1336.358154 46223.000000
1338.048584 47209.000000
1339.738281 46902.000000
1341.426880 47416.000000
1343.114380 45927.000000
1344.800903 47847.000000
1346.486328 46762.000000
1348.170776 47520.000000
1349.854370 46140.000000
1351.536743 47045.000000
1353.218140 47462.000000
1354.898682 46936.000000
1356.578003 46727.000000
1358.256714 47592.000000
1359.934082 46887.000000
1361.610352 47760.000000
1363.285645 47911.000000
1364.960205 46942.000000
1366.633545 47033.000000
1368.305908 46770.000000
1369.977295 48320.000000
1371.647705 46758.000000
1373.317017 47371.000000
1374.985352 47778.000000
1376.652832 47453.000000
1378.319214 46976.000000
1379.984619 47241.000000
1381.649048 47675.000000
1383.312256 47548.000000
1384.974854 47802.000000
1386.636108 47040.000000
1388.296509 46962.000000
1389.955811 47126.000000
1391.614136 46976.000000
1393.271729 46713.000000
1394.928101 46976.000000
1396.583618 46496.000000
1398.237915 47180.000000
1399.891357 47592.000000
1401.543701 47281.000000
1403.195313 47008.000000
1404.845703 46257.000000
1406.494995 47251.000000
1408.143555 46057.000000
1409.791016 45599.000000
1411.437500 47287.000000
1413.083130 47175.000000
1414.727783 47410.000000
1416.371216 46443.000000
1418.013794 46274.000000
1419.655273 46662.000000
1421.295898 46934.000000
1422.935547 46957.000000
1424.574097 47386.000000
1426.211792 46820.000000
1427.848389 47053.000000
1429.484009 47420.000000
1431.118896 47034.000000
1432.752686 47543.000000
1434.385376 47287.000000
1436.017090 47730.000000
1437.647949 47333.000000
1439.277710 47449.000000
1440.906372 45338.000000
1442.534424 47390.000000
1444.161377 47189.000000
1445.787109 47231.000000
1447.412231 47275.000000
1449.036255 46888.000000
1450.659302 47412.000000
1452.281372 47434.000000
1453.902344 45903.000000
1455.522339 47102.000000
1457.141602 46583.000000
1458.759521 47817.000000
1460.376831 47875.000000
1461.993164 47933.000000
1463.608276 46116.000000
1465.222534 47170.000000
1466.835938 48189.000000
1468.448242 47805.000000
1470.059692 47182.000000
1471.670288 47021.000000
1473.279663 47300.000000
1474.888062 47395.000000
1476.495605 47113.000000
1478.102173 46719.000000
1479.708008 48078.000000
1481.312622 47079.000000
1482.916382 47815.000000
1484.518921 46551.000000
1486.120850 47738.000000
1487.721558 47836.000000
1489.321533 47735.000000
1490.920410 47070.000000
1492.518433 46802.000000
1494.115356 46660.000000
1495.711426 47004.000000
1497.306519 47303.000000
1498.900635 47869.000000
1500.494019 46784.000000
1502.086304 47768.000000
1503.677368 47101.000000
1505.267944 46570.000000
1506.857178 46795.000000
1508.445801 47180.000000
1510.033325 46776.000000
1511.619751 46462.000000
1513.205444 47112.000000
1514.790039 46637.000000
1516.373779 47003.000000
1517.956421 47021.000000
1519.538330 46615.000000
1521.119141 46636.000000
1522.699219 47226.000000
1524.278076 47050.000000
1525.856079 46898.000000
1527.433350 46970.000000
1529.009399 47563.000000
1530.584717 47320.000000
1532.158936 46932.000000
1533.732422 47707.000000
1535.304688 47316.000000
1536.876221 46833.000000
1538.446777 46872.000000
1540.016479 46904.000000
1541.584961 47763.000000
1543.152710 46631.000000
1544.719604 47622.000000
1546.285278 46344.000000
1547.850220 47227.000000
1549.414063 48094.000000
1550.977295 45734.000000
1552.539185 46897.000000
1554.100464 47233.000000
1555.660645 47449.000000
1557.220093 47368.000000
1558.778442 47172.000000
1560.336060 46961.000000
1561.892578 46130.000000
1563.447876 47298.000000
1565.002563 46913.000000
1566.556519 47544.000000
1568.109497 46789.000000
1569.661133 47513.000000
1571.212036 47216.000000
1572.762207 46938.000000
1574.311401 46773.000000
1575.859253 47335.000000
1577.406616 47606.000000
1578.953003 47385.000000
1580.498535 48068.000000
1582.043091 46467.000000
1583.586426 46683.000000
1585.129150 46480.000000
1586.671021 46646.000000
1588.211792 46423.000000
1589.751587 47282.000000
1591.290649 46421.000000
1592.828613 47232.000000
1594.366089 47015.000000
1595.902222 47229.000000
1597.437256 46448.000000
1598.971802 46874.000000
1600.505371 47071.000000
1602.038086 47062.000000
1603.569214 46751.000000
1605.100098 46731.000000
1606.630127 47339.000000
1608.158936 46974.000000
1609.686646 46877.000000
1611.213745 46989.000000
1612.740112 47239.000000
1614.265503 46786.000000
1615.790039 47221.000000
1617.313232 47194.000000
1618.835693 47414.000000
1620.357422 46402.000000
1621.878296 46073.000000
1623.397705 46454.500000
1624.916626 46836.000000
1626.434814 46888.000000
1627.952148 47060.000000
1629.468384 46439.000000
1630.983276 45916.000000
1632.497681 46127.000000
1634.011353 47080.000000
1635.523926 46048.000000
1637.035278 47005.000000
1638.546265 46325.000000
1640.056152 46566.000000
1641.565186 46648.000000
1643.072876 47216.000000
1644.580200 46777.000000
1646.086670 45674.000000
1647.592163 46591.000000
1649.096802 45944.000000
1650.599976 46627.000000
1652.102539 46121.000000
1653.604736 46401.000000
1655.105591 46085.000000
1656.605347 45191.000000
1658.104248 46683.000000
1659.602783 46162.000000
1661.100098 46465.000000
1662.596680 46709.000000
1664.091675 46178.000000
1665.586426 46273.000000
1667.080322 47364.000000
1668.573242 46926.000000
1670.064819 46461.000000
1671.555908 45996.000000
1673.046387 46386.000000
1674.535767 46431.000000
1676.023682 45465.000000
1677.511353 45576.000000
1678.998047 46405.000000
1680.483887 47143.000000
1681.968872 46193.000000
1683.452393 46253.000000
1684.935669 46184.000000
1686.418091 46517.000000
1687.899414 46090.000000
1689.379272 46113.000000
1690.858887 46778.000000
1692.337769 45779.000000
1693.815674 46662.000000
1695.292603 46079.000000
1696.768311 46563.000000
1698.243652 46323.000000
1699.717773 46010.000000
1701.191284 46841.000000
1702.663330 46718.000000
1704.135132 45482.000000
1705.605957 45947.000000
1707.075928 45228.000000
1708.544556 47170.000000
1710.012695 46485.000000
1711.480103 45899.000000
1712.946411 46825.000000
1714.412109 46517.000000
1715.876099 46140.000000
1717.339966 46298.000000
1718.802979 45326.000000
1720.265015 45867.000000
1721.725830 45598.000000
1723.186035 46809.000000
1724.645508 46605.000000
1726.104126 46139.000000
1727.561768 46317.000000
1729.018066 45976.000000
1730.474121 46205.000000
1731.929199 45750.000000
1733.383301 46261.000000
1734.836182 45310.000000
1736.288818 46244.000000
1737.740356 45318.000000
1739.191162 46196.000000
1740.640991 45550.000000
1742.089478 46135.000000
1743.537598 44752.000000
1744.984863 45548.000000
1746.431396 45404.000000
1747.876343 45271.000000
1749.321045 45897.000000
1750.764893 46159.000000
1752.207886 46505.000000
1753.649414 45335.000000
1755.090698 45631.000000
1756.531128 45628.000000
1757.970581 45625.000000
1759.409058 46478.000000
1760.846558 45659.000000
1762.283569 44086.000000
1763.719604 45811.000000
1765.154785 44361.000000
1766.588501 45391.000000
1768.022095 45137.000000
1769.454712 44912.000000
1770.886475 45625.000000
1772.317383 45717.000000
1773.747070 45022.000000
1775.176025 45221.000000
1776.604492 44965.000000
1778.031982 44531.000000
1779.458130 44945.000000
1780.884033 45541.000000
1782.308838 44285.000000
1783.733032 45554.000000
1785.155762 44546.000000
1786.578003 44594.000000
1787.999512 44175.000000
1789.420288 45151.000000
1790.840088 44873.000000
1792.258545 44829.000000
1793.676514 44180.000000
1795.093872 45443.000000
1796.510376 44910.000000
1797.925415 44386.000000
1799.340088 45090.000000
1800.754150 44339.000000
1802.166992 44995.000000
1803.579224 43921.000000
1804.990112 43711.000000
1806.400513 43068.000000
1807.810181 44310.000000
1809.218872 44915.000000
1810.626465 45379.000000
1812.033569 44357.000000
1813.439819 44396.000000
1814.845093 44148.000000
1816.249268 44746.000000
1817.653076 44681.000000
1819.055908 44470.000000
1820.457886 44632.000000
1821.859253 44811.000000
1823.259155 44211.000000
1824.658447 44039.000000
1826.057251 43952.000000
1827.455200 42968.000000
1828.851807 44617.000000
1830.247803 43501.000000
1831.643066 44374.000000
1833.037720 42081.000000
1834.431396 44129.000000
1835.823730 43127.000000
1837.215576 43538.000000
1838.606812 43968.000000
1839.997070 42698.000000
1841.386108 43694.000000
1842.774780 43518.000000
1844.162476 43523.000000
1845.549438 43607.000000
1846.935059 42477.000000
1848.320435 43487.000000
1849.704956 42865.000000
1851.088745 42821.000000
1852.471436 42682.000000
1853.852905 43529.000000
1855.233887 42257.000000
1856.614380 42525.000000
1857.993896 43002.000000
1859.371948 42652.000000
1860.749878 42283.000000
1862.126831 40538.000000
1863.503052 42091.000000
1864.878418 41912.000000
1866.252319 42164.000000
1867.626099 42018.000000
1868.999023 41339.000000
1870.370850 41475.000000
1871.741699 40476.000000
1873.112183 41939.000000
1874.481567 41183.000000
1875.850464 41006.000000
1877.217773 39859.000000
1878.584961 40924.000000
1879.951172 40851.000000
1881.316650 40054.000000
1882.681396 39251.000000
1884.044556 39914.000000
1885.407593 39619.000000
1886.769775 40065.000000
1888.131104 39847.000000
1889.491089 40614.000000
1890.850708 40408.000000
1892.209717 40117.000000
1893.567749 39510.000000
1894.924927 38903.000000
1896.280884 40149.000000
1897.636597 38487.000000
1898.991333 40205.000000
1900.345215 40365.000000
1901.697998 40033.000000
1903.050293 40018.000000
1904.401855 40042.000000
1905.752563 39077.000000
1907.102051 39369.000000
1908.451050 39173.000000
1909.799194 39973.000000
1911.146729 39508.000000
1912.493530 39325.000000
1913.838745 38938.000000
1915.183716 39558.000000
1916.527954 40114.000000
1917.871338 38996.000000
1919.213379 39491.000000
1920.555176 38647.000000
1921.896118 38311.000000
1923.236328 39137.000000
1924.575562 38899.000000
1925.913818 38730.000000
1927.251465 38521.000000
1928.588379 37854.000000
1929.924438 38047.000000
1931.259277 39126.000000
1932.593750 37817.000000
1933.927490 37162.000000
1935.260376 38067.000000
1936.591797 38503.000000
1937.923340 37732.000000
1939.253540 37490.000000
1940.583252 38300.000000
1941.912109 37973.000000
1943.239746 38059.000000
1944.566895 38848.000000
1945.893311 37944.000000
1947.218994 37373.000000
1948.543335 37938.000000
1949.867432 36954.000000
1951.190674 37237.000000
1952.513184 37035.000000
1953.834595 37561.000000
1955.155029 35764.000000
1956.474854 37144.000000
1957.794312 37366.000000
1959.112793 35934.000000
1960.429932 36779.000000
1961.746704 36736.000000
1963.062744 35939.000000
1964.378052 35909.000000
1965.691895 35979.000000
1967.005493 36401.000000
1968.318359 35848.000000
1969.630371 35926.000000
1970.941772 35777.000000
1972.251831 35374.000000
1973.561401 35750.000000
1974.870239 35312.000000
1976.178467 34823.000000
1977.485352 35286.000000
1978.791626 34052.000000
1980.097534 35648.000000
1981.402222 34744.000000
1982.706421 35086.000000
1984.009399 35187.000000
1985.312012 33405.000000
1986.613647 34451.000000
1987.914673 33581.000000
1989.214111 33895.000000
1990.513672 33161.000000
1991.812134 34393.000000
1993.110107 33450.000000
1994.406494 33343.000000
1995.702881 33526.000000
1996.998291 33621.000000
1998.292969 32678.000000
1999.586792 33399.000000
2000.879395 32523.000000
2002.171509 33320.000000
2003.463135 31950.000000
2004.754028 32519.000000
2006.043335 32534.000000
2007.332397 31918.000000
2008.620728 32608.000000
2009.908325 32512.000000
2011.195068 31842.000000
2012.480713 32684.000000
2013.765991 31984.000000
2015.050293 32316.000000
2016.333984 32621.000000
2017.616333 32187.000000
2018.898315 31835.000000
2020.179810 31460.000000
2021.460327 32272.000000
2022.740112 31986.000000
2024.018799 31409.000000
2025.296753 32266.000000
2026.574219 32265.000000
2027.851074 32107.000000
2029.126221 32589.000000
2030.401489 31881.000000
2031.675781 32340.000000
2032.949097 32418.000000
2034.221558 32457.000000
2035.493652 32342.000000
2036.764648 31493.000000
2038.035400 31815.000000
2039.304810 32292.000000
2040.573120 31277.000000
2041.841431 31399.000000
2043.108765 31782.000000
2044.375366 31531.000000
2045.640747 31781.000000
2046.905518 31450.000000
2048.170166 31854.000000
2049.433350 31332.000000
2050.696289 30893.000000
2051.957275 30950.000000
2053.218750 30848.000000
2054.479004 30991.000000
2055.738525 30467.000000
2056.997314 30582.000000
2058.255127 29900.000000
2059.512451 30540.000000
2060.769043 30407.000000
2062.024170 29883.000000
2063.279297 30636.000000
2064.533447 30581.000000
2065.786865 30520.000000
2067.039551 29442.000000
2068.291016 30022.000000
2069.542236 29793.000000
2070.792725 30350.000000
2072.042480 30457.000000
2073.290771 29456.000000
2074.539063 29268.000000
2075.786377 28374.000000
2077.032959 30003.000000
2078.278809 29458.000000
2079.523438 28436.000000
2080.767578 27729.000000
2082.011230 29543.000000
2083.253906 28874.000000
2084.495361 27991.000000
2085.736572 28848.000000
2086.977295 28433.000000
2088.217041 28005.000000
2089.455566 27556.000000
2090.693604 28209.000000
2091.930908 28360.000000
2093.167969 27625.000000
2094.403564 28129.000000
2095.638428 27955.000000
2096.873047 28035.000000
2098.106689 28439.000000
2099.339355 27863.000000
2100.571289 27214.000000
2101.802734 27461.000000
2103.033203 26806.000000
2104.262939 27474.000000
2105.492432 27329.000000
2106.719971 27108.000000
2107.947754 27127.000000
2109.174805 26715.000000
2110.400879 27472.000000
2111.625488 26766.000000
2112.850342 26428.000000
2114.073975 26350.000000
2115.297119 27169.000000
2116.519043 25832.000000
2117.740723 27251.000000
2118.961426 26400.000000
2120.181396 27204.000000
2121.400879 27078.000000
2122.618896 26720.000000
2123.836914 26319.000000
2125.053955 27319.000000
2126.270508 27161.000000
2127.485352 26544.000000
2128.700439 26724.000000
2129.914551 26014.000000
2131.127930 26930.000000
2132.340576 26381.000000
2133.551758 26820.000000
2134.763184 26368.000000
2135.973389 26056.000000
2137.183105 26560.000000
2138.391357 26321.000000
2139.599609 26631.000000
2140.807129 26536.000000
2142.013428 24851.000000
2143.218994 26151.000000
2144.424316 26178.000000
2145.628662 26454.000000
2146.832275 25815.000000
2148.035400 25993.000000
2149.237061 25554.000000
2150.438477 26389.000000
2151.639160 25747.000000
2152.839111 25758.000000
2154.037842 25934.000000
2155.236328 25072.000000
2156.434326 25457.000000
2157.631348 25018.000000
2158.827637 25144.000000
2160.022705 25099.000000
2161.217529 24740.000000
2162.411621 24685.000000
2163.604736 24611.000000
2164.796875 23984.000000
2165.988770 24345.000000
2167.179932 24059.000000
2168.370117 24003.000000
2169.559570 23846.000000
2170.748535 23247.000000
2171.936523 23314.000000
2173.124268 23253.000000
2174.310547 22989.000000
2175.496094 22760.000000
2176.681396 22794.000000
2177.866211 22940.000000
2179.049805 22882.000000
2180.232666 22539.000000
2181.414551 22711.000000
2182.596191 22808.000000
2183.777344 22605.000000
2184.957275 22823.000000
2186.136230 22757.000000
2187.314697 22391.000000
2188.492920 22499.000000
2189.669922 22346.000000
2190.845947 22351.000000
2192.021729 22602.000000
2193.197021 22693.000000
2194.370850 22365.000000
2195.544189 22611.000000
2196.717285 22678.000000
2197.889160 22692.000000
2199.060547 22457.000000
2200.231445 22765.000000
2201.400635 22582.000000
2202.569824 22252.000000
2203.738525 22596.000000
2204.906250 22654.000000
2206.072998 22810.000000
2207.239014 22328.000000
2208.404541 22460.000000
2209.569824 22381.000000
2210.733643 22079.000000
2211.896973 22440.000000
2213.059082 22172.000000
2214.221436 22156.000000
2215.382568 22101.000000
2216.542725 21951.000000
2217.702393 21887.000000
2218.861816 21851.000000
2220.020020 21816.000000
2221.177246 21669.000000
2222.334229 21614.000000
2223.490479 21573.000000
2224.645996 21446.000000
2225.800781 21572.000000
2226.954590 21179.000000
2228.107422 21307.000000
2229.260742 21137.000000
2230.412109 21189.000000
2231.563232 20967.000000
2232.713623 20881.000000
2233.863525 20541.000000
2235.012451 20929.000000
2236.160889 20945.000000
2237.307861 20485.000000
2238.455078 20582.000000
2239.601074 20366.000000
2240.746826 20241.000000
2241.890869 19926.000000
2243.035156 19938.000000
2244.178467 19912.000000
2245.321045 19695.000000
2246.462646 19609.000000
2247.604004 19607.000000
2248.744385 19627.000000
2249.884033 19296.000000
2251.023193 19301.000000
2252.161133 19146.000000
2253.299072 19018.000000
2254.436035 19101.000000
2255.572266 18981.000000
2256.707520 18993.000000
2257.842041 18856.000000
2258.976318 19136.000000
2260.110107 19706.000000
2261.242432 19569.000000
2262.374268 19145.000000
2263.505615 18695.000000
2264.635986 18424.000000
2265.766113 18220.000000
2266.895020 18347.000000
2268.023438 18230.000000
2269.151367 18181.000000
2270.278320 18091.000000
2271.404541 18100.000000
2272.529785 18073.000000
2273.655029 18280.000000
2274.779541 18413.000000
2275.902832 18342.000000
2277.025391 18135.000000
2278.147461 18217.000000
2279.269043 18079.000000
2280.389893 17877.000000
2281.509521 18223.000000
2282.628662 17982.000000
2283.747559 17686.000000
2284.865723 17402.000000
2285.982910 17462.000000
2287.099121 17546.000000
2288.215088 17548.000000
2289.330322 17759.000000
2290.444824 17789.000000
2291.558105 18019.000000
2292.671387 17727.000000
2293.783936 17897.000000
2294.895752 17878.000000
2296.006836 17853.000000
2297.116699 18062.000000
2298.226074 17995.000000
2299.335205 18013.000000
2300.443359 17993.000000
2301.550537 17879.000000
2302.657471 18000.000000
2303.763672 17931.000000
2304.869385 17746.000000
2305.973633 17649.000000
2307.077637 17606.000000
2308.181152 17625.000000
2309.284180 17474.000000
2310.385986 17468.000000
2311.487061 17281.000000
2312.587646 17288.000000
2313.687744 17226.000000
2314.787109 17145.000000
2315.885010 16932.000000
2316.983398 17007.000000
2318.080322 16848.000000
2319.177002 17003.000000
2320.273193 17066.000000
2321.367676 16689.000000
2322.462158 16407.000000
2323.555908 16693.000000
2324.649414 16577.000000
2325.741211 16292.000000
2326.833008 16450.000000
2327.924072 16554.000000
2329.014404 16451.000000
2330.103760 16442.000000
2331.193115 16331.000000
2332.281250 16211.000000
2333.368896 16365.000000
2334.456299 16227.000000
2335.541992 15976.000000
2336.627441 15879.000000
2337.712646 15905.000000
2338.796875 15635.000000
2339.880127 15787.000000
2340.963135 15677.000000
2342.045166 14918.000000
2343.126953 15503.000000
2344.208008 15462.000000
2345.287842 15298.000000
2346.367188 15178.000000
2347.446045 15100.000000
2348.524414 15159.000000
2349.601318 15139.000000
2350.677979 15043.000000
2351.754395 14956.000000
2352.829834 14887.000000
2353.904297 14967.000000
2354.978516 14810.000000
2356.052002 14638.000000
2357.125000 14703.000000
2358.196777 14617.000000
2359.268311 14591.000000
2360.338867 14364.000000
2361.409180 14420.000000
2362.478516 14393.000000
2363.546875 14377.000000
2364.614990 14267.000000
2365.682373 14244.000000
2366.749268 14132.000000
2367.815430 14078.000000
2368.880371 14062.000000
2369.945313 14009.000000
2371.009521 13860.000000
2372.072998 14012.000000
2373.135254 13977.000000
2374.197510 13944.000000
2375.258789 13917.000000
2376.319824 13708.000000
2377.379639 13877.000000
2378.438721 13835.000000
2379.497803 13749.000000
2380.555908 13862.000000
2381.613281 13713.000000
2382.669678 13649.000000
2383.725830 13637.000000
2384.781494 13462.000000
2385.836426 13572.000000
2386.889893 13495.000000
2387.943604 13378.000000
2388.996338 13523.000000
2390.048584 13556.000000
2391.100098 13529.000000
2392.150635 13593.000000
2393.200928 13672.000000
2394.250244 13583.000000
2395.299561 13601.000000
2396.347412 13333.000000
2397.394775 13351.000000
2398.441895 13311.000000
2399.488037 13362.000000
2400.533447 13249.000000
2401.578125 13342.000000
2402.622803 13190.000000
2403.666016 13174.000000
2404.709229 13093.000000
2405.750977 13167.000000
2406.792969 13044.000000
2407.834229 13224.000000
2408.874512 13268.000000
2409.914063 13275.000000
2410.952637 13154.000000
2411.991455 13104.000000
2413.029053 13028.000000
2414.066406 13048.000000
2415.102539 13075.000000
2416.138428 13216.000000
2417.173584 13171.000000
2418.208252 13004.000000
2419.241455 13080.000000
2420.274902 12994.000000
2421.307373 12939.000000
2422.339600 12843.000000
2423.370361 12751.000000
2424.401123 12820.000000
2425.431396 12627.000000
2426.460449 12610.000000
2427.489502 12578.000000
2428.516846 12501.000000
2429.544678 12564.000000
2430.571289 12323.000000
2431.597656 12448.000000
2432.622559 12228.000000
2433.647705 12115.000000
2434.671875 12032.000000
2435.695801 12095.000000
2436.718506 12051.000000
2437.740479 11884.000000
2438.762207 11815.000000
2439.783203 11889.000000
2440.803711 11827.000000
2441.822998 11609.000000
2442.842285 11464.000000
2443.860596 11549.000000
2444.878662 11571.000000
2445.895264 11406.000000
2446.911865 11542.000000
2447.927734 11352.000000
2448.943604 11381.000000
2449.958008 11442.000000
2450.971680 11367.000000
2451.984863 11175.000000
2452.997803 11204.000000
2454.010010 11142.000000
2455.021240 11289.000000
2456.032227 11119.000000
2457.042480 11102.000000
2458.052246 10993.000000
2459.061035 11004.000000
2460.069092 10870.000000
2461.077148 11046.000000
2462.083984 10783.000000
2463.090576 10690.000000
2464.095947 10581.000000
2465.101074 10536.000000
2466.105957 10735.000000
2467.109619 10530.000000
2468.113037 10668.000000
2469.115479 10654.000000
2470.117676 10835.000000
2471.119385 10858.000000
2472.120117 10616.000000
2473.119873 10555.000000
2474.119629 10499.000000
2475.118408 10514.000000
2476.116699 10444.000000
2477.114014 10320.000000
2478.111084 10474.000000
2479.108154 10498.000000
2480.103760 10537.000000
2481.099365 10341.000000
2482.093262 10372.000000
2483.087158 10496.000000
2484.080566 10405.000000
2485.073486 10346.000000
2486.065430 10382.000000
2487.056641 10312.000000
2488.047607 10420.000000
2489.038086 10399.000000
2490.027588 10524.000000
2491.016357 10469.000000
2492.005127 10391.000000
2492.992920 10272.000000
2493.979492 10347.000000
2494.966064 10216.000000
2495.952148 10338.000000
2496.937500 10235.000000
2497.921875 10247.000000
2498.906006 10361.000000
2499.890137 10217.000000
2500.872803 10251.000000
2501.854980 10061.000000
2502.836670 10207.000000
2503.817627 10077.000000
2504.798096 10006.000000
2505.778320 10118.000000
2506.757080 10075.000000
2507.735596 9958.000000
2508.713623 9943.000000
2509.691162 9817.000000
2510.667725 10144.000000
2511.644043 10045.000000
2512.619629 9727.000000
2513.594727 9857.000000
2514.569336 9681.000000
2515.542725 9584.000000
2516.515869 9690.000000
2517.488770 9629.000000
2518.460693 9665.000000
2519.431885 9462.000000
2520.402588 9391.000000
2521.373047 9496.000000
2522.342773 9361.000000
2523.311523 9294.000000
2524.279541 9383.000000
2525.247559 9238.000000
2526.214600 9351.000000
2527.181396 9302.000000
2528.146973 9175.000000
2529.112549 9251.000000
2530.077393 9156.000000
2531.041748 8942.000000
2532.004883 8983.000000
2532.968262 9085.000000
2533.930664 9033.000000
2534.892822 8957.000000
2535.853760 9104.000000
2536.813965 9058.000000
2537.774414 8918.000000
2538.733887 8981.000000
2539.692627 9102.000000
2540.650391 8916.000000
2541.608398 8776.000000
2542.565674 8689.000000
2543.521973 8730.000000
2544.478027 8511.000000
2545.432861 8543.000000
2546.387939 8577.000000
2547.342285 8433.000000
2548.295898 8384.000000
2549.248535 8343.000000
2550.200928 8406.000000
2551.152832 8262.000000
2552.104004 8470.000000
2553.054443 8381.000000
2554.004395 8238.000000
2554.954102 8332.000000
2555.903076 8304.000000
2556.851563 8291.000000
2557.798828 8229.000000
2558.746094 8295.000000
2559.692627 8363.000000
2560.638672 8071.000000
2561.583740 8063.000000
2562.528564 7970.000000
2563.472900 7899.000000
2564.416748 8045.000000
2565.360107 7942.000000
2566.302002 7882.000000
2567.244141 7893.000000
2568.185547 7893.000000
2569.126221 7821.000000
2570.066162 7896.000000
2571.006104 7976.000000
2571.945068 7889.000000
2572.883789 7771.000000
2573.821533 7838.000000
2574.759033 7877.000000
2575.695801 7887.000000
2576.631836 7931.000000
2577.567383 7883.000000
2578.502197 7907.000000
2579.437012 7857.000000
2580.370850 7918.000000
2581.304199 7682.000000
2582.236816 7762.000000
2583.169189 7799.000000
2584.100830 7793.000000
2585.031982 7549.000000
2585.962646 7621.000000
2586.892090 7620.000000
2587.821533 7670.000000
2588.750488 7691.000000
2589.679199 7766.000000
2590.606201 7597.000000
2591.533447 7736.000000
2592.460205 7585.000000
2593.386230 7617.000000
2594.312012 7628.000000
2595.236572 7554.000000
2596.160889 7532.000000
2597.084717 7614.000000
2598.008057 7541.000000
2598.930420 7633.000000
2599.852539 7583.000000
2600.774170 7404.000000
2601.695068 7400.000000
2602.615234 7542.000000
2603.535156 7386.000000
2604.454590 7438.000000
2605.373779 7420.000000
2606.291992 7457.000000
2607.208984 7353.000000
2608.126221 7365.000000
2609.043213 7204.000000
2609.959229 7103.000000
2610.874023 7261.000000
2611.789307 7223.000000
2612.703857 7091.000000
2613.617432 7096.000000
2614.531006 7117.000000
2615.443359 7130.000000
2616.355713 7101.000000
2617.267090 7015.000000
2618.178223 6968.000000
2619.088623 6983.000000
2619.998779 6983.000000
2620.908203 6915.000000
2621.817139 6870.000000
2622.725098 6812.000000
2623.633301 6849.000000
2624.540527 6838.000000
2625.447266 6666.000000
2626.353271 6843.000000
2627.259033 6716.000000
2628.164063 6694.000000
2629.068848 6700.000000
2629.972900 6625.000000
2630.875977 6651.000000
2631.779053 6632.000000
2632.681152 6584.000000
2633.583252 6528.000000
2634.485107 6537.000000
2635.385254 6561.000000
2636.285645 6504.000000
2637.185303 6476.000000
2638.084717 6299.000000
2638.982666 6511.000000
2639.881104 6447.000000
2640.779053 6457.000000
2641.676270 6392.000000
2642.572266 6326.000000
2643.468262 6182.000000
2644.364014 6206.000000
2645.259033 6318.000000
2646.153809 6103.000000
2647.047119 6108.000000
2647.940430 6180.000000
2648.833496 6200.000000
2649.726318 6116.000000
2650.617432 6062.000000
2651.508789 6196.000000
2652.399658 5947.000000
2653.289795 5983.000000
2654.179688 5976.000000
2655.068359 5985.000000
2655.957275 6021.000000
2656.845703 6053.000000
2657.733154 5966.000000
2658.619629 5951.000000
2659.506592 5861.000000
2660.392822 5827.000000
2661.278564 5794.000000
2662.163086 5908.000000
2663.047607 5994.000000
2663.931885 6034.000000
2664.815430 5986.000000
2665.698486 6112.000000
2666.580811 5896.000000
2667.462646 5908.000000
2668.343750 6015.000000
2669.225098 5968.000000
2670.104980 6028.000000
2670.985107 5863.000000
2671.864502 5872.000000
2672.743896 5902.000000
2673.622559 5773.000000
2674.499512 5961.000000
2675.377197 5871.000000
2676.254150 5777.000000
2677.130371 5748.000000
2678.006104 5810.000000
2678.881104 5822.000000
2679.756348 5626.000000
2680.630615 5637.000000
2681.504395 5745.000000
2682.377441 5707.000000
2683.250244 5573.000000
2684.122803 5775.000000
2684.994629 5673.000000
2685.865723 5617.000000
2686.736572 5577.000000
2687.606934 5605.000000
2688.477051 5571.000000
2689.345459 5495.000000
2690.214600 5510.000000
2691.083008 5491.000000
2691.951172 5463.000000
2692.818604 5341.000000
2693.684814 5345.000000
2694.551514 5271.000000
2695.417236 5418.000000
2696.282959 5430.000000
2697.147217 5298.000000
2698.012207 5289.000000
2698.875732 5258.000000
2699.739502 5240.000000
2700.601807 5185.000000
2701.464600 5156.000000
2702.326416 5191.000000
2703.187744 5276.000000
2704.049072 5335.000000
2704.909180 5210.000000
2705.769287 5075.000000
2706.628906 5130.000000
2707.488281 5111.000000
2708.345947 4974.000000
2709.203857 5159.000000
2710.062256 5134.000000
2710.919434 5005.000000
2711.775879 5033.000000
2712.631836 4979.000000
2713.487793 5018.000000
2714.343018 5064.000000
2715.197510 5062.000000
2716.051514 4965.000000
2716.905518 4966.000000
2717.758545 4880.000000
2718.611816 4993.000000
2719.463379 4833.000000
2720.315430 4766.000000
2721.167236 4787.000000
2722.017822 4868.000000
2722.868408 4782.000000
2723.718506 4730.000000
2724.567871 4740.000000
2725.417236 4717.000000
2726.265381 4728.000000
2727.113037 4767.000000
2727.961182 4695.000000
2728.808105 4705.000000
2729.655518 4697.000000
2730.501465 4764.000000
2731.346680 4617.000000
2732.192383 4642.000000
2733.037109 4573.000000
2733.881836 4618.000000
2734.725342 4576.000000
2735.569092 4565.000000
2736.412109 4688.000000
2737.254639 4567.000000
2738.096191 4645.000000
2738.938232 4520.000000
2739.779297 4618.000000
2740.620117 4476.000000
2741.460693 4610.000000
2742.300049 4525.000000
2743.139404 4572.000000
2743.978760 4552.000000
2744.816895 4577.000000
2745.654541 4544.000000
2746.492188 4639.000000
2747.329346 4503.000000
2748.166260 4511.000000
2749.002686 4610.000000
2749.837891 4592.000000
2750.673340 4538.000000
2751.508301 4486.000000
2752.342529 4511.000000
2753.176514 4504.000000
2754.010010 4577.000000
2754.843506 4485.000000
2755.676025 4384.000000
2756.508057 4458.000000
2757.339600 4473.000000
2758.171143 4519.000000
2759.001709 4313.000000
2759.832520 4255.000000
2760.662109 4385.000000
2761.491699 4421.000000
2762.321045 4087.000000
2763.149658 4342.000000
2763.977783 4197.000000
2764.805420 4249.000000
2765.633057 4269.000000
2766.460205 4253.000000
2767.286621 4288.000000
2768.112549 4238.000000
2768.937988 4138.000000
2769.763184 4146.000000
2770.588379 4130.000000
2771.412354 4104.000000
2772.236328 3932.000000
2773.060303 3879.000000
2773.883057 4000.000000
2774.706055 3971.000000
2775.527832 3908.000000
2776.349609 3904.000000
2777.171387 3887.000000
2777.992188 3979.000000
2778.812256 3945.000000
2779.632568 3920.000000
2780.452393 3796.000000
2781.272217 3970.000000
2782.090088 3795.000000
2782.909180 3819.000000
2783.727051 3832.000000
2784.544678 3860.000000
2785.361816 3952.000000
2786.178467 3865.000000
2786.994873 3747.000000
2787.810791 3772.000000
2788.626465 3739.000000
2789.441162 3753.000000
2790.256348 3746.000000
2791.070801 3779.000000
2791.884766 3653.000000
2792.698486 3754.000000
2793.510986 3682.000000
2794.323730 3743.000000
2795.135986 3715.000000
2795.947754 3698.000000
2796.758789 3717.000000
2797.570557 3740.000000
2798.381104 3641.000000
2799.191650 3578.000000
2800.000732 3608.000000
2800.810547 3673.000000
2801.619629 3648.000000
2802.428467 3661.000000
2803.236816 3600.000000
2804.044189 3596.000000
2804.852051 3475.000000
2805.659180 3540.000000
2806.466064 3445.000000
2807.271729 3600.000000
2808.077881 3420.000000
2808.883301 3534.000000
2809.688721 3509.000000
2810.493408 3502.000000
2811.297119 3433.000000
2812.101318 3468.000000
2812.905029 3564.000000
2813.708496 3525.000000
2814.510498 3491.000000
2815.313232 3361.000000
2816.115234 3451.000000
2816.916992 3484.000000
2817.718262 3433.000000
2818.519043 3506.000000
2819.319336 3410.000000
2820.119873 3539.000000
2820.919434 3387.000000
2821.718506 3374.000000
2822.517578 3404.000000
2823.316406 3329.000000
2824.114746 3414.000000
2824.912109 3413.000000
2825.709717 3469.000000
2826.506592 3391.000000
2827.303711 3353.000000
2828.100098 3321.000000
2828.895752 3317.000000
2829.691406 3326.000000
2830.486816 3251.000000
2831.281738 3158.000000
2832.075928 3378.000000
2832.870117 3161.000000
2833.664063 3365.000000
2834.457520 3231.000000
2835.250244 3256.000000
2836.042725 3240.000000
2836.835205 3377.000000
2837.627441 3257.000000
2838.419189 3218.000000
2839.209961 3191.000000
2840.000732 3208.000000
2840.791748 3223.000000
2841.581787 3129.000000
2842.371338 3180.000000
2843.161133 3142.000000
2843.949951 3119.000000
2844.738770 3173.000000
2845.527588 3187.000000
2846.315430 3104.000000
2847.102783 3008.000000
2847.890381 2994.000000
2848.677490 3077.000000
2849.463867 2962.000000
2850.250244 2997.000000
2851.036377 3113.000000
2851.822021 3000.000000
2852.606689 3038.000000
2853.391846 3080.000000
2854.176758 3115.000000
2854.960938 3034.000000
2855.745117 3136.000000
2856.528076 3000.000000
2857.311279 2957.000000
2858.094238 2890.000000
2858.876709 2981.000000
2859.658936 3031.000000
2860.440674 3061.000000
2861.222168 2946.000000
2862.003906 2963.000000
2862.784912 2967.000000
2863.565186 2963.000000
2864.345215 3006.000000
2865.125244 3056.000000
2865.905029 3079.000000
2866.683838 2994.000000
2867.462891 2958.000000
2868.241455 2984.000000
2869.019775 3032.000000
2869.797607 3047.000000
2870.575195 3043.000000
2871.352539 3132.000000
2872.129639 3031.000000
2872.906250 3123.000000
2873.682373 3097.000000
2874.458496 3127.000000
2875.234131 3045.000000
2876.009521 3055.000000
2876.784424 3214.000000
2877.559082 3059.000000
2878.333740 3142.000000
2879.108154 3029.000000
2879.881836 3158.000000
2880.654785 3036.000000
2881.428467 3110.000000
2882.201172 3053.000000
2882.973877 3093.000000
2883.745850 2984.000000
2884.517578 2965.000000
2885.289795 3012.000000
2886.060791 3002.000000
2886.831299 3035.000000
2887.602295 3004.000000
2888.373291 2954.000000
2889.143555 2972.000000
2889.912842 2947.000000
2890.682373 2990.000000
2891.451904 2883.000000
2892.220947 3004.000000
2892.989502 2939.000000
2893.758057 2942.000000
2894.525635 2909.000000
2895.293701 2974.000000
2896.061279 2940.000000
2896.828857 3006.000000
2897.595215 2840.000000
2898.362549 2895.000000
2899.128662 2840.000000
2899.895020 2680.000000
2900.659912 2777.000000
2901.425293 2665.000000
2902.191162 2833.000000
2902.955566 2797.000000
2903.719971 2868.000000
2904.484619 2739.000000
2905.248291 2767.000000
2906.012695 2751.000000
2906.776367 2683.000000
2907.539307 2699.000000
2908.302002 2659.000000
2909.065186 2610.000000
2909.827881 2593.000000
2910.589355 2654.000000
2911.351318 2654.000000
spectrumdark 2048
-96.879478 6174.000000
-94.252609 6174.000000
-91.627617 6046.000000
-89.004517 6441.000000
-86.383286 5795.000000
-83.763954 6206.000000
-81.146484 6044.000000
-78.530891 6428.000000
-75.917175 6138.000000
-73.305336 5822.000000
-70.695358 6040.000000
-68.087265 5984.000000
-65.481018 5905.000000
-62.876648 5933.000000
-60.274139 6057.000000
-57.673485 5609.000000
-55.074692 6205.000000
-52.477757 6863.000000
-49.882675 6442.000000
-47.289448 6426.000000
-44.698071 6242.000000
-42.108540 6722.000000
-39.520851 5930.000000
-36.935013 6021.000000
-34.351017 6464.000000
-31.768860 5632.000000
-29.188547 6348.000000
-26.610062 5677.000000
-24.033419 6142.000000
-21.458601 6228.000000
-18.885624 6476.000000
-16.314466 6513.000000
-13.745143 6727.000000
-11.177645 7741.000000
-8.611965 6236.000000
-6.048111 6488.000000
-3.486071 5954.000000
-0.925855 5766.000000
1.632553 6102.000000
4.189140 6952.000000
6.743922 6632.000000
9.296887 5956.000000
11.848052 6688.000000
14.397404 6433.000000
16.944960 6665.000000
19.490704 6073.000000
22.034655 5720.000000
24.576801 6604.000000
27.117151 6759.000000
29.655716 6935.000000
32.192486 6203.000000
34.727451 5764.000000
37.260639 7245.000000
39.792046 6322.000000
42.321659 7135.000000
44.849476 6442.000000
47.375534 7796.000000
49.899803 5651.000000
52.422302 6192.000000
54.943005 6703.000000
57.461952 6284.000000
59.979126 6369.000000
62.494522 6610.000000
65.008141 5573.000000
67.520004 5754.000000
70.030121 6549.000000
72.538445 6570.000000
75.045013 5937.000000
77.549835 6295.000000
80.052902 6380.000000
82.554192 6251.000000
85.053741 6112.000000
87.551537 6347.000000
90.047600 5715.000000
92.541885 7264.000000
95.034431 5771.000000
97.525261 6920.000000
100.014320 7202.000000
102.501633 6414.000000
104.987221 6152.000000
107.471069 6351.000000
109.953171 5685.000000
112.433548 6536.000000
114.912201 6128.000000
117.389130 6449.000000
119.864304 7139.000000
122.337769 6818.000000
124.809502 5828.000000
127.279526 6757.000000
129.747787 6171.000000
132.214386 6226.000000
134.679230 5680.000000
137.142380 6233.000000
139.603790 7222.000000
142.063507 6791.000000
144.521500 6377.000000
146.977798 5913.000000
149.432388 5779.000000
151.885254 6833.000000
154.336441 6318.000000
156.785934 6547.000000
159.233704 6058.000000
161.679764 6511.000000
164.124146 8706.000000
166.566849 6445.000000
169.007858 6767.000000
171.447159 6204.000000
173.884750 7166.000000
176.320709 6584.000000
178.754929 6898.000000
181.187469 7202.000000
183.618362 6645.000000
186.047531 6781.000000
188.475052 6672.000000
190.900894 6345.000000
193.325058 6660.000000
195.747559 7099.000000
198.168365 7415.000000
200.587509 6453.000000
203.004990 5991.000000
205.420776 7549.000000
207.834915 6975.000000
210.247421 6311.000000
212.658249 6107.000000
215.067398 6202.000000
217.474915 7355.000000
219.880722 6186.000000
222.284943 6478.000000
224.687454 6734.000000
227.088348 6944.000000
229.487595 6554.000000
231.885178 6813.000000
234.281097 7301.000000
236.675400 6509.000000
239.068039 5824.000000
241.459061 6816.000000
243.848419 6559.000000
246.236160 6242.000000
248.622253 6947.000000
251.006714 6109.000000
253.389526 7909.000000
255.770767 6619.000000
258.150299 6645.000000
260.528259 6467.000000
262.904541 7455.000000
265.279266 7495.000000
267.652344 7819.000000
270.023773 6171.000000
272.393555 6395.000000
274.761780 5862.000000
277.128357 6279.000000
279.493347 6742.000000
281.856720 6011.000000
284.218445 6222.000000
286.578583 7137.000000
288.937103 5918.000000
291.294037 6492.000000
293.649353 6331.000000
296.003082 5944.000000
298.355164 5931.000000
300.705688 6276.000000
303.054626 6336.000000
305.401917 6790.000000
307.747681 6396.000000
310.091766 6466.000000
312.434326 7336.000000
314.775269 7616.000000
317.114594 7116.000000
319.452362 6964.000000
321.788574 8080.000000
324.123138 6276.000000
326.456146 6448.000000
328.787598 5944.000000
331.117462 6680.000000
333.445740 6329.000000
335.772400 7244.000000
338.097565 6345.000000
340.421112 6173.000000
342.743103 5949.000000
345.063538 7535.000000
347.382355 7724.000000
349.699615 5934.000000
352.015350 5807.000000
354.329498 6971.000000
356.642059 6242.000000
358.953064 6408.000000
361.262543 7080.000000
363.570496 6355.000000
365.876831 5631.000000
368.181580 6381.000000
370.484863 6416.000000
372.786530 6252.000000
375.086700 6362.000000
377.385315 6279.000000
379.682373 5743.000000
381.977875 6053.000000
384.271851 5860.000000
386.564240 5204.000000
388.855133 5562.000000
391.144501 6214.000000
393.432281 6263.000000
395.718536 6512.000000
398.003296 6996.000000
400.286438 6013.000000
402.568146 6388.000000
404.848328 6151.000000
407.126923 7228.000000
409.403992 6416.000000
411.679535 6611.000000
413.953552 6429.000000
416.226135 6323.000000
418.497101 6224.000000
420.766571 6385.000000
423.034546 7075.000000
425.300964 7218.000000
427.565887 6286.000000
429.829346 6208.000000
432.091217 6463.000000
434.351624 5966.000000
436.610474 6648.000000
438.867859 6121.000000
441.123749 5649.000000
443.378143 5747.000000
445.631012 5420.000000
447.882324 6912.000000
450.132233 6051.000000
452.380554 6219.000000
454.627441 5615.000000
456.872864 6425.000000
459.116730 6384.000000
461.359100 6787.000000
463.599976 5650.000000
465.839447 6675.000000
468.077332 5463.000000
470.313782 5844.000000
472.548706 6059.000000
474.782166 7336.000000
477.014191 6714.000000
479.244690 5595.000000
481.473694 6497.000000
483.701233 6311.000000
485.927277 5944.000000
488.151886 6537.000000
490.375031 5846.000000
492.596710 6443.000000
494.816833 6659.000000
497.035553 5660.000000
499.252777 6291.000000
501.468628 5504.000000
503.682861 6131.000000
505.895782 6403.000000
508.107117 6432.000000
510.317017 6811.000000
512.525513 6449.000000
514.732605 6539.000000
516.938110 6399.000000
519.142212 6604.000000
521.344788 6159.000000
523.545959 6483.000000
525.745789 6599.000000
527.944092 6939.000000
530.140869 5332.000000
532.336304 5822.000000
534.530212 5491.000000
536.722778 7546.000000
538.913818 6666.000000
541.103455 6024.000000
543.291687 6884.000000
545.478394 7115.000000
547.663635 6784.000000
549.847595 6188.000000
552.029968 6352.000000
554.210999 6264.000000
556.390503 6075.000000
558.568726 5920.000000
560.745422 6004.000000
562.920715 6360.000000
565.094604 6388.000000
567.267029 5822.000000
569.438049 5968.000000
571.607605 6280.000000
573.775879 5253.000000
575.942627 6388.000000
578.107910 6324.000000
580.271790 6137.000000
582.434387 5736.000000
584.595459 6047.000000
586.755127 5604.000000
588.913452 5748.000000
591.070251 6102.000000
593.225708 6613.000000
595.379761 5731.000000
597.532471 6129.000000
599.683655 7229.000000
601.833496 6740.000000
603.981995 6622.000000
606.128906 5970.000000
608.274597 6487.000000
610.418884 6462.000000
612.561707 6637.000000
614.703064 6188.000000
616.843201 6425.000000
618.981812 7630.000000
621.119141 5701.000000
623.255005 6538.000000
625.389465 6893.000000
627.522461 7187.000000
629.654297 6577.000000
631.784668 6578.000000
633.913635 6773.000000
636.041138 6438.000000
638.167358 6170.000000
640.292053 7282.000000
642.415527 6337.000000
644.537659 6783.000000
646.658325 6820.000000
648.777649 6525.000000
650.895569 5665.000000
653.012146 5642.000000
655.127319 6438.000000
657.241150 6456.000000
659.353516 5943.000000
661.464661 6158.000000
663.574402 5337.000000
665.682678 6045.000000
667.789795 6257.000000
669.895447 6895.000000
671.999634 5876.000000
674.102600 5739.000000
676.204163 6986.000000
678.304382 5342.000000
680.403198 6707.000000
682.500671 6212.000000
684.596863 6923.000000
686.691589 6237.000000
688.785095 6957.000000
690.877258 6634.000000
692.967896 7900.000000
695.057312 6639.000000
697.145447 6454.000000
699.232117 6015.000000
701.317566 6669.000000
703.401489 5104.000000
705.484192 5818.000000
707.565613 5912.000000
709.645569 7555.000000
711.724304 6262.000000
713.801575 5501.000000
715.877563 6569.000000
717.952271 6080.000000
720.025696 7007.000000
722.097595 6257.000000
724.168335 7391.000000
726.237732 5803.000000
728.305725 6508.000000
730.372375 6330.000000
732.437805 7067.000000
734.501892 5687.000000
736.564636 6154.000000
738.626038 6305.000000
740.686157 6593.000000
742.744873 5987.000000
744.802368 6602.000000
746.858582 6453.000000
748.913391 6646.000000
750.966919 6382.000000
753.019043 7451.000000
755.069946 5769.000000
757.119629 6699.000000
759.167847 6296.000000
761.214844 6173.000000
763.260559 6962.000000
765.304871 5302.000000
767.347900 5755.000000
769.389709 14925.000000
771.430176 6926.000000
773.469238 6381.000000
775.507141 6073.000000
777.543701 5946.000000
779.579041 5306.000000
781.613037 5760.000000
783.645630 6842.000000
785.677063 5518.000000
787.707092 12117.000000
789.735840 6056.000000
791.763428 6352.000000
793.789673 6337.000000
795.814514 5845.000000
797.838257 5522.000000
799.860596 6352.000000
801.881714 5864.000000
803.901489 6578.000000
805.919983 4934.000000
807.937256 6604.000000
809.953125 6745.000000
811.967834 5696.000000
813.981201 6373.000000
815.993347 6252.000000
818.004272 6100.000000
820.013855 6527.000000
822.022217 5297.000000
824.029175 5650.000000
826.034912 6029.000000
828.039429 5744.000000
830.042664 5607.000000
832.044617 6570.000000
834.045288 6061.000000
836.044739 5854.000000
838.042847 6356.000000
840.039856 6974.000000
842.035461 6309.000000
844.029907 5926.000000
846.023010 6200.000000
848.014893 6780.000000
850.005432 5597.000000
851.994690 6779.000000
853.982910 6005.000000
855.969727 5740.000000
857.955322 6380.000000
859.939636 7283.000000
861.922852 6263.000000
863.904663 6390.000000
865.885254 5844.000000
867.864563 7704.000000
869.842712 7042.000000
871.819519 6230.000000
873.795044 5857.000000
875.769531 6236.000000
877.742554 6037.000000
879.714539 5417.000000
881.685181 6361.000000
883.654663 6079.000000
885.622803 5572.000000
887.589783 5182.000000
889.555420 6154.000000
891.519897 5794.000000
893.483154 5943.000000
895.445190 6441.000000
897.405945 5829.000000
899.365479 6349.000000
901.323730 6601.000000
903.280884 6331.000000
905.236877 5998.000000
907.191467 6882.000000
909.144836 6483.000000
911.097046 6410.000000
913.048035 6415.000000
914.997742 7168.000000
916.946289 6289.000000
918.893616 6142.000000
920.839661 6065.000000
922.784424 6059.000000
924.728149 6261.000000
926.670715 5931.000000
928.612000 5497.000000
930.551941 6531.000000
932.490784 5731.000000
934.428345 5486.000000
936.364685 5886.000000
938.299866 5842.000000
940.233765 6075.000000
942.166565 5858.000000
944.098145 6776.000000
946.028564 5161.000000
947.957764 6332.000000
949.885620 7010.000000
951.812439 6609.000000
953.737976 5917.000000
955.662231 5311.000000
957.585388 5965.000000
959.507385 6728.000000
961.428101 7223.000000
963.347656 6450.000000
965.266052 5286.000000
967.183411 6390.000000
969.099304 6376.000000
971.014099 6094.000000
972.927673 5864.000000
974.840088 6412.000000
976.751282 6424.000000
978.661316 5416.000000
980.570068 6172.000000
982.477783 6097.000000
984.384277 6357.000000
986.289551 5661.000000
988.193726 6693.000000
990.096680 6188.000000
991.998413 6782.000000
993.898987 6295.000000
995.798401 6627.000000
997.696594 5263.000000
999.593628 6541.000000
1001.489441 6505.000000
1003.384094 7627.000000
1005.277649 5599.000000
1007.169922 7150.000000
1009.061279 6071.000000
1010.951294 5278.000000
1012.840088 6591.000000
1014.727722 6286.000000
1016.614197 6905.000000
1018.499512 6706.000000
1020.383667 5961.000000
1022.266602 5862.000000
1024.148438 6245.000000
1026.029053 5190.000000
1027.908569 5829.000000
1029.787109 6067.000000
1031.664307 5424.000000
1033.540161 6203.000000
1035.415039 5837.000000
1037.288940 6575.000000
1039.161377 6970.000000
1041.032837 6665.000000
1042.902954 5467.000000
1044.772095 5518.000000
1046.640015 5639.000000
1048.506836 7141.000000
1050.372559 6674.000000
1052.237061 6379.000000
1054.100464 6484.000000
1055.962524 6490.000000
1057.823608 5894.000000
1059.683594 6516.000000
1061.542236 6595.000000
1063.399780 5768.000000
1065.256226 6745.000000
1067.111572 5901.000000
1068.965698 5813.000000
1070.818970 6223.000000
1072.670776 6292.000000
1074.521606 6167.000000
1076.371216 6207.000000
1078.219604 5727.000000
1080.067139 7927.000000
1081.913330 5581.000000
1083.758301 6183.000000
1085.602417 5414.000000
1087.445190 5499.000000
1089.286743 6559.000000
1091.127563 5447.000000
1092.966797 5771.000000
1094.805298 6069.000000
1096.642456 6002.000000
1098.478394 6771.000000
1100.313354 6554.000000
1102.147095 5375.000000
1103.979858 5642.000000
1105.811279 6229.000000
1107.641846 7203.000000
1109.471069 6449.000000
1111.299316 6343.000000
1113.126343 7053.000000
1114.952393 5383.000000
1116.777222 6255.000000
1118.600952 7118.000000
1120.423462 6007.000000
1122.244873 5855.000000
1124.065430 5878.000000
1125.884521 6547.000000
1127.702759 7105.000000
1129.519653 6786.000000
1131.335693 6686.000000
1133.150513 6449.000000
1134.964233 5594.000000
1136.776855 5766.000000
1138.588257 5625.000000
1140.398682 6068.000000
1142.208008 6723.000000
1144.015991 6945.000000
1145.823242 5869.000000
1147.629028 5943.000000
1149.433960 5380.000000
1151.237793 5395.000000
1153.040405 6055.000000
1154.842163 6026.000000
1156.642456 6047.000000
1158.441772 6077.000000
1160.240112 5822.000000
1162.037109 5451.000000
1163.833374 5856.000000
1165.628296 6082.000000
1167.422119 6383.000000
1169.215088 7669.000000
1171.006714 5694.000000
1172.797363 6489.000000
1174.587036 5968.000000
1176.375244 5839.000000
1178.162598 7451.000000
1179.948853 6873.000000
1181.734009 5698.000000
1183.518066 5957.000000
1185.301025 7702.000000
1187.083008 5794.000000
1188.863770 5843.000000
1190.643555 6324.000000
1192.422241 6938.000000
1194.199951 6708.000000
1195.976440 7132.000000
1197.751831 6538.000000
1199.526123 6545.000000
1201.299316 6704.000000
1203.071655 6488.000000
1204.842651 6680.000000
1206.612793 5668.000000
1208.381714 6103.000000
1210.149536 6321.000000
1211.916504 5696.000000
1213.682129 5893.000000
1215.446777 6916.000000
1217.210327 6502.000000
1218.972778 5910.000000
1220.734375 6684.000000
1222.494751 5886.000000
1224.254028 6216.000000
1226.012451 5997.000000
1227.769653 7016.000000
1229.525757 6437.000000
1231.280762 5452.000000
1233.034912 5988.000000
1234.787720 5794.000000
1236.539551 6065.000000
1238.290527 5951.000000
1240.040161 4913.000000
1241.788940 6976.000000
1243.536377 6433.000000
1245.283081 6658.000000
1247.028564 6503.000000
1248.773193 6386.000000
1250.516479 6733.000000
1252.258789 6623.000000
1254.000000 5296.000000
1255.740356 4986.000000
1257.479614 5761.000000
1259.217651 6599.000000
1260.954834 7095.000000
1262.690796 6108.000000
1264.425781 6380.000000
1266.159790 7210.000000
1267.892822 5927.000000
1269.624634 6198.000000
1271.355469 6425.000000
1273.085083 7241.000000
1274.813843 5909.000000
1276.541504 5686.000000
1278.268066 5564.000000
1279.993774 5575.000000
1281.718140 6410.000000
1283.441650 5154.000000
1285.164185 6896.000000
1286.885742 6592.000000
1288.606079 6111.000000
1290.325439 6612.000000
1292.043701 7229.000000
1293.760986 6349.000000
1295.477295 5720.000000
1297.192383 6266.000000
1298.906494 6116.000000
1300.619629 5774.000000
1302.331909 6430.000000
1304.042969 8312.000000
1305.753052 5297.000000
1307.462036 6289.000000
1309.169800 6621.000000
1310.876953 7045.000000
1312.582642 5752.000000
1314.287598 6887.000000
1315.991577 6099.000000
1317.694336 5914.000000
1319.396118 6554.000000
1321.097046 6024.000000
1322.796631 9650.000000
1324.495361 7591.500000
1326.193359 5533.000000
1327.890015 6481.000000
1329.585571 7124.000000
1331.280273 6853.000000
1332.973755 5722.000000
1334.666382 5382.000000
1336.358154 7283.000000
1338.048584 6253.000000
1339.738281 6571.000000
1341.426880 6080.000000
1343.114380 7544.000000
1344.800903 5606.000000
1346.486328 6715.000000
1348.170776 5922.000000
1349.854370 7276.000000
1351.536743 6417.000000
1353.218140 5956.000000
1354.898682 6507.000000
1356.578003 6697.000000
1358.256714 5888.000000
1359.934082 6614.000000
1361.610352 5696.000000
1363.285645 5551.000000
1364.960205 6559.000000
1366.633545 6440.000000
1368.305908 6693.000000
1369.977295 5141.000000
1371.647705 6723.000000
1373.317017 6079.000000
1374.985352 5680.000000
1376.652832 5966.000000
1378.319214 6439.000000
1379.984619 6186.000000
1381.649048 5806.000000
1383.312256 5940.000000
1384.974854 5649.000000
1386.636108 6383.000000
1388.296509 6472.000000
1389.955811 6340.000000
1391.614136 6468.000000
1393.271729 6750.000000
1394.928101 6439.000000
1396.583618 6960.000000
1398.237915 6272.000000
1399.891357 5852.000000
1401.543701 6161.000000
1403.195313 6431.000000
1404.845703 7176.000000
1406.494995 6237.000000
1408.143555 7392.000000
1409.791016 7866.000000
1411.437500 6131.000000
1413.083130 6216.000000
1414.727783 5970.000000
1416.371216 7004.000000
1418.013794 7153.000000
1419.655273 6810.000000
1421.295898 6477.000000
1422.935547 6444.000000
1424.574097 6025.000000
1426.211792 6575.000000
1427.848389 6324.000000
1429.484009 5958.000000
1431.118896 6396.000000
1432.752686 5863.000000
1434.385376 6135.000000
1436.017090 5684.000000
1437.647949 6064.000000
1439.277710 5976.000000
1440.906372 8059.000000
1442.534424 5998.000000
1444.161377 6224.000000
1445.787109 6196.000000
1447.412231 6128.000000
1449.036255 6515.000000
1450.659302 5997.000000
1452.281372 5988.000000
1453.902344 7520.000000
1455.522339 6292.000000
1457.141602 6819.000000
1458.759521 5602.000000
1460.376831 5525.500000
1461.993164 5449.000000
1463.608276 7257.000000
1465.222534 6215.000000
1466.835938 5197.000000
1468.448242 5522.000000
1470.059692 6150.000000
1471.670288 6318.000000
1473.279663 6054.000000
1474.888062 5918.000000
1476.495605 6209.000000
1478.102173 6621.000000
1479.708008 5237.000000
1481.312622 6245.000000
1482.916382 5472.000000
1484.518921 6754.000000
1486.120850 5570.000000
1487.721558 5467.000000
1489.321533 5554.000000
1490.920410 6196.000000
1492.518433 6476.000000
1494.115356 6649.000000
1495.711426 6299.000000
1497.306519 5968.000000
1498.900635 5420.000000
1500.494019 6533.000000
1502.086304 5542.000000
1503.677368 6178.000000
1505.267944 6721.000000
1506.857178 6492.000000
1508.445801 6091.000000
1510.033325 6488.000000
1511.619751 6785.000000
1513.205444 6122.000000
1514.790039 6613.000000
1516.373779 6251.000000
1517.956421 6216.000000
1519.538330 6647.000000
1521.119141 6569.000000
1522.699219 5999.000000
1524.278076 6154.000000
1525.856079 6304.000000
1527.433350 6275.000000
1529.009399 5643.000000
1530.584717 5879.000000
1532.158936 6240.000000
1533.732422 5497.000000
1535.304688 5879.000000
1536.876221 6371.000000
1538.446777 6346.000000
1540.016479 6305.000000
1541.584961 5458.000000
1543.152710 6535.000000
1544.719604 5567.000000
1546.285278 6793.000000
1547.850220 5927.000000
1549.414063 5080.000000
1550.977295 7415.000000
1552.539185 6282.000000
1554.100464 5898.000000
1555.660645 5703.000000
1557.220093 5753.000000
1558.778442 5998.000000
1560.336060 6197.000000
1561.892578 7009.000000
1563.447876 5851.000000
1565.002563 6278.000000
1566.556519 5621.000000
1568.109497 6359.000000
1569.661133 5646.000000
1571.212036 5918.000000
1572.762207 6205.000000
1574.311401 6386.000000
1575.859253 5770.000000
1577.406616 5528.000000
1578.953003 5720.000000
1580.498535 5027.000000
1582.043091 6636.000000
1583.586426 6412.000000
1585.129150 6581.000000
1586.671021 6468.000000
1588.211792 6691.000000
1589.751587 5813.000000
1591.290649 6633.000000
1592.828613 5878.000000
1594.366089 6117.000000
1595.902222 5895.000000
1597.437256 6639.000000
1598.971802 6203.000000
1600.505371 5981.000000
1602.038086 5991.000000
1603.569214 6298.000000
1605.100098 6299.000000
1606.630127 5747.000000
1608.158936 6075.000000
1609.686646 6158.000000
1611.213745 6017.000000
1612.740112 5762.000000
1614.265503 6279.000000
1615.790039 5778.000000
1617.313232 5809.000000
1618.835693 5611.000000
1620.357422 6605.000000
1621.878296 6922.000000
1623.397705 6528.000000
1624.916626 6134.000000
1626.434814 6038.000000
1627.952148 5891.000000
1629.468384 6452.000000
1630.983276 6995.000000
1632.497681 6745.000000
1634.011353 5800.000000
1635.523926 6791.000000
1637.035278 5845.000000
1638.546265 6506.000000
1640.056152 6255.000000
1641.565186 6164.000000
1643.072876 5614.000000
1644.580200 6051.000000
1646.086670 7144.000000
1647.592163 6171.000000
1649.096802 6797.000000
1650.599976 6129.000000
1652.102539 6599.000000
1653.604736 6280.000000
1655.105591 6631.000000
1656.605347 7523.000000
1658.104248 5950.000000
1659.602783 6482.000000
1661.100098 6165.000000
1662.596680 5907.000000
1664.091675 6463.000000
1665.586426 6293.000000
1667.080322 5212.000000
1668.573242 5583.000000
1670.064819 6035.000000
1671.555908 6487.000000
1673.046387 6047.000000
1674.535767 6001.000000
1676.023682 6930.000000
1677.511353 6815.000000
1678.998047 5978.000000
1680.483887 5243.000000
1681.968872 6119.000000
1683.452393 6093.000000
1684.935669 6151.000000
1686.418091 5785.000000
1687.899414 6207.000000
1689.379272 6183.000000
1690.858887 5506.000000
1692.337769 6527.000000
1693.815674 5619.000000
1695.292603 6203.000000
1696.768311 5734.000000
1698.243652 5953.000000
1699.717773 6279.000000
1701.191284 5450.000000
1702.663330 5551.000000
1704.135132 6832.000000
1705.605957 6390.000000
1707.075928 7071.000000
1708.544556 5140.000000
1710.012695 5798.000000
1711.480103 6341.000000
1712.946411 5389.000000
1714.412109 5770.000000
1715.876099 6128.000000
1717.339966 5977.000000
1718.802979 6950.000000
1720.265015 6362.000000
1721.725830 6633.000000
1723.186035 5420.000000
1724.645508 5654.000000
1726.104126 6089.000000
1727.561768 5945.000000
1729.018066 6254.000000
1730.474121 6021.000000
1731.929199 6409.000000
1733.383301 5943.000000
1734.836182 6835.000000
1736.288818 5901.000000
1737.740356 6846.000000
1739.191162 5931.000000
1740.640991 6554.000000
1742.089478 5907.000000
1743.537598 7327.000000
1744.984863 6489.000000
1746.431396 6634.000000
1747.876343 6737.000000
1749.321045 6079.000000
1750.764893 5803.000000
1752.207886 5438.000000
1753.649414 6569.000000
1755.090698 6286.000000
1756.531128 6270.500000
1757.970581 6255.000000
1759.409058 5353.000000
1760.846558 6014.000000
1762.283569 7549.000000
1763.719604 5811.000000
1765.154785 7211.000000
1766.588501 6167.000000
1768.022095 6401.000000
1769.454712 6619.000000
1770.886475 5827.000000
1772.317383 5703.000000
1773.747070 6338.000000
1775.176025 6099.000000
1776.604492 6266.000000
1778.031982 6666.000000
1779.458130 6183.000000
1780.884033 5584.000000
1782.308838 6851.000000
1783.733032 5569.000000
1785.155762 6592.000000
1786.578003 6479.000000
1787.999512 6876.000000
1789.420288 5890.000000
1790.840088 6142.000000
1792.258545 6152.000000
1793.676514 6794.000000
1795.093872 5508.000000
1796.510376 6037.000000
1797.925415 6540.000000
1799.340088 5828.000000
1800.754150 6529.000000
1802.166992 5916.000000
1803.579224 6926.000000
1804.990112 7121.000000
1806.400513 7780.000000
1807.810181 6502.000000
1809.218872 5892.000000
1810.626465 5364.000000
1812.033569 6411.000000
1813.439819 6381.000000
1814.845093 6636.000000
1816.249268 5968.000000
1817.653076 5997.000000
1819.055908 6198.000000
1820.457886 6015.000000
1821.859253 5805.000000
1823.259155 6357.000000
1824.658447 6478.000000
1826.057251 6552.000000
1827.455200 7406.000000
1828.851807 5715.000000
1830.247803 6767.000000
1831.643066 5868.000000
1833.037720 8100.000000
1834.431396 5988.000000
1835.823730 6822.000000
1837.215576 6379.000000
1838.606812 5845.000000
1839.997070 7008.000000
1841.386108 5960.000000
1842.774780 6040.000000
1844.162476 5943.000000
1845.549438 5811.000000
1846.935059 6888.000000
1848.320435 5749.000000
1849.704956 6348.000000
1851.088745 6307.000000
1852.471436 6335.000000
1853.852905 5369.000000
1855.233887 6567.000000
1856.614380 6221.000000
1857.993896 5687.000000
1859.371948 5910.000000
1860.749878 6230.000000
1862.126831 7834.000000
1863.503052 6110.000000
1864.878418 6074.000000
1866.252319 5637.000000
1867.626099 5665.000000
1868.999023 6217.000000
1870.370850 6008.000000
1871.741699 6929.000000
1873.112183 5367.000000
1874.481567 5995.000000
1875.850464 6102.000000
1877.217773 7172.000000
1878.584961 6063.000000
1879.951172 6046.000000
1881.316650 6779.000000
1882.681396 7501.000000
1884.044556 6753.000000
1885.407593 6887.000000
1886.769775 6341.000000
1888.131104 6455.000000
1889.491089 5627.000000
1890.850708 5763.000000
1892.209717 6083.000000
1893.567749 6662.000000
1894.924927 7254.000000
1896.280884 5946.000000
1897.636597 7575.000000
1898.991333 5811.000000
1900.345215 5556.000000
1901.697998 5913.000000
1903.050293 5929.000000
1904.401855 5911.000000
1905.752563 6811.000000
1907.102051 6501.000000
1908.451050 6643.000000
1909.799194 5766.000000
1911.146729 6158.000000
1912.493530 6279.000000
1913.838745 6715.000000
1915.183716 6018.000000
1916.527954 5437.000000
1917.871338 6489.000000
1919.213379 5970.000000
1920.555176 6779.000000
1921.896118 7013.000000
1923.236328 6082.000000
1924.575562 6211.000000
1925.913818 6301.000000
1927.251465 6411.000000
1928.588379 7018.000000
1929.924438 6728.000000
1931.259277 5547.000000
1932.593750 6670.000000
1933.927490 7267.000000
1935.260376 6257.000000
1936.591797 5716.000000
1937.923340 6383.000000
1939.253540 6613.000000
1940.583252 5746.000000
1941.912109 6011.000000
1943.239746 5868.000000
1944.566895 5003.000000
1945.893311 5843.000000
1947.218994 6428.000000
1948.543335 5790.000000
1949.867432 6657.000000
1951.190674 6302.000000
1952.513184 6395.000000
1953.834595 5753.000000
1955.155029 7444.000000
1956.474854 5974.000000
1957.794312 5513.000000
1959.112793 6870.000000
1960.429932 5906.000000
1961.746704 5836.000000
1963.062744 6585.000000
1964.378052 6530.000000
1965.691895 6289.000000
1967.005493 5701.000000
1968.318359 6192.000000
1969.630371 6006.000000
1970.941772 6013.000000
1972.251831 6290.000000
1973.561401 5755.000000
1974.870239 6157.000000
1976.178467 6621.000000
1977.485352 6071.000000
1978.791626 7213.000000
1980.097534 5522.000000
1981.402222 6366.000000
1982.706421 5895.000000
1984.009399 5679.000000
1985.312012 7530.000000
1986.613647 6117.000000
1987.914673 6660.000000
1989.214111 6087.000000
1990.513672 6631.000000
1991.812134 5177.000000
1993.110107 6050.000000
1994.406494 6080.000000
1995.702881 5755.000000
1996.998291 5567.000000
1998.292969 6522.000000
1999.586792 5725.000000
2000.879395 6540.000000
2002.171509 5739.000000
2003.463135 7107.000000
2004.754028 6457.000000
2006.043335 6315.000000
2007.332397 6797.000000
2008.620728 5971.000000
2009.908325 5971.000000
2011.195068 6635.000000
2012.480713 5602.000000
2013.765991 6286.000000
2015.050293 5963.000000
2016.333984 5574.000000
2017.616333 6007.000000
2018.898315 6413.000000
2020.179810 6797.000000
2021.460327 5835.000000
2022.740112 6089.000000
2024.018799 6731.000000
2025.296753 5814.000000
2026.574219 5866.000000
2027.851074 6183.000000
2029.126221 5758.000000
2030.401489 6591.000000
2031.675781 6049.000000
2032.949097 5953.000000
2034.221558 5939.000000
2035.493652 6133.000000
2036.764648 7015.000000
2038.035400 6559.000000
2039.304810 5979.000000
2040.573120 6931.000000
2041.841431 6627.000000
2043.108765 5915.000000
2044.375366 6030.000000
2045.640747 5658.000000
2046.905518 5867.000000
2048.170166 5387.000000
2049.433350 5870.000000
2050.696289 6337.000000
2051.957275 6129.000000
2053.218750 6078.000000
2054.479004 5859.000000
2055.738525 6393.000000
2056.997314 6263.000000
2058.255127 6926.000000
2059.512451 6097.000000
2060.769043 6034.000000
2062.024170 6482.000000
2063.279297 5627.000000
2064.533447 5608.000000
2065.786865 5670.000000
2067.039551 6841.000000
2068.291016 6212.000000
2069.542236 6246.000000
2070.792725 5605.000000
2072.042480 5432.000000
2073.290771 6466.000000
2074.539063 6593.000000
2075.786377 7417.000000
2077.032959 5519.000000
2078.278809 5957.000000
2079.523438 6997.000000
2080.767578 7638.000000
2082.011230 5491.000000
2083.253906 6003.000000
2084.495361 6935.000000
2085.736572 5975.000000
2086.977295 6309.000000
2088.217041 6735.000000
2089.455566 7070.000000
2090.693604 6191.000000
2091.930908 5814.000000
2093.167969 6555.000000
2094.403564 6027.000000
2095.638428 6121.000000
2096.873047 6018.000000
2098.106689 5565.000000
2099.339355 6082.000000
2100.571289 6727.000000
2101.802734 6359.000000
2103.033203 6825.000000
2104.262939 5934.000000
2105.492432 5897.000000
2106.719971 6007.000000
2107.947754 5934.000000
2109.174805 6271.000000
2110.400879 5445.000000
2111.625488 6415.000000
2112.850342 6939.000000
2114.073975 7045.000000
2115.297119 6159.000000
2116.519043 7531.000000
2117.740723 6003.000000
2118.961426 6835.000000
2120.181396 5978.000000
2121.400879 6111.000000
2122.618896 6614.000000
2123.836914 6990.000000
2125.053955 5687.000000
2126.270508 5772.000000
2127.485352 6531.000000
2128.700439 6333.000000
2129.914551 6949.000000
2131.127930 5563.000000
2132.340576 6073.000000
2133.551758 5811.000000
2134.763184 6490.000000
2135.973389 6703.000000
2137.183105 5875.000000
2138.391357 6095.000000
2139.599609 5667.000000
2140.807129 5813.000000
2142.013428 7663.000000
2143.218994 5859.000000
2144.424316 5611.000000
2145.628662 5391.000000
2146.832275 6363.000000
2148.035400 6175.000000
2149.237061 6527.000000
2150.438477 5338.000000
2151.639160 6231.000000
2152.839111 6058.000000
2154.037842 5899.000000
2155.236328 6955.000000
2156.434326 6161.000000
2157.631348 6003.000000
2158.827637 5145.000000
2160.022705 5271.000000
2161.217529 6075.000000
2162.411621 5579.000000
2163.604736 6019.000000
2164.796875 6866.000000
2165.988770 5891.000000
2167.179932 6283.000000
2168.370117 6214.000000
2169.559570 6467.000000
2170.748535 6829.000000
2171.936523 5986.000000
2173.124268 5735.000000
2174.310547 5921.000000
2175.496094 6562.000000
2176.681396 5979.000000
2177.866211 5821.000000
2179.049805 6334.000000
2180.232666 7474.000000
2181.414551 6285.000000
2182.596191 5947.000000
2183.777344 6562.000000
2184.957275 5697.000000
2186.136230 5585.000000
2187.314697 6378.000000
2188.492920 6823.000000
2189.669922 7213.000000
2190.845947 6738.000000
2192.021729 6011.000000
2193.197021 5581.000000
2194.370850 6651.000000
2195.544189 6139.000000
2196.717285 6161.000000
2197.889160 6386.000000
2199.060547 7051.000000
2200.231445 6295.000000
2201.400635 6939.000000
2202.569824 7519.000000
2203.738525 6261.000000
2204.906250 5874.000000
2206.072998 5623.000000
2207.239014 7147.000000
2208.404541 6587.000000
2209.569824 5930.000000
2210.733643 6705.000000
2211.896973 5359.000000
2213.059082 6167.000000
2214.221436 6255.000000
2215.382568 6629.000000
2216.542725 6690.000000
2217.702393 6307.000000
2218.861816 6547.000000
2220.020020 6291.000000
2221.177246 6295.000000
2222.334229 6729.000000
2223.490479 6603.000000
2224.645996 6707.000000
2225.800781 6211.000000
2226.954590 6418.000000
2228.107422 6067.000000
2229.260742 6855.000000
2230.412109 6210.000000
2231.563232 6215.000000
2232.713623 6493.000000
2233.863525 7643.000000
2235.012451 6243.000000
2236.160889 5149.000000
2237.307861 6747.000000
2238.455078 6998.000000
2239.601074 6075.000000
2240.746826 7251.000000
2241.890869 7294.000000
2243.035156 6655.000000
2244.178467 6197.000000
2245.321045 5915.000000
2246.462646 5699.000000
2247.604004 5781.000000
2248.744385 6375.000000
2249.884033 6423.000000
2251.023193 5763.000000
2252.161133 5851.000000
2253.299072 6167.000000
2254.436035 5287.000000
2255.572266 6342.000000
2256.707520 6131.000000
2257.842041 7279.000000
2258.976318 6351.000000
2260.110107 5315.000000
2261.242432 6181.000000
2262.374268 6779.000000
2263.505615 6259.000000
2264.635986 6459.000000
2265.766113 8063.000000
2266.895020 6706.000000
2268.023438 6011.000000
2269.151367 5515.000000
2270.278320 6127.000000
2271.404541 5967.000000
2272.529785 6705.000000
2273.655029 6515.000000
2274.779541 6411.000000
2275.902832 5871.000000
2277.025391 6347.000000
2278.147461 5911.000000
2279.269043 7399.000000
2280.389893 6411.000000
2281.509521 6359.000000
2282.628662 7127.000000
2283.747559 7666.000000
2284.865723 7207.000000
2285.982910 5891.000000
2287.099121 6446.000000
2288.215088 7051.000000
2289.330322 6869.000000
2290.444824 7362.000000
2291.558105 5747.000000
2292.671387 6313.000000
2293.783936 5950.000000
2294.895752 5330.000000
2296.006836 6709.000000
2297.116699 6378.000000
2298.226074 6114.000000
2299.335205 6653.000000
2300.443359 6324.000000
2301.550537 6750.000000
2302.657471 5853.000000
2303.763672 6180.000000
2304.869385 6602.000000
2305.973633 6497.000000
2307.077637 5448.000000
2308.181152 5690.000000
2309.284180 6485.000000
2310.385986 7336.000000
2311.487061 7303.000000
2312.587646 6513.000000
2313.687744 5480.000000
2314.787109 6270.000000
2315.885010 6585.000000
2316.983398 6922.000000
2318.080322 8167.000000
2319.177002 6865.000000
2320.273193 5716.000000
2321.367676 6858.000000
2322.462158 7480.000000
2323.555908 5734.000000
2324.649414 6023.000000
2325.741211 6473.000000
2326.833008 6932.000000
2327.924072 6052.000000
2329.014404 6248.000000
2330.103760 6818.000000
2331.193115 6039.000000
2332.281250 6333.000000
2333.368896 6792.000000
2334.456299 6488.000000
2335.541992 6644.000000
2336.627441 7690.000000
2337.712646 6339.000000
2338.796875 6716.000000
2339.880127 5852.000000
2340.963135 6376.000000
2342.045166 7609.000000
2343.126953 6010.000000
2344.208008 7401.000000
2345.287842 6645.000000
2346.367188 5716.000000
2347.446045 6750.000000
2348.524414 6548.000000
2349.601318 6307.000000
2350.677979 6931.000000
2351.754395 6032.000000
2352.829834 6385.000000
2353.904297 5844.000000
2354.978516 6271.000000
2356.052002 6750.000000
2357.125000 6237.000000
2358.196777 6951.000000
2359.268311 6256.000000
2360.338867 6798.000000
2361.409180 7440.000000
2362.478516 7451.000000
2363.546875 6731.000000
2364.614990 6744.000000
2365.682373 7028.000000
2366.749268 7168.000000
2367.815430 6071.000000
2368.880371 6842.000000
2369.945313 7009.000000
2371.009521 6341.000000
2372.072998 6836.000000
2373.135254 5678.000000
2374.197510 6264.000000
2375.258789 6351.000000
2376.319824 5934.000000
2377.379639 6264.000000
2378.438721 7832.000000
2379.497803 6464.000000
2380.555908 7587.000000
2381.613281 6912.000000
2382.669678 7965.000000
2383.725830 7821.000000
2384.781494 6220.000000
2385.836426 7042.000000
2386.889893 6704.000000
2387.943604 6503.000000
2388.996338 6262.000000
2390.048584 6680.000000
2391.100098 6160.000000
2392.150635 6593.000000
2393.200928 6475.000000
2394.250244 6152.000000
2395.299561 6192.000000
2396.347412 6929.000000
2397.394775 7002.000000
2398.441895 6351.000000
2399.488037 6656.000000
2400.533447 6153.000000
2401.578125 6667.000000
2402.622803 7685.000000
2403.666016 7502.000000
2404.709229 6624.000000
2405.750977 5718.000000
2406.792969 6710.000000
2407.834229 7031.000000
2408.874512 6124.000000
2409.914063 6320.000000
2410.952637 6316.000000
2411.991455 5917.000000
2413.029053 6563.000000
2414.066406 6904.000000
2415.102539 7336.000000
2416.138428 6124.000000
2417.173584 6211.000000
2418.208252 6862.000000
2419.241455 7184.000000
2420.274902 6436.000000
2421.307373 6641.000000
2422.339600 6838.000000
2423.370361 7053.000000
2424.401123 6341.000000
2425.431396 6869.000000
2426.460449 6835.000000
2427.489502 6625.000000
2428.516846 7351.000000
2429.544678 6666.000000
2430.571289 7270.000000
2431.597656 6890.000000
2432.622559 7731.000000
2433.647705 6566.000000
2434.671875 7133.000000
2435.695801 6668.000000
2436.718506 5837.000000
2437.740479 6315.000000
2438.762207 6628.000000
2439.783203 6674.000000
2440.803711 5988.000000
2441.822998 6523.000000
2442.842285 6598.000000
2443.860596 8385.000000
2444.878662 6200.000000
2445.895264 6493.000000
2446.911865 6551.000000
2447.927734 5981.000000
2448.943604 6963.000000
2449.958008 6785.000000
2450.971680 5571.000000
2451.984863 7227.000000
2452.997803 5971.000000
2454.010010 7135.000000
2455.021240 6622.000000
2456.032227 7666.000000
2457.042480 6382.000000
2458.052246 7586.000000
2459.061035 5859.000000
2460.069092 5936.000000
2461.077148 6233.000000
2462.083984 7357.000000
2463.090576 5400.000000
2464.095947 7434.000000
2465.101074 6916.000000
2466.105957 5759.000000
2467.109619 6550.000000
2468.113037 6341.000000
2469.115479 7593.000000
2470.117676 7293.000000
2471.119385 6767.000000
2472.120117 6521.000000
2473.119873 6847.000000
2474.119629 6747.000000
2475.118408 5607.000000
2476.116699 6587.000000
2477.114014 7083.000000
2478.111084 6107.000000
2479.108154 6967.000000
2480.103760 5786.000000
2481.099365 7146.000000
2482.093262 6702.000000
2483.087158 7991.000000
2484.080566 6854.000000
2485.073486 6741.000000
2486.065430 7401.000000
2487.056641 7228.000000
2488.047607 6694.000000
2489.038086 5800.000000
2490.027588 6551.000000
2491.016357 6478.000000
2492.005127 5673.000000
2492.992920 6813.000000
2493.979492 6492.000000
2494.966064 8083.000000
2495.952148 6693.000000
2496.937500 7042.000000
2497.921875 8379.000000
2498.906006 6001.000000
2499.890137 6810.000000
2500.872803 5727.000000
2501.854980 7001.000000
2502.836670 6778.000000
2503.817627 7171.000000
2504.798096 6516.000000
2505.778320 5739.000000
2506.757080 6306.000000
2507.735596 7592.000000
2508.713623 6722.000000
2509.691162 7036.000000
2510.667725 6058.000000
2511.644043 5869.000000
2512.619629 6477.000000
2513.594727 6225.000000
2514.569336 6453.000000
2515.542725 7508.000000
2516.515869 6771.000000
2517.488770 6855.000000
2518.460693 6051.000000
2519.431885 6843.000000
2520.402588 6965.000000
2521.373047 7818.000000
2522.342773 8067.000000
2523.311523 6019.000000
2524.279541 6123.000000
2525.247559 7783.000000
2526.214600 6221.000000
2527.181396 5510.000000
2528.146973 7235.000000
2529.112549 6914.000000
2530.077393 7730.000000
2531.041748 6314.000000
2532.004883 6269.000000
2532.968262 5875.000000
2533.930664 5961.000000
2534.892822 6692.000000
2535.853760 6393.000000
2536.813965 6075.000000
2537.774414 6174.000000
2538.733887 6783.000000
2539.692627 6756.000000
2540.650391 6658.000000
2541.608398 6207.000000
2542.565674 6712.000000
2543.521973 6082.000000
2544.478027 7089.000000
2545.432861 6225.000000
2546.387939 7674.000000
2547.342285 7053.000000
2548.295898 6485.000000
2549.248535 7230.000000
2550.200928 6659.000000
2551.152832 6952.000000
2552.104004 6374.000000
2553.054443 7738.000000
2554.004395 7265.000000
2554.954102 7319.000000
2555.903076 6600.000000
2556.851563 6181.000000
2557.798828 7053.000000
2558.746094 6227.000000
2559.692627 6463.000000
2560.638672 6745.000000
2561.583740 7590.000000
2562.528564 6735.000000
2563.472900 7178.000000
2564.416748 6863.000000
2565.360107 6571.000000
2566.302002 6613.000000
2567.244141 6530.000000
2568.185547 6177.000000
2569.126221 7147.000000
2570.066162 7231.000000
2571.006104 5639.000000
2571.945068 6129.000000
2572.883789 7502.000000
2573.821533 7135.000000
2574.759033 5390.000000
2575.695801 6923.000000
2576.631836 6790.000000
2577.567383 7420.000000
2578.502197 6347.000000
2579.437012 5921.000000
2580.370850 7022.000000
2581.304199 7165.000000
2582.236816 5861.000000
2583.169189 6958.000000
2584.100830 5419.000000
2585.031982 7052.000000
2585.962646 7002.000000
2586.892090 6958.000000
2587.821533 7236.000000
2588.750488 6478.000000
2589.679199 7464.000000
2590.606201 7337.000000
2591.533447 5828.000000
2592.460205 6788.000000
2593.386230 6229.000000
2594.312012 5564.000000
2595.236572 7610.000000
2596.160889 7616.000000
2597.084717 5296.000000
2598.008057 7211.000000
2598.930420 6236.000000
2599.852539 6853.000000
2600.774170 8332.000000
2601.695068 6396.000000
2602.615234 5735.000000
2603.535156 6397.000000
2604.454590 6362.000000
2605.373779 6385.000000
2606.291992 5764.000000
2607.208984 5946.000000
2608.126221 7254.000000
2609.043213 5837.000000
2609.959229 7583.000000
2610.874023 6509.000000
2611.789307 6600.000000
2612.703857 6520.000000
2613.617432 6523.000000
2614.531006 6047.000000
2615.443359 7591.000000
2616.355713 7025.000000
2617.267090 6740.000000
2618.178223 5742.000000
2619.088623 7138.000000
2619.998779 6643.000000
2620.908203 6178.000000
2621.817139 6581.000000
2622.725098 6221.000000
2623.633301 6837.000000
2624.540527 6578.000000
2625.447266 7069.000000
2626.353271 6043.000000
2627.259033 6571.000000
2628.164063 6491.000000
2629.068848 7776.000000
2629.972900 6406.000000
2630.875977 6422.000000
2631.779053 6378.000000
2632.681152 5566.000000
2633.583252 6784.000000
2634.485107 6957.000000
2635.385254 6705.000000
2636.285645 6376.000000
2637.185303 6369.000000
2638.084717 6017.000000
2638.982666 6822.000000
2639.881104 6718.000000
2640.779053 6336.000000
2641.676270 6079.000000
2642.572266 6126.000000
2643.468262 6857.000000
2644.364014 6057.000000
2645.259033 6424.000000
2646.153809 6603.000000
2647.047119 7112.000000
2647.940430 6222.000000
2648.833496 6667.000000
2649.726318 6428.000000
2650.617432 7402.000000
2651.508789 6364.000000
2652.399658 7561.000000
2653.289795 7271.000000
2654.179688 6501.000000
2655.068359 7252.000000
2655.957275 6612.000000
2656.845703 6551.000000
2657.733154 7298.000000
2658.619629 6447.000000
2659.506592 7129.000000
2660.392822 6860.000000
2661.278564 6822.000000
2662.163086 6524.000000
2663.047607 6375.000000
2663.931885 6130.000000
2664.815430 7005.000000
2665.698486 7677.000000
2666.580811 7300.000000
2667.462646 6178.000000
2668.343750 6569.000000
2669.225098 6079.000000
2670.104980 6523.000000
2670.985107 7317.000000
2671.864502 7204.000000
2672.743896 6162.000000
2673.622559 6138.000000
2674.499512 6394.000000
2675.377197 6706.000000
2676.254150 6344.000000
2677.130371 8097.000000
2678.006104 7113.000000
2678.881104 6196.000000
2679.756348 7760.000000
2680.630615 6957.000000
2681.504395 7246.000000
2682.377441 6987.000000
2683.250244 6180.000000
2684.122803 6005.000000
2684.994629 6875.000000
2685.865723 6521.000000
2686.736572 6763.000000
2687.606934 7069.000000
2688.477051 6622.000000
2689.345459 6242.000000
2690.214600 7367.000000
2691.083008 7054.000000
2691.951172 6682.000000
2692.818604 6909.000000
2693.684814 5849.000000
2694.551514 7115.000000
2695.417236 7368.000000
2696.282959 7068.000000
2697.147217 7886.000000
2698.012207 6559.000000
2698.875732 7246.000000
2699.739502 5816.000000
2700.601807 7432.000000
2701.464600 6773.000000
2702.326416 5870.000000
2703.187744 6837.000000
2704.049072 6633.000000
2704.909180 7433.000000
2705.769287 7347.000000
2706.628906 6541.000000
2707.488281 6863.000000
2708.345947 7175.000000
2709.203857 6807.000000
2710.062256 7226.000000
2710.919434 6730.000000
2711.775879 5967.000000
2712.631836 6883.000000
2713.487793 6047.000000
2714.343018 6825.000000
2715.197510 6093.000000
2716.051514 6743.000000
2716.905518 7210.000000
2717.758545 6214.000000
2718.611816 6426.000000
2719.463379 7698.000000
2720.315430 6763.000000
2721.167236 6257.000000
2722.017822 6425.000000
2722.868408 6693.000000
2723.718506 7088.000000
2724.567871 6975.000000
2725.417236 6967.000000
2726.265381 6622.000000
2727.113037 6539.000000
2727.961182 6969.000000
2728.808105 6830.000000
2729.655518 5535.000000
2730.501465 7457.000000
2731.346680 6999.000000
2732.192383 6370.000000
2733.037109 6953.000000
2733.881836 7343.000000
2734.725342 6886.000000
2735.569092 7739.000000
2736.412109 7093.000000
2737.254639 6006.000000
2738.096191 6246.000000
2738.938232 6828.000000
2739.779297 6887.000000
2740.620117 5835.000000
2741.460693 5880.000000
2742.300049 7805.000000
2743.139404 6837.000000
2743.978760 6906.000000
2744.816895 6794.000000
2745.654541 7873.000000
2746.492188 6278.000000
2747.329346 7099.000000
2748.166260 6221.000000
2749.002686 5964.000000
2749.837891 6606.000000
2750.673340 6293.000000
2751.508301 6310.000000
2752.342529 6210.000000
2753.176514 6920.000000
2754.010010 6716.000000
2754.843506 7938.000000
2755.676025 6789.000000
2756.508057 7252.000000
2757.339600 6780.000000
2758.171143 7032.000000
2759.001709 7217.000000
2759.832520 7227.000000
2760.662109 7264.000000
2761.491699 6605.000000
2762.321045 7320.000000
2763.149658 6762.000000
2763.977783 6735.000000
2764.805420 6845.000000
2765.633057 6659.000000
2766.460205 7945.000000
2767.286621 5724.000000
2768.112549 7455.000000
2768.937988 6895.000000
2769.763184 7763.000000
2770.588379 7078.000000
2771.412354 6745.000000
2772.236328 6594.000000
2773.060303 7691.000000
2773.883057 6610.000000
2774.706055 6953.000000
2775.527832 6886.000000
2776.349609 6944.000000
2777.171387 6474.000000
2777.992188 7933.000000
2778.812256 6527.000000
2779.632568 6968.000000
2780.452393 7285.000000
2781.272217 6364.000000
2782.090088 5982.000000
2782.909180 8010.000000
2783.727051 6545.000000
2784.544678 6818.000000
2785.361816 7128.000000
2786.178467 7229.000000
2786.994873 7212.000000
2787.810791 6263.000000
2788.626465 5921.000000
2789.441162 6360.000000
2790.256348 6983.000000
2791.070801 7124.000000
2791.884766 6582.000000
2792.698486 7378.000000
2793.510986 8712.000000
2794.323730 6951.000000
2795.135986 7412.000000
2795.947754 7137.000000
2796.758789 7320.000000
2797.570557 6489.000000
2798.381104 7187.000000
2799.191650 7044.000000
2800.000732 7370.000000
2800.810547 8113.000000
2801.619629 7775.000000
2802.428467 6619.000000
2803.236816 7144.000000
2804.044189 6141.000000
2804.852051 6530.000000
2805.659180 6911.000000
2806.466064 6979.000000
2807.271729 7049.000000
2808.077881 6763.000000
2808.883301 6505.000000
2809.688721 7326.000000
2810.493408 6199.000000
2811.297119 7602.000000
2812.101318 7459.000000
2812.905029 6298.000000
2813.708496 6101.000000
2814.510498 6563.000000
2815.313232 7373.000000
2816.115234 7815.000000
2816.916992 6084.000000
2817.718262 6531.000000
2818.519043 7251.000000
2819.319336 6519.000000
2820.119873 6550.000000
2820.919434 7965.000000
2821.718506 7135.000000
2822.517578 6426.000000
2823.316406 6926.000000
2824.114746 6325.000000
2824.912109 7019.000000
2825.709717 7306.000000
2826.506592 6693.000000
2827.303711 7329.000000
2828.100098 8030.000000
2828.895752 6995.000000
2829.691406 7316.000000
2830.486816 7562.000000
2831.281738 7446.000000
2832.075928 6600.000000
2832.870117 6883.000000
2833.664063 5624.000000
2834.457520 6896.000000
2835.250244 7141.000000
2836.042725 8144.000000
2836.835205 7591.000000
2837.627441 7513.000000
2838.419189 6452.000000
2839.209961 6795.000000
2840.000732 8852.000000
2840.791748 7454.000000
2841.581787 6267.000000
2842.371338 7641.000000
2843.161133 7131.000000
2843.949951 7329.000000
2844.738770 7769.000000
2845.527588 7674.000000
2846.315430 7511.000000
2847.102783 7239.000000
2847.890381 7531.000000
2848.677490 7299.000000
2849.463867 6712.000000
2850.250244 7438.000000
2851.036377 7182.000000
2851.822021 7531.000000
2852.606689 7094.000000
2853.391846 6897.000000
2854.176758 7388.000000
2854.960938 7152.000000
2855.745117 6874.000000
2856.528076 8212.000000
2857.311279 6874.000000
2858.094238 6741.000000
2858.876709 7764.000000
2859.658936 6217.000000
2860.440674 6608.000000
2861.222168 7568.000000
2862.003906 7507.000000
2862.784912 7632.000000
2863.565186 6578.000000
2864.345215 6709.000000
2865.125244 8153.000000
2865.905029 7430.000000
2866.683838 8081.000000
2867.462891 7669.000000
2868.241455 6794.000000
2869.019775 6970.000000
2869.797607 7208.000000
2870.575195 6927.000000
2871.352539 7442.000000
2872.129639 6973.000000
2872.906250 6409.000000
2873.682373 7501.000000
2874.458496 7142.000000
2875.234131 8280.000000
2876.009521 7302.000000
2876.784424 6611.000000
2877.559082 8066.000000
2878.333740 6661.000000
2879.108154 7845.000000
2879.881836 6761.000000
2880.654785 7186.000000
2881.428467 6773.000000
2882.201172 7610.000000
2882.973877 7799.000000
2883.745850 8275.000000
2884.517578 6248.000000
2885.289795 6778.000000
2886.060791 6857.000000
2886.831299 6170.000000
2887.602295 8267.000000
2888.373291 7360.000000
2889.143555 7969.000000
2889.912842 7651.000000
2890.682373 6961.000000
2891.451904 7231.000000
2892.220947 7305.000000
2892.989502 7891.000000
2893.758057 7666.000000
2894.525635 6986.000000
2895.293701 6550.000000
2896.061279 7402.000000
2896.828857 8283.000000
2897.595215 7308.000000
2898.362549 6464.000000
2899.128662 7197.000000
2899.895020 7013.000000
2900.659912 8266.000000
2901.425293 6976.000000
2902.191162 6421.000000
2902.955566 7734.000000
2903.719971 7659.000000
2904.484619 8396.000000
2905.248291 6600.000000
2906.012695 8414.000000
2906.776367 6716.000000
2907.539307 8363.000000
2908.302002 6504.000000
2909.065186 8984.000000
2909.827881 6937.000000
2910.589355 6772.000000
2911.351318 6772.000000
