scanname Analyse073
timestamp 2017-02-10 21:41:03
ccdbias 891.342773
ccdgain 3.473401
sigmaread 8.960639
laserwavenum -0.788915
wavenumcorrection -0.265951
scancount 1
totalexposurems 10000
singleexposurems 10000
measurementstate Unknown
scanmode Manual
snr 317.391266 10.482244 8.924995
replacelist 4
672 53585.000000 30917.000000
754 53484.000000 19160.000000
889 52783.000000 21018.000000
948 52124.000000 19487.000000
peaks 78
278.784454 0.724668 0.000000 1.311083 0.000174
285.195374 0.724911 0.000000 0.818887 0.000062
293.703888 0.726817 0.000000 0.640761 0.000029
330.023712 0.745030 0.000000 0.876890 0.000146
350.116150 0.750767 0.000000 0.560336 0.000022
360.971527 0.755236 0.000000 0.789168 0.000066
386.374817 0.754701 0.000000 1.301674 0.000292
460.735138 0.770396 0.000000 0.229138 0.000040
487.257141 0.782941 0.000000 0.560447 0.000060
535.189575 0.787064 0.000000 0.685638 0.000152
559.844788 0.827431 0.000000 1.329197 0.000233
572.089111 0.835182 0.000000 0.589246 0.000152
661.598877 0.863077 0.000000 1.130508 0.000235
673.696594 0.857945 0.000000 1.365417 0.000267
680.470093 0.856689 0.000000 0.498318 0.000051
716.004456 0.879151 0.000000 5.616315 0.001183
725.439087 0.861532 0.000000 1.253921 0.000053
739.500122 0.884320 0.000000 1.203812 0.000179
757.375183 0.910986 0.000000 6.043995 0.000695
779.396606 0.913086 0.000000 8.532715 0.001336
826.101807 0.919706 0.000000 1.077162 0.000054
833.929871 0.914153 0.000000 0.283983 0.000146
853.407471 0.944024 0.000000 1.110335 0.000288
868.700439 0.940213 0.000000 0.715316 0.000151
938.024292 1.017595 0.000000 0.676289 0.000398
954.496887 0.995624 0.000000 3.581194 0.001091
1005.344543 1.036712 0.000000 1.015321 0.000113
1013.834839 1.041025 0.000000 2.031154 0.000785
1020.333313 1.042984 0.000000 1.026496 0.000157
1026.760986 1.054384 0.000000 0.746938 0.000285
1044.482300 1.050323 0.000000 4.369400 0.001424
1104.618896 1.073127 0.000000 2.338149 0.000645
1117.766968 1.114312 0.000000 2.463964 0.000700
1134.748535 1.091451 0.000000 1.991068 0.000881
1150.572266 1.073974 0.000000 2.390748 0.000984
1174.757446 1.107619 0.000000 1.460096 0.000497
1187.280396 1.112656 0.000000 0.879547 0.000073
1211.207397 1.188870 0.000000 0.942136 0.000278
1222.750732 1.200351 0.000000 1.542614 0.000579
1232.748779 1.182670 0.000000 1.226908 0.000337
1260.297974 1.221945 0.000000 2.980736 0.001411
1312.850708 1.229818 0.000000 1.812468 0.000710
1330.967651 1.294159 0.000000 2.618373 0.001437
1348.098145 1.300867 0.000000 0.662211 0.000686
1390.101074 1.285525 0.000000 0.654805 0.000278
1415.557739 1.360961 0.000000 1.879629 0.000867
1434.450195 1.425615 0.000000 1.700067 0.000852
1447.187378 1.417882 0.000000 1.548497 0.000558
1460.385010 1.413806 0.000000 1.996989 0.001436
1490.104370 1.492651 0.000000 4.376420 0.002711
1518.518799 1.434634 0.000000 0.145956 0.000135
1533.370117 1.522201 0.000000 0.650945 0.000900
1558.383301 1.571239 0.000000 1.428180 0.000917
1578.391724 1.564263 0.000000 1.676208 0.001551
1598.552490 1.553236 0.000000 0.298320 0.000281
1617.505127 1.606107 0.000000 13.160915 0.008596
1635.631592 1.617158 0.000000 5.338642 0.001469
1651.563232 1.620695 0.000000 0.215135 0.000132
1670.142334 1.731005 0.000000 1.592204 0.001792
1689.903320 1.753848 0.000000 0.719193 0.000353
1700.649292 1.762966 0.000000 1.021722 0.001478
1710.914795 1.740452 0.000000 0.909857 0.000590
1761.925293 1.785331 0.000000 0.840078 0.000609
1779.048340 1.896655 0.000000 5.277087 0.005260
1796.269165 1.895059 0.000000 0.771887 0.000636
1809.955200 1.898657 0.000000 1.592229 0.001514
1856.053223 1.881554 0.000000 2.214205 0.002028
1871.350342 1.897444 0.000000 1.074432 0.000865
1889.723999 1.894352 0.000000 1.430549 0.001603
1902.287231 1.888988 0.000000 1.780549 0.001890
1912.085449 1.855722 0.000000 0.603193 0.000654
1943.189575 1.810043 0.000000 0.377358 0.000543
1975.884766 1.788939 0.000000 0.747520 0.000564
1995.573486 1.770306 0.000000 0.883450 0.000472
2014.095093 1.743745 0.000000 0.181535 0.000333
2026.141235 1.744586 0.000000 0.696513 0.001258
2065.374512 1.677993 0.000000 0.411221 0.001776
2108.458252 1.612666 0.000000 0.262523 0.000625
finalresult GLS_NoMatch 0
spectrum 2048
-96.812538 47607.000000
-94.185669 47607.000000
-91.560677 47707.000000
-88.937576 47290.000000
-86.316345 47908.000000
-83.697014 47501.000000
-81.079544 47654.000000
-78.463951 47229.000000
-75.850235 47545.000000
-73.238396 47828.000000
-70.628418 47570.000000
-68.020325 47788.000000
-65.414078 47774.000000
-62.809711 47790.000000
-60.207203 47579.000000
-57.606548 48115.000000
-55.007755 47465.000000
-52.410820 46823.000000
-49.815739 47279.000000
-47.222511 47147.000000
-44.631134 47442.000000
-42.041603 46891.000000
-39.453915 47850.000000
-36.868076 47661.000000
-34.284081 47279.000000
-31.701920 48035.000000
-29.121607 47374.000000
-26.543121 48148.000000
-23.966478 47623.000000
-21.391661 47446.000000
-18.818684 47185.000000
-16.247526 47201.000000
-13.678203 46951.000000
-11.110704 45982.000000
-8.545025 47421.000000
-5.981171 47253.000000
-3.419131 47730.000000
-0.858915 47917.000000
1.699493 47593.000000
4.256080 46787.000000
6.810863 47042.000000
9.363828 47716.000000
11.914992 47018.000000
14.464344 47269.000000
17.011900 46943.000000
19.557644 47772.000000
22.101595 47992.000000
24.643742 47081.000000
27.184092 46939.000000
29.722656 46873.000000
32.259422 47468.000000
34.794388 48009.000000
37.327576 46569.000000
39.858982 47437.000000
42.388596 46627.000000
44.916412 47264.000000
47.442471 45878.000000
49.966740 48030.000000
52.489239 47538.000000
55.009941 47033.000000
57.528889 47469.000000
60.046062 47304.000000
62.561459 47144.000000
65.075081 48032.000000
67.586945 48007.000000
70.097061 47226.000000
72.605385 47136.000000
75.111954 47811.000000
77.616776 47411.000000
80.119843 47307.000000
82.621132 47505.000000
85.120682 47597.000000
87.618477 47402.000000
90.114540 47990.000000
92.608826 46606.000000
95.101372 47946.000000
97.592201 46827.000000
100.081261 46473.000000
102.568573 47357.000000
105.054161 47504.000000
107.538010 47361.000000
110.020111 48037.000000
112.500488 47198.000000
114.979141 47565.000000
117.456070 47288.000000
119.931244 46505.000000
122.404709 46865.000000
124.876442 47852.000000
127.346466 47057.000000
129.814728 47448.000000
132.281326 47514.000000
134.746170 47997.000000
137.209320 47589.000000
139.670731 46517.000000
142.130447 46916.000000
144.588440 47360.000000
147.044739 47742.000000
149.499329 47938.000000
151.952194 46918.000000
154.403381 47380.000000
156.852875 47164.000000
159.300644 47717.000000
161.746704 47185.000000
164.191086 45037.000000
166.633789 47257.000000
169.074799 47044.000000
171.514099 47554.000000
173.951691 46497.000000
176.387650 47101.000000
178.821869 46818.000000
181.254410 46592.000000
183.685303 47008.000000
186.114471 46950.000000
188.541992 46981.000000
190.967834 47436.000000
193.391998 46960.000000
195.814499 46592.000000
198.235306 46375.000000
200.654449 47231.000000
203.071930 47740.000000
205.487717 45919.000000
207.901855 46751.000000
210.314362 47414.000000
212.725189 47677.000000
215.134338 47507.000000
217.541855 46310.000000
219.947662 47578.000000
222.351883 47156.000000
224.754395 47055.000000
227.155289 46817.000000
229.554535 47248.000000
231.952118 46863.000000
234.348038 46564.000000
236.742340 47223.000000
239.134979 47931.000000
241.526001 46944.000000
243.915359 47211.000000
246.303101 47307.000000
248.689194 46745.000000
251.073654 47617.000000
253.456467 45925.000000
255.837708 47089.000000
258.217255 47046.000000
260.595215 47270.000000
262.971497 46251.000000
265.346222 46205.000000
267.719299 45913.000000
270.090729 47585.000000
272.460510 47260.000000
274.828735 47874.000000
277.195313 47431.000000
279.560303 46974.000000
281.923676 47762.000000
284.285400 47476.000000
286.645538 46717.000000
289.004059 47798.000000
291.360992 47219.000000
293.716309 47337.000000
296.070038 47749.000000
298.422119 47818.000000
300.772644 47389.000000
303.121582 47394.000000
305.468872 46923.000000
307.814636 47314.000000
310.158722 47259.000000
312.501282 46362.000000
314.842224 46189.000000
317.181549 46645.000000
319.519318 46776.000000
321.855530 45646.000000
324.190094 47440.000000
326.523102 47325.000000
328.854553 47755.000000
331.184418 47044.000000
333.512695 47343.000000
335.839355 46404.000000
338.164520 47346.000000
340.488068 47483.000000
342.810059 47736.000000
345.130493 46117.000000
347.449310 45897.000000
349.766571 47703.000000
352.082306 47870.000000
354.396454 46692.000000
356.709015 47439.000000
359.020020 47369.000000
361.329498 46674.000000
363.637451 47320.000000
365.943787 48029.000000
368.248535 47249.000000
370.551819 47254.000000
372.853485 47432.000000
375.153656 47316.000000
377.452271 47346.000000
379.749329 47974.000000
382.044830 47612.000000
384.338806 47843.000000
386.631195 48389.000000
388.922089 48124.000000
391.211456 47540.000000
393.499237 47429.000000
395.785492 47242.000000
398.070251 46663.000000
400.353394 47649.000000
402.635101 47197.000000
404.915283 47598.000000
407.193878 46400.000000
409.470947 47237.000000
411.746490 46982.000000
414.020508 47265.000000
416.293091 47312.000000
418.564056 47412.000000
420.833527 47373.000000
423.101501 46553.000000
425.367920 46477.000000
427.632843 47371.000000
429.896301 47317.000000
432.158173 47177.000000
434.418579 47685.000000
436.677429 46987.000000
438.934814 47489.000000
441.190704 48006.000000
443.445099 47886.000000
445.697968 48157.000000
447.949280 46738.000000
450.199188 47531.000000
452.447510 47385.000000
454.694397 48029.000000
456.939819 47242.000000
459.183685 47152.000000
461.426056 46855.000000
463.666931 48002.000000
465.906403 46953.000000
468.144287 48233.000000
470.380737 47877.000000
472.615662 47609.000000
474.849121 46341.000000
477.081146 47058.000000
479.311646 48038.000000
481.540649 47250.000000
483.768188 47311.000000
485.994232 47725.000000
488.218842 47213.000000
490.441986 47796.000000
492.663666 47312.000000
494.883789 47050.000000
497.102509 48086.000000
499.319733 47434.000000
501.535583 48109.000000
503.749817 47608.000000
505.962738 47227.000000
508.174072 47280.000000
510.383972 46771.000000
512.592407 47229.000000
514.799500 47080.000000
517.005005 47198.000000
519.209106 47093.000000
521.411682 47493.000000
523.612854 47089.000000
525.812683 46960.000000
528.010986 46692.000000
530.207764 48358.000000
532.403198 47874.000000
534.597107 48074.000000
536.789673 46160.000000
538.980713 46995.000000
541.170349 47593.000000
543.358582 46765.000000
545.545288 46581.000000
547.730530 46823.000000
549.914490 47433.000000
552.096863 47213.000000
554.277893 47523.000000
556.457397 47626.000000
558.635620 47903.000000
560.812317 47666.000000
562.987610 47246.000000
565.161499 47242.000000
567.333923 47769.000000
569.504944 47598.000000
571.674500 47316.000000
573.842773 48460.000000
576.009521 47313.000000
578.174805 47425.000000
580.338684 47580.000000
582.501282 47933.000000
584.662354 47669.000000
586.822021 48010.000000
588.980347 47889.000000
591.137146 47517.000000
593.292603 47031.000000
595.446655 47866.000000
597.599365 47540.000000
599.750549 46494.000000
601.900391 46883.000000
604.048889 47041.000000
606.195801 47607.000000
608.341492 47144.000000
610.485779 47265.000000
612.628601 46926.000000
614.769958 47478.000000
616.910095 47289.000000
619.048706 45952.000000
621.186035 47989.000000
623.321899 47013.000000
625.456360 46780.000000
627.589355 46521.000000
629.721191 47000.000000
631.851563 47005.000000
633.980530 46893.000000
636.108032 47177.000000
638.234253 47454.000000
640.358948 46301.000000
642.482422 47186.000000
644.604553 46877.000000
646.725220 46818.000000
648.844543 47148.000000
650.962463 47973.000000
653.079041 48036.000000
655.194214 47195.000000
657.308044 47180.000000
659.420410 47827.000000
661.531555 47595.000000
663.641296 48301.000000
665.749573 47547.000000
667.856689 47319.000000
669.962341 46858.000000
672.066528 47783.000000
674.169495 47982.000000
676.271057 46701.000000
678.371277 48315.000000
680.470093 46963.000000
682.567566 47453.000000
684.663757 46760.000000
686.758484 47406.000000
688.851990 46626.000000
690.944153 47074.000000
693.034790 45651.000000
695.124207 47008.000000
697.212341 47179.000000
699.299011 47665.000000
701.384460 46972.000000
703.468384 48454.000000
705.551086 47729.000000
707.632507 47747.000000
709.712463 46070.000000
711.791199 47412.000000
713.868469 48092.000000
715.944458 47147.000000
718.019165 47581.000000
720.092590 46651.000000
722.164490 47403.000000
724.235229 46360.000000
726.304626 47869.000000
728.372620 47282.000000
730.439270 47305.000000
732.504700 46618.000000
734.568787 47935.000000
736.631531 47627.000000
738.692932 47252.000000
740.753052 47015.000000
742.811768 47621.000000
744.869263 47015.000000
746.925476 47179.000000
748.980286 47020.000000
751.033813 47262.000000
753.085938 46183.000000
755.136841 47902.000000
757.186523 46947.000000
759.234741 47336.000000
761.281738 47536.000000
763.327454 46621.000000
765.371765 48396.000000
767.414795 47893.000000
769.456604 38588.000000
771.497070 46695.000000
773.536133 47362.000000
775.574036 47616.000000
777.610596 47674.000000
779.645935 48240.000000
781.679932 47867.000000
783.712524 46816.000000
785.743958 48087.000000
787.773987 42036.000000
789.802734 47660.000000
791.830322 47346.000000
793.856567 47329.000000
795.881409 47891.000000
797.905151 48131.000000
799.927490 47351.000000
801.948608 47777.000000
803.968384 47018.000000
805.986877 48755.000000
808.004150 47026.000000
810.020020 46918.000000
812.034729 47953.000000
814.048096 47247.000000
816.060242 47430.000000
818.071167 47576.000000
820.080750 47055.000000
822.089111 48343.000000
824.096069 47982.000000
826.101807 47613.000000
828.106323 47929.000000
830.109558 47994.000000
832.111511 47254.000000
834.112183 47661.000000
836.111633 47741.000000
838.109741 47362.000000
840.106750 46709.000000
842.102356 47405.000000
844.096802 47723.000000
846.089905 47474.000000
848.081787 46768.000000
850.072327 48094.000000
852.061584 46855.000000
854.049805 47706.000000
856.036621 47847.000000
858.022217 47261.000000
860.006531 46348.000000
861.989746 47386.000000
863.971558 47296.000000
865.952148 47814.000000
867.931458 45914.000000
869.909607 46653.000000
871.886414 47441.000000
873.861938 47776.000000
875.836426 47464.000000
877.809448 47640.000000
879.781433 48206.000000
881.752075 47214.000000
883.721558 47605.000000
885.689697 48051.000000
887.656677 48496.000000
889.622314 47536.000000
891.586792 47820.000000
893.550049 47683.000000
895.512085 47206.000000
897.472839 47800.000000
899.432373 47263.000000
901.390625 46957.000000
903.347778 47350.000000
905.303772 47660.000000
907.258362 46788.000000
909.211731 47110.000000
911.163940 47142.000000
913.114929 47224.000000
915.064636 46524.000000
917.013184 47332.000000
918.960510 47499.000000
920.906555 47523.000000
922.851318 47620.000000
924.795044 47287.000000
926.737610 47763.000000
928.678894 48070.000000
930.618835 47185.000000
932.557678 47908.000000
934.495239 48197.000000
936.431580 47701.000000
938.366760 47820.000000
940.300659 47595.000000
942.233459 47848.000000
944.165039 46870.000000
946.095459 48419.000000
948.024658 47285.000000
949.952515 46593.000000
951.879333 47009.000000
953.804871 47725.000000
955.729126 48169.000000
957.652283 47693.000000
959.574280 46931.000000
961.494995 46287.000000
963.414551 47047.000000
965.332947 48343.000000
967.250305 47230.000000
969.166199 47246.000000
971.080994 47535.000000
972.994568 47663.000000
974.906982 47283.000000
976.818176 47197.000000
978.728210 48164.000000
980.636963 47465.000000
982.544678 47534.000000
984.451172 47327.000000
986.356445 48031.000000
988.260620 46815.000000
990.163574 47437.000000
992.065308 46783.000000
993.965881 47222.000000
995.865295 47010.000000
997.763489 48394.000000
999.660522 47145.000000
1001.556335 47145.000000
1003.450989 46079.000000
1005.344543 48100.000000
1007.236816 46556.000000
1009.128174 47506.000000
1011.018188 48287.000000
1012.906982 47149.000000
1014.794617 47264.000000
1016.681091 46735.000000
1018.566406 46904.000000
1020.450562 47739.000000
1022.333496 47770.000000
1024.215454 47459.000000
1026.096069 48513.000000
1027.975586 47781.000000
1029.854126 47559.000000
1031.731323 48168.000000
1033.607178 47454.000000
1035.482056 47670.000000
1037.355957 47063.000000
1039.228394 46497.000000
1041.099854 46864.000000
1042.969971 48115.000000
1044.839111 48127.000000
1046.707031 47873.000000
1048.573853 46470.000000
1050.439575 46888.000000
1052.304077 47085.000000
1054.167480 47202.000000
1056.029541 47190.000000
1057.890625 47764.000000
1059.750610 47149.000000
1061.609253 47010.000000
1063.466797 47897.000000
1065.323242 46891.000000
1067.178589 47715.000000
1069.032715 47885.000000
1070.885986 47332.000000
1072.737793 47330.000000
1074.588623 47422.000000
1076.438232 47527.000000
1078.286621 47982.000000
1080.134155 45560.000000
1081.980347 48027.000000
1083.825317 47427.000000
1085.669434 48271.000000
1087.512207 48075.000000
1089.353760 47152.000000
1091.194580 48162.000000
1093.033813 47834.000000
1094.872314 47566.000000
1096.709473 47590.000000
1098.545410 46863.000000
1100.380371 47032.000000
1102.214111 48240.000000
1104.046875 47985.000000
1105.878296 47451.000000
1107.708862 46346.000000
1109.538086 47084.000000
1111.366333 47240.000000
1113.193359 46607.000000
1115.019409 48229.000000
1116.844238 47360.000000
1118.667969 46461.000000
1120.490479 47569.000000
1122.311890 47711.000000
1124.132446 47733.000000
1125.951538 47063.000000
1127.769775 46598.000000
1129.586670 46830.000000
1131.402710 47022.000000
1133.217529 47175.000000
1135.031250 48014.000000
1136.843872 47860.000000
1138.655273 47989.000000
1140.465698 47548.000000
1142.275024 46894.000000
1144.083008 46620.000000
1145.890259 47684.000000
1147.696045 47750.000000
1149.500977 48227.000000
1151.304810 48213.000000
1153.107422 47484.000000
1154.909180 47607.000000
1156.709473 47629.000000
1158.508789 47499.000000
1160.307129 47766.000000
1162.104126 48169.000000
1163.900391 47798.000000
1165.695313 47603.000000
1167.489136 47322.000000
1169.282104 45899.000000
1171.073730 48062.000000
1172.864380 47152.000000
1174.654053 47661.000000
1176.442261 47732.000000
1178.229614 46185.000000
1180.015869 46851.000000
1181.801025 47880.000000
1183.585083 47642.000000
1185.368042 45895.000000
1187.150024 47818.000000
1188.930786 47730.000000
1190.710571 47253.000000
1192.489258 46700.000000
1194.266968 46929.000000
1196.043457 46436.000000
1197.818848 46992.000000
1199.593140 47094.000000
1201.366333 46953.000000
1203.138672 47159.000000
1204.909668 46928.000000
1206.679810 47856.000000
1208.448730 47581.000000
1210.216553 47335.000000
1211.983521 47806.000000
1213.749146 47732.000000
1215.513794 46667.000000
1217.277344 47026.000000
1219.039795 47559.000000
1220.801392 46887.000000
1222.561768 47753.000000
1224.321045 47278.000000
1226.079468 47511.000000
1227.836670 46489.000000
1229.592773 47131.000000
1231.347778 48035.000000
1233.101929 47643.000000
1234.854736 47778.000000
1236.606567 47603.000000
1238.357544 47698.000000
1240.107178 48722.000000
1241.855957 46699.000000
1243.603394 47096.000000
1245.350098 47063.000000
1247.095581 47192.000000
1248.840210 47212.000000
1250.583496 46927.000000
1252.325806 46997.000000
1254.067017 48283.000000
1255.807373 48549.000000
1257.546631 47803.000000
1259.284668 47038.000000
1261.021851 46545.000000
1262.757813 47490.000000
1264.492798 47215.000000
1266.226807 46410.000000
1267.959839 47688.000000
1269.691650 47410.000000
1271.422485 47209.000000
1273.152100 46791.000000
1274.880859 47647.000000
1276.608521 47932.000000
1278.335083 48157.000000
1280.060791 48026.000000
1281.785156 47050.000000
1283.508667 48383.000000
1285.231201 46691.000000
1286.952759 47006.000000
1288.673096 47452.000000
1290.392456 46867.000000
1292.110718 46390.000000
1293.828003 47171.000000
1295.544312 47840.000000
1297.259399 47263.000000
1298.973511 47474.000000
1300.686646 47881.000000
1302.398926 47171.000000
1304.109985 45327.000000
1305.820068 48277.000000
1307.529053 47292.000000
1309.236816 46955.000000
1310.943970 46681.000000
1312.649658 47782.000000
1314.354614 46670.000000
1316.058594 47416.000000
1317.761353 47607.000000
1319.463135 47074.000000
1321.164063 47579.000000
1322.863647 44431.000000
1324.562378 46228.500000
1326.260376 48026.000000
1327.957031 47120.000000
1329.652588 46410.000000
1331.347290 46790.000000
1333.040771 47975.000000
1334.733398 48232.000000
1336.425171 46171.000000
1338.115601 47337.000000
1339.805298 47059.000000
1341.493896 47473.000000
1343.181396 45948.000000
1344.867920 47898.000000
1346.553345 46790.000000
1348.237793 47581.000000
1349.921387 46210.000000
1351.603760 47221.000000
1353.285156 47608.000000
1354.965698 47040.000000
1356.645020 46843.000000
1358.323730 47668.000000
1360.001099 47011.000000
1361.677368 47771.000000
1363.352661 48017.000000
1365.027222 46994.000000
1366.700562 47163.000000
1368.372925 46801.000000
1370.044312 48382.000000
1371.714722 46843.000000
1373.384033 47417.000000
1375.052368 47975.000000
1376.719849 47679.000000
1378.386230 47132.000000
1380.051636 47498.000000
1381.716064 47702.000000
1383.379272 47679.000000
1385.041870 47858.000000
1386.703125 47164.000000
1388.363525 47053.000000
1390.022827 47115.000000
1391.681152 47062.000000
1393.338745 46784.000000
1394.995117 47155.000000
1396.650635 46550.000000
1398.304932 47279.000000
1399.958374 47757.000000
1401.610718 47491.000000
1403.262329 47086.000000
1404.912720 46384.000000
1406.562012 47275.000000
1408.210571 46035.000000
1409.858032 45729.000000
1411.504517 47367.000000
1413.150146 47236.000000
1414.794800 47454.000000
1416.438232 46538.000000
1418.080811 46343.000000
1419.722290 46578.000000
1421.362915 47072.000000
1423.002563 47107.000000
1424.641113 47569.000000
1426.278809 46962.000000
1427.915405 47179.000000
1429.551025 47532.000000
1431.185913 47203.000000
1432.819702 47679.000000
1434.452393 47508.000000
1436.084106 47898.000000
1437.714966 47415.000000
1439.344727 47515.000000
1440.973389 45753.000000
1442.601440 47540.000000
1444.228394 47279.000000
1445.854126 47321.000000
1447.479248 47359.000000
1449.103271 47070.000000
1450.726318 47524.000000
1452.348389 47490.000000
1453.969360 46222.000000
1455.589355 47130.000000
1457.208618 46540.000000
1458.826538 47771.000000
1460.443848 47881.500000
1462.060181 47992.000000
1463.675293 46280.000000
1465.289551 47279.000000
1466.902954 48290.000000
1468.515259 47811.000000
1470.126709 47239.000000
1471.737305 47089.000000
1473.346680 47562.000000
1474.955078 47487.000000
1476.562622 47309.000000
1478.169189 46643.000000
1479.775024 48234.000000
1481.379639 47180.000000
1482.983398 47967.000000
1484.585938 46663.000000
1486.187866 47857.000000
1487.788574 47976.000000
1489.388550 47899.000000
1490.987427 47201.000000
1492.585449 46942.000000
1494.182373 46759.000000
1495.778442 47113.000000
1497.373535 47426.000000
1498.967651 47982.000000
1500.561035 46887.000000
1502.153320 48002.000000
1503.744385 47302.000000
1505.334961 46636.000000
1506.924194 46900.000000
1508.512817 47299.000000
1510.100342 46827.000000
1511.686768 46601.000000
1513.272461 47179.000000
1514.857056 46772.000000
1516.440796 47162.000000
1518.023438 47214.000000
1519.605347 46762.000000
1521.186157 46726.000000
1522.766235 47335.000000
1524.345093 47119.000000
1525.923096 47033.000000
1527.500366 47083.000000
1529.076416 47628.000000
1530.651733 47438.000000
1532.225952 46967.000000
1533.799438 47843.000000
1535.371704 47333.000000
1536.943237 47003.000000
1538.513794 46875.000000
1540.083496 47042.000000
1541.651978 47857.000000
1543.219727 46715.000000
1544.786621 47694.000000
1546.352295 46413.000000
1547.917236 47364.000000
1549.481079 48233.000000
1551.044312 45898.000000
1552.606201 47067.000000
1554.167480 47353.000000
1555.727661 47628.000000
1557.287109 47539.000000
1558.845459 47337.000000
1560.403076 47014.000000
1561.959595 46246.000000
1563.514893 47420.000000
1565.069580 46965.000000
1566.623535 47619.000000
1568.176514 46928.000000
1569.728149 47645.000000
1571.279053 47452.000000
1572.829224 47097.000000
1574.378418 46918.000000
1575.926270 47467.000000
1577.473633 47770.000000
1579.020020 47632.000000
1580.565552 48214.000000
1582.110107 46629.000000
1583.653442 46930.000000
1585.196167 46591.000000
1586.738037 46821.000000
1588.278809 46461.000000
1589.818604 47443.000000
1591.357666 46612.000000
1592.895630 47310.000000
1594.433105 47159.000000
1595.969238 47345.000000
1597.504272 46549.000000
1599.038818 46987.000000
1600.572388 47281.000000
1602.105103 47207.000000
1603.636230 46906.000000
1605.167114 46918.000000
1606.697144 47461.000000
1608.225952 47123.000000
1609.753662 47070.000000
1611.280762 47196.000000
1612.807129 47383.000000
1614.332520 46865.000000
1615.857056 47398.000000
1617.380249 47361.000000
1618.902710 47671.000000
1620.424438 46663.000000
1621.945313 46249.000000
1623.464722 37572.000000
1624.983643 47006.000000
1626.501831 47058.000000
1628.019165 47147.000000
1629.535400 46730.000000
1631.050293 46008.000000
1632.564697 46228.000000
1634.078369 47281.000000
1635.590942 46265.000000
1637.102295 47083.000000
1638.613281 46592.000000
1640.123169 46788.000000
1641.632202 46833.000000
1643.139893 47382.000000
1644.647217 46839.000000
1646.153687 45876.000000
1647.659180 46696.000000
1649.163818 46059.000000
1650.666992 46813.000000
1652.169556 46413.000000
1653.671753 46557.000000
1655.172607 46208.000000
1656.672363 45314.000000
1658.171265 46914.000000
1659.669800 46329.000000
1661.167114 46586.000000
1662.663696 46916.000000
1664.158691 46413.000000
1665.653442 46509.000000
1667.147339 47594.000000
1668.640259 47261.000000
1670.131836 46777.000000
1671.622925 46293.000000
1673.113403 46686.000000
1674.602783 46744.000000
1676.090698 45677.000000
1677.578369 45818.000000
1679.065063 46683.000000
1680.550903 47339.000000
1682.035889 46589.000000
1683.519409 46513.000000
1685.002686 46367.000000
1686.485107 46666.000000
1687.966431 46362.000000
1689.446289 46374.000000
1690.925903 46999.000000
1692.404785 45974.000000
1693.882690 46612.000000
1695.359619 46489.000000
1696.835327 46745.000000
1698.310669 46466.000000
1699.784790 46221.000000
1701.258301 47072.000000
1702.730347 46951.000000
1704.202148 45677.000000
1705.672974 46165.000000
1707.142944 45454.000000
1708.611572 47356.000000
1710.079712 46717.000000
1711.547119 46138.000000
1713.013428 46973.000000
1714.479126 46791.000000
1715.943115 46311.000000
1717.406982 46590.000000
1718.869995 45516.000000
1720.332031 46094.000000
1721.792847 45853.000000
1723.253052 47054.000000
1724.712524 46808.000000
1726.171143 46291.000000
1727.628784 46399.000000
1729.085083 46170.000000
1730.541138 46375.000000
1731.996216 45964.000000
1733.450317 46371.000000
1734.903198 45441.000000
1736.355835 46359.000000
1737.807373 45639.000000
1739.258179 46456.000000
1740.708008 45786.000000
1742.156494 46362.000000
1743.604614 44902.000000
1745.051880 45766.000000
1746.498413 45575.000000
1747.943359 45548.000000
1749.388062 46063.000000
1750.831909 46436.000000
1752.274902 46671.000000
1753.716431 45601.000000
1755.157715 45816.000000
1756.598145 45816.000000
1758.037598 45816.000000
1759.476074 46710.000000
1760.913574 45927.000000
1762.350586 44331.000000
1763.786621 46073.000000
1765.221802 44765.000000
1766.655518 45676.000000
1768.089111 45343.000000
1769.521729 45190.000000
1770.953491 45953.000000
1772.384399 45958.000000
1773.814087 45305.000000
1775.243042 45415.000000
1776.671509 45296.000000
1778.098999 44771.000000
1779.525146 45223.000000
1780.951050 45810.000000
1782.375854 44534.000000
1783.800049 45875.000000
1785.222778 44699.000000
1786.645020 44878.000000
1788.066528 44428.000000
1789.487305 45524.000000
1790.907104 45190.000000
1792.325562 45137.000000
1793.743530 44432.000000
1795.160889 45760.000000
1796.577393 45276.000000
1797.992432 44745.000000
1799.407104 45437.000000
1800.821167 44603.000000
1802.234009 45237.000000
1803.646240 44228.000000
1805.057129 44053.000000
1806.467529 43354.000000
1807.877197 44722.000000
1809.285889 45110.000000
1810.693481 45679.000000
1812.100586 44638.000000
1813.506836 44691.000000
1814.912109 44392.000000
1816.316284 45072.000000
1817.720093 45111.000000
1819.122925 44699.000000
1820.524902 44983.000000
1821.926270 45107.000000
1823.326172 44539.000000
1824.725464 44389.000000
1826.124268 44341.000000
1827.522217 43374.000000
1828.918823 44947.000000
1830.314819 43917.000000
1831.710083 44738.000000
1833.104736 42478.000000
1834.498413 44504.000000
1835.890747 43503.000000
1837.282593 43979.000000
1838.673828 44420.000000
1840.064087 43068.000000
1841.453125 44039.000000
1842.841797 43998.000000
1844.229492 43850.000000
1845.616455 44008.000000
1847.002075 42884.000000
1848.387451 43757.000000
1849.771973 43192.000000
1851.155762 43252.000000
1852.538452 43044.000000
1853.919922 43947.000000
1855.300903 42747.000000
1856.681396 42841.000000
1858.060913 43432.000000
1859.438965 43008.000000
1860.816895 42666.000000
1862.193848 40986.000000
1863.570068 42657.000000
1864.945435 42485.000000
1866.319336 42804.000000
1867.693115 42487.000000
1869.066040 41981.000000
1870.437866 42049.000000
1871.808716 41146.000000
1873.179199 42423.000000
1874.548584 41659.000000
1875.917480 41675.000000
1877.284790 40459.000000
1878.651978 41517.000000
1880.018188 41375.000000
1881.383667 40555.000000
1882.748413 39826.000000
1884.111572 40443.000000
1885.474609 40111.000000
1886.836792 40590.000000
1888.198120 40306.000000
1889.558105 41124.000000
1890.917725 40779.000000
1892.276733 40526.000000
1893.634766 39968.000000
1894.991943 39251.000000
1896.347900 40536.000000
1897.703613 38787.000000
1899.058350 40580.000000
1900.412231 40760.000000
1901.765015 40386.000000
1903.117310 40411.000000
1904.468872 40357.000000
1905.819580 39496.000000
1907.169067 39736.000000
1908.518066 39552.000000
1909.866211 40299.000000
1911.213745 40047.000000
1912.560547 39703.000000
1913.905762 39164.000000
1915.250732 39924.000000
1916.594971 40507.000000
1917.938354 39295.000000
1919.280396 39847.000000
1920.622192 39069.000000
1921.963135 38639.000000
1923.303345 39351.000000
1924.642578 39130.000000
1925.980835 39151.000000
1927.318481 38789.000000
1928.655396 38189.000000
1929.991455 38329.000000
1931.326294 39332.000000
1932.660767 38103.000000
1933.994507 37429.000000
1935.327393 38426.000000
1936.658813 38698.000000
1937.990356 38064.000000
1939.320557 37666.000000
1940.650269 38498.000000
1941.979126 38180.000000
1943.306763 38337.000000
1944.633911 39099.000000
1945.960327 38177.000000
1947.286011 37489.000000
1948.610352 38151.000000
1949.934448 37182.000000
1951.257690 37438.000000
1952.580200 37206.000000
1953.901611 37731.000000
1955.222046 36037.000000
1956.541870 37343.000000
1957.861328 37581.000000
1959.179810 36144.000000
1960.496948 37098.000000
1961.813721 36906.000000
1963.129761 36115.000000
1964.445068 36118.000000
1965.758911 36187.000000
1967.072510 36680.000000
1968.385376 35940.000000
1969.697388 36099.000000
1971.008789 35948.000000
1972.318848 35522.000000
1973.628418 35891.000000
1974.937256 35492.000000
1976.245483 35065.000000
1977.552368 35404.000000
1978.858643 34329.000000
1980.164551 35834.000000
1981.469238 34891.000000
1982.773438 35307.000000
1984.076416 35420.000000
1985.379028 33523.000000
1986.680664 34708.000000
1987.981689 33603.000000
1989.281128 34090.000000
1990.580688 33325.000000
1991.879150 34405.000000
1993.177124 33476.000000
1994.473511 33365.000000
1995.769897 33580.000000
1997.065308 33598.000000
1998.359985 32782.000000
1999.653809 33472.000000
2000.946411 32626.000000
2002.238525 33437.000000
2003.530151 32044.000000
2004.821045 32660.000000
2006.110352 32668.000000
2007.399414 31996.000000
2008.687744 32625.000000
2009.975342 32588.000000
2011.262085 31847.000000
2012.547729 32661.000000
2013.833008 31917.000000
2015.117310 32270.000000
2016.401001 32547.000000
2017.683350 32198.000000
2018.965332 31906.000000
2020.246826 31446.000000
2021.527344 32172.000000
2022.807129 31849.000000
2024.085815 31305.000000
2025.363770 32236.000000
2026.641235 32188.000000
2027.918091 31995.000000
2029.193237 32570.000000
2030.468506 31906.000000
2031.742798 32295.000000
2033.016113 32404.000000
2034.288574 32415.000000
2035.560669 32257.000000
2036.831665 31404.000000
2038.102417 31653.000000
2039.371826 32087.000000
2040.640137 31115.000000
2041.908447 31279.000000
2043.175781 31724.000000
2044.442383 31370.000000
2045.707764 31598.000000
2046.972534 31326.000000
2048.237061 31609.000000
2049.500244 31244.000000
2050.763184 30664.000000
2052.024170 30801.000000
2053.285645 30704.000000
2054.545898 30841.000000
2055.805420 30168.000000
2057.064209 30428.000000
2058.322021 29733.000000
2059.579346 30335.000000
2060.835938 30294.000000
2062.091064 29687.000000
2063.346191 30472.000000
2064.600342 30554.000000
2065.853760 30402.000000
2067.106445 29217.000000
2068.357910 29786.000000
2069.609131 29665.000000
2070.859619 30136.000000
2072.109375 30339.000000
2073.357666 29582.000000
2074.605957 29160.000000
2075.853271 28157.000000
2077.099854 29760.000000
2078.345703 29226.000000
2079.590332 28368.000000
2080.834473 27560.000000
2082.078125 29366.000000
2083.320801 28553.000000
2084.562256 27824.000000
2085.803467 28667.000000
2087.044189 28221.000000
2088.283936 27836.000000
2089.522461 27394.000000
2090.760498 28076.000000
2091.997803 28246.000000
2093.234863 27353.000000
2094.470459 27800.000000
2095.705322 27708.000000
2096.939941 27801.000000
2098.173584 28131.000000
2099.406250 27654.000000
2100.638184 26940.000000
2101.869629 27269.000000
2103.100098 26681.000000
2104.329834 27202.000000
2105.559326 26939.000000
2106.786865 26852.000000
2108.014648 26682.000000
2109.241699 26313.000000
2110.467773 27096.000000
2111.692383 26478.000000
2112.917236 26135.000000
2114.140869 25961.000000
2115.364014 26746.000000
2116.585938 25568.000000
2117.807617 26892.000000
2119.028320 26146.000000
2120.248291 26838.000000
2121.467773 26800.000000
2122.685791 26408.000000
2123.903809 25943.000000
2125.120850 26852.000000
2126.337402 26740.000000
2127.552246 26196.000000
2128.767334 26271.000000
2129.981445 25666.000000
2131.194824 26392.000000
2132.407471 25868.000000
2133.618652 26429.000000
2134.830078 25942.000000
2136.040283 25501.000000
2137.250000 26109.000000
2138.458252 25860.000000
2139.666504 26226.000000
2140.874023 26061.000000
2142.080322 24638.000000
2143.285889 25723.000000
2144.491211 25568.000000
2145.695557 25908.000000
2146.899170 25459.000000
2148.102295 25552.000000
2149.303955 25210.000000
2150.505371 25937.000000
2151.706055 25220.000000
2152.906006 25310.000000
2154.104736 25596.000000
2155.303223 24788.000000
2156.501221 25082.000000
2157.698242 24584.000000
2158.894531 24701.000000
2160.089600 24624.000000
2161.284424 24140.000000
2162.478516 24239.000000
2163.671631 24087.000000
2164.863770 23510.000000
2166.055664 23912.000000
2167.246826 23668.000000
2168.437012 23510.000000
2169.626465 23250.000000
2170.815430 22895.000000
2172.003418 22848.000000
2173.191162 22745.000000
2174.377441 22479.000000
2175.562988 22212.000000
2176.748291 22342.000000
2177.933105 22219.000000
2179.116699 22314.000000
2180.299561 22051.000000
2181.481445 22249.000000
2182.663086 22320.000000
2183.844238 22149.000000
2185.024170 22175.000000
2186.203125 22106.000000
2187.381592 21945.000000
2188.559814 21896.000000
2189.736816 22090.000000
2190.912842 21759.000000
2192.088623 22069.000000
2193.263916 22071.000000
2194.437744 21885.000000
2195.611084 22043.000000
2196.784180 22041.000000
2197.956055 22013.000000
2199.127441 21865.000000
2200.298340 22106.000000
2201.467529 21921.000000
2202.636719 21774.000000
2203.805420 21789.000000
2204.973145 21917.000000
2206.139893 22012.000000
2207.305908 21558.000000
2208.471436 21585.000000
2209.636719 21757.000000
2210.800537 21451.000000
2211.963867 21725.000000
2213.125977 21516.000000
2214.288330 21482.000000
2215.449463 21311.000000
2216.609619 21281.000000
2217.769287 21194.000000
2218.928711 21091.000000
2220.086914 20988.000000
2221.244141 21075.000000
2222.401123 20702.000000
2223.557373 20811.000000
2224.712891 20834.000000
2225.867676 20769.000000
2227.021484 20578.000000
2228.174316 20681.000000
2229.327637 20379.000000
2230.479004 20527.000000
2231.630127 20329.000000
2232.780518 20328.000000
2233.930420 19910.000000
2235.079346 20023.000000
2236.227783 20250.000000
2237.374756 19851.000000
2238.521973 19764.000000
2239.667969 19715.000000
2240.813721 19442.000000
2241.957764 19264.000000
2243.102051 19251.000000
2244.245361 19057.000000
2245.387939 19011.000000
2246.529541 18761.000000
2247.670898 18816.000000
2248.811279 18637.000000
2249.950928 18470.000000
2251.090088 18586.000000
2252.228027 18338.000000
2253.365967 18236.000000
2254.502930 18483.000000
2255.639160 18296.000000
2256.774414 18323.000000
2257.908936 18056.000000
2259.043213 18243.000000
2260.177002 18622.000000
2261.309326 18652.000000
2262.441162 18201.000000
2263.572510 17837.000000
2264.702881 17722.000000
2265.833008 17456.000000
2266.961914 17571.000000
2268.090332 17221.000000
2269.218262 17410.000000
2270.345215 17381.000000
2271.471436 17248.000000
2272.596680 17269.000000
2273.721924 17570.000000
2274.846436 17411.000000
2275.969727 17451.000000
2277.092285 17475.000000
2278.214355 17413.000000
2279.335938 17157.000000
2280.456787 17185.000000
2281.576416 17227.000000
2282.695557 16982.000000
2283.814453 16805.000000
2284.932617 16526.000000
2286.049805 16670.000000
2287.166016 16630.000000
2288.281982 16600.000000
2289.397217 16726.000000
2290.511719 16867.000000
2291.625000 17027.000000
2292.738281 17024.000000
2293.850830 16953.000000
2294.962646 17068.000000
2296.073730 16959.000000
2297.183594 16997.000000
2298.292969 17025.000000
2299.402100 17065.000000
2300.510254 17000.000000
2301.617432 16951.000000
2302.724365 16862.000000
2303.830566 16903.000000
2304.936279 16870.000000
2306.040527 16591.000000
2307.144531 16622.000000
2308.248047 16681.000000
2309.351074 16398.000000
2310.452881 16504.000000
2311.553955 16266.000000
2312.654541 16240.000000
2313.754639 16278.000000
2314.854004 16316.000000
2315.951904 16180.000000
2317.050293 15940.000000
2318.147217 15949.000000
2319.243896 16053.000000
2320.340088 16128.000000
2321.434570 15812.000000
2322.529053 15545.000000
2323.622803 15571.000000
2324.716309 15705.000000
2325.808105 15572.000000
2326.899902 15364.000000
2327.990967 15509.000000
2329.081299 15435.000000
2330.170654 15406.000000
2331.260010 15440.000000
2332.348145 15407.000000
2333.435791 15419.000000
2334.523193 15270.000000
2335.608887 15164.000000
2336.694336 15019.000000
2337.779541 15134.000000
2338.863770 14654.000000
2339.947021 14831.000000
2341.030029 14752.000000
2342.112061 14546.000000
2343.193848 14593.000000
2344.274902 14584.000000
2345.354736 14305.000000
2346.434082 14256.000000
2347.512939 14300.000000
2348.591309 14377.000000
2349.668213 14313.000000
2350.744873 14119.000000
2351.821289 14168.000000
2352.896729 14017.000000
2353.971191 14065.000000
2355.045410 14041.000000
2356.118896 13874.000000
2357.191895 13825.000000
2358.263672 13723.000000
2359.335205 13757.000000
2360.405762 13614.000000
2361.476074 13575.000000
2362.545410 13523.000000
2363.613770 13513.000000
2364.681885 13387.000000
2365.749268 13349.000000
2366.816162 13346.000000
2367.882324 13201.000000
2368.947266 13133.000000
2370.012207 12975.000000
2371.076416 13033.000000
2372.139893 13100.000000
2373.202148 13019.000000
2374.264404 13033.000000
2375.325684 12969.000000
2376.386719 12822.000000
2377.446533 13000.000000
2378.505615 12937.000000
2379.564697 12931.000000
2380.622803 12811.000000
2381.680176 12968.000000
2382.736572 12681.000000
2383.792725 12558.000000
2384.848389 12751.000000
2385.903320 12666.000000
2386.956787 12712.000000
2388.010498 12518.000000
2389.063232 12723.000000
2390.115479 12645.000000
2391.166992 12715.000000
2392.217529 12756.000000
2393.267822 12659.000000
2394.317139 12662.000000
2395.366455 12787.000000
2396.414307 12494.000000
2397.461670 12435.000000
2398.508789 12447.000000
2399.554932 12431.000000
2400.600342 12534.000000
2401.645020 12388.000000
2402.689697 12449.000000
2403.732910 12338.000000
2404.776123 12355.000000
2405.817871 12520.000000
2406.859863 12299.000000
2407.901123 12339.000000
2408.941406 12299.000000
2409.980957 12521.000000
2411.019531 12264.000000
2412.058350 12323.000000
2413.095947 12213.000000
2414.133301 12242.000000
2415.169434 12250.000000
2416.205322 12092.000000
2417.240479 12031.000000
2418.275146 12094.000000
2419.308350 12043.000000
2420.341797 12017.000000
2421.374268 11925.000000
2422.406494 11907.000000
2423.437256 11944.000000
2424.468018 11702.000000
2425.498291 11954.000000
2426.527344 11690.000000
2427.556396 11586.000000
2428.583740 11645.000000
2429.611572 11584.000000
2430.638184 11583.000000
2431.664551 11491.000000
2432.689453 11451.000000
2433.714600 11414.000000
2434.738770 11120.000000
2435.762695 11146.000000
2436.785400 11366.000000
2437.807373 11123.000000
2438.829102 11091.000000
2439.850098 11016.000000
2440.870605 10987.000000
2441.889893 10871.000000
2442.909180 10799.000000
2443.927490 10745.000000
2444.945557 10688.000000
2445.962158 10646.000000
2446.978760 10646.000000
2447.994629 10567.000000
2449.010498 10618.000000
2450.024902 10624.000000
2451.038574 10487.000000
2452.051758 10456.000000
2453.064697 10526.000000
2454.076904 10400.000000
2455.088135 10276.000000
2456.099121 10421.000000
2457.109375 10465.000000
2458.119141 10239.000000
2459.127930 10125.000000
2460.135986 10257.000000
2461.144043 10153.000000
2462.150879 10001.000000
2463.157471 9962.000000
2464.162842 9874.000000
2465.167969 9953.000000
2466.172852 9933.000000
2467.176514 9997.000000
2468.179932 9856.000000
2469.182373 9864.000000
2470.184570 10025.000000
2471.186279 9982.000000
2472.187012 9858.000000
2473.186768 9684.000000
2474.186523 9728.000000
2475.185303 9754.000000
2476.183594 9709.000000
2477.180908 9680.000000
2478.177979 9652.000000
2479.175049 9727.000000
2480.170654 9720.000000
2481.166260 9705.000000
2482.160156 9612.000000
2483.154053 9579.000000
2484.147461 9670.000000
2485.140381 9619.000000
2486.132324 9718.000000
2487.123535 9769.000000
2488.114502 9617.000000
2489.104980 9484.000000
2490.094482 9586.000000
2491.083252 9628.000000
2492.072021 9561.000000
2493.059814 9710.000000
2494.046387 9480.000000
2495.032959 9416.000000
2496.019043 9436.000000
2497.004395 9302.000000
2497.988770 9580.000000
2498.972900 9592.000000
2499.957031 9568.000000
2500.939697 9527.000000
2501.921875 9376.000000
2502.903564 9252.000000
2503.884521 9380.000000
2504.864990 9256.000000
2505.845215 9331.000000
2506.823975 9224.000000
2507.802490 9201.000000
2508.780518 9255.000000
2509.758057 8905.000000
2510.734619 9219.000000
2511.710938 9240.000000
2512.686523 9162.000000
2513.661621 9099.000000
2514.636230 9026.000000
2515.609619 9034.000000
2516.582764 8932.000000
2517.555664 8860.000000
2518.527588 8870.000000
2519.498779 8828.000000
2520.469482 8776.000000
2521.439941 8620.000000
2522.409668 8824.000000
2523.378418 8564.000000
2524.346436 8584.000000
2525.314453 8595.000000
2526.281494 8560.000000
2527.248291 8628.000000
2528.213867 8487.000000
2529.179443 8500.000000
2530.144287 8319.000000
2531.108643 8401.000000
2532.071777 8421.000000
2533.035156 8398.000000
2533.997559 8300.000000
2534.959717 8282.000000
2535.920654 8370.000000
2536.880859 8362.000000
2537.841309 8361.000000
2538.800781 8424.000000
2539.759521 8468.000000
2540.717285 8159.000000
2541.675293 8092.000000
2542.632568 7934.000000
2543.588867 8077.000000
2544.544922 8048.000000
2545.499756 7950.000000
2546.454834 7785.000000
2547.409180 7864.000000
2548.362793 7350.000000
2549.315430 7736.000000
2550.267822 7756.000000
2551.219727 7790.000000
2552.170898 7657.000000
2553.121338 7616.000000
2554.071289 7597.000000
2555.020996 7524.000000
2555.969971 7617.000000
2556.918457 7581.000000
2557.865723 7604.000000
2558.812988 7623.000000
2559.759521 7619.000000
2560.705566 7526.000000
2561.650635 7426.000000
2562.595459 7335.000000
2563.539795 7402.000000
2564.483643 7369.000000
2565.427002 7443.000000
2566.368896 7348.000000
2567.311035 7186.000000
2568.252441 7341.000000
2569.193115 7314.000000
2570.133057 7345.000000
2571.072998 7255.000000
2572.011963 7292.000000
2572.950684 7239.000000
2573.888428 7119.000000
2574.825928 7250.000000
2575.762695 7530.000000
2576.698730 7263.000000
2577.634277 7269.000000
2578.569092 7266.000000
2579.503906 7304.000000
2580.437744 7304.000000
2581.371094 7166.000000
2582.303711 7161.000000
2583.236084 7123.000000
2584.167725 7184.000000
2585.098877 7127.000000
2586.029541 7204.000000
2586.958984 7098.000000
2587.888428 7098.000000
2588.817383 7139.000000
2589.746094 7202.000000
2590.673096 7028.000000
2591.600342 7076.000000
2592.527100 7112.000000
2593.453125 7095.000000
2594.378906 7105.000000
2595.303467 6944.000000
2596.227783 7016.000000
2597.151611 7036.000000
2598.074951 6958.000000
2598.997314 7058.000000
2599.919434 7081.000000
2600.841064 6973.000000
2601.761963 6836.000000
2602.682129 6963.000000
2603.602051 6953.000000
2604.521484 6786.000000
2605.440674 6902.000000
2606.358887 6836.000000
2607.275879 6826.000000
2608.193115 6817.000000
2609.110107 6664.000000
2610.026123 6748.000000
2610.940918 6627.000000
2611.856201 6637.000000
2612.770752 6662.000000
2613.684326 6533.000000
2614.597900 6623.000000
2615.510254 6602.000000
2616.422607 6398.000000
2617.333984 6548.000000
2618.245117 6466.000000
2619.155518 6338.000000
2620.065674 6484.000000
2620.975098 6400.000000
2621.884033 6276.000000
2622.791992 6321.000000
2623.700195 6443.000000
2624.607422 6208.000000
2625.514160 6308.000000
2626.420166 6252.000000
2627.325928 6198.000000
2628.230957 6142.000000
2629.135742 6212.000000
2630.039795 6136.000000
2630.942871 6121.000000
2631.845947 6068.000000
2632.748047 6036.000000
2633.650146 6004.000000
2634.552002 5939.000000
2635.452148 5890.000000
2636.352539 5955.000000
2637.252197 5940.000000
2638.151611 6024.000000
2639.049561 5937.000000
2639.947998 5812.000000
2640.845947 5694.000000
2641.743164 5907.000000
2642.639160 5792.000000
2643.535156 5918.000000
2644.430908 5731.000000
2645.325928 5763.000000
2646.220703 5733.000000
2647.114014 5651.000000
2648.007324 5745.000000
2648.900391 5651.000000
2649.793213 5541.000000
2650.684326 5573.000000
2651.575684 5763.000000
2652.466553 5607.000000
2653.356689 5534.000000
2654.246582 5533.000000
2655.135254 5523.000000
2656.024170 5514.000000
2656.912598 5562.000000
2657.800049 5403.000000
2658.686523 5573.000000
2659.573486 5410.000000
2660.459717 5425.000000
2661.345459 5392.000000
2662.229980 5466.000000
2663.114502 5477.000000
2663.998779 5447.000000
2664.882324 5506.000000
2665.765381 5535.000000
2666.647705 5488.000000
2667.529541 5465.000000
2668.410645 5530.000000
2669.291992 5571.000000
2670.171875 5570.000000
2671.052002 5485.000000
2671.931396 5346.000000
2672.810791 5389.000000
2673.689453 5298.000000
2674.566406 5461.000000
2675.444092 5333.000000
2676.321045 5403.000000
2677.197266 5186.000000
2678.072998 5335.000000
2678.947998 5365.000000
2679.823242 5337.000000
2680.697510 5250.000000
2681.571289 5215.000000
2682.444336 5154.000000
2683.317139 5202.000000
2684.189697 5211.000000
2685.061523 5145.000000
2685.932617 5201.000000
2686.803467 4993.000000
2687.673828 5168.000000
2688.543945 5109.000000
2689.412354 5094.000000
2690.281494 5010.000000
2691.149902 5074.000000
2692.018066 5024.000000
2692.885498 4937.000000
2693.751709 4956.000000
2694.618408 4901.000000
2695.484131 4955.000000
2696.349854 4921.000000
2697.214111 4870.000000
2698.079102 4900.000000
2698.942627 4819.000000
2699.806396 4963.000000
2700.668701 4769.000000
2701.531494 4872.000000
2702.393311 4901.000000
2703.254639 4842.000000
2704.115967 4822.000000
2704.976074 4803.000000
2705.836182 4641.000000
2706.695801 4847.000000
2707.555176 4636.000000
2708.412842 4780.000000
2709.270752 4653.000000
2710.129150 4671.000000
2710.986328 4734.000000
2711.842773 4593.000000
2712.698730 4609.000000
2713.554688 4582.000000
2714.409912 4542.000000
2715.264404 4673.000000
2716.118408 4509.000000
2716.972412 4455.000000
2717.825439 4548.000000
2718.678711 4469.000000
2719.530273 4459.000000
2720.382324 4359.000000
2721.234131 4458.000000
2722.084717 4436.000000
2722.935303 4461.000000
2723.785400 4367.000000
2724.634766 4294.000000
2725.484131 4351.000000
2726.332275 4300.000000
2727.179932 4245.000000
2728.028076 4354.000000
2728.875000 4344.000000
2729.722412 4417.000000
2730.568359 4381.000000
2731.413574 4317.000000
2732.259277 4229.000000
2733.104004 4312.000000
2733.948730 4326.000000
2734.792236 4253.000000
2735.635986 4218.000000
2736.479004 4197.000000
2737.321533 4312.000000
2738.163086 4251.000000
2739.005127 4293.000000
2739.846191 4229.000000
2740.687012 4218.000000
2741.527588 4208.000000
2742.366943 4243.000000
2743.206299 4162.000000
2744.045654 4311.000000
2744.883789 4220.000000
2745.721436 4220.000000
2746.559082 4198.000000
2747.396240 4232.000000
2748.233154 4139.000000
2749.069580 4180.000000
2749.904785 4096.000000
2750.740234 4108.000000
2751.575195 4061.000000
2752.409424 4187.000000
2753.243408 4155.000000
2754.076904 4049.000000
2754.910400 3999.000000
2755.742920 4022.000000
2756.574951 4057.000000
2757.406494 4030.000000
2758.238037 4046.000000
2759.068604 4022.000000
2759.899414 4063.000000
2760.729004 4023.000000
2761.558594 3988.000000
2762.387939 4017.000000
2763.216553 3948.000000
2764.044678 3970.000000
2764.872314 3806.000000
2765.699951 3960.000000
2766.527100 3926.000000
2767.353516 3924.000000
2768.179443 3808.000000
2769.004883 3849.000000
2769.830078 3764.000000
2770.655273 3764.000000
2771.479248 3779.000000
2772.303223 3787.000000
2773.127197 3781.000000
2773.949951 3820.000000
2774.772949 3668.000000
2775.594727 3682.000000
2776.416504 3694.000000
2777.238281 3679.000000
2778.059082 3676.000000
2778.879150 3724.000000
2779.699463 3601.000000
2780.519287 3547.000000
2781.339111 3543.000000
2782.156982 3583.000000
2782.976074 3536.000000
2783.793945 3531.000000
2784.611572 3607.000000
2785.428711 3574.000000
2786.245361 3563.000000
2787.061768 3449.000000
2787.877686 3430.000000
2788.693359 3451.000000
2789.508057 3448.000000
2790.323242 3462.000000
2791.137695 3537.000000
2791.951660 3303.000000
2792.765381 3375.000000
2793.577881 3380.000000
2794.390625 3407.000000
2795.202881 3445.000000
2796.014648 3422.000000
2796.825684 3413.000000
2797.637451 3400.000000
2798.447998 3390.000000
2799.258545 3273.000000
2800.067627 3383.000000
2800.877441 3333.000000
2801.686523 3336.000000
2802.495361 3292.000000
2803.303711 3327.000000
2804.111084 3305.000000
2804.918945 3135.000000
2805.726074 3367.000000
2806.532959 3280.000000
2807.338623 3358.000000
2808.144775 3305.000000
2808.950195 3309.000000
2809.755615 3214.000000
2810.560303 3289.000000
2811.364014 3272.000000
2812.168213 3193.000000
2812.971924 3226.000000
2813.775391 3188.000000
2814.577393 3194.000000
2815.380127 3263.000000
2816.182129 3122.000000
2816.983887 3243.000000
2817.785156 3121.000000
2818.585938 3256.000000
2819.386230 3222.000000
2820.186768 3200.000000
2820.986328 3193.000000
2821.785400 3210.000000
2822.584473 3164.000000
2823.383301 2888.000000
2824.181641 3165.000000
2824.979004 3121.000000
2825.776611 3157.000000
2826.573486 3115.000000
2827.370605 3107.000000
2828.166992 3206.000000
2828.962646 3142.000000
2829.758301 3081.000000
2830.553711 3037.000000
2831.348633 3166.000000
2832.142822 3084.000000
2832.937012 3023.000000
2833.730957 3074.000000
2834.524414 3054.000000
2835.317139 3100.000000
2836.109619 3012.000000
2836.902100 3029.000000
2837.694336 3077.000000
2838.486084 2980.000000
2839.276855 3195.000000
2840.067627 2947.000000
2840.858643 2877.000000
2841.648682 2987.000000
2842.438232 2965.000000
2843.228027 2903.000000
2844.016846 2958.000000
2844.805664 2926.000000
2845.594482 2874.000000
2846.382324 2917.000000
2847.169678 2835.000000
2847.957275 2868.000000
2848.744385 2811.000000
2849.530762 2800.000000
2850.317139 2903.000000
2851.103271 2821.000000
2851.888916 2868.000000
2852.673584 2870.000000
2853.458740 2879.000000
2854.243652 2902.000000
2855.027832 2750.000000
2855.812012 2835.000000
2856.594971 2669.000000
2857.378174 2709.000000
2858.161133 2775.000000
2858.943604 2816.000000
2859.725830 2730.000000
2860.507568 2770.000000
2861.289063 2709.000000
2862.070801 2747.000000
2862.851807 2713.000000
2863.632080 2783.000000
2864.412109 2767.000000
2865.192139 2803.000000
2865.971924 2834.000000
2866.750732 2686.000000
2867.529785 2705.000000
2868.308350 2793.000000
2869.086670 2846.000000
2869.864502 2768.000000
2870.642090 2872.000000
2871.419434 2902.000000
2872.196533 2854.000000
2872.973145 2903.000000
2873.749268 2976.000000
2874.525391 2872.000000
2875.301025 3000.000000
2876.076416 2885.000000
2876.851318 2943.000000
2877.625977 2919.000000
2878.400635 2919.000000
2879.175049 2889.000000
2879.948730 2833.000000
2880.721680 2954.000000
2881.495361 2934.000000
2882.268066 2782.000000
2883.040771 2921.000000
2883.812744 2825.000000
2884.584473 2895.000000
2885.356689 2823.000000
2886.127686 2969.000000
2886.898193 2858.000000
2887.669189 2846.000000
2888.440186 2787.000000
2889.210449 2810.000000
2889.979736 2850.000000
2890.749268 2863.000000
2891.518799 2768.000000
2892.287842 2837.000000
2893.056396 2855.000000
2893.824951 2832.000000
2894.592529 2689.000000
2895.360596 2772.000000
2896.128174 2739.000000
2896.895752 2646.000000
2897.662109 2657.000000
2898.429443 2670.000000
2899.195557 2607.000000
2899.961914 2443.000000
2900.726807 2592.000000
2901.492188 2695.000000
2902.258057 2612.000000
2903.022461 2561.000000
2903.786865 2606.000000
2904.551514 2597.000000
2905.315186 2626.000000
2906.079590 2608.000000
2906.843262 2615.000000
2907.606201 2379.000000
2908.368896 2518.000000
2909.132080 2505.000000
2909.894775 2464.000000
2910.656250 2410.000000
2911.418213 2410.000000
spectrumdark 2048
-96.812538 6133.000000
-94.185669 6133.000000
-91.560677 5992.000000
-88.937576 6406.000000
-86.316345 5767.000000
-83.697014 6203.000000
-81.079544 6043.000000
-78.463951 6425.000000
-75.850235 6152.000000
-73.238396 5863.000000
-70.628418 6123.000000
-68.020325 5911.000000
-65.414078 5950.000000
-62.809711 5904.000000
-60.207203 6095.000000
-57.606548 5591.000000
-55.007755 6242.000000
-52.410820 6841.000000
-49.815739 6401.000000
-47.222511 6530.000000
-44.631134 6251.000000
-42.041603 6796.000000
-39.453915 5887.000000
-36.868076 6047.000000
-34.284081 6416.000000
-31.701920 5675.000000
-29.121607 6321.000000
-26.543121 5611.000000
-23.966478 6110.000000
-21.391661 6265.000000
-18.818684 6539.000000
-16.247526 6462.000000
-13.678203 6775.000000
-11.110704 7752.000000
-8.545025 6242.000000
-5.981171 6443.000000
-3.419131 5992.000000
-0.858915 5807.000000
1.699493 6144.000000
4.256080 6920.000000
6.810863 6707.000000
9.363828 5985.000000
11.914992 6690.000000
14.464344 6429.000000
17.011900 6740.000000
19.557644 5946.000000
22.101595 5714.000000
24.643742 6580.000000
27.184092 6754.000000
29.722656 6805.000000
32.259422 6224.000000
34.794388 5732.000000
37.327576 7125.000000
39.858982 6281.000000
42.388596 7070.000000
44.916412 6497.000000
47.442471 7848.000000
49.966740 5678.000000
52.489239 6194.000000
55.009941 6709.000000
57.528889 6226.000000
60.046062 6397.000000
62.561459 6621.000000
65.075081 5653.000000
67.586945 5670.000000
70.097061 6465.000000
72.605385 6611.000000
75.111954 5919.000000
77.616776 6347.000000
80.119843 6420.000000
82.621132 6206.000000
85.120682 6126.000000
87.618477 6347.000000
90.114540 5719.000000
92.608826 7144.000000
95.101372 5764.000000
97.592201 6876.000000
100.081261 7238.000000
102.568573 6354.000000
105.054161 6197.000000
107.538010 6352.000000
110.020111 5685.000000
112.500488 6488.000000
114.979141 6161.000000
117.456070 6439.000000
119.931244 7169.000000
122.404709 6867.000000
124.876442 5861.000000
127.346466 6707.000000
129.814728 6278.000000
132.281326 6271.000000
134.746170 5723.000000
137.209320 6150.000000
139.670731 7215.000000
142.130447 6828.000000
144.588440 6375.000000
147.044739 5970.000000
149.499329 5792.000000
151.952194 6775.000000
154.403381 6365.000000
156.852875 6587.000000
159.300644 6024.000000
161.746704 6540.000000
164.191086 8662.000000
166.633789 6438.000000
169.074799 6699.000000
171.514099 6164.000000
173.951691 7217.000000
176.387650 6633.000000
178.821869 6900.000000
181.254410 7119.000000
183.685303 6677.000000
186.114471 6742.000000
188.541992 6731.000000
190.967834 6288.000000
193.391998 6706.000000
195.814499 7123.000000
198.235306 7321.000000
200.654449 6494.000000
203.071930 5964.000000
205.487717 7757.000000
207.901855 6959.000000
210.314362 6335.000000
212.725189 6069.000000
215.134338 6205.000000
217.541855 7423.000000
219.947662 6130.000000
222.351883 6542.000000
224.754395 6674.000000
227.155289 6907.000000
229.554535 6482.000000
231.952118 6857.000000
234.348038 7189.000000
236.742340 6528.000000
239.134979 5818.000000
241.526001 6805.000000
243.915359 6546.000000
246.303101 6387.000000
248.689194 6981.000000
251.073654 6109.000000
253.456467 7834.000000
255.837708 6641.000000
258.217255 6671.000000
260.595215 6431.000000
262.971497 7498.000000
265.346222 7557.000000
267.719299 7855.000000
270.090729 6138.000000
272.460510 6459.000000
274.828735 5861.000000
277.195313 6298.000000
279.560303 6734.000000
281.923676 5968.000000
284.285400 6207.000000
286.645538 7018.000000
289.004059 5941.000000
291.360992 6505.000000
293.716309 6400.000000
296.070038 5950.000000
298.422119 5932.000000
300.772644 6302.000000
303.121582 6331.000000
305.468872 6808.000000
307.814636 6408.000000
310.158722 6481.000000
312.501282 7345.000000
314.842224 7510.000000
317.181549 7057.000000
319.519318 6929.000000
321.855530 8035.000000
324.190094 6279.000000
326.523102 6401.000000
328.854553 5950.000000
331.184418 6667.000000
333.512695 6363.000000
335.839355 7259.000000
338.164520 6346.000000
340.488068 6176.000000
342.810059 5943.000000
345.130493 7539.000000
347.449310 7770.000000
349.766571 5957.000000
352.082306 5788.000000
354.396454 6939.000000
356.709015 6254.000000
359.020020 6325.000000
361.329498 7003.000000
363.637451 6385.000000
365.943787 5642.000000
368.248535 6421.000000
370.551819 6419.000000
372.853485 6267.000000
375.153656 6375.000000
377.452271 6293.000000
379.749329 5691.000000
382.044830 6031.000000
384.338806 5819.000000
386.631195 5254.000000
388.922089 5543.000000
391.211456 6171.000000
393.499237 6254.000000
395.785492 6434.000000
398.070251 6984.000000
400.353394 5998.000000
402.635101 6446.000000
404.915283 6081.000000
407.193878 7272.000000
409.470947 6457.000000
411.746490 6673.000000
414.020508 6445.000000
416.293091 6359.000000
418.564056 6253.000000
420.833527 6291.000000
423.101501 7066.000000
425.367920 7175.000000
427.632843 6267.000000
429.896301 6354.000000
432.158173 6479.000000
434.418579 5941.000000
436.677429 6662.000000
438.934814 6151.000000
441.190704 5649.000000
443.445099 5783.000000
445.697968 5455.000000
447.949280 6885.000000
450.199188 6118.000000
452.447510 6234.000000
454.694397 5606.000000
456.939819 6411.000000
459.183685 6495.000000
461.426056 6792.000000
463.666931 5628.000000
465.906403 6709.000000
468.144287 5470.000000
470.380737 5822.000000
472.615662 6089.000000
474.849121 7304.000000
477.081146 6646.000000
479.311646 5664.000000
481.540649 6452.000000
483.768188 6338.000000
485.994232 5941.000000
488.218842 6456.000000
490.441986 5876.000000
492.663666 6384.000000
494.883789 6656.000000
497.102509 5590.000000
499.319733 6216.000000
501.535583 5544.000000
503.749817 6048.000000
505.962738 6417.000000
508.174072 6373.000000
510.383972 6877.000000
512.592407 6441.000000
514.799500 6605.000000
517.005005 6458.000000
519.209106 6578.000000
521.411682 6159.000000
523.612854 6575.000000
525.812683 6683.000000
528.010986 6993.000000
530.207764 5304.000000
532.403198 5798.000000
534.597107 5538.000000
536.789673 7467.000000
538.980713 6683.000000
541.170349 6084.000000
543.358582 6868.000000
545.545288 7056.000000
547.730530 6799.000000
549.914490 6235.000000
552.096863 6393.000000
554.277893 6164.000000
556.457397 6032.000000
558.635620 5786.000000
560.812317 6002.000000
562.987610 6414.000000
565.161499 6440.000000
567.333923 5852.000000
569.504944 6052.000000
571.674500 6329.000000
573.842773 5229.000000
576.009521 6360.000000
578.174805 6213.000000
580.338684 6109.000000
582.501282 5762.000000
584.662354 6006.000000
586.822021 5664.000000
588.980347 5759.000000
591.137146 6146.000000
593.292603 6616.000000
595.446655 5764.000000
597.599365 6169.000000
599.750549 7207.000000
601.900391 6748.000000
604.048889 6605.000000
606.195801 6037.000000
608.341492 6495.000000
610.485779 6382.000000
612.628601 6704.000000
614.769958 6170.000000
616.910095 6367.000000
619.048706 7667.000000
621.186035 5661.000000
623.321899 6628.000000
625.456360 6853.000000
627.589355 7151.000000
629.721191 6611.000000
631.851563 6603.000000
633.980530 6721.000000
636.108032 6446.000000
638.234253 6178.000000
640.358948 7302.000000
642.482422 6406.000000
644.604553 6751.000000
646.725220 6781.000000
648.844543 6477.000000
650.962463 5661.000000
653.079041 5621.000000
655.194214 6446.000000
657.308044 6443.000000
659.420410 5839.000000
661.531555 6054.000000
663.641296 5346.000000
665.749573 6132.000000
667.856689 6327.000000
669.962341 6774.000000
672.066528 5828.000000
674.169495 5657.000000
676.271057 6937.000000
678.371277 5306.000000
680.470093 6705.000000
682.567566 6181.000000
684.663757 6882.000000
686.758484 6251.000000
688.851990 6996.000000
690.944153 6571.000000
693.034790 7962.000000
695.124207 6621.000000
697.212341 6463.000000
699.299011 5968.000000
701.384460 6695.000000
703.468384 5205.000000
705.551086 5930.000000
707.632507 5906.000000
709.712463 7565.000000
711.791199 6270.000000
713.868469 5563.000000
715.944458 6508.000000
718.019165 6053.000000
720.092590 7027.000000
722.164490 6281.000000
724.235229 7310.000000
726.304626 5773.000000
728.372620 6399.000000
730.439270 6383.000000
732.504700 7063.000000
734.568787 5733.000000
736.631531 6046.000000
738.692932 6407.000000
740.753052 6646.000000
742.811768 6034.000000
744.869263 6606.000000
746.925476 6460.000000
748.980286 6618.000000
751.033813 6389.000000
753.085938 7460.000000
755.136841 5752.000000
757.186523 6704.000000
759.234741 6313.000000
761.281738 6130.000000
763.327454 7021.000000
765.371765 5269.000000
767.414795 5733.000000
769.456604 15083.000000
771.497070 6957.000000
773.536133 6287.000000
775.574036 6046.000000
777.610596 5991.000000
779.645935 5399.000000
781.679932 5758.000000
783.712524 6835.000000
785.743958 5533.000000
787.773987 11539.000000
789.802734 5987.000000
791.830322 6316.000000
793.856567 6314.000000
795.881409 5782.000000
797.905151 5487.000000
799.927490 6319.000000
801.948608 5848.000000
803.968384 6676.000000
805.986877 4868.000000
808.004150 6623.000000
810.020020 6750.000000
812.034729 5693.000000
814.048096 6417.000000
816.060242 6228.000000
818.071167 6087.000000
820.080750 6573.000000
822.089111 5274.000000
824.096069 5667.000000
826.101807 6040.000000
828.106323 5698.000000
830.109558 5667.000000
832.111511 6417.000000
834.112183 6026.000000
836.111633 5885.000000
838.109741 6289.000000
840.106750 6926.000000
842.102356 6206.000000
844.096802 5956.000000
846.089905 6179.000000
848.081787 6878.000000
850.072327 5568.000000
852.061584 6840.000000
854.049805 5949.000000
856.036621 5779.000000
858.022217 6404.000000
860.006531 7320.000000
861.989746 6297.000000
863.971558 6370.000000
865.952148 5819.000000
867.931458 7729.000000
869.909607 7016.000000
871.886414 6198.000000
873.861938 5845.000000
875.836426 6175.000000
877.809448 6007.000000
879.781433 5445.000000
881.752075 6381.000000
883.721558 6038.000000
885.689697 5551.000000
887.656677 5151.000000
889.622314 6099.000000
891.586792 5818.000000
893.550049 5936.000000
895.512085 6439.000000
897.472839 5855.000000
899.432373 6379.000000
901.390625 6672.000000
903.347778 6293.000000
905.303772 5991.000000
907.258362 6827.000000
909.211731 6494.000000
911.163940 6453.000000
913.114929 6378.000000
915.064636 7118.000000
917.013184 6311.000000
918.960510 6145.000000
920.906555 6099.000000
922.851318 6013.000000
924.795044 6317.000000
926.737610 5891.000000
928.678894 5523.000000
930.618835 6431.000000
932.557678 5678.000000
934.495239 5459.000000
936.431580 5963.000000
938.366760 5818.000000
940.300659 6038.000000
942.233459 5800.000000
944.165039 6774.000000
946.095459 5198.000000
948.024658 6340.000000
949.952515 7029.000000
951.879333 6608.000000
953.804871 5896.000000
955.729126 5417.000000
957.652283 5933.000000
959.574280 6690.000000
961.494995 7336.000000
963.414551 6564.000000
965.332947 5262.000000
967.250305 6390.000000
969.166199 6352.000000
971.080994 6088.000000
972.994568 5936.000000
974.906982 6336.000000
976.818176 6440.000000
978.728210 5444.000000
980.636963 6149.000000
982.544678 6112.000000
984.451172 6312.000000
986.356445 5664.000000
988.260620 6841.000000
990.163574 6179.000000
992.065308 6845.000000
993.965881 6408.000000
995.865295 6612.000000
997.763489 5259.000000
999.660522 6487.000000
1001.556335 6499.000000
1003.450989 7585.000000
1005.344543 5593.000000
1007.236816 7130.000000
1009.128174 6122.000000
1011.018188 5342.000000
1012.906982 6515.000000
1014.794617 6387.000000
1016.681091 6909.000000
1018.566406 6736.000000
1020.450562 5904.000000
1022.333496 5854.000000
1024.215454 6179.000000
1026.096069 5151.000000
1027.975586 5824.000000
1029.854126 6068.000000
1031.731323 5448.000000
1033.607178 6155.000000
1035.482056 5910.000000
1037.355957 6560.000000
1039.228394 7089.000000
1041.099854 6741.000000
1042.969971 5535.000000
1044.839111 5513.000000
1046.707031 5729.000000
1048.573853 7167.000000
1050.439575 6715.000000
1052.304077 6503.000000
1054.167480 6430.000000
1056.029541 6430.000000
1057.890625 5854.000000
1059.750610 6458.000000
1061.609253 6586.000000
1063.466797 5748.000000
1065.323242 6721.000000
1067.178589 5897.000000
1069.032715 5757.000000
1070.885986 6273.000000
1072.737793 6313.000000
1074.588623 6214.000000
1076.438232 6122.000000
1078.286621 5654.000000
1080.134155 8042.000000
1081.980347 5559.000000
1083.825317 6193.000000
1085.669434 5380.000000
1087.512207 5545.000000
1089.353760 6485.000000
1091.194580 5454.000000
1093.033813 5779.000000
1094.872314 6061.000000
1096.709473 6050.000000
1098.545410 6767.000000
1100.380371 6556.000000
1102.214111 5367.000000
1104.046875 5666.000000
1105.878296 6157.000000
1107.708862 7238.000000
1109.538086 6497.000000
1111.366333 6419.000000
1113.193359 7032.000000
1115.019409 5399.000000
1116.844238 6245.000000
1118.667969 7166.000000
1120.490479 6038.000000
1122.311890 5860.000000
1124.132446 5895.000000
1125.951538 6547.000000
1127.769775 7028.000000
1129.586670 6809.000000
1131.402710 6612.000000
1133.217529 6410.000000
1135.031250 5599.000000
1136.843872 5749.000000
1138.655273 5638.000000
1140.465698 6057.000000
1142.275024 6724.000000
1144.083008 6962.000000
1145.890259 5950.000000
1147.696045 5920.000000
1149.500977 5383.000000
1151.304810 5400.000000
1153.107422 6125.000000
1154.909180 5985.000000
1156.709473 5996.000000
1158.508789 6118.000000
1160.307129 5861.000000
1162.104126 5426.000000
1163.900391 5811.000000
1165.695313 6004.000000
1167.489136 6285.000000
1169.282104 7719.000000
1171.073730 5548.000000
1172.864380 6466.000000
1174.654053 5949.000000
1176.442261 5851.000000
1178.229614 7431.000000
1180.015869 6805.000000
1181.801025 5741.000000
1183.585083 5978.000000
1185.368042 7687.000000
1187.150024 5806.000000
1188.930786 5891.000000
1190.710571 6326.000000
1192.489258 6889.000000
1194.266968 6643.000000
1196.043457 7157.000000
1197.818848 6559.000000
1199.593140 6485.000000
1201.366333 6662.000000
1203.138672 6410.000000
1204.909668 6687.000000
1206.679810 5695.000000
1208.448730 6018.000000
1210.216553 6288.000000
1211.983521 5781.000000
1213.749146 5874.000000
1215.513794 6939.000000
1217.277344 6552.000000
1219.039795 6020.000000
1220.801392 6747.000000
1222.561768 5840.000000
1224.321045 6310.000000
1226.079468 6081.000000
1227.836670 7089.000000
1229.592773 6458.000000
1231.347778 5532.000000
1233.101929 5949.000000
1234.854736 5815.000000
1236.606567 6030.000000
1238.357544 5905.000000
1240.107178 4877.000000
1241.855957 6942.000000
1243.603394 6511.000000
1245.350098 6544.000000
1247.095581 6431.000000
1248.840210 6423.000000
1250.583496 6728.000000
1252.325806 6638.000000
1254.067017 5356.000000
1255.807373 5062.000000
1257.546631 5791.000000
1259.284668 6560.000000
1261.021851 7089.000000
1262.757813 6116.000000
1264.492798 6392.000000
1266.226807 7202.000000
1267.959839 5933.000000
1269.691650 6186.000000
1271.422485 6428.000000
1273.152100 6808.000000
1274.880859 5933.000000
1276.608521 5670.000000
1278.335083 5428.000000
1280.060791 5548.000000
1281.785156 6492.000000
1283.508667 5190.000000
1285.231201 6945.000000
1286.952759 6592.000000
1288.673096 6125.000000
1290.392456 6717.000000
1292.110718 7204.000000
1293.828003 6430.000000
1295.544312 5724.000000
1297.259399 6311.000000
1298.973511 6131.000000
1300.686646 5764.000000
1302.398926 6444.000000
1304.109985 8285.000000
1305.820068 5279.000000
1307.529053 6279.000000
1309.236816 6640.000000
1310.943970 6941.000000
1312.649658 5794.000000
1314.354614 6899.000000
1316.058594 6170.000000
1317.761353 5956.000000
1319.463135 6522.000000
1321.164063 6033.000000
1322.863647 9159.000000
1324.562378 7357.500000
1326.260376 5556.000000
1327.957031 6465.000000
1329.652588 7178.000000
1331.347290 6770.000000
1333.040771 5635.000000
1334.733398 5353.000000
1336.425171 7383.000000
1338.115601 6224.000000
1339.805298 6501.000000
1341.493896 6091.000000
1343.181396 7619.000000
1344.867920 5630.000000
1346.553345 6769.000000
1348.237793 5979.000000
1349.921387 7286.000000
1351.603760 6346.000000
1353.285156 5945.000000
1354.965698 6519.000000
1356.645020 6742.000000
1358.323730 5892.000000
1360.001099 6548.000000
1361.677368 5775.000000
1363.352661 5510.000000
1365.027222 6528.000000
1366.700562 6361.000000
1368.372925 6729.000000
1370.044312 5158.000000
1371.714722 6684.000000
1373.384033 6140.000000
1375.052368 5630.000000
1376.719849 5910.000000
1378.386230 6456.000000
1380.051636 6109.000000
1381.716064 5852.000000
1383.379272 5908.000000
1385.041870 5737.000000
1386.703125 6385.000000
1388.363525 6554.000000
1390.022827 6441.000000
1391.681152 6472.000000
1393.338745 6823.000000
1394.995117 6439.000000
1396.650635 6996.000000
1398.304932 6294.000000
1399.958374 5844.000000
1401.610718 6103.000000
1403.262329 6486.000000
1404.912720 7157.000000
1406.562012 6248.000000
1408.210571 7468.000000
1409.858032 7835.000000
1411.504517 6157.000000
1413.150146 6255.000000
1414.794800 6044.000000
1416.438232 6992.000000
1418.080811 7150.000000
1419.722290 6911.000000
1421.362915 6430.000000
1423.002563 6433.000000
1424.641113 5964.000000
1426.278809 6584.000000
1427.915405 6315.000000
1429.551025 5953.000000
1431.185913 6318.000000
1432.819702 5828.000000
1434.452393 6029.000000
1436.084106 5614.000000
1437.714966 6107.000000
1439.344727 5992.000000
1440.973389 7745.000000
1442.601440 5947.000000
1444.228394 6201.000000
1445.854126 6179.000000
1447.479248 6136.000000
1449.103271 6446.000000
1450.726318 5971.000000
1452.348389 6002.000000
1453.969360 7294.000000
1455.589355 6352.000000
1457.208618 6945.000000
1458.826538 5715.000000
1460.443848 5611.500000
1462.060181 5508.000000
1463.675293 7189.000000
1465.289551 6215.000000
1466.902954 5163.000000
1468.515259 5613.000000
1470.126709 6233.000000
1471.737305 6358.000000
1473.346680 5914.000000
1474.955078 5959.000000
1476.562622 6159.000000
1478.169189 6798.000000
1479.775024 5256.000000
1481.379639 6289.000000
1482.983398 5470.000000
1484.585938 6758.000000
1486.187866 5569.000000
1487.788574 5457.000000
1489.388550 5531.000000
1490.987427 6237.000000
1492.585449 6480.000000
1494.182373 6658.000000
1495.778442 6318.000000
1497.373535 6006.000000
1498.967651 5438.000000
1500.561035 6517.000000
1502.153320 5429.000000
1503.744385 6124.000000
1505.334961 6785.000000
1506.924194 6429.000000
1508.512817 6082.000000
1510.100342 6543.000000
1511.686768 6788.000000
1513.272461 6187.000000
1514.857056 6587.000000
1516.440796 6212.000000
1518.023438 6194.000000
1519.605347 6588.000000
1521.186157 6618.000000
1522.766235 6015.000000
1524.345093 6233.000000
1525.923096 6300.000000
1527.500366 6253.000000
1529.076416 5681.000000
1530.651733 5898.000000
1532.225952 6310.000000
1533.799438 5468.000000
1535.371704 5991.000000
1536.943237 6323.000000
1538.513794 6429.000000
1540.083496 6293.000000
1541.651978 5437.000000
1543.219727 6582.000000
1544.786621 5611.000000
1546.352295 6855.000000
1547.917236 5919.000000
1549.481079 5079.000000
1551.044312 7432.000000
1552.606201 6255.000000
1554.167480 5951.000000
1555.727661 5667.000000
1557.287109 5742.000000
1558.845459 5920.000000
1560.403076 6262.000000
1561.959595 7002.000000
1563.514893 5874.000000
1565.069580 6305.000000
1566.623535 5624.000000
1568.176514 6348.000000
1569.728149 5612.000000
1571.279053 5817.000000
1572.829224 6179.000000
1574.378418 6348.000000
1575.926270 5773.000000
1577.473633 5485.000000
1579.020020 5670.000000
1580.565552 5059.000000
1582.110107 6640.000000
1583.653442 6306.000000
1585.196167 6615.000000
1586.738037 6396.000000
1588.278809 6774.000000
1589.818604 5776.000000
1591.357666 6640.000000
1592.895630 5934.000000
1594.433105 6068.000000
1595.969238 5877.000000
1597.504272 6661.000000
1599.038818 6261.000000
1600.572388 5972.000000
1602.105103 5988.000000
1603.636230 6263.000000
1605.167114 6263.000000
1606.697144 5727.000000
1608.225952 6080.000000
1609.753662 6125.000000
1611.280762 5975.000000
1612.807129 5787.000000
1614.332520 6295.000000
1615.857056 5801.000000
1617.380249 5846.000000
1618.902710 5511.000000
1620.424438 6506.000000
1621.945313 6919.000000
1623.464722 15567.000000
1624.983643 6133.000000
1626.501831 6074.000000
1628.019165 5912.000000
1629.535400 6362.000000
1631.050293 7047.000000
1632.564697 6811.000000
1634.078369 5796.000000
1635.590942 6789.000000
1637.102295 5929.000000
1638.613281 6431.000000
1640.123169 6218.000000
1641.632202 6177.000000
1643.139893 5583.000000
1644.647217 6118.000000
1646.153687 7082.000000
1647.659180 6245.000000
1649.163818 6806.000000
1650.666992 6110.000000
1652.169556 6505.000000
1653.671753 6304.000000
1655.172607 6667.000000
1656.672363 7561.000000
1658.171265 5941.000000
1659.669800 6519.000000
1661.167114 6245.000000
1662.663696 5895.000000
1664.158691 6438.000000
1665.653442 6290.000000
1667.147339 5202.000000
1668.640259 5538.000000
1670.131836 5997.500000
1671.622925 6457.000000
1673.113403 6076.000000
1674.602783 5964.000000
1676.090698 6957.000000
1677.578369 6857.000000
1679.065063 6014.000000
1680.550903 5297.000000
1682.035889 6052.000000
1683.519409 6075.000000
1685.002686 6199.000000
1686.485107 5905.000000
1687.966431 6210.000000
1689.446289 6165.000000
1690.925903 5550.000000
1692.404785 6582.000000
1693.882690 5967.000000
1695.359619 6088.000000
1696.835327 5774.000000
1698.310669 6005.000000
1699.784790 6284.000000
1701.258301 5443.000000
1702.730347 5552.000000
1704.202148 6849.000000
1705.672974 6382.000000
1707.142944 7049.000000
1708.611572 5151.000000
1710.079712 5805.000000
1711.547119 6354.000000
1713.013428 5473.000000
1714.479126 5735.000000
1715.943115 6175.000000
1717.406982 5879.000000
1718.869995 6968.000000
1720.332031 6359.000000
1721.792847 6591.000000
1723.253052 5410.000000
1724.712524 5642.000000
1726.171143 6121.000000
1727.628784 5987.000000
1729.085083 6215.000000
1730.541138 6009.000000
1731.996216 6380.000000
1733.450317 5978.000000
1734.903198 6871.000000
1736.355835 5963.000000
1737.807373 6718.000000
1739.258179 5896.000000
1740.708008 6513.000000
1742.156494 5971.000000
1743.604614 7374.000000
1745.051880 6497.000000
1746.498413 6697.000000
1747.943359 6691.000000
1749.388062 6171.000000
1750.831909 5785.000000
1752.274902 5483.000000
1753.716431 6567.000000
1755.157715 6338.000000
1756.598145 6318.500000
1758.037598 6299.000000
1759.476074 5331.000000
1760.913574 5978.000000
1762.350586 7573.000000
1763.786621 5807.000000
1765.221802 7110.000000
1766.655518 6147.000000
1768.089111 6416.000000
1769.521729 6595.000000
1770.953491 5771.000000
1772.384399 5728.000000
1773.814087 6358.000000
1775.243042 6124.000000
1776.671509 6246.000000
1778.098999 6722.000000
1779.525146 6209.000000
1780.951050 5592.000000
1782.375854 6884.000000
1783.800049 5517.000000
1785.222778 6684.000000
1786.645020 6494.000000
1788.066528 6921.000000
1789.487305 5844.000000
1790.907104 6083.000000
1792.325562 6149.000000
1793.743530 6812.000000
1795.160889 5495.000000
1796.577393 5960.000000
1797.992432 6490.000000
1799.407104 5795.000000
1800.821167 6581.000000
1802.234009 5966.000000
1803.646240 6916.000000
1805.057129 7137.000000
1806.467529 7778.000000
1807.877197 6399.000000
1809.285889 5964.000000
1810.693481 5417.000000
1812.100586 6422.000000
1813.506836 6353.000000
1814.912109 6687.000000
1816.316284 5969.000000
1817.720093 5882.000000
1819.122925 6257.000000
1820.524902 5986.000000
1821.926270 5815.000000
1823.326172 6323.000000
1824.725464 6465.000000
1826.124268 6499.000000
1827.522217 7401.000000
1828.918823 5762.000000
1830.314819 6759.000000
1831.710083 5890.000000
1833.104736 8095.000000
1834.498413 5991.000000
1835.890747 6892.000000
1837.282593 6342.000000
1838.673828 5844.000000
1840.064087 7106.000000
1841.453125 6007.000000
1842.841797 5988.000000
1844.229492 6013.000000
1845.616455 5797.000000
1847.002075 6841.000000
1848.387451 5867.000000
1849.771973 6393.000000
1851.155762 6267.000000
1852.538452 6346.000000
1853.919922 5347.000000
1855.300903 6474.000000
1856.681396 6314.000000
1858.060913 5647.000000
1859.438965 6004.000000
1860.816895 6242.000000
1862.193848 7849.000000
1863.570068 6041.000000
1864.945435 6054.000000
1866.319336 5588.000000
1867.693115 5729.000000
1869.066040 6150.000000
1870.437866 5963.000000
1871.808716 6804.000000
1873.179199 5441.000000
1874.548584 6078.000000
1875.917480 6028.000000
1877.284790 7126.000000
1878.651978 6056.000000
1880.018188 6006.000000
1881.383667 6776.000000
1882.748413 7476.000000
1884.111572 6724.000000
1885.474609 6892.000000
1886.836792 6281.000000
1888.198120 6472.000000
1889.558105 5589.000000
1890.917725 5832.000000
1892.276733 6080.000000
1893.634766 6658.000000
1894.991943 7305.000000
1896.347900 5950.000000
1897.703613 7620.000000
1899.058350 5820.000000
1900.412231 5525.000000
1901.765015 5906.000000
1903.117310 5905.000000
1904.468872 5945.000000
1905.819580 6793.000000
1907.169067 6523.000000
1908.518066 6640.000000
1909.866211 5830.000000
1911.213745 6026.000000
1912.560547 6303.000000
1913.905762 6843.000000
1915.250732 6037.000000
1916.594971 5372.000000
1917.938354 6520.000000
1919.280396 5978.000000
1920.622192 6630.000000
1921.963135 7031.000000
1923.303345 6196.000000
1924.642578 6305.000000
1925.980835 6236.000000
1927.318481 6477.000000
1928.655396 6971.000000
1929.991455 6721.000000
1931.326294 5566.000000
1932.660767 6708.000000
1933.994507 7311.000000
1935.327393 6215.000000
1936.658813 5758.000000
1937.990356 6345.000000
1939.320557 6677.000000
1940.650269 5774.000000
1941.979126 6038.000000
1943.306763 5816.000000
1944.633911 4979.000000
1945.960327 5858.000000
1947.286011 6536.000000
1948.610352 5741.000000
1949.934448 6637.000000
1951.257690 6319.000000
1952.580200 6412.000000
1953.901611 5760.000000
1955.222046 7375.000000
1956.541870 5967.000000
1957.861328 5526.000000
1959.179810 6876.000000
1960.496948 5849.000000
1961.813721 5842.000000
1963.129761 6562.000000
1964.445068 6524.000000
1965.758911 6317.000000
1967.072510 5678.000000
1968.385376 6280.000000
1969.697388 6016.000000
1971.008789 6044.000000
1972.318848 6338.000000
1973.628418 5809.000000
1974.937256 6133.000000
1976.245483 6573.000000
1977.552368 6109.000000
1978.858643 7176.000000
1980.164551 5542.000000
1981.469238 6419.000000
1982.773438 5934.000000
1984.076416 5690.000000
1985.379028 7572.000000
1986.680664 6069.000000
1987.981689 6774.000000
1989.281128 5984.000000
1990.580688 6556.000000
1991.879150 5253.000000
1993.177124 6090.000000
1994.473511 6089.000000
1995.769897 5708.000000
1997.065308 5613.000000
1998.359985 6487.000000
1999.653809 5737.000000
2000.946411 6554.000000
2002.238525 5668.000000
2003.530151 7130.000000
2004.821045 6419.000000
2006.110352 6266.000000
2007.399414 6832.000000
2008.687744 6021.000000
2009.975342 6000.000000
2011.262085 6611.000000
2012.547729 5620.000000
2013.833008 6324.000000
2015.117310 5970.000000
2016.401001 5613.000000
2017.683350 6027.000000
2018.965332 6408.000000
2020.246826 6744.000000
2021.527344 5932.000000
2022.807129 6135.000000
2024.085815 6750.000000
2025.363770 5797.000000
2026.641235 5853.000000
2027.918091 6249.000000
2029.193237 5755.000000
2030.468506 6493.000000
2031.742798 6079.000000
2033.016113 5922.000000
2034.288574 5902.000000
2035.560669 6062.000000
2036.831665 6938.000000
2038.102417 6579.000000
2039.371826 6005.000000
2040.640137 6928.000000
2041.908447 6588.000000
2043.175781 5857.000000
2044.442383 5983.000000
2045.707764 5595.000000
2046.972534 5764.000000
2048.237061 5417.000000
2049.500244 5811.000000
2050.763184 6407.000000
2052.024170 6118.000000
2053.285645 6088.000000
2054.545898 5871.000000
2055.805420 6491.000000
2057.064209 6222.000000
2058.322021 6825.000000
2059.579346 6141.000000
2060.835938 5994.000000
2062.091064 6523.000000
2063.346191 5657.000000
2064.600342 5535.000000
2065.853760 5646.000000
2067.106445 6832.000000
2068.357910 6230.000000
2069.609131 6162.000000
2070.859619 5590.000000
2072.109375 5357.000000
2073.357666 6117.000000
2074.605957 6552.000000
2075.853271 7421.000000
2077.099854 5585.000000
2078.345703 5991.000000
2079.590332 6907.000000
2080.834473 7593.000000
2082.078125 5499.000000
2083.320801 6090.000000
2084.562256 6922.000000
2085.803467 5967.000000
2087.044189 6354.000000
2088.283936 6731.000000
2089.522461 7089.000000
2090.760498 6144.000000
2091.997803 5758.000000
2093.234863 6625.000000
2094.470459 6110.000000
2095.705322 6190.000000
2096.939941 6052.000000
2098.173584 5597.000000
2099.406250 6087.000000
2100.638184 6837.000000
2101.869629 6392.000000
2103.100098 6789.000000
2104.329834 5971.000000
2105.559326 5987.000000
2106.786865 5955.000000
2108.014648 5957.000000
2109.241699 6331.000000
2110.467773 5487.000000
2111.692383 6391.000000
2112.917236 6927.000000
2114.140869 7090.000000
2115.364014 6194.000000
2116.585938 7487.000000
2117.807617 5963.000000
2119.028320 6810.000000
2120.248291 6009.000000
2121.467773 6060.000000
2122.685791 6555.000000
2123.903809 6999.000000
2125.120850 5709.000000
2126.337402 5790.000000
2127.552246 6540.000000
2128.767334 6351.000000
2129.981445 6886.000000
2131.194824 5630.000000
2132.407471 6092.000000
2133.618652 5760.000000
2134.830078 6482.000000
2136.040283 6892.000000
2137.250000 5944.000000
2138.458252 6216.000000
2139.666504 5632.000000
2140.874023 5916.000000
2142.080322 7628.000000
2143.285889 5852.000000
2144.491211 5693.000000
2145.695557 5545.000000
2146.899170 6308.000000
2148.102295 6157.000000
2149.303955 6540.000000
2150.505371 5286.000000
2151.706055 6254.000000
2152.906006 6044.000000
2154.104736 5906.000000
2155.303223 6976.000000
2156.501221 6153.000000
2157.698242 5981.000000
2158.894531 5164.000000
2160.089600 5304.000000
2161.284424 6100.000000
2162.478516 5583.000000
2163.671631 5963.000000
2164.863770 6885.000000
2166.055664 5872.000000
2167.246826 6256.000000
2168.437012 6226.000000
2169.626465 6479.000000
2170.815430 6811.000000
2172.003418 5961.000000
2173.191162 5704.000000
2174.377441 5969.000000
2175.562988 6555.000000
2176.748291 5995.000000
2177.933105 5839.000000
2179.116699 6328.000000
2180.299561 7494.000000
2181.481445 6306.000000
2182.663086 5959.000000
2183.844238 6519.000000
2185.024170 5697.000000
2186.203125 5541.000000
2187.381592 6325.000000
2188.559814 6822.000000
2189.736816 7098.000000
2190.912842 6702.000000
2192.088623 6130.000000
2193.263916 5638.000000
2194.437744 6668.000000
2195.611084 6145.000000
2196.784180 6161.000000
2197.956055 6385.000000
2199.127441 7065.000000
2200.298340 6281.000000
2201.467529 6931.000000
2202.636719 7506.000000
2203.805420 6243.000000
2204.973145 5839.000000
2206.139893 5622.000000
2207.305908 7063.000000
2208.471436 6728.000000
2209.636719 5915.000000
2210.800537 6726.000000
2211.963867 5356.000000
2213.125977 6135.000000
2214.288330 6176.000000
2215.449463 6598.000000
2216.609619 6649.000000
2217.769287 6301.000000
2218.928711 6555.000000
2220.086914 6316.000000
2221.244141 6276.000000
2222.401123 6766.000000
2223.557373 6579.000000
2224.712891 6706.000000
2225.867676 6240.000000
2227.021484 6397.000000
2228.174316 6048.000000
2229.327637 6834.000000
2230.479004 6145.000000
2231.630127 6097.000000
2232.780518 6450.000000
2233.930420 7701.000000
2235.079346 6280.000000
2236.227783 5154.000000
2237.374756 6826.000000
2238.521973 7052.000000
2239.667969 6059.000000
2240.813721 7241.000000
2241.957764 7256.000000
2243.102051 6744.000000
2244.245361 6132.000000
2245.387939 5930.000000
2246.529541 5730.000000
2247.670898 5880.000000
2248.811279 6333.000000
2249.950928 6437.000000
2251.090088 5833.000000
2252.228027 5881.000000
2253.365967 6208.000000
2254.502930 5266.000000
2255.639160 6319.000000
2256.774414 6079.000000
2257.908936 7259.000000
2259.043213 6425.000000
2260.177002 5481.000000
2261.309326 6086.000000
2262.441162 6835.000000
2263.572510 6278.000000
2264.702881 6483.000000
2265.833008 8058.000000
2266.961914 6613.000000
2268.090332 6111.000000
2269.218262 5568.000000
2270.345215 6066.000000
2271.471436 5932.000000
2272.596680 6707.000000
2273.721924 6483.000000
2274.846436 6417.000000
2275.969727 5900.000000
2277.092285 6317.000000
2278.214355 5967.000000
2279.335938 7338.000000
2280.456787 6395.000000
2281.576416 6336.000000
2282.695557 7131.000000
2283.814453 7647.000000
2284.932617 7144.000000
2286.049805 5907.000000
2287.166016 6417.000000
2288.281982 6934.000000
2289.397217 6858.000000
2290.511719 7381.000000
2291.625000 5719.000000
2292.738281 6338.000000
2293.850830 6024.000000
2294.962646 5317.000000
2296.073730 6742.000000
2297.183594 6431.000000
2298.292969 6148.000000
2299.402100 6701.000000
2300.510254 6291.000000
2301.617432 6748.000000
2302.724365 5903.000000
2303.830566 6212.000000
2304.936279 6586.000000
2306.040527 6591.000000
2307.144531 5477.000000
2308.248047 5670.000000
2309.351074 6532.000000
2310.452881 7405.000000
2311.553955 7318.000000
2312.654541 6555.000000
2313.754639 5445.000000
2314.854004 6360.000000
2315.951904 6558.000000
2317.050293 6964.000000
2318.147217 8266.000000
2319.243896 6826.000000
2320.340088 5737.000000
2321.434570 6865.000000
2322.529053 7544.000000
2323.622803 5824.000000
2324.716309 5949.000000
2325.808105 6451.000000
2326.899902 6962.000000
2327.990967 6089.000000
2329.081299 6304.000000
2330.170654 6882.000000
2331.260010 6038.000000
2332.348145 6277.000000
2333.435791 6854.000000
2334.523193 6496.000000
2335.608887 6652.000000
2336.694336 7709.000000
2337.779541 6294.000000
2338.863770 6709.000000
2339.947021 5885.000000
2341.030029 6388.000000
2342.112061 7090.000000
2343.193848 5992.000000
2344.274902 7339.000000
2345.354736 6663.000000
2346.434082 5733.000000
2347.512939 6737.000000
2348.591309 6533.000000
2349.668213 6222.000000
2350.744873 6962.000000
2351.821289 5995.000000
2352.896729 6458.000000
2353.971191 5895.000000
2355.045410 6257.000000
2356.118896 6705.000000
2357.191895 6166.000000
2358.263672 7000.000000
2359.335205 6187.000000
2360.405762 6723.000000
2361.476074 7531.000000
2362.545410 7568.000000
2363.613770 6805.000000
2364.681885 6738.000000
2365.749268 7058.000000
2366.816162 7071.000000
2367.882324 6057.000000
2368.947266 6887.000000
2370.012207 6900.000000
2371.076416 6321.000000
2372.139893 6907.000000
2373.202148 5754.000000
2374.264404 6271.000000
2375.325684 6329.000000
2376.386719 5911.000000
2377.446533 6278.000000
2378.505615 7913.000000
2379.564697 6442.000000
2380.622803 7518.000000
2381.680176 6883.000000
2382.736572 8064.000000
2383.792725 7823.000000
2384.848389 6192.000000
2385.903320 7056.000000
2386.956787 6751.000000
2388.010498 6484.000000
2389.063232 6195.000000
2390.115479 6721.000000
2391.166992 6093.000000
2392.217529 6598.000000
2393.267822 6441.000000
2394.317139 6179.000000
2395.366455 6154.000000
2396.414307 6866.000000
2397.461670 6953.000000
2398.508789 6306.000000
2399.554932 6687.000000
2400.600342 6157.000000
2401.645020 6732.000000
2402.689697 7711.000000
2403.732910 7420.000000
2404.776123 6510.000000
2405.817871 5762.000000
2406.859863 6709.000000
2407.901123 7086.000000
2408.941406 6125.000000
2409.980957 6345.000000
2411.019531 6357.000000
2412.058350 6086.000000
2413.095947 6489.000000
2414.133301 6814.000000
2415.169434 7330.000000
2416.205322 6267.000000
2417.240479 6304.000000
2418.275146 6635.000000
2419.308350 7237.000000
2420.341797 6472.000000
2421.374268 6694.000000
2422.406494 6792.000000
2423.437256 7066.000000
2424.468018 6395.000000
2425.498291 6808.000000
2426.527344 6852.000000
2427.556396 6632.000000
2428.583740 7400.000000
2429.611572 6687.000000
2430.638184 7261.000000
2431.664551 6897.000000
2432.689453 7697.000000
2433.714600 6516.000000
2434.738770 7135.000000
2435.762695 6735.000000
2436.785400 5802.000000
2437.807373 6302.000000
2438.829102 6605.000000
2439.850098 6591.000000
2440.870605 5935.000000
2441.889893 6529.000000
2442.909180 6504.000000
2443.927490 8383.000000
2444.945557 6283.000000
2445.962158 6407.000000
2446.978760 6546.000000
2447.994629 5984.000000
2449.010498 6966.000000
2450.024902 6850.000000
2451.038574 5567.000000
2452.051758 7189.000000
2453.064697 5917.000000
2454.076904 7108.000000
2455.088135 6705.000000
2456.099121 7603.000000
2457.109375 6338.000000
2458.119141 7587.000000
2459.127930 5924.000000
2460.135986 5886.000000
2461.144043 6287.000000
2462.150879 7329.000000
2463.157471 5407.000000
2464.162842 7313.000000
2465.167969 6921.000000
2466.172852 5879.000000
2467.176514 6503.000000
2468.179932 6290.000000
2469.182373 7627.000000
2470.184570 7331.000000
2471.186279 6858.000000
2472.187012 6534.000000
2473.186768 6984.000000
2474.186523 6751.000000
2475.185303 5647.000000
2476.183594 6560.000000
2477.180908 7041.000000
2478.177979 6117.000000
2479.175049 6971.000000
2480.170654 5815.000000
2481.166260 7109.000000
2482.160156 6670.000000
2483.154053 8047.000000
2484.147461 6822.000000
2485.140381 6763.000000
2486.132324 7471.000000
2487.123535 7168.000000
2488.114502 6723.000000
2489.104980 5845.000000
2490.094482 6562.000000
2491.083252 6483.000000
2492.072021 5637.000000
2493.059814 6751.000000
2494.046387 6571.000000
2495.032959 8001.000000
2496.019043 6726.000000
2497.004395 7158.000000
2497.988770 8310.000000
2498.972900 5974.000000
2499.957031 6818.000000
2500.939697 5657.000000
2501.921875 6992.000000
2502.903564 6880.000000
2503.884521 7233.000000
2504.864990 6532.000000
2505.845215 5746.000000
2506.823975 6368.000000
2507.802490 7548.000000
2508.780518 6671.000000
2509.758057 7104.000000
2510.734619 6064.000000
2511.710938 5924.000000
2512.686523 6348.000000
2513.661621 6254.000000
2514.636230 6425.000000
2515.609619 7476.000000
2516.582764 6772.000000
2517.555664 6809.000000
2518.527588 6064.000000
2519.498779 6814.000000
2520.469482 6880.000000
2521.439941 7829.000000
2522.409668 8007.000000
2523.378418 6089.000000
2524.346436 6132.000000
2525.314453 7817.000000
2526.281494 6298.000000
2527.248291 5447.000000
2528.213867 7243.000000
2529.179443 6993.000000
2530.144287 7778.000000
2531.108643 6300.000000
2532.071777 6346.000000
2533.035156 5862.000000
2533.997559 5951.000000
2534.959717 6689.000000
2535.920654 6337.000000
2536.880859 6096.000000
2537.841309 6136.000000
2538.800781 6679.000000
2539.759521 6803.000000
2540.717285 6711.000000
2541.675293 6217.000000
2542.632568 6728.000000
2543.588867 6026.000000
2544.544922 7002.000000
2545.499756 6162.000000
2546.454834 7774.000000
2547.409180 7028.000000
2548.362793 6829.000000
2549.315430 7224.000000
2550.267822 6705.000000
2551.219727 6901.000000
2552.170898 6432.000000
2553.121338 7735.000000
2554.071289 7260.000000
2555.020996 7411.000000
2555.969971 6658.000000
2556.918457 6241.000000
2557.865723 7119.000000
2558.812988 6244.000000
2559.759521 6475.000000
2560.705566 6704.000000
2561.650635 7399.000000
2562.595459 6767.000000
2563.539795 7176.000000
2564.483643 6807.000000
2565.427002 6637.000000
2566.368896 6531.000000
2567.311035 6546.000000
2568.252441 6172.000000
2569.193115 7074.000000
2570.133057 7299.000000
2571.072998 5679.000000
2572.011963 6084.000000
2572.950684 7464.000000
2573.888428 7185.000000
2574.825928 5474.000000
2575.762695 6855.000000
2576.698730 6869.000000
2577.634277 7517.000000
2578.569092 6355.000000
2579.503906 5964.000000
2580.437744 7059.000000
2581.371094 7259.000000
2582.303711 5839.000000
2583.236084 6903.000000
2584.167725 5400.000000
2585.098877 7019.000000
2586.029541 6931.000000
2586.958984 6867.000000
2587.888428 7223.000000
2588.817383 6389.000000
2589.746094 7407.000000
2590.673096 7222.000000
2591.600342 5850.000000
2592.527100 6742.000000
2593.453125 6246.000000
2594.378906 5622.000000
2595.303467 7641.000000
2596.227783 7589.000000
2597.151611 5296.000000
2598.074951 7244.000000
2598.997314 6265.000000
2599.919434 6790.000000
2600.841064 8230.000000
2601.761963 6429.000000
2602.682129 5749.000000
2603.602051 6338.000000
2604.521484 6385.000000
2605.440674 6425.000000
2606.358887 5802.000000
2607.275879 5958.000000
2608.193115 7205.000000
2609.110107 5858.000000
2610.026123 7522.000000
2610.940918 6677.000000
2611.856201 6640.000000
2612.770752 6546.000000
2613.684326 6564.000000
2614.597900 6081.000000
2615.510254 7531.000000
2616.422607 7093.000000
2617.333984 6748.000000
2618.245117 5709.000000
2619.155518 7203.000000
2620.065674 6615.000000
2620.975098 6138.000000
2621.884033 6633.000000
2622.791992 6250.000000
2623.700195 6791.000000
2624.607422 6643.000000
2625.514160 7060.000000
2626.420166 5938.000000
2627.325928 6597.000000
2628.230957 6482.000000
2629.135742 7779.000000
2630.039795 6464.000000
2630.942871 6392.000000
2631.845947 6358.000000
2632.748047 5649.000000
2633.650146 6718.000000
2634.552002 7013.000000
2635.452148 6768.000000
2636.352539 6393.000000
2637.252197 6447.000000
2638.151611 6004.000000
2639.049561 6851.000000
2639.947998 6776.000000
2640.845947 6454.000000
2641.743164 6047.000000
2642.639160 6180.000000
2643.535156 6791.000000
2644.430908 6049.000000
2645.325928 6409.000000
2646.220703 6623.000000
2647.114014 7021.000000
2648.007324 6222.000000
2648.900391 6750.000000
2649.793213 6435.000000
2650.684326 7403.000000
2651.575684 6378.000000
2652.466553 7628.000000
2653.356689 7276.000000
2654.246582 6539.000000
2655.135254 7294.000000
2656.024170 6609.000000
2656.912598 6549.000000
2657.800049 7293.000000
2658.686523 6451.000000
2659.573486 7061.000000
2660.459717 6794.000000
2661.345459 6815.000000
2662.229980 6490.000000
2663.114502 6363.000000
2663.998779 6179.000000
2664.882324 7001.000000
2665.765381 7763.000000
2666.647705 7281.000000
2667.529541 6175.000000
2668.410645 6567.000000
2669.291992 6067.000000
2670.171875 6526.000000
2671.052002 7310.000000
2671.931396 7215.000000
2672.810791 6202.000000
2673.689453 6191.000000
2674.566406 6368.000000
2675.444092 6761.000000
2676.321045 6335.000000
2677.197266 8209.000000
2678.072998 7147.000000
2678.947998 6237.000000
2679.823242 7699.000000
2680.697510 6959.000000
2681.571289 7311.000000
2682.444336 7018.000000
2683.317139 6139.000000
2684.189697 6090.000000
2685.061523 6934.000000
2685.932617 6503.000000
2686.803467 6844.000000
2687.673828 7034.000000
2688.543945 6677.000000
2689.412354 6228.000000
2690.281494 7334.000000
2691.149902 7037.000000
2692.018066 6601.000000
2692.885498 6891.000000
2693.751709 5809.000000
2694.618408 7172.000000
2695.484131 7391.000000
2696.349854 7126.000000
2697.214111 7966.000000
2698.079102 6599.000000
2698.942627 7276.000000
2699.806396 5774.000000
2700.668701 7465.000000
2701.531494 6748.000000
2702.393311 5806.000000
2703.254639 6825.000000
2704.115967 6725.000000
2704.976074 7410.000000
2705.836182 7332.000000
2706.695801 6532.000000
2707.555176 6894.000000
2708.412842 7099.000000
2709.270752 6861.000000
2710.129150 7268.000000
2710.986328 6636.000000
2711.842773 6008.000000
2712.698730 6850.000000
2713.554688 6098.000000
2714.409912 6948.000000
2715.264404 6052.000000
2716.118408 6781.000000
2716.972412 7292.000000
2717.825439 6257.000000
2718.678711 6464.000000
2719.530273 7744.000000
2720.382324 6734.000000
2721.234131 6193.000000
2722.084717 6474.000000
2722.935303 6413.000000
2723.785400 7072.000000
2724.634766 7012.000000
2725.484131 7011.000000
2726.332275 6657.000000
2727.179932 6551.000000
2728.028076 7016.000000
2728.875000 6804.000000
2729.722412 5479.000000
2730.568359 7474.000000
2731.413574 6967.000000
2732.259277 6424.000000
2733.104004 6981.000000
2733.948730 7294.000000
2734.792236 6849.000000
2735.635986 7758.000000
2736.479004 7069.000000
2737.321533 6031.000000
2738.163086 6273.000000
2739.005127 6763.000000
2739.846191 6920.000000
2740.687012 5754.000000
2741.527588 5914.000000
2742.366943 7734.000000
2743.206299 6795.000000
2744.045654 6872.000000
2744.883789 6773.000000
2745.721436 7876.000000
2746.559082 6284.000000
2747.396240 7087.000000
2748.233154 6220.000000
2749.069580 5983.000000
2749.904785 6640.000000
2750.740234 6264.000000
2751.575195 6342.000000
2752.409424 6184.000000
2753.243408 6847.000000
2754.076904 6824.000000
2754.910400 8009.000000
2755.742920 6789.000000
2756.574951 7265.000000
2757.406494 6775.000000
2758.238037 7049.000000
2759.068604 7219.000000
2759.899414 7243.000000
2760.729004 7278.000000
2761.558594 6642.000000
2762.387939 7226.000000
2763.216553 6847.000000
2764.044678 6718.000000
2764.872314 6917.000000
2765.699951 6637.000000
2766.527100 7889.000000
2767.353516 5742.000000
2768.179443 7481.000000
2769.004883 6786.000000
2769.830078 7802.000000
2770.655273 7022.000000
2771.479248 6749.000000
2772.303223 6471.000000
2773.127197 7617.000000
2773.949951 6585.000000
2774.772949 6928.000000
2775.594727 6903.000000
2776.416504 6943.000000
2777.238281 6510.000000
2778.059082 7943.000000
2778.879150 6517.000000
2779.699463 6990.000000
2780.519287 7255.000000
2781.339111 6400.000000
2782.156982 5943.000000
2782.976074 8046.000000
2783.793945 6500.000000
2784.611572 6714.000000
2785.428711 7072.000000
2786.245361 7182.000000
2787.061768 7180.000000
2787.877686 6245.000000
2788.693359 5912.000000
2789.508057 6441.000000
2790.323242 6964.000000
2791.137695 7145.000000
2791.951660 6635.000000
2792.765381 7408.000000
2793.577881 8787.000000
2794.390625 6985.000000
2795.202881 7427.000000
2796.014648 7151.000000
2796.825684 7297.000000
2797.637451 6438.000000
2798.447998 7163.000000
2799.258545 7075.000000
2800.067627 7315.000000
2800.877441 8139.000000
2801.686523 7740.000000
2802.495361 6607.000000
2803.303711 7198.000000
2804.111084 6139.000000
2804.918945 6546.000000
2805.726074 6901.000000
2806.532959 6970.000000
2807.338623 7129.000000
2808.144775 6635.000000
2808.950195 6461.000000
2809.755615 7303.000000
2810.560303 6152.000000
2811.364014 7591.000000
2812.168213 7507.000000
2812.971924 6343.000000
2813.775391 6095.000000
2814.577393 6589.000000
2815.380127 7315.000000
2816.182129 7851.000000
2816.983887 6095.000000
2817.785156 6518.000000
2818.585938 7219.000000
2819.386230 6487.000000
2820.186768 6666.000000
2820.986328 7975.000000
2821.785400 7164.000000
2822.584473 6478.000000
2823.383301 7030.000000
2824.181641 6292.000000
2824.979004 7075.000000
2825.776611 6956.000000
2826.573486 6677.000000
2827.370605 7317.000000
2828.166992 7868.000000
2828.962646 6947.000000
2829.758301 7305.000000
2830.553711 7547.000000
2831.348633 7407.000000
2832.142822 6569.000000
2832.937012 6827.000000
2833.730957 5623.000000
2834.524414 6807.000000
2835.317139 7115.000000
2836.109619 8139.000000
2836.902100 7655.000000
2837.694336 7686.000000
2838.486084 6451.000000
2839.276855 6751.000000
2840.067627 8847.000000
2840.858643 7515.000000
2841.648682 6200.000000
2842.438232 7630.000000
2843.228027 7162.000000
2844.016846 7287.000000
2844.805664 7774.000000
2845.594482 7677.000000
2846.382324 7425.000000
2847.169678 7224.000000
2847.957275 7442.000000
2848.744385 7313.000000
2849.530762 6630.000000
2850.317139 7454.000000
2851.103271 7217.000000
2851.888916 7460.000000
2852.673584 7078.000000
2853.458740 6841.000000
2854.243652 7404.000000
2855.027832 7082.000000
2855.812012 6905.000000
2856.594971 8304.000000
2857.378174 6879.000000
2858.161133 6705.000000
2858.943604 7692.000000
2859.725830 6239.000000
2860.507568 6605.000000
2861.289063 7587.000000
2862.070801 7494.000000
2862.851807 7664.000000
2863.632080 6587.000000
2864.412109 6727.000000
2865.192139 8082.000000
2865.971924 7389.000000
2866.750732 8104.000000
2867.529785 7715.000000
2868.308350 6783.000000
2869.086670 7073.000000
2869.864502 7298.000000
2870.642090 6913.000000
2871.419434 7446.000000
2872.196533 6935.000000
2872.973145 6399.000000
2873.749268 7421.000000
2874.525391 7182.000000
2875.301025 8237.000000
2876.076416 7202.000000
2876.851318 6598.000000
2877.625977 7987.000000
2878.400635 6665.000000
2879.175049 7866.000000
2879.948730 6817.000000
2880.721680 7141.000000
2881.495361 6731.000000
2882.268066 7626.000000
2883.040771 7821.000000
2883.812744 8239.000000
2884.584473 6247.000000
2885.356689 6751.000000
2886.127686 6788.000000
2886.898193 6103.000000
2887.669189 8259.000000
2888.440186 7310.000000
2889.210449 7942.000000
2889.979736 7629.000000
2890.749268 6883.000000
2891.518799 7218.000000
2892.287842 7345.000000
2893.056396 7833.000000
2893.824951 7639.000000
2894.592529 6995.000000
2895.360596 6516.000000
2896.128174 7382.000000
2896.895752 8339.000000
2897.662109 7342.000000
2898.429443 6483.000000
2899.195557 7209.000000
2899.961914 7004.000000
2900.726807 8263.000000
2901.492188 6916.000000
2902.258057 6462.000000
2903.022461 7755.000000
2903.786865 7752.000000
2904.551514 8438.000000
2905.315186 6620.000000
2906.079590 8384.000000
2906.843262 6662.000000
2907.606201 8417.000000
2908.368896 6457.000000
2909.132080 8968.000000
2909.894775 6953.000000
2910.656250 6836.000000
2911.418213 6836.000000
