scanname Analyse078
timestamp 2017-02-10 21:53:22
ccdbias 953.625488
ccdgain 3.473401
sigmaread 8.960639
laserwavenum -0.541917
wavenumcorrection -0.018953
scancount 1
totalexposurems 10000
singleexposurems 10000
measurementstate Unknown
scanmode Manual
snr 351.535095 9.695388 8.189405
replacelist 4
672 54000.000000 31314.000000
754 54000.000000 14494.000000
889 54057.000000 20866.000000
948 54080.000000 19470.000000
peaks 132
278.338898 0.726867 0.000000 1.445535 0.000186
284.682404 0.726653 0.000000 0.839182 0.000063
293.857880 0.728719 0.000000 0.603518 0.000028
303.495758 0.729989 0.000000 0.150919 0.000022
330.454681 0.748056 0.000000 0.791909 0.000138
341.858612 0.751190 0.000000 0.823617 0.000036
350.305267 0.754841 0.000000 0.620730 0.000024
360.670288 0.758404 0.000000 0.753871 0.000064
386.277740 0.757378 0.000000 1.398737 0.000305
460.133667 0.774074 0.000000 0.255835 0.000041
487.312195 0.788301 0.000000 0.874094 0.000112
535.317017 0.791079 0.000000 0.623739 0.000146
559.811768 0.831487 0.000000 1.265584 0.000226
571.603516 0.839013 0.000000 0.595012 0.000153
582.779663 0.831589 0.000000 0.646663 0.000105
661.034668 0.865690 0.000000 0.888827 0.000204
671.828552 0.859582 0.000000 0.682696 0.000119
715.735535 0.883152 0.000000 5.641584 0.001190
725.215698 0.865245 0.000000 1.212391 0.000052
740.594604 0.888285 0.000000 0.324749 0.000143
757.127930 0.915002 0.000000 5.849473 0.000676
779.198730 0.917091 0.000000 8.298355 0.001305
823.849121 0.916011 0.000000 0.399536 0.000163
833.385498 0.920579 0.000000 1.034554 0.000176
843.553650 0.924397 0.000000 1.146512 0.000057
853.307556 0.949285 0.000000 1.087614 0.000285
868.501221 0.945522 0.000000 0.724849 0.000152
937.542236 1.022514 0.000000 0.720618 0.000410
954.314148 1.001518 0.000000 3.624215 0.001104
1013.701965 1.047408 0.000000 2.054600 0.000793
1020.469666 1.049318 0.000000 0.985488 0.000154
1026.848877 1.059435 0.000000 0.548829 0.000246
1044.192261 1.057229 0.000000 4.269742 0.001401
1104.465576 1.079744 0.000000 2.293870 0.000638
1117.702515 1.120838 0.000000 2.309059 0.000668
1134.656494 1.097764 0.000000 2.060670 0.000902
1150.184692 1.080680 0.000000 2.326380 0.000968
1174.411133 1.115059 0.000000 1.601474 0.000531
1187.250977 1.120357 0.000000 0.900243 0.000074
1211.626953 1.197178 0.000000 0.839704 0.000260
1222.578247 1.209267 0.000000 1.499013 0.000569
1232.315796 1.191664 0.000000 1.238141 0.000340
1259.980103 1.229697 0.000000 2.860540 0.001373
1281.253296 1.173020 0.000000 0.295118 0.000450
1313.616455 1.239557 0.000000 2.179780 0.001212
1331.964966 1.312413 0.000000 3.701133 0.001322
1347.834229 1.314427 0.000000 0.851164 0.000767
1389.979736 1.297358 0.000000 0.696873 0.000289
1414.479126 1.380874 0.000000 3.027844 0.001825
1434.141235 1.436634 0.000000 1.584659 0.000815
1447.058350 1.429435 0.000000 1.447392 0.000534
1459.957886 1.428018 0.000000 2.256553 0.001567
1489.880981 1.507154 0.000000 4.231555 0.002651
1518.544556 1.453068 0.000000 0.210682 0.000149
1533.157227 1.543139 0.000000 0.771794 0.000972
1547.880127 1.568397 0.000000 0.542058 0.000344
1558.179077 1.593497 0.000000 1.487817 0.000948
1578.039673 1.587257 0.000000 1.676827 0.001561
1617.215942 1.631359 0.000000 12.769422 0.008418
1635.396973 1.649641 0.000000 5.415145 0.001500
1671.530640 1.774403 0.000000 1.350146 0.001072
1687.827515 1.805240 0.000000 0.877473 0.000574
1699.241211 1.820803 0.000000 0.988540 0.001467
1711.850952 1.797669 0.000000 1.044163 0.000966
1761.096680 1.864395 0.000000 0.875927 0.000944
1778.885254 2.004068 0.000000 5.644925 0.005693
1797.070313 2.011602 0.000000 0.756183 0.000646
1810.503540 2.037478 0.000000 3.454532 0.004046
1856.533813 2.091906 0.000000 1.229062 0.002165
1872.750610 2.172305 0.000000 1.376837 0.001077
1890.303711 2.242179 0.000000 1.628992 0.002820
1902.195923 2.247453 0.000000 1.648913 0.001919
1912.889038 2.226559 0.000000 0.563950 0.000680
1943.856079 2.280263 0.000000 0.895384 0.000643
1978.784790 2.413887 0.000000 0.748536 0.000460
1989.034058 2.524920 0.000000 1.115926 0.002771
1995.425659 2.539970 0.000000 1.705631 0.001645
2014.484741 2.600467 0.000000 1.003478 0.001201
2024.981323 2.614834 0.000000 1.561060 0.002389
2047.003174 2.605295 0.000000 0.461281 0.002091
2060.416992 2.632370 0.000000 0.307434 0.000252
2066.002197 2.679350 0.000000 0.275803 0.001925
2095.248291 2.806090 0.000000 0.558787 0.001532
2109.327637 2.914224 0.000000 1.503954 0.004280
2132.269043 2.914794 0.000000 2.230370 0.005659
2143.413330 2.925736 0.000000 0.445094 0.000990
2161.281250 3.062006 0.000000 1.829489 0.005265
2175.741455 3.237318 0.000000 2.415750 0.004719
2194.223145 3.225885 0.000000 0.976751 0.001772
2205.061523 3.202529 0.000000 1.402337 0.005042
2246.960938 3.551764 0.000000 1.716345 0.006494
2253.364014 3.624230 0.000000 1.199364 0.005420
2270.456299 3.760014 0.000000 3.075736 0.007340
2286.631104 3.792423 0.000000 3.343666 0.011783
2293.922119 3.738482 0.000000 1.437794 0.004318
2307.129395 3.725516 0.000000 0.752460 0.002954
2313.881104 3.743531 0.000000 0.673335 0.000547
2327.269287 3.894925 0.000000 0.949368 0.002403
2340.440186 4.013522 0.000000 0.866623 0.005716
2357.524170 4.220096 0.000000 0.546233 0.001392
2373.733398 4.434152 0.000000 1.791629 0.006533
2388.233887 4.447092 0.000000 1.459885 0.005799
2406.471680 4.475908 0.000000 0.830091 0.006777
2436.538574 4.827555 0.000000 0.562827 0.001275
2450.432617 4.988922 0.000000 1.802614 0.004032
2466.425537 5.196293 0.000000 3.364292 0.020196
2475.774902 5.251819 0.000000 1.500916 0.007768
2489.532715 5.220490 0.000000 0.851222 0.003761
2504.967773 5.289584 0.000000 1.194483 0.010922
2526.388916 5.564861 0.000000 2.092169 0.011288
2534.161377 5.695755 0.000000 1.407024 0.008732
2543.860840 5.852417 0.000000 1.649273 0.015316
2551.489746 5.909928 0.000000 0.570194 0.009512
2558.845947 6.014294 0.000000 0.872756 0.007257
2570.359619 6.149595 0.000000 0.658281 0.002178
2582.632813 6.179195 0.000000 0.792702 0.004891
2593.923340 6.212041 0.000000 1.056152 0.003091
2605.989014 6.312009 0.000000 1.526516 0.007946
2620.951416 6.398510 0.000000 1.186207 0.007027
2632.436768 6.409963 0.000000 1.335476 0.011579
2648.119385 6.392944 0.000000 0.780963 0.014361
2660.816895 6.460566 0.000000 0.970212 0.010451
2668.211182 6.402534 0.000000 2.434147 0.028828
2682.879639 6.324508 0.000000 1.357831 0.020523
2692.858154 6.358310 0.000000 1.833468 0.025625
2701.533691 6.353239 0.000000 0.543745 0.008683
2740.617920 6.286481 0.000000 0.350814 0.014093
2750.544922 6.265799 0.000000 0.913749 0.008600
2781.413818 6.160903 0.000000 1.065639 0.015574
2789.028320 6.131095 0.000000 1.435421 0.013306
2833.547852 5.960007 0.000000 0.416384 0.011505
2883.104248 5.866106 0.000000 0.046870 0.001409
finalresult GLS_NoMatch 0
spectrum 2048
-97.059540 47651.000000
-94.432671 47651.000000
-91.807678 47754.000000
-89.184578 47449.000000
-86.563347 48052.000000
-83.944016 47593.000000
-81.326546 47811.000000
-78.710953 47393.000000
-76.097237 47575.000000
-73.485397 48020.000000
-70.875420 47763.000000
-68.267326 47826.000000
-65.661079 47846.000000
-63.056705 47874.000000
-60.454197 47743.000000
-57.853542 48257.000000
-55.254749 47531.000000
-52.657814 47012.000000
-50.062733 47307.000000
-47.469505 47269.000000
-44.878128 47618.000000
-42.288597 47122.000000
-39.700909 47992.000000
-37.115070 47878.000000
-34.531075 47422.000000
-31.948917 48168.000000
-29.368605 47527.000000
-26.790119 48036.000000
-24.213476 47767.000000
-21.638659 47659.000000
-19.065681 47371.000000
-16.494524 47342.000000
-13.925200 47128.000000
-11.357702 46074.000000
-8.792023 47546.000000
-6.228169 47393.000000
-3.666128 47852.000000
-1.105912 47960.000000
1.452496 47661.000000
4.009083 46977.000000
6.563865 47201.000000
9.116830 47820.000000
11.667994 47121.000000
14.217346 47434.000000
16.764902 47279.000000
19.310646 47879.000000
21.854597 48128.000000
24.396744 47273.000000
26.937094 47087.000000
29.475658 47066.000000
32.012428 47635.000000
34.547394 48132.000000
37.080582 46662.000000
39.611988 47566.000000
42.141602 46863.000000
44.669418 47419.000000
47.195477 46048.000000
49.719746 48257.000000
52.242245 47651.000000
54.762947 47154.000000
57.281895 47634.000000
59.799068 47453.000000
62.314465 47266.000000
64.828079 48261.000000
67.339943 48172.000000
69.850060 47389.000000
72.358383 47319.000000
74.864952 47933.000000
77.369774 47551.000000
79.872841 47512.000000
82.374130 47566.000000
84.873680 47677.000000
87.371475 47473.000000
89.867538 48165.000000
92.361824 46643.000000
94.854370 48080.000000
97.345200 46989.000000
99.834259 46763.000000
102.321571 47518.000000
104.807159 47706.000000
107.291008 47524.000000
109.773109 48134.000000
112.253487 47295.000000
114.732140 47719.000000
117.209068 47392.000000
119.684242 46659.000000
122.157707 47024.000000
124.629440 47986.000000
127.099464 47182.000000
129.567734 47668.000000
132.034332 47615.000000
134.499176 48221.000000
136.962326 47655.000000
139.423737 46648.000000
141.883453 46997.000000
144.341446 47513.000000
146.797745 47933.000000
149.252335 47954.000000
151.705200 47060.000000
154.156387 47478.000000
156.605881 47290.000000
159.053650 47781.000000
161.499710 47337.000000
163.944092 45120.000000
166.386795 47355.000000
168.827805 47105.000000
171.267105 47666.000000
173.704697 46594.000000
176.140656 47248.000000
178.574875 46838.000000
181.007416 46699.000000
183.438309 47208.000000
185.867477 47052.000000
188.294998 47133.000000
190.720840 47528.000000
193.145004 47241.000000
195.567505 46708.000000
197.988312 46433.000000
200.407455 47329.000000
202.824936 47821.000000
205.240723 46150.000000
207.654861 46780.000000
210.067368 47585.000000
212.478195 47818.000000
214.887344 47602.000000
217.294861 46527.000000
219.700668 47681.000000
222.104889 47359.000000
224.507401 47187.000000
226.908295 46904.000000
229.307541 47406.000000
231.705124 46981.000000
234.101044 46574.000000
236.495346 47366.000000
238.887985 48033.000000
241.279007 47041.000000
243.668365 47338.000000
246.056107 47499.000000
248.442200 46920.000000
250.826660 47746.000000
253.209473 45982.000000
255.590714 47208.000000
257.970245 47259.000000
260.348206 47423.000000
262.724487 46369.000000
265.099213 46343.000000
267.472290 46027.000000
269.843719 47682.000000
272.213501 47451.000000
274.581726 48001.000000
276.948303 47535.000000
279.313293 47166.000000
281.676666 47840.000000
284.038391 47638.000000
286.398529 46738.000000
288.757050 47918.000000
291.113983 47309.000000
293.469299 47452.000000
295.823029 47896.000000
298.175110 47964.000000
300.525635 47539.000000
302.874573 47478.000000
305.221863 47087.000000
307.567627 47495.000000
309.911713 47420.000000
312.254272 46509.000000
314.595215 46307.000000
316.934540 46709.000000
319.272308 46974.000000
321.608521 45804.000000
323.943085 47570.000000
326.276093 47361.000000
328.607544 47902.000000
330.937408 47397.000000
333.265686 47520.000000
335.592346 46673.000000
337.917511 47547.000000
340.241058 47716.000000
342.563049 47905.000000
344.883484 46359.000000
347.202301 46106.000000
349.519562 47878.000000
351.835297 48093.000000
354.149445 46990.000000
356.462006 47574.000000
358.773010 47648.000000
361.082489 46824.000000
363.390442 47471.000000
365.696777 48213.000000
368.001526 47496.000000
370.304810 47460.000000
372.606476 47640.000000
374.906647 47557.000000
377.205261 47578.000000
379.502319 48152.000000
381.797821 47739.000000
384.091797 47985.000000
386.384186 48590.000000
388.675079 48320.000000
390.964447 47653.000000
393.252228 47643.000000
395.538483 47389.000000
397.823242 46871.000000
400.106384 47884.000000
402.388092 47530.000000
404.668274 47813.000000
406.946869 46598.000000
409.223938 47511.000000
411.499481 47151.000000
413.773499 47532.000000
416.046082 47573.000000
418.317047 47653.000000
420.586517 47517.000000
422.854492 46758.000000
425.120911 46665.000000
427.385834 47611.000000
429.649292 47606.000000
431.911163 47398.000000
434.171570 47911.000000
436.430420 47250.000000
438.687805 47779.000000
440.943695 48188.000000
443.198090 48084.000000
445.450958 48385.000000
447.702271 46967.000000
449.952179 47823.000000
452.200500 47604.000000
454.447388 48252.000000
456.692810 47449.000000
458.936676 47382.000000
461.179047 47177.000000
463.419922 48179.000000
465.659393 47145.000000
467.897278 48450.000000
470.133728 47933.000000
472.368652 47818.000000
474.602112 46591.000000
476.834137 47190.000000
479.064636 48212.000000
481.293640 47422.000000
483.521179 47651.000000
485.747223 47998.000000
487.971832 47376.000000
490.194977 48012.000000
492.416656 47480.000000
494.636780 47193.000000
496.855499 48244.000000
499.072723 47648.000000
501.288574 48400.000000
503.502808 47689.000000
505.715729 47443.000000
507.927063 47476.000000
510.136963 47021.000000
512.345459 47488.000000
514.552551 47262.000000
516.758057 47434.000000
518.962158 47365.000000
521.164734 47683.000000
523.365906 47352.000000
525.565735 47192.000000
527.764038 46967.000000
529.960815 48437.000000
532.156250 48066.000000
534.350159 48415.000000
536.542725 46443.000000
538.733765 47271.000000
540.923401 47829.000000
543.111633 47101.000000
545.298340 46791.000000
547.483582 47101.000000
549.667542 47606.000000
551.849915 47481.000000
554.030945 47749.000000
556.210449 47862.000000
558.388672 48038.000000
560.565369 47924.000000
562.740662 47522.000000
564.914551 47465.000000
567.086975 47960.000000
569.257996 47860.000000
571.427551 47557.000000
573.595825 48685.000000
575.762573 47513.000000
577.927856 47571.000000
580.091736 47785.000000
582.254333 48126.000000
584.415405 47838.000000
586.575073 48301.000000
588.733398 48089.000000
590.890198 47741.000000
593.045654 47268.000000
595.199707 48168.000000
597.352417 47734.000000
599.503601 46605.000000
601.653442 47061.000000
603.801941 47204.000000
605.948853 47792.000000
608.094543 47436.000000
610.238831 47438.000000
612.381653 46822.000000
614.523010 47672.000000
616.663147 47444.000000
618.801758 46221.000000
620.939087 48148.000000
623.074951 47328.000000
625.209412 46972.000000
627.342407 46683.000000
629.474243 47235.000000
631.604614 47355.000000
633.733582 47116.000000
635.861084 47425.000000
637.987305 47705.000000
640.112000 46579.000000
642.235474 47494.000000
644.357605 47084.000000
646.478271 47085.000000
648.597595 47342.000000
650.715515 48258.000000
652.832092 48240.000000
654.947266 47589.000000
657.061096 47394.000000
659.173462 48044.000000
661.284607 47781.000000
663.394348 48536.000000
665.502625 47290.000000
667.609741 47607.000000
669.715393 47132.000000
671.819580 48161.000000
673.922546 48153.000000
676.024109 46860.000000
678.124329 48637.000000
680.223145 47192.000000
682.320618 47649.000000
684.416809 47010.000000
686.511536 47760.000000
688.605042 46946.000000
690.697205 47395.000000
692.787842 45995.000000
694.877258 47216.000000
696.965393 47459.000000
699.052063 47844.000000
701.137512 47162.000000
703.221436 48811.000000
705.304138 48000.000000
707.385559 47937.000000
709.465515 46303.000000
711.544250 47596.000000
713.621521 48390.000000
715.697510 47307.000000
717.772217 47802.000000
719.845642 46855.000000
721.917542 47595.000000
723.988281 46535.000000
726.057678 48078.000000
728.125671 47461.000000
730.192322 47546.000000
732.257751 46750.000000
734.321838 48118.000000
736.384583 47836.000000
738.445984 47706.000000
740.506104 47288.000000
742.564819 47859.000000
744.622314 47239.000000
746.678528 47408.000000
748.733337 47308.000000
750.786865 47497.000000
752.838989 46426.000000
754.889893 48131.000000
756.939575 47151.000000
758.987793 47561.000000
761.034790 47770.000000
763.080505 46849.000000
765.124817 48649.000000
767.167847 48239.000000
769.209656 38935.000000
771.250122 46956.000000
773.289185 47474.000000
775.327087 47806.000000
777.363647 47938.000000
779.398987 48541.000000
781.432983 48112.000000
783.465576 47008.000000
785.497009 48437.000000
787.527039 41872.000000
789.555786 47886.000000
791.583374 47605.000000
793.609619 47529.000000
795.634460 48043.000000
797.658203 48473.000000
799.680542 47573.000000
801.701660 48018.000000
803.721436 47185.000000
805.739929 49022.000000
807.757202 47205.000000
809.773071 47050.000000
811.787781 48184.000000
813.801147 47490.000000
815.813293 47633.000000
817.824219 47809.000000
819.833801 47367.000000
821.842163 48579.000000
823.849121 48245.000000
825.854858 47907.000000
827.859375 48151.000000
829.862610 48254.000000
831.864563 47425.000000
833.865234 47871.000000
835.864685 48049.000000
837.862793 47563.000000
839.859802 47019.000000
841.855408 47734.000000
843.849854 47906.000000
845.842957 47762.000000
847.834839 47109.000000
849.825378 48311.000000
851.814636 47100.000000
853.802856 47928.000000
855.789673 48125.000000
857.775269 47551.000000
859.759583 46662.000000
861.742798 47631.000000
863.724609 47567.000000
865.705200 48081.000000
867.684509 46178.000000
869.662659 46848.000000
871.639465 47802.000000
873.614990 47995.000000
875.589478 47771.000000
877.562500 47889.000000
879.534485 48491.000000
881.505127 47492.000000
883.474609 47870.000000
885.442749 48450.000000
887.409729 48705.000000
889.375366 47785.000000
891.339844 48128.000000
893.303101 47959.000000
895.265137 47417.000000
897.225891 48127.000000
899.185425 47534.000000
901.143677 47171.000000
903.100830 47563.000000
905.056824 47929.000000
907.011414 46946.000000
908.964783 47375.000000
910.916992 47510.000000
912.867981 47539.000000
914.817688 46810.000000
916.766235 47580.000000
918.713562 47723.000000
920.659607 47852.000000
922.604370 47879.000000
924.548096 47596.000000
926.490662 47969.000000
928.431946 48378.000000
930.371887 47460.000000
932.310730 48199.000000
934.248291 48388.000000
936.184631 47963.000000
938.119812 48068.000000
940.053711 47816.000000
941.986511 48014.000000
943.918091 47143.000000
945.848511 48771.000000
947.777710 47584.000000
949.705566 46844.000000
951.632385 47248.000000
953.557922 47953.000000
955.482178 48570.000000
957.405334 47963.000000
959.327332 47187.000000
961.248047 46619.000000
963.167603 47501.000000
965.085999 48611.000000
967.003357 47514.000000
968.919250 47541.000000
970.834045 47850.000000
972.747620 48050.000000
974.660034 47550.000000
976.571228 47416.000000
978.481262 48506.000000
980.390015 47675.000000
982.297729 47772.000000
984.204224 47545.000000
986.109497 48205.000000
988.013672 47156.000000
989.916626 47729.000000
991.818359 47124.000000
993.718933 47393.000000
995.618347 47401.000000
997.516541 48728.000000
999.413574 47445.000000
1001.309387 47452.000000
1003.204041 46246.000000
1005.097595 48334.000000
1006.989868 46739.000000
1008.881226 47841.000000
1010.771240 48591.000000
1012.660034 47236.000000
1014.547668 47673.000000
1016.434143 47074.000000
1018.319458 47198.000000
1020.203613 47885.000000
1022.086548 48116.000000
1023.968445 47714.000000
1025.848999 48671.000000
1027.728516 47997.000000
1029.607056 47854.000000
1031.484253 48480.000000
1033.360107 47712.000000
1035.234985 48002.000000
1037.108887 47403.000000
1038.981323 46844.000000
1040.852783 47281.000000
1042.722900 48412.000000
1044.592041 48416.000000
1046.459961 48138.000000
1048.326782 46872.000000
1050.192505 47178.000000
1052.057007 47460.000000
1053.920410 47465.000000
1055.782471 47499.000000
1057.643555 47977.000000
1059.503540 47369.000000
1061.362183 47300.000000
1063.219727 48147.000000
1065.076172 47173.000000
1066.931519 48067.000000
1068.785645 48173.000000
1070.638916 47697.000000
1072.490723 47622.000000
1074.341553 47814.000000
1076.191162 47823.000000
1078.039551 48150.000000
1079.887085 45958.000000
1081.733276 48271.000000
1083.578247 47709.000000
1085.422363 48502.000000
1087.265137 48440.000000
1089.106689 47503.000000
1090.947510 48470.000000
1092.786743 48198.000000
1094.625244 47853.000000
1096.462402 47876.000000
1098.298340 47158.000000
1100.133301 47276.000000
1101.967041 48531.000000
1103.799805 48289.000000
1105.631226 47737.000000
1107.461792 46677.000000
1109.291016 47400.000000
1111.119263 47522.000000
1112.946289 46762.000000
1114.772339 48515.000000
1116.597168 47677.000000
1118.420898 46764.000000
1120.243408 47879.000000
1122.064819 48052.000000
1123.885376 48058.000000
1125.704468 47359.000000
1127.522705 46937.000000
1129.339600 47105.000000
1131.155640 47241.000000
1132.970459 47403.000000
1134.784180 48366.000000
1136.596802 48095.000000
1138.408203 48357.000000
1140.218628 47807.000000
1142.027954 47247.000000
1143.835938 47041.000000
1145.643188 48071.000000
1147.448975 48046.000000
1149.253906 48550.000000
1151.057739 48502.000000
1152.860352 47805.000000
1154.662109 47838.000000
1156.462402 47880.000000
1158.261719 47823.000000
1160.060059 48053.000000
1161.857056 48491.000000
1163.653320 48077.000000
1165.448242 47876.000000
1167.242065 47597.000000
1169.035034 46193.000000
1170.826660 48321.000000
1172.617310 47498.000000
1174.406982 47912.000000
1176.195190 48142.000000
1177.982544 46515.000000
1179.768799 47038.000000
1181.553955 48183.000000
1183.338013 48064.000000
1185.120972 46325.000000
1186.902954 48018.000000
1188.683716 48043.000000
1190.463501 47558.000000
1192.242188 46996.000000
1194.019897 47315.000000
1195.796387 46776.000000
1197.571777 47353.000000
1199.346069 47365.000000
1201.119263 47296.000000
1202.891602 47406.000000
1204.662598 47220.000000
1206.432739 48229.000000
1208.201660 47823.000000
1209.969482 47564.000000
1211.736450 48148.000000
1213.502075 48080.000000
1215.266724 47039.000000
1217.030273 47342.000000
1218.792725 47948.000000
1220.554321 47195.000000
1222.314697 48051.000000
1224.073975 47650.000000
1225.832397 47980.000000
1227.589600 46829.000000
1229.345703 47513.000000
1231.100708 48450.000000
1232.854858 47972.000000
1234.607666 48203.000000
1236.359497 47942.000000
1238.110474 48017.000000
1239.860107 49027.000000
1241.608887 46917.000000
1243.356323 47438.000000
1245.103027 47377.000000
1246.848511 47427.000000
1248.593140 47478.000000
1250.336426 47118.000000
1252.078735 47304.000000
1253.819946 48602.000000
1255.560303 48902.000000
1257.299561 48192.000000
1259.037598 47325.000000
1260.774780 46852.000000
1262.510742 47784.000000
1264.245728 47468.000000
1265.979736 46755.000000
1267.712769 48006.000000
1269.444580 47776.000000
1271.175415 47520.000000
1272.905029 46717.000000
1274.633789 48086.000000
1276.361450 48268.000000
1278.088013 48456.000000
1279.813721 48372.000000
1281.538086 47501.000000
1283.261597 48721.000000
1284.984131 47051.000000
1286.705688 47301.000000
1288.426025 47752.000000
1290.145386 47234.000000
1291.863647 46657.000000
1293.580933 47466.000000
1295.297241 48258.000000
1297.012329 47527.000000
1298.726440 47852.000000
1300.439575 48178.000000
1302.151855 47556.000000
1303.862915 45588.000000
1305.572998 48602.000000
1307.281982 47568.000000
1308.989746 47231.000000
1310.696899 46916.000000
1312.402588 48128.000000
1314.107544 47057.000000
1315.811523 47839.000000
1317.514282 48026.000000
1319.216064 47389.000000
1320.916992 47897.000000
1322.616577 44130.000000
1324.315308 46297.000000
1326.013306 48464.000000
1327.709961 47453.000000
1329.405518 46829.000000
1331.100220 47136.000000
1332.793701 48253.000000
1334.486328 48568.000000
1336.178101 46594.000000
1337.868530 47677.000000
1339.558228 47327.000000
1341.246826 47834.000000
1342.934326 46383.000000
1344.620850 48349.000000
1346.306274 47246.000000
1347.990723 48117.000000
1349.674316 46721.000000
1351.356689 47607.000000
1353.038086 48051.000000
1354.718628 47419.000000
1356.397949 47218.000000
1358.076660 48066.000000
1359.754028 47463.000000
1361.430298 48123.000000
1363.105591 48393.000000
1364.780151 47369.000000
1366.453491 47471.000000
1368.125854 47181.000000
1369.797241 48866.000000
1371.467651 47210.000000
1373.136963 47817.000000
1374.805298 48325.000000
1376.472778 47950.000000
1378.139160 47533.000000
1379.804565 47840.000000
1381.468994 48137.000000
1383.132202 48089.000000
1384.794800 48259.000000
1386.456055 47642.000000
1388.116455 47429.000000
1389.775757 47570.000000
1391.434082 47553.000000
1393.091675 47098.000000
1394.748047 47617.000000
1396.403564 47014.000000
1398.057861 47600.000000
1399.711304 48133.000000
1401.363647 47849.000000
1403.015259 47575.000000
1404.665649 46832.000000
1406.314941 47628.000000
1407.963501 46434.000000
1409.610962 46145.000000
1411.257446 47798.000000
1412.903076 47756.000000
1414.547729 47992.000000
1416.191162 46853.000000
1417.833740 46790.000000
1419.475220 47049.000000
1421.115845 47481.000000
1422.755493 47477.000000
1424.394043 47946.000000
1426.031738 47372.000000
1427.668335 47633.000000
1429.303955 47949.000000
1430.938843 47574.000000
1432.572632 48092.000000
1434.205322 47875.000000
1435.837036 48229.000000
1437.467896 47822.000000
1439.097656 47883.000000
1440.726318 46152.000000
1442.354370 47875.000000
1443.981323 47682.000000
1445.607056 47688.000000
1447.232178 47807.000000
1448.856201 47488.000000
1450.479248 47925.000000
1452.101318 47899.000000
1453.722290 46596.000000
1455.342285 47669.000000
1456.961548 47072.000000
1458.579468 48214.000000
1460.196777 48328.500000
1461.813110 48443.000000
1463.428223 46651.000000
1465.042480 47720.000000
1466.655884 48713.000000
1468.268188 48344.000000
1469.879639 47649.000000
1471.490234 47645.000000
1473.099609 47972.000000
1474.708008 48006.000000
1476.315552 47712.000000
1477.922119 47126.000000
1479.527954 48585.000000
1481.132568 47688.000000
1482.736328 48507.000000
1484.338867 47153.000000
1485.940796 48404.000000
1487.541504 48454.000000
1489.141479 48301.000000
1490.740356 47681.000000
1492.338379 47447.000000
1493.935303 47267.000000
1495.531372 47568.000000
1497.126465 47977.000000
1498.720581 48497.000000
1500.313965 47402.000000
1501.906250 48422.000000
1503.497314 47804.000000
1505.087891 47174.000000
1506.677124 47403.000000
1508.265747 47880.000000
1509.853271 47349.000000
1511.439697 47076.000000
1513.025391 47768.000000
1514.609985 47355.000000
1516.193726 47816.000000
1517.776367 47846.000000
1519.358276 47336.000000
1520.939087 47324.000000
1522.519165 47925.000000
1524.098022 47719.000000
1525.676025 47540.000000
1527.253296 47669.000000
1528.829346 48272.000000
1530.404663 47963.000000
1531.978882 47634.000000
1533.552368 48529.000000
1535.124634 48031.000000
1536.696167 47591.000000
1538.266724 47522.000000
1539.836426 47671.000000
1541.404907 48557.000000
1542.972656 47362.000000
1544.539551 48363.000000
1546.105225 47184.000000
1547.670166 48050.000000
1549.234009 48906.000000
1550.797241 46532.000000
1552.359131 47658.000000
1553.920410 48021.000000
1555.480591 48252.000000
1557.040039 48232.000000
1558.598389 48019.000000
1560.156006 47652.000000
1561.712524 46979.000000
1563.267822 48044.000000
1564.822510 47624.000000
1566.376465 48338.000000
1567.929443 47668.000000
1569.481079 48305.000000
1571.031982 48052.000000
1572.582153 47755.000000
1574.131348 47660.000000
1575.679199 48175.000000
1577.226563 48511.000000
1578.772949 48289.000000
1580.318481 48894.000000
1581.863037 47329.000000
1583.406372 47554.000000
1584.949097 47366.000000
1586.490967 47479.000000
1588.031738 47312.000000
1589.571533 48214.000000
1591.110596 47195.000000
1592.648560 48077.000000
1594.186035 47758.000000
1595.722168 48137.000000
1597.257202 47332.000000
1598.791748 47674.000000
1600.325317 48014.000000
1601.858032 47888.000000
1603.389160 47726.000000
1604.920044 47708.000000
1606.450073 48200.000000
1607.978882 47805.000000
1609.506592 47868.000000
1611.033691 47963.000000
1612.560059 48011.000000
1614.085449 47747.000000
1615.609985 48198.000000
1617.133179 48184.000000
1618.655640 48361.000000
1620.177368 47429.000000
1621.698242 47014.000000
1623.217651 38405.000000
1624.736572 47860.000000
1626.254761 47938.000000
1627.772095 48053.000000
1629.288330 47621.000000
1630.803223 47013.000000
1632.317627 47195.000000
1633.831299 48224.000000
1635.343872 47135.000000
1636.855225 48077.000000
1638.366211 47518.000000
1639.876099 47769.000000
1641.385132 47741.000000
1642.892822 48338.000000
1644.400146 47825.000000
1645.906616 46844.000000
1647.412109 47706.000000
1648.916748 47106.000000
1650.419922 47787.000000
1651.922485 47433.000000
1653.424683 47584.000000
1654.925537 47325.000000
1656.425293 46472.000000
1657.924194 48079.000000
1659.422729 47509.000000
1660.920044 47761.000000
1662.416626 48065.000000
1663.911621 47529.000000
1665.406372 47638.000000
1666.900269 48818.000000
1668.393188 48318.000000
1669.884766 47886.000000
1671.375854 47454.000000
1672.866333 47807.000000
1674.355713 48012.000000
1675.843628 47052.000000
1677.331299 47122.000000
1678.817993 47919.000000
1680.303833 48682.000000
1681.788818 47907.000000
1683.272339 47799.000000
1684.755615 47692.000000
1686.238037 48089.000000
1687.719360 47776.000000
1689.199219 47759.000000
1690.678833 48483.000000
1692.157715 47401.000000
1693.635620 47955.000000
1695.112549 47860.000000
1696.588257 48198.000000
1698.063599 48010.000000
1699.537720 47641.000000
1701.011230 48453.000000
1702.483276 48408.000000
1703.955078 47169.000000
1705.425903 47605.000000
1706.895874 46845.000000
1708.364502 48881.000000
1709.832642 48148.000000
1711.300049 47619.000000
1712.766357 48503.000000
1714.232056 48278.000000
1715.696045 47766.000000
1717.159912 48015.000000
1718.622925 47035.000000
1720.084961 47623.000000
1721.545776 47401.000000
1723.005981 48488.000000
1724.465454 48331.000000
1725.924072 47874.000000
1727.381714 47997.000000
1728.838013 47806.000000
1730.294067 47925.000000
1731.749146 47557.000000
1733.203247 48036.000000
1734.656128 47123.000000
1736.108765 48008.000000
1737.560303 47263.000000
1739.011108 48081.000000
1740.460938 47457.000000
1741.909424 48082.000000
1743.357544 46628.000000
1744.804810 47462.000000
1746.251343 47342.000000
1747.696289 47327.000000
1749.140991 47875.000000
1750.584839 48224.000000
1752.027832 48451.000000
1753.469360 47460.000000
1754.910645 47579.000000
1756.351074 47640.000000
1757.790527 47701.000000
1759.229004 48797.000000
1760.666504 48011.000000
1762.103516 46475.000000
1763.539551 48068.000000
1764.974731 46865.000000
1766.408447 47782.000000
1767.842041 47569.000000
1769.274658 47327.000000
1770.706421 48181.000000
1772.137329 48317.000000
1773.567017 47652.000000
1774.995972 47830.000000
1776.424438 47782.000000
1777.851929 47318.000000
1779.278076 47786.000000
1780.703979 48400.000000
1782.128784 47116.000000
1783.552979 48467.000000
1784.975708 47391.000000
1786.397949 47544.000000
1787.819458 47144.000000
1789.240234 48123.000000
1790.660034 47853.000000
1792.078491 47786.000000
1793.496460 47152.000000
1794.913818 48516.000000
1796.330322 47967.000000
1797.745361 47533.000000
1799.160034 48176.000000
1800.574097 47404.000000
1801.986938 48015.000000
1803.399170 47041.000000
1804.810059 46845.000000
1806.220459 46236.000000
1807.630127 47452.000000
1809.038818 48009.000000
1810.446411 48614.000000
1811.853516 47658.000000
1813.259766 47651.000000
1814.665039 47252.000000
1816.069214 48054.000000
1817.473022 48041.000000
1818.875854 47797.000000
1820.277832 48015.000000
1821.679199 48107.000000
1823.079102 47585.000000
1824.478394 47486.000000
1825.877197 47402.000000
1827.275146 46561.000000
1828.671753 48210.000000
1830.067749 47338.000000
1831.463013 48096.000000
1832.857666 45947.000000
1834.251343 47954.000000
1835.643677 47168.000000
1837.035522 47560.000000
1838.426758 48131.000000
1839.817017 46905.000000
1841.206055 47940.000000
1842.594727 47931.000000
1843.982422 48000.000000
1845.369385 48158.000000
1846.755005 47123.000000
1848.140381 48167.000000
1849.524902 47526.000000
1850.908691 47651.000000
1852.291382 47648.000000
1853.672852 48619.000000
1855.053833 47502.000000
1856.434326 47677.000000
1857.813843 48282.000000
1859.191895 48028.000000
1860.569824 47763.000000
1861.946777 46147.000000
1863.322998 47822.000000
1864.698364 47973.000000
1866.072266 48361.000000
1867.446045 48273.000000
1868.818970 47795.000000
1870.190796 48069.000000
1871.561646 47181.000000
1872.932129 48594.000000
1874.301514 48002.000000
1875.670410 47819.000000
1877.037720 46883.000000
1878.404907 47962.000000
1879.771118 47991.000000
1881.136597 47172.000000
1882.501343 46503.000000
1883.864502 47281.000000
1885.227539 47055.000000
1886.589722 47733.000000
1887.951050 47604.000000
1889.311035 48399.000000
1890.670654 48202.000000
1892.029663 47846.000000
1893.387695 47419.000000
1894.744873 46759.000000
1896.100830 48035.000000
1897.456543 46321.000000
1898.811279 48176.000000
1900.165161 48518.000000
1901.517944 48058.000000
1902.870239 48073.000000
1904.221802 48107.000000
1905.572510 47129.000000
1906.921997 47549.000000
1908.270996 47371.000000
1909.619141 48278.000000
1910.966675 47894.000000
1912.313477 47771.000000
1913.658691 47197.000000
1915.003662 47926.000000
1916.347900 48544.000000
1917.691284 47528.000000
1919.033325 48081.000000
1920.375122 47333.000000
1921.716064 47040.000000
1923.056274 47836.000000
1924.395508 47773.000000
1925.733765 47626.000000
1927.071411 47561.000000
1928.408325 46928.000000
1929.744385 47309.000000
1931.079224 48402.000000
1932.413696 47224.000000
1933.747437 46759.000000
1935.080322 47780.000000
1936.411743 48277.000000
1937.743286 47628.000000
1939.073486 47413.000000
1940.403198 48274.000000
1941.732056 47975.000000
1943.059692 48159.000000
1944.386841 49008.000000
1945.713257 48166.000000
1947.038940 47516.000000
1948.363281 48310.000000
1949.687378 47470.000000
1951.010620 47712.000000
1952.333130 47573.000000
1953.654541 48309.000000
1954.974976 46588.000000
1956.294800 48071.000000
1957.614258 48480.000000
1958.932739 47138.000000
1960.249878 48138.000000
1961.566650 48188.000000
1962.882690 47431.000000
1964.197998 47420.000000
1965.511841 47704.000000
1966.825439 48300.000000
1968.138306 47816.000000
1969.450317 48007.000000
1970.761719 47992.000000
1972.071777 47707.000000
1973.381348 48123.000000
1974.690186 47871.000000
1975.998413 47398.000000
1977.305298 47941.000000
1978.611572 46783.000000
1979.917480 48474.000000
1981.222168 47617.000000
1982.526367 48083.000000
1983.829346 48282.000000
1985.131958 46374.000000
1986.433594 47952.000000
1987.734619 47210.000000
1989.034058 47903.000000
1990.333618 47364.000000
1991.632080 48688.000000
1992.930054 47997.000000
1994.226440 47864.000000
1995.522827 48189.000000
1996.818237 48499.000000
1998.112915 47532.000000
1999.406738 48405.000000
2000.699341 47517.000000
2001.991455 48309.000000
2003.283081 46865.000000
2004.573975 47576.000000
2005.863281 47790.000000
2007.152344 47206.000000
2008.440674 48066.000000
2009.728271 47971.000000
2011.015015 47365.000000
2012.300659 48380.000000
2013.585938 47700.000000
2014.870239 47992.000000
2016.153931 48418.000000
2017.436279 47998.000000
2018.718262 47556.000000
2019.999756 47276.000000
2021.280273 48169.000000
2022.560059 47952.000000
2023.838745 47276.000000
2025.116699 48204.000000
2026.394165 48160.000000
2027.671021 47719.000000
2028.946167 48271.000000
2030.221436 47400.000000
2031.495728 48028.000000
2032.769043 48080.000000
2034.041504 48101.000000
2035.313599 47879.000000
2036.584595 47100.000000
2037.855347 47447.000000
2039.124756 48017.000000
2040.393066 47306.000000
2041.661377 47374.000000
2042.928711 48196.000000
2044.195313 48098.000000
2045.460693 48398.000000
2046.725464 48284.000000
2047.989990 48644.000000
2049.253418 48192.000000
2050.516357 47656.000000
2051.777344 47908.000000
2053.038818 47901.000000
2054.299072 48148.000000
2055.558594 47588.000000
2056.817383 47857.000000
2058.075195 47072.000000
2059.332520 47887.000000
2060.589111 48048.000000
2061.844238 47524.000000
2063.099365 48445.000000
2064.353516 48504.000000
2065.606934 48411.000000
2066.859619 47260.000000
2068.111084 47820.000000
2069.362305 47766.000000
2070.612793 48411.000000
2071.862549 48566.000000
2073.110840 47656.000000
2074.359131 47587.000000
2075.606445 46596.000000
2076.853027 48474.000000
2078.098877 48009.000000
2079.343506 47092.000000
2080.587646 46394.000000
2081.831299 48495.000000
2083.073975 48044.000000
2084.315430 47063.000000
2085.556641 48071.000000
2086.797363 47636.000000
2088.037109 47254.000000
2089.275635 46973.000000
2090.513672 47883.000000
2091.750977 48294.000000
2092.988037 47451.000000
2094.223633 48004.000000
2095.458496 47834.000000
2096.693115 47974.000000
2097.926758 48416.000000
2099.159424 47982.000000
2100.391357 47240.000000
2101.622803 47635.000000
2102.853271 47260.000000
2104.083008 48108.000000
2105.312500 48024.000000
2106.540039 48092.000000
2107.767822 47998.000000
2108.994873 47777.000000
2110.220947 48564.000000
2111.445557 47652.000000
2112.670410 47148.000000
2113.894043 46940.000000
2115.117188 47871.000000
2116.339111 46553.000000
2117.560791 48036.000000
2118.781494 47217.000000
2120.001465 47992.000000
2121.220947 47915.000000
2122.438965 47453.000000
2123.656982 46955.000000
2124.874023 48361.000000
2126.090576 48273.000000
2127.305420 47531.000000
2128.520508 47717.000000
2129.734619 47097.000000
2130.947998 48287.000000
2132.160645 47926.000000
2133.371826 48263.000000
2134.583252 47567.000000
2135.793457 47314.000000
2137.003174 48113.000000
2138.211426 47893.000000
2139.419678 48403.000000
2140.627197 48205.000000
2141.833496 46349.000000
2143.039063 48217.000000
2144.244385 48381.000000
2145.448730 48638.000000
2146.652344 47742.000000
2147.855469 47905.000000
2149.057129 47503.000000
2150.258545 48762.000000
2151.459229 47792.000000
2152.659180 48056.000000
2153.857910 48191.000000
2155.056396 47099.000000
2156.254395 47915.000000
2157.451416 48104.000000
2158.647705 48896.000000
2159.842773 48806.000000
2161.037598 47951.000000
2162.231689 48470.000000
2163.424805 47961.000000
2164.616943 47068.000000
2165.808838 48196.000000
2167.000000 47698.000000
2168.190186 47785.000000
2169.379639 47537.000000
2170.568604 47245.000000
2171.756592 48088.000000
2172.944336 48280.000000
2174.130615 48166.000000
2175.316162 47442.000000
2176.501465 48074.000000
2177.686279 48209.000000
2178.869873 47693.000000
2180.052734 46572.000000
2181.234619 47811.000000
2182.416260 48151.000000
2183.597412 47479.000000
2184.777344 48322.000000
2185.956299 48520.000000
2187.134766 47727.000000
2188.312988 47234.000000
2189.489990 46870.000000
2190.666016 47392.000000
2191.841797 47956.000000
2193.017090 48439.000000
2194.190918 47320.000000
2195.364258 47936.000000
2196.537354 47999.000000
2197.709229 47681.000000
2198.880615 47021.000000
2200.051514 47748.000000
2201.220703 47129.000000
2202.389893 46557.000000
2203.558594 47886.000000
2204.726318 48287.000000
2205.893066 48421.000000
2207.059082 46935.000000
2208.224609 47414.000000
2209.389893 48097.000000
2210.553711 47362.000000
2211.717041 48669.000000
2212.879150 47882.000000
2214.041504 47812.000000
2215.202637 47417.000000
2216.362793 47385.000000
2217.522461 47838.000000
2218.681885 47503.000000
2219.840088 47721.000000
2220.997314 47746.000000
2222.154297 47282.000000
2223.310547 47401.000000
2224.466064 47290.000000
2225.620850 47863.000000
2226.774658 47636.000000
2227.927490 48065.000000
2229.080811 47229.000000
2230.232178 47881.000000
2231.383301 47926.000000
2232.533691 47547.000000
2233.683594 46374.000000
2234.832520 47713.000000
2235.980957 48894.000000
2237.127930 47692.000000
2238.275146 47030.000000
2239.421143 48044.000000
2240.566895 46881.000000
2241.710938 46728.000000
2242.855225 47388.000000
2243.998535 47964.000000
2245.141113 48119.000000
2246.282715 48426.000000
2247.424072 48231.000000
2248.564453 47664.000000
2249.704102 47612.000000
2250.843262 48211.000000
2251.981201 48259.000000
2253.119141 47822.000000
2254.256104 48676.000000
2255.392334 47771.000000
2256.527588 47987.000000
2257.662109 46849.000000
2258.796387 47684.000000
2259.930176 48631.000000
2261.062500 48010.000000
2262.194336 47218.000000
2263.325684 47782.000000
2264.456055 47628.000000
2265.586182 46002.000000
2266.715088 47416.000000
2267.843506 47988.000000
2268.971436 48597.000000
2270.098389 47876.000000
2271.224609 48148.000000
2272.349854 47297.000000
2273.475098 47531.000000
2274.599609 47606.000000
2275.722900 48096.000000
2276.845459 47765.000000
2277.967529 48090.000000
2279.089111 46761.000000
2280.209961 47712.000000
2281.329590 47688.000000
2282.448730 46957.000000
2283.567627 46429.000000
2284.685791 46879.000000
2285.802979 48224.000000
2286.919189 47675.000000
2288.035156 47050.000000
2289.150391 47162.000000
2290.264893 46683.000000
2291.378174 48280.000000
2292.491455 47754.000000
2293.604004 48099.000000
2294.715820 48752.000000
2295.826904 47326.000000
2296.936768 47668.000000
2298.046143 47872.000000
2299.155273 47366.000000
2300.263428 47807.000000
2301.370605 47319.000000
2302.477539 48176.000000
2303.583740 47893.000000
2304.689453 47432.000000
2305.793701 47482.000000
2306.897705 48658.000000
2308.001221 48320.000000
2309.104248 47450.000000
2310.206055 46717.000000
2311.307129 46857.000000
2312.407715 47497.000000
2313.507813 48537.000000
2314.607178 47688.000000
2315.705078 47453.000000
2316.803467 46967.000000
2317.900391 45881.000000
2318.997070 47163.000000
2320.093262 48247.000000
2321.187744 47178.000000
2322.282227 46487.000000
2323.375977 48253.000000
2324.469482 47806.000000
2325.561279 47455.000000
2326.653076 47189.000000
2327.744141 47939.000000
2328.834473 47790.000000
2329.923828 47229.000000
2331.013184 48038.000000
2332.101318 47794.000000
2333.188965 47275.000000
2334.276367 47572.000000
2335.362061 47374.000000
2336.447510 46329.000000
2337.532715 47727.000000
2338.616943 47379.000000
2339.700195 48200.000000
2340.783203 47592.000000
2341.865234 46929.000000
2342.947021 48033.000000
2344.028076 46597.000000
2345.107910 47384.000000
2346.187256 48324.000000
2347.266113 47262.000000
2348.344482 47570.000000
2349.421387 47737.000000
2350.498047 47087.000000
2351.574463 47964.000000
2352.649902 47580.000000
2353.724365 48088.000000
2354.798584 47669.000000
2355.872070 47254.000000
2356.945068 47859.000000
2358.016846 46999.000000
2359.088379 47812.000000
2360.158936 47274.000000
2361.229248 46585.000000
2362.298584 46510.000000
2363.366943 47149.000000
2364.435059 47300.000000
2365.502441 47069.000000
2366.569336 46821.000000
2367.635498 47920.000000
2368.700439 47154.000000
2369.765381 46968.000000
2370.829590 47697.000000
2371.893066 47122.000000
2372.955322 48300.000000
2374.017578 47691.000000
2375.078857 47644.000000
2376.139893 48111.000000
2377.199707 47736.000000
2378.258789 46052.000000
2379.317871 47505.000000
2380.375977 46404.000000
2381.433350 47069.000000
2382.489746 45995.000000
2383.545898 46177.000000
2384.601563 47770.000000
2385.656494 46919.000000
2386.709961 47269.000000
2387.763672 47479.000000
2388.816406 47665.000000
2389.868652 47168.000000
2390.920166 47769.000000
2391.970703 47322.000000
2393.020996 47449.000000
2394.070313 47769.000000
2395.119629 47696.000000
2396.167480 47065.000000
2397.214844 46936.000000
2398.261963 47638.000000
2399.308105 47247.000000
2400.353516 47767.000000
2401.398193 47210.000000
2402.442871 46308.000000
2403.486084 46467.000000
2404.529297 47418.000000
2405.571045 48225.000000
2406.613037 47285.000000
2407.654297 46907.000000
2408.694580 47890.000000
2409.734131 47492.000000
2410.772705 47553.000000
2411.811523 47929.000000
2412.849121 47357.000000
2413.886475 47020.000000
2414.922607 46520.000000
2415.958496 47693.000000
2416.993652 47623.000000
2418.028320 47294.000000
2419.061523 46700.000000
2420.094971 47404.000000
2421.127441 47206.000000
2422.159668 47133.000000
2423.190430 46876.000000
2424.221191 47488.000000
2425.251465 46952.000000
2426.280518 46985.000000
2427.309570 47186.000000
2428.336914 46528.000000
2429.364746 47200.000000
2430.391357 46584.000000
2431.417725 46919.000000
2432.442627 46095.000000
2433.467773 47191.000000
2434.491943 46741.000000
2435.515869 47099.000000
2436.538574 47970.000000
2437.560547 47390.000000
2438.582275 47146.000000
2439.603271 47126.000000
2440.623779 47726.000000
2441.643066 47235.000000
2442.662354 47187.000000
2443.680664 45348.000000
2444.698730 47475.000000
2445.715332 47297.000000
2446.731934 47170.000000
2447.747803 47718.000000
2448.763672 46663.000000
2449.778076 46842.000000
2450.791748 48158.000000
2451.804932 46420.000000
2452.817871 47648.000000
2453.830078 46426.000000
2454.841309 47004.000000
2455.852295 45916.000000
2456.862549 47349.000000
2457.872314 46103.000000
2458.881104 47729.000000
2459.889160 47764.000000
2460.897217 47316.000000
2461.904053 46271.000000
2462.910645 48218.000000
2463.916016 46194.000000
2464.921143 46683.000000
2465.926025 47760.000000
2466.929688 46997.000000
2467.933105 47312.000000
2468.935547 46056.000000
2469.937744 46278.000000
2470.939453 46745.000000
2471.940186 47070.000000
2472.939941 46608.000000
2473.939697 46856.000000
2474.938477 47880.000000
2475.936768 47014.000000
2476.934082 46468.000000
2477.931152 47360.000000
2478.928223 46528.000000
2479.923828 47688.000000
2480.919434 46428.000000
2481.913330 46843.000000
2482.907227 45471.000000
2483.900635 46717.000000
2484.893555 46723.000000
2485.885498 46023.000000
2486.876709 46314.000000
2487.867676 46767.000000
2488.858154 47677.000000
2489.847656 46973.000000
2490.836426 47063.000000
2491.825195 47896.000000
2492.812988 46729.000000
2493.799561 46919.000000
2494.786133 45554.000000
2495.772217 46830.000000
2496.757568 46399.000000
2497.741943 45102.000000
2498.726074 47474.000000
2499.710205 46563.000000
2500.692871 47636.000000
2501.675049 46410.000000
2502.656738 46677.000000
2503.637695 46096.000000
2504.618164 46918.000000
2505.598389 47693.000000
2506.577148 47103.000000
2507.555664 45817.000000
2508.533691 46636.000000
2509.511230 46268.000000
2510.487793 47282.000000
2511.464111 47386.000000
2512.439697 46891.000000
2513.414795 47099.000000
2514.389404 46827.000000
2515.362793 45760.000000
2516.335938 46475.000000
2517.308838 46294.000000
2518.280762 47055.000000
2519.251953 46369.000000
2520.222656 46216.000000
2521.193115 45266.000000
2522.162842 45003.000000
2523.131592 47010.000000
2524.099609 46979.000000
2525.067627 45273.000000
2526.034668 46760.000000
2527.001465 47538.000000
2527.967041 45765.000000
2528.932617 46026.000000
2529.897461 45315.000000
2530.861816 46576.000000
2531.824951 46621.000000
2532.788330 47139.000000
2533.750732 46980.000000
2534.712891 46283.000000
2535.673828 46501.000000
2536.634033 46789.000000
2537.594482 46654.000000
2538.553955 46140.000000
2539.512695 45985.000000
2540.470459 46095.000000
2541.428467 46618.000000
2542.385742 45976.000000
2543.342041 46672.000000
2544.298096 45650.000000
2545.252930 46430.000000
2546.208008 44773.000000
2547.162354 45552.000000
2548.115967 45705.000000
2549.068604 45348.000000
2550.020996 45780.000000
2550.972900 45647.000000
2551.924072 46109.000000
2552.874512 44798.000000
2553.824463 45116.000000
2554.774170 45131.000000
2555.723145 45797.000000
2556.671631 46095.000000
2557.618896 45305.000000
2558.566162 45988.000000
2559.512695 45758.000000
2560.458740 45510.000000
2561.403809 44854.000000
2562.348633 45566.000000
2563.292969 45069.000000
2564.236816 45373.000000
2565.180176 45580.000000
2566.122070 45579.000000
2567.064209 45599.000000
2568.005615 45994.000000
2568.946289 45001.000000
2569.886230 44900.000000
2570.826172 46430.000000
2571.765137 45986.000000
2572.703857 44596.000000
2573.641602 44886.000000
2574.579102 46635.000000
2575.515869 45087.000000
2576.451904 45264.000000
2577.387451 44563.000000
2578.322266 45792.000000
2579.257080 46097.000000
2580.190918 44934.000000
2581.124268 44769.000000
2582.056885 46091.000000
2582.989258 45036.000000
2583.920898 46445.000000
2584.852051 44861.000000
2585.782715 44942.000000
2586.712158 45014.000000
2587.641602 44668.000000
2588.570557 45406.000000
2589.499268 44467.000000
2590.426270 44463.000000
2591.353516 45840.000000
2592.280273 44848.000000
2593.206299 45325.000000
2594.132080 46010.000000
2595.056641 44066.000000
2595.980957 43987.000000
2596.904785 46224.000000
2597.828125 44273.000000
2598.750488 45240.000000
2599.672607 44604.000000
2600.594238 43186.000000
2601.515137 44932.000000
2602.435303 45281.000000
2603.355225 44852.000000
2604.274658 44797.000000
2605.193848 44620.000000
2606.112061 45144.000000
2607.029053 44942.000000
2607.946289 43611.000000
2608.863281 44894.000000
2609.779297 43132.000000
2610.694092 44019.000000
2611.609375 43912.000000
2612.523926 43987.000000
2613.437500 43804.000000
2614.351074 44228.000000
2615.263428 42625.000000
2616.175781 43165.000000
2617.087158 43278.000000
2617.998291 44423.000000
2618.908691 42732.000000
2619.818848 43238.000000
2620.728271 43670.000000
2621.637207 43080.000000
2622.545166 43422.000000
2623.453369 42796.000000
2624.360596 42836.000000
2625.267334 42277.000000
2626.173340 43316.000000
2627.079102 42615.000000
2627.984131 42627.000000
2628.888916 41248.000000
2629.792969 42347.000000
2630.696045 42092.000000
2631.599121 41962.000000
2632.501221 42747.000000
2633.403320 41511.000000
2634.305176 41106.000000
2635.205322 41184.000000
2636.105713 41395.000000
2637.005371 41238.000000
2637.904785 41473.000000
2638.802734 40460.000000
2639.701172 40576.000000
2640.599121 40742.000000
2641.496338 40936.000000
2642.392334 40690.000000
2643.288330 39864.000000
2644.184082 40648.000000
2645.079102 40092.000000
2645.973877 39908.000000
2646.867188 39428.000000
2647.760498 40069.000000
2648.653564 39480.000000
2649.546387 39783.000000
2650.437500 38708.000000
2651.328857 39684.000000
2652.219727 38310.000000
2653.109863 38568.000000
2653.999756 39318.000000
2654.888428 38463.000000
2655.777344 39065.000000
2656.665771 39056.000000
2657.553223 38219.000000
2658.439697 39032.000000
2659.326660 38426.000000
2660.212891 38662.000000
2661.098633 38604.000000
2661.983154 38962.000000
2662.867676 38988.000000
2663.751953 39228.000000
2664.635498 38320.000000
2665.518555 37604.000000
2666.400879 37964.000000
2667.282715 38944.000000
2668.163818 38520.000000
2669.045166 39036.000000
2669.925049 38473.000000
2670.805176 37652.000000
2671.684570 37685.000000
2672.563965 38587.000000
2673.442627 38572.000000
2674.319580 38205.000000
2675.197266 37841.000000
2676.074219 38126.000000
2676.950439 36342.000000
2677.826172 37132.000000
2678.701172 37958.000000
2679.576416 36417.000000
2680.450684 37024.000000
2681.324463 36480.000000
2682.197510 36679.000000
2683.070313 37312.000000
2683.942871 37354.000000
2684.814697 36375.000000
2685.685791 36748.000000
2686.556641 36338.000000
2687.427002 35975.000000
2688.297119 36332.000000
2689.165527 36594.000000
2690.034668 35535.000000
2690.903076 35776.000000
2691.771240 36043.000000
2692.638672 35705.000000
2693.504883 36603.000000
2694.371582 35354.000000
2695.237305 35063.000000
2696.103027 35210.000000
2696.967285 34341.000000
2697.832275 35433.000000
2698.695801 34592.000000
2699.559570 35853.000000
2700.421875 34219.000000
2701.284668 34801.000000
2702.146484 35395.000000
2703.007813 34577.000000
2703.869141 34786.000000
2704.729248 33885.000000
2705.589355 33819.000000
2706.448975 34297.000000
2707.308350 33867.000000
2708.166016 33521.000000
2709.023926 33622.000000
2709.882324 33011.000000
2710.739502 33315.000000
2711.595947 33917.000000
2712.451904 33001.000000
2713.307861 33628.000000
2714.163086 32822.000000
2715.017578 33430.000000
2715.871582 32618.000000
2716.725586 32099.000000
2717.578613 32988.000000
2718.431885 32797.000000
2719.283447 31472.000000
2720.135498 32252.000000
2720.987305 32658.000000
2721.837891 32397.000000
2722.688477 32257.000000
2723.538574 31639.000000
2724.387939 31700.000000
2725.237305 31655.000000
2726.085449 31798.000000
2726.933105 31863.000000
2727.781250 31358.000000
2728.628174 31429.000000
2729.475586 32586.000000
2730.321533 30780.000000
2731.166748 31250.000000
2732.012451 31681.000000
2732.857178 31269.000000
2733.701904 30807.000000
2734.545410 31181.000000
2735.389160 30253.000000
2736.232178 30705.000000
2737.074707 31561.000000
2737.916260 31218.000000
2738.758301 30773.000000
2739.599365 30598.000000
2740.440186 31666.000000
2741.280762 31617.000000
2742.120117 29996.000000
2742.959473 30953.000000
2743.798828 30804.000000
2744.636963 30815.000000
2745.474609 29685.000000
2746.312256 31003.000000
2747.149414 30133.000000
2747.986328 30904.000000
2748.822754 30957.000000
2749.657959 30414.000000
2750.493408 30686.000000
2751.328369 30561.000000
2752.162598 30700.000000
2752.996582 30093.000000
2753.830078 30064.000000
2754.663574 28925.000000
2755.496094 29946.000000
2756.328125 29369.000000
2757.159668 29846.000000
2757.991211 29497.000000
2758.821777 29351.000000
2759.652588 29133.000000
2760.482178 28989.000000
2761.311768 29439.000000
2762.141113 28710.000000
2762.969727 28957.000000
2763.797852 28894.000000
2764.625488 28678.000000
2765.453125 28998.000000
2766.280273 27599.000000
2767.106689 29595.000000
2767.932617 27811.000000
2768.758057 28345.000000
2769.583252 27340.000000
2770.408447 27907.000000
2771.232422 27981.000000
2772.056396 28171.000000
2772.880371 27113.000000
2773.703125 27976.000000
2774.526123 27591.000000
2775.347900 27398.000000
2776.169678 27322.000000
2776.991455 27654.000000
2777.812256 26240.000000
2778.632324 27433.000000
2779.452637 26821.000000
2780.272461 26569.000000
2781.092285 27268.000000
2781.910156 27732.000000
2782.729248 25981.000000
2783.547119 27353.000000
2784.364746 27030.000000
2785.181885 26581.000000
2785.998535 26003.000000
2786.814941 25743.000000
2787.630859 26202.000000
2788.446533 26388.000000
2789.261230 26318.000000
2790.076416 25802.000000
2790.890869 25763.000000
2791.704834 26155.000000
2792.518555 25667.000000
2793.331055 24488.000000
2794.143799 25811.000000
2794.956055 25302.000000
2795.767822 25482.000000
2796.578857 25211.000000
2797.390625 25844.000000
2798.201172 25302.000000
2799.011719 25520.000000
2799.820801 25287.000000
2800.630615 24655.000000
2801.439697 24664.000000
2802.248535 25301.000000
2803.056885 24880.000000
2803.864258 25067.000000
2804.672119 24969.000000
2805.479248 24815.000000
2806.286133 24634.000000
2807.091797 24448.000000
2807.897949 24713.000000
2808.703369 24794.000000
2809.508789 24330.000000
2810.313477 24873.000000
2811.117188 24135.000000
2811.921387 24079.000000
2812.725098 24344.000000
2813.528564 24333.000000
2814.330566 24402.000000
2815.133301 24094.000000
2815.935303 23599.000000
2816.737061 24427.000000
2817.538330 24174.000000
2818.339111 23685.000000
2819.139404 23989.000000
2819.939941 24139.000000
2820.739502 23410.000000
2821.538574 23639.000000
2822.337646 23682.000000
2823.136475 23218.000000
2823.934814 23598.000000
2824.732178 23503.000000
2825.529785 23155.000000
2826.326660 23500.000000
2827.123779 23385.000000
2827.920166 22856.000000
2828.715820 23150.000000
2829.511475 22849.000000
2830.306885 22411.000000
2831.101807 22559.000000
2831.895996 22848.000000
2832.690186 22669.000000
2833.484131 22978.000000
2834.277588 22634.000000
2835.070313 22579.000000
2835.862793 22129.000000
2836.655273 22257.000000
2837.447510 22095.000000
2838.239258 22276.000000
2839.030029 22422.000000
2839.820801 21626.000000
2840.611816 21998.000000
2841.401855 22339.000000
2842.191406 21812.000000
2842.981201 21796.000000
2843.770020 21539.000000
2844.558838 21341.000000
2845.347656 21305.000000
2846.135498 21187.000000
2846.922852 21292.000000
2847.710449 21223.000000
2848.497559 21119.000000
2849.283936 21233.000000
2850.070313 21182.000000
2850.856445 21260.000000
2851.642090 21099.000000
2852.426758 20877.000000
2853.211914 20886.000000
2853.996826 20669.000000
2854.781006 20764.000000
2855.565186 20891.000000
2856.348145 20426.000000
2857.131348 20569.000000
2857.914307 20459.000000
2858.696777 20240.000000
2859.479004 20341.000000
2860.260742 20269.000000
2861.042236 19947.000000
2861.823975 20075.000000
2862.604980 20167.000000
2863.385254 20110.000000
2864.165283 20486.000000
2864.945313 20142.000000
2865.725098 20203.000000
2866.503906 20134.000000
2867.282959 20113.000000
2868.061523 20320.000000
2868.839844 20275.000000
2869.617676 20205.000000
2870.395264 20364.000000
2871.172607 20230.000000
2871.949707 20388.000000
2872.726318 20450.000000
2873.502441 20473.000000
2874.278564 20384.000000
2875.054199 20089.000000
2875.829590 20213.000000
2876.604492 20271.000000
2877.379150 19922.000000
2878.153809 20069.000000
2878.928223 19610.000000
2879.701904 19631.000000
2880.474854 19446.000000
2881.248535 19425.000000
2882.021240 19262.000000
2882.793945 18852.000000
2883.565918 18875.000000
2884.337646 19056.000000
2885.109863 18889.000000
2885.880859 18625.000000
2886.651367 18663.000000
2887.422363 18473.000000
2888.193359 18332.000000
2888.963623 18274.000000
2889.732910 18221.000000
2890.502441 18438.000000
2891.271973 18410.000000
2892.041016 18431.000000
2892.809570 18283.000000
2893.578125 18274.000000
2894.345703 18232.000000
2895.113770 18320.000000
2895.881348 18259.000000
2896.648926 17938.000000
2897.415283 17867.000000
2898.182617 17725.000000
2898.948730 17487.000000
2899.715088 17229.000000
2900.479980 17164.000000
2901.245361 17403.000000
2902.011230 17371.000000
2902.775635 17119.000000
2903.540039 17401.000000
2904.304688 17124.000000
2905.068359 17314.000000
2905.832764 17070.000000
2906.596436 17063.000000
2907.359375 16806.000000
2908.122070 16892.000000
2908.885254 16580.000000
2909.647949 16648.000000
2910.409424 16774.000000
2911.171387 16774.000000
spectrumdark 2048
-97.059540 6260.000000
-94.432671 6260.000000
-91.807678 6121.000000
-89.184578 6456.000000
-86.563347 5855.000000
-83.944016 6290.000000
-81.326546 6100.000000
-78.710953 6498.000000
-76.097237 6288.000000
-73.485397 5887.000000
-70.875420 6152.000000
-68.267326 6073.000000
-65.661079 6032.000000
-63.056705 5976.000000
-60.454197 6191.000000
-57.853542 5653.000000
-55.254749 6375.000000
-52.657814 6885.000000
-50.062733 6589.000000
-47.469505 6595.000000
-44.878128 6279.000000
-42.288597 6786.000000
-39.700909 5902.000000
-37.115070 6050.000000
-34.531075 6466.000000
-31.948917 5694.000000
-29.368605 6401.000000
-26.790119 5816.000000
-24.213476 6121.000000
-21.638659 6257.000000
-19.065681 6521.000000
-16.494524 6542.000000
-13.925200 6808.000000
-11.357702 7818.000000
-8.792023 6366.000000
-6.228169 6515.000000
-3.666128 6044.000000
-1.105912 5937.000000
1.452496 6200.000000
4.009083 6936.000000
6.563865 6703.000000
9.116830 6096.000000
11.667994 6806.000000
14.217346 6501.000000
16.764902 6700.000000
19.310646 6054.000000
21.854597 5776.000000
24.396744 6681.000000
26.937094 6839.000000
29.475658 6861.000000
32.012428 6296.000000
34.547394 5809.000000
37.080582 7266.000000
39.611988 6386.000000
42.141602 7103.000000
44.669418 6540.000000
47.195477 7871.000000
49.719746 5676.000000
52.242245 6293.000000
54.762947 6778.000000
57.281895 6288.000000
59.799068 6474.000000
62.314465 6680.000000
64.828079 5687.000000
67.339943 5765.000000
69.850060 6556.000000
72.358383 6640.000000
74.864952 5992.000000
77.369774 6370.000000
79.872841 6407.000000
82.374130 6345.000000
84.873680 6185.000000
87.371475 6441.000000
89.867538 5773.000000
92.361824 7315.000000
94.854370 5830.000000
97.345200 6947.000000
99.834259 7154.000000
102.321571 6423.000000
104.807159 6219.000000
107.291008 6417.000000
109.773109 5843.000000
112.253487 6672.000000
114.732140 6243.000000
117.209068 6522.000000
119.684242 7279.000000
122.157707 6882.000000
124.629440 5933.000000
127.099464 6775.000000
129.567734 6304.000000
132.034332 6310.000000
134.499176 5752.000000
136.962326 6283.000000
139.423737 7275.000000
141.883453 6904.000000
144.341446 6397.000000
146.797745 6017.000000
149.252335 5946.000000
151.705200 6867.000000
154.156387 6417.000000
156.605881 6683.000000
159.053650 6171.000000
161.499710 6592.000000
163.944092 8787.000000
166.386795 6555.000000
168.827805 6834.000000
171.267105 6271.000000
173.704697 7320.000000
176.140656 6686.000000
178.574875 7098.000000
181.007416 7236.000000
183.438309 6763.000000
185.867477 6904.000000
188.294998 6768.000000
190.720840 6432.000000
193.145004 6717.000000
195.567505 7223.000000
197.988312 7460.000000
200.407455 6593.000000
202.824936 6064.000000
205.240723 7766.000000
207.654861 7143.000000
210.067368 6397.000000
212.478195 6126.000000
214.887344 6325.000000
217.294861 7417.000000
219.700668 6258.000000
222.104889 6566.000000
224.507401 6733.000000
226.908295 6958.000000
229.307541 6515.000000
231.705124 6949.000000
234.101044 7365.000000
236.495346 6566.000000
238.887985 5900.000000
241.279007 6894.000000
243.668365 6626.000000
246.056107 6463.000000
248.442200 7029.000000
250.826660 6173.000000
253.209473 7945.000000
255.590714 6737.000000
257.970245 6670.000000
260.348206 6515.000000
262.724487 7586.000000
265.099213 7623.000000
267.472290 7911.000000
269.843719 6252.000000
272.213501 6518.000000
274.581726 5933.000000
276.948303 6370.000000
279.313293 6779.000000
281.676666 6108.000000
284.038391 6320.000000
286.398529 7174.000000
288.757050 6020.000000
291.113983 6630.000000
293.469299 6512.000000
295.823029 6017.000000
298.175110 5961.000000
300.525635 6365.000000
302.874573 6440.000000
305.221863 6833.000000
307.567627 6431.000000
309.911713 6538.000000
312.254272 7431.000000
314.595215 7625.000000
316.934540 7223.000000
319.272308 6951.000000
321.608521 8176.000000
323.943085 6351.000000
326.276093 6579.000000
328.607544 6003.000000
330.937408 6566.000000
333.265686 6413.000000
335.592346 7310.000000
337.917511 6406.000000
340.241058 6230.000000
342.563049 6081.000000
344.883484 7571.000000
347.202301 7805.000000
349.519562 6100.000000
351.835297 5884.000000
354.149445 6983.000000
356.462006 6362.000000
358.773010 6318.000000
361.082489 7144.000000
363.390442 6456.000000
365.696777 5730.000000
368.001526 6477.000000
370.304810 6500.000000
372.606476 6320.000000
374.906647 6413.000000
377.205261 6360.000000
379.502319 5775.000000
381.797821 6165.000000
384.091797 5936.000000
386.384186 5371.000000
388.675079 5636.000000
390.964447 6298.000000
393.252228 6310.000000
395.538483 6569.000000
397.823242 7055.000000
400.106384 6040.000000
402.388092 6441.000000
404.668274 6141.000000
406.946869 7323.000000
409.223938 6434.000000
411.499481 6781.000000
413.773499 6434.000000
416.046082 6399.000000
418.317047 6286.000000
420.586517 6413.000000
422.854492 7150.000000
425.120911 7288.000000
427.385834 6342.000000
429.649292 6345.000000
431.911163 6570.000000
434.171570 6073.000000
436.430420 6685.000000
438.687805 6176.000000
440.943695 5778.000000
443.198090 5873.000000
445.450958 5579.000000
447.702271 6979.000000
449.952179 6156.000000
452.200500 6353.000000
454.447388 5711.000000
456.692810 6519.000000
458.936676 6575.000000
461.179047 6789.000000
463.419922 5767.000000
465.659393 6806.000000
467.897278 5515.000000
470.133728 6014.000000
472.368652 6170.000000
474.602112 7406.000000
476.834137 6768.000000
479.064636 5763.000000
481.293640 6537.000000
483.521179 6353.000000
485.747223 5981.000000
487.971832 6588.000000
490.194977 5943.000000
492.416656 6491.000000
494.636780 6755.000000
496.855499 5694.000000
499.072723 6341.000000
501.288574 5579.000000
503.502808 6266.000000
505.715729 6530.000000
507.927063 6537.000000
510.136963 6950.000000
512.345459 6498.000000
514.552551 6705.000000
516.758057 6544.000000
518.962158 6642.000000
521.164734 6256.000000
523.365906 6624.000000
525.565735 6779.000000
527.764038 7005.000000
529.960815 5497.000000
532.156250 5900.000000
534.350159 5589.000000
536.542725 7575.000000
538.733765 6730.000000
540.923401 6163.000000
543.111633 6904.000000
545.298340 7186.000000
547.483582 6879.000000
549.667542 6368.000000
551.849915 6467.000000
554.030945 6249.000000
556.210449 6116.000000
558.388672 5958.000000
560.565369 6076.000000
562.740662 6430.000000
564.914551 6535.000000
567.086975 5993.000000
569.257996 6072.000000
571.427551 6380.000000
573.595825 5296.000000
575.762573 6443.000000
577.927856 6379.000000
580.091736 6188.000000
582.254333 5841.000000
584.415405 6105.000000
586.575073 5619.000000
588.733398 5863.000000
590.890198 6197.000000
593.045654 6662.000000
595.199707 5771.000000
597.352417 6206.000000
599.503601 7327.000000
601.653442 6871.000000
603.801941 6721.000000
605.948853 6111.000000
608.094543 6521.000000
610.238831 6514.000000
612.381653 7134.000000
614.523010 6274.000000
616.663147 6507.000000
618.801758 7734.000000
620.939087 5808.000000
623.074951 6652.000000
625.209412 6949.000000
627.342407 7263.000000
629.474243 6764.000000
631.604614 6609.000000
633.733582 6816.000000
635.861084 6522.000000
637.987305 6227.000000
640.112000 7380.000000
642.235474 6466.000000
644.357605 6885.000000
646.478271 6901.000000
648.597595 6610.000000
650.715515 5736.000000
652.832092 5777.000000
654.947266 6446.000000
657.061096 6590.000000
659.173462 5909.000000
661.284607 6196.000000
663.394348 5439.000000
665.502625 6668.000000
667.609741 6357.000000
669.715393 6863.000000
671.819580 5805.000000
673.922546 5806.000000
676.024109 7080.000000
678.124329 5371.000000
680.223145 6770.000000
682.320618 6315.000000
684.416809 6973.000000
686.511536 6221.000000
688.605042 7018.000000
690.697205 6601.000000
692.787842 7970.000000
694.877258 6743.000000
696.965393 6539.000000
699.052063 6116.000000
701.137512 6794.000000
703.221436 5184.000000
705.304138 5982.000000
707.385559 5995.000000
709.465515 7649.000000
711.544250 6368.000000
713.621521 5588.000000
715.697510 6645.000000
717.772217 6167.000000
719.845642 7098.000000
721.917542 6369.000000
723.988281 7437.000000
726.057678 5895.000000
728.125671 6530.000000
730.192322 6429.000000
732.257751 7206.000000
734.321838 5822.000000
736.384583 6179.000000
738.445984 6320.000000
740.506104 6707.000000
742.564819 6093.000000
744.622314 6705.000000
746.678528 6575.000000
748.733337 6677.000000
750.786865 6478.000000
752.838989 7538.000000
754.889893 5866.000000
756.939575 6783.000000
758.987793 6430.000000
761.034790 6232.000000
763.080505 7120.000000
765.124817 5337.000000
767.167847 5750.000000
769.209656 15072.000000
771.250122 7036.000000
773.289185 6496.000000
775.327087 6170.000000
777.363647 6060.000000
779.398987 5449.000000
781.432983 5824.000000
783.465576 6993.000000
785.497009 5564.000000
787.527039 12148.000000
789.555786 6090.000000
791.583374 6396.000000
793.609619 6418.000000
795.634460 5948.000000
797.658203 5552.000000
799.680542 6404.000000
801.701660 5949.000000
803.721436 6797.000000
805.739929 4957.000000
807.757202 6761.000000
809.773071 6936.000000
811.787781 5822.000000
813.801147 6474.000000
815.813293 6314.000000
817.824219 6155.000000
819.833801 6637.000000
821.842163 5373.000000
823.849121 5732.000000
825.854858 6120.000000
827.859375 5838.000000
829.862610 5734.000000
831.864563 6579.000000
833.865234 6140.000000
835.864685 5949.000000
837.862793 6408.000000
839.859802 6977.000000
841.855408 6262.000000
843.849854 6077.000000
845.842957 6250.000000
847.834839 6905.000000
849.825378 5654.000000
851.814636 6868.000000
853.802856 6023.000000
855.789673 5848.000000
857.775269 6470.000000
859.759583 7324.000000
861.742798 6353.000000
863.724609 6439.000000
865.705200 5897.000000
867.684509 7805.000000
869.662659 7125.000000
871.639465 6203.000000
873.614990 6030.000000
875.589478 6246.000000
877.562500 6082.000000
879.534485 5495.000000
881.505127 6498.000000
883.474609 6149.000000
885.442749 5569.000000
887.409729 5289.000000
889.375366 6191.000000
891.339844 5876.000000
893.303101 6035.000000
895.265137 6594.000000
897.225891 5862.000000
899.185425 6454.000000
901.143677 6801.000000
903.100830 6418.000000
905.056824 6081.000000
907.011414 7004.000000
908.964783 6565.000000
910.916992 6443.000000
912.867981 6448.000000
914.817688 7155.000000
916.766235 6349.000000
918.713562 6242.000000
920.659607 6167.000000
922.604370 6156.000000
924.548096 6411.000000
926.490662 6030.000000
928.431946 5616.000000
930.371887 6542.000000
932.310730 5780.000000
934.248291 5582.000000
936.184631 5996.000000
938.119812 5908.000000
940.053711 6165.000000
941.986511 5992.000000
943.918091 6869.000000
945.848511 5236.000000
947.777710 6417.000000
949.705566 7139.000000
951.632385 6741.000000
953.557922 5975.000000
955.482178 5412.000000
957.405334 6059.000000
959.327332 6819.000000
961.248047 7375.000000
963.167603 6495.000000
965.085999 5361.000000
967.003357 6458.000000
968.919250 6443.000000
970.834045 6154.000000
972.747620 5958.000000
974.660034 6454.000000
976.571228 6569.000000
978.481262 5507.000000
980.390015 6309.000000
982.297729 6232.000000
984.204224 6468.000000
986.109497 5806.000000
988.013672 6822.000000
989.916626 6219.000000
991.818359 6840.000000
993.718933 6589.000000
995.618347 6629.000000
997.516541 5288.000000
999.413574 6587.000000
1001.309387 6541.000000
1003.204041 7739.000000
1005.097595 5679.000000
1006.989868 7249.000000
1008.881226 6155.000000
1010.771240 5379.000000
1012.660034 6751.000000
1014.547668 6338.000000
1016.434143 6923.000000
1018.319458 6802.000000
1020.203613 6119.000000
1022.086548 5886.000000
1023.968445 6292.000000
1025.848999 5279.000000
1027.728516 5972.000000
1029.607056 6115.000000
1031.484253 5484.000000
1033.360107 6285.000000
1035.234985 5970.000000
1037.108887 6616.000000
1038.981323 7138.000000
1040.852783 6688.000000
1042.722900 5570.000000
1044.592041 5573.000000
1046.459961 5852.000000
1048.326782 7104.000000
1050.192505 6813.000000
1052.057007 6524.000000
1053.920410 6534.000000
1055.782471 6533.000000
1057.643555 6000.000000
1059.503540 6598.000000
1061.362183 6688.000000
1063.219727 5872.000000
1065.076172 6847.000000
1066.931519 5968.000000
1068.785645 5857.000000
1070.638916 6340.000000
1072.490723 6372.000000
1074.341553 6254.000000
1076.191162 6180.000000
1078.039551 5863.000000
1079.887085 8024.000000
1081.733276 5689.000000
1083.578247 6272.000000
1085.422363 5489.000000
1087.265137 5518.000000
1089.106689 6517.000000
1090.947510 5535.000000
1092.786743 5829.000000
1094.625244 6146.000000
1096.462402 6129.000000
1098.298340 6862.000000
1100.133301 6735.000000
1101.967041 5495.000000
1103.799805 5701.000000
1105.631226 6226.000000
1107.461792 7332.000000
1109.291016 6550.000000
1111.119263 6478.000000
1112.946289 7227.000000
1114.772339 5484.000000
1116.597168 6385.000000
1118.420898 7264.000000
1120.243408 6173.000000
1122.064819 5974.000000
1123.885376 5968.000000
1125.704468 6682.000000
1127.522705 7064.000000
1129.339600 6911.000000
1131.155640 6736.000000
1132.970459 6621.000000
1134.784180 5637.000000
1136.596802 5912.000000
1138.408203 5679.000000
1140.218628 6224.000000
1142.027954 6782.000000
1143.835938 6978.000000
1145.643188 5980.000000
1147.448975 5962.000000
1149.253906 5444.000000
1151.057739 5509.000000
1152.860352 6205.000000
1154.662109 6141.000000
1156.462402 6096.000000
1158.261719 6201.000000
1160.060059 5934.000000
1161.857056 5510.000000
1163.653320 5938.000000
1165.448242 6116.000000
1167.242065 6407.000000
1169.035034 7817.000000
1170.826660 5685.000000
1172.617310 6556.000000
1174.406982 6113.000000
1176.195190 5902.000000
1177.982544 7546.000000
1179.768799 6991.000000
1181.553955 5837.000000
1183.338013 5982.000000
1185.120972 7688.000000
1186.902954 5972.000000
1188.683716 5963.000000
1190.463501 6459.000000
1192.242188 7025.000000
1194.019897 6708.000000
1195.796387 7225.000000
1197.571777 6627.000000
1199.346069 6634.000000
1201.119263 6722.000000
1202.891602 6613.000000
1204.662598 6791.000000
1206.432739 5779.000000
1208.201660 6180.000000
1209.969482 6412.000000
1211.736450 5875.000000
1213.502075 5914.000000
1215.266724 6994.000000
1217.030273 6692.000000
1218.792725 6060.000000
1220.554321 6815.000000
1222.314697 5969.000000
1224.073975 6356.000000
1225.832397 6069.000000
1227.589600 7192.000000
1229.345703 6543.000000
1231.100708 5594.000000
1232.854858 6032.000000
1234.607666 5811.000000
1236.359497 6104.000000
1238.110474 6015.000000
1239.860107 4989.000000
1241.608887 7076.000000
1243.356323 6586.000000
1245.103027 6664.000000
1246.848511 6558.000000
1248.593140 6502.000000
1250.336426 6860.000000
1252.078735 6729.000000
1253.819946 5405.000000
1255.560303 5104.000000
1257.299561 5836.000000
1259.037598 6688.000000
1260.774780 7131.000000
1262.510742 6207.000000
1264.245728 6532.000000
1265.979736 7269.000000
1267.712769 6020.000000
1269.444580 6254.000000
1271.175415 6482.000000
1272.905029 7296.000000
1274.633789 5955.000000
1276.361450 5785.000000
1278.088013 5556.000000
1279.813721 5624.000000
1281.538086 6525.000000
1283.261597 5274.000000
1284.984131 6971.000000
1286.705688 6708.000000
1288.426025 6205.000000
1290.145386 6762.000000
1291.863647 7357.000000
1293.580933 6506.000000
1295.297241 5760.000000
1297.012329 6487.000000
1298.726440 6157.000000
1300.439575 5815.000000
1302.151855 6484.000000
1303.862915 8421.000000
1305.572998 5411.000000
1307.281982 6435.000000
1308.989746 6783.000000
1310.696899 7068.000000
1312.402588 5882.000000
1314.107544 6950.000000
1315.811523 6191.000000
1317.514282 5994.000000
1319.216064 6600.000000
1320.916992 6136.000000
1322.616577 9885.000000
1324.315308 7733.000000
1326.013306 5581.000000
1327.709961 6561.000000
1329.405518 7169.000000
1331.100220 6911.000000
1332.793701 5796.000000
1334.486328 5447.000000
1336.178101 7438.000000
1337.868530 6355.000000
1339.558228 6663.000000
1341.246826 6184.000000
1342.934326 7671.000000
1344.620850 5676.000000
1346.306274 6830.000000
1347.990723 5911.000000
1349.674316 7316.000000
1351.356689 6438.000000
1353.038086 5980.000000
1354.718628 6577.000000
1356.397949 6795.000000
1358.076660 5984.000000
1359.754028 6572.000000
1361.430298 5928.000000
1363.105591 5671.000000
1364.780151 6678.000000
1366.453491 6573.000000
1368.125854 6841.000000
1369.797241 5184.000000
1371.467651 6815.000000
1373.136963 6193.000000
1374.805298 5719.000000
1376.472778 6115.000000
1378.139160 6512.000000
1379.804565 6167.000000
1381.468994 5903.000000
1383.132202 5947.000000
1384.794800 5743.000000
1386.456055 6396.000000
1388.116455 6642.000000
1389.775757 6487.000000
1391.434082 6495.000000
1393.091675 6931.000000
1394.748047 6452.000000
1396.403564 7021.000000
1398.057861 6431.000000
1399.711304 5907.000000
1401.363647 6198.000000
1403.015259 6476.000000
1404.665649 7215.000000
1406.314941 6395.000000
1407.963501 7578.000000
1409.610962 7921.000000
1411.257446 6236.000000
1412.903076 6294.000000
1414.547729 6039.000000
1416.191162 7140.000000
1417.833740 7198.000000
1419.475220 6948.000000
1421.115845 6548.000000
1422.755493 6526.000000
1424.394043 6076.000000
1426.031738 6668.000000
1427.668335 6409.000000
1429.303955 6037.000000
1430.938843 6464.000000
1432.572632 5945.000000
1434.205322 6173.000000
1435.837036 5759.000000
1437.467896 6175.000000
1439.097656 6121.000000
1440.726318 7847.000000
1442.354370 6110.000000
1443.981323 6322.000000
1445.607056 6315.000000
1447.232178 6182.000000
1448.856201 6515.000000
1450.479248 6089.000000
1452.101318 6133.000000
1453.722290 7382.000000
1455.342285 6349.000000
1456.961548 6930.000000
1458.579468 5783.000000
1460.196777 5682.000000
1461.813110 5581.000000
1463.428223 7358.000000
1465.042480 6317.000000
1466.655884 5282.000000
1468.268188 5676.000000
1469.879639 6371.000000
1471.490234 6373.000000
1473.099609 6042.000000
1474.708008 6033.000000
1476.315552 6329.000000
1477.922119 6886.000000
1479.527954 5423.000000
1481.132568 6361.000000
1482.736328 5535.000000
1484.338867 6858.000000
1485.940796 5609.000000
1487.541504 5558.000000
1489.141479 5718.000000
1490.740356 6327.000000
1492.338379 6548.000000
1493.935303 6759.000000
1495.531372 6437.000000
1497.126465 6049.000000
1498.720581 5539.000000
1500.313965 6624.000000
1501.906250 5603.000000
1503.497314 6226.000000
1505.087891 6862.000000
1506.677124 6610.000000
1508.265747 6149.000000
1509.853271 6674.000000
1511.439697 6952.000000
1513.025391 6272.000000
1514.609985 6668.000000
1516.193726 6234.000000
1517.776367 6189.000000
1519.358276 6656.000000
1520.939087 6688.000000
1522.519165 6117.000000
1524.098022 6289.000000
1525.676025 6494.000000
1527.253296 6356.000000
1528.829346 5748.000000
1530.404663 6022.000000
1531.978882 6391.000000
1533.552368 5532.000000
1535.124634 6044.000000
1536.696167 6441.000000
1538.266724 6516.000000
1539.836426 6371.000000
1541.404907 5489.000000
1542.972656 6669.000000
1544.539551 5682.000000
1546.105225 6840.000000
1547.670166 5967.000000
1549.234009 5135.000000
1550.797241 7503.000000
1552.359131 6364.000000
1553.920410 6020.000000
1555.480591 5786.000000
1557.040039 5822.000000
1558.598389 6019.000000
1560.156006 6369.000000
1561.712524 7084.000000
1563.267822 5953.000000
1564.822510 6432.000000
1566.376465 5683.000000
1567.929443 6338.000000
1569.481079 5765.000000
1571.031982 5971.000000
1572.582153 6289.000000
1574.131348 6366.000000
1575.679199 5877.000000
1577.226563 5566.000000
1578.772949 5794.000000
1580.318481 5123.000000
1581.863037 6692.000000
1583.406372 6479.000000
1584.949097 6672.000000
1586.490967 6556.000000
1588.031738 6735.000000
1589.571533 5840.000000
1591.110596 6807.000000
1592.648560 5952.000000
1594.186035 6237.000000
1595.722168 5910.000000
1597.257202 6716.000000
1598.791748 6351.000000
1600.325317 6009.000000
1601.858032 6154.000000
1603.389160 6316.000000
1604.920044 6353.000000
1606.450073 5859.000000
1607.978882 6222.000000
1609.506592 6205.000000
1611.033691 6053.000000
1612.560059 6043.000000
1614.085449 6303.000000
1615.609985 5832.000000
1617.133179 5862.000000
1618.655640 5695.000000
1620.177368 6603.000000
1621.698242 7014.000000
1623.217651 15660.000000
1624.736572 6200.000000
1626.254761 6102.000000
1627.772095 5967.000000
1629.288330 6432.000000
1630.803223 7045.000000
1632.317627 6841.000000
1633.831299 5809.000000
1635.343872 6914.000000
1636.855225 5969.000000
1638.366211 6555.000000
1639.876099 6267.000000
1641.385132 6278.000000
1642.892822 5697.000000
1644.400146 6191.000000
1645.906616 7175.000000
1647.412109 6339.000000
1648.916748 6941.000000
1650.419922 6247.000000
1651.922485 6631.000000
1653.424683 6446.000000
1654.925537 6730.000000
1656.425293 7579.000000
1657.924194 6018.000000
1659.422729 6535.000000
1660.920044 6312.000000
1662.416626 6021.000000
1663.911621 6550.000000
1665.406372 6436.000000
1666.900269 5274.000000
1668.393188 5728.000000
1669.884766 6168.000000
1671.375854 6608.000000
1672.866333 6213.000000
1674.355713 6008.000000
1675.843628 7004.000000
1677.331299 6913.000000
1678.817993 6101.000000
1680.303833 5370.000000
1681.788818 6141.000000
1683.272339 6241.000000
1684.755615 6354.000000
1686.238037 5975.000000
1687.719360 6273.000000
1689.199219 6286.000000
1690.678833 5550.000000
1692.157715 6652.000000
1693.635620 6054.000000
1695.112549 6183.000000
1696.588257 5820.000000
1698.063599 6037.000000
1699.537720 6409.000000
1701.011230 5577.000000
1702.483276 5642.000000
1703.955078 6884.000000
1705.425903 6442.000000
1706.895874 7231.000000
1708.364502 5195.000000
1709.832642 5900.000000
1711.300049 6424.000000
1712.766357 5564.000000
1714.232056 5794.000000
1715.696045 6262.000000
1717.159912 6033.000000
1718.622925 7036.000000
1720.084961 6432.000000
1721.545776 6632.000000
1723.005981 5584.000000
1724.465454 5722.000000
1725.924072 6173.000000
1727.381714 6073.000000
1728.838013 6293.000000
1730.294067 6120.000000
1731.749146 6477.000000
1733.203247 5990.000000
1734.656128 6918.000000
1736.108765 6079.000000
1737.560303 6820.000000
1739.011108 6015.000000
1740.460938 6608.000000
1741.909424 5957.000000
1743.357544 7443.000000
1744.804810 6612.000000
1746.251343 6694.000000
1747.696289 6740.000000
1749.140991 6215.000000
1750.584839 5823.000000
1752.027832 5581.000000
1753.469360 6601.000000
1754.910645 6468.000000
1756.351074 6429.000000
1757.790527 6390.000000
1759.229004 5279.000000
1760.666504 6075.000000
1762.103516 7600.000000
1763.539551 5985.000000
1764.974731 7197.000000
1766.408447 6283.000000
1767.842041 6515.000000
1769.274658 6728.000000
1770.706421 5886.000000
1772.137329 5771.000000
1773.567017 6443.000000
1774.995972 6242.000000
1776.424438 6332.000000
1777.851929 6753.000000
1779.278076 6294.000000
1780.703979 5691.000000
1782.128784 6968.000000
1783.552979 5609.000000
1784.975708 6711.000000
1786.397949 6528.000000
1787.819458 6915.000000
1789.240234 5977.000000
1790.660034 6211.000000
1792.078491 6282.000000
1793.496460 6932.000000
1794.913818 5571.000000
1796.330322 6102.000000
1797.745361 6587.000000
1799.160034 5909.000000
1800.574097 6652.000000
1801.986938 6015.000000
1803.399170 7033.000000
1804.810059 7203.000000
1806.220459 7834.000000
1807.630127 6585.000000
1809.038818 6083.000000
1810.446411 5495.000000
1811.853516 6430.000000
1813.259766 6421.000000
1814.665039 6810.000000
1816.069214 6014.000000
1817.473022 6026.000000
1818.875854 6288.000000
1820.277832 6054.000000
1821.679199 5933.000000
1823.079102 6464.000000
1824.478394 6544.000000
1825.877197 6645.000000
1827.275146 7513.000000
1828.671753 5839.000000
1830.067749 6733.000000
1831.463013 5956.000000
1832.857666 8143.000000
1834.251343 6127.000000
1835.643677 6891.000000
1837.035522 6479.000000
1838.426758 5913.000000
1839.817017 7171.000000
1841.206055 6122.000000
1842.594727 6135.000000
1843.982422 6063.000000
1845.369385 5910.000000
1846.755005 6934.000000
1848.140381 5897.000000
1849.524902 6563.000000
1850.908691 6431.000000
1852.291382 6420.000000
1853.672852 5464.000000
1855.053833 6586.000000
1856.434326 6398.000000
1857.813843 5799.000000
1859.191895 6017.000000
1860.569824 6280.000000
1861.946777 7925.000000
1863.322998 6229.000000
1864.698364 6122.000000
1866.072266 5718.000000
1867.446045 5797.000000
1868.818970 6274.000000
1870.190796 6026.000000
1871.561646 6905.000000
1872.932129 5540.000000
1874.301514 6086.000000
1875.670410 6232.000000
1877.037720 7224.000000
1878.404907 6134.000000
1879.771118 6117.000000
1881.136597 6869.000000
1882.501343 7588.000000
1883.864502 6829.000000
1885.227539 7029.000000
1886.589722 6351.000000
1887.951050 6466.000000
1889.311035 5664.000000
1890.670654 5838.000000
1892.029663 6206.000000
1893.387695 6666.000000
1894.744873 7321.000000
1896.100830 6036.000000
1897.456543 7724.000000
1898.811279 5912.000000
1900.165161 5565.000000
1901.517944 6006.000000
1902.870239 6009.000000
1904.221802 5980.000000
1905.572510 6964.000000
1906.921997 6570.000000
1908.270996 6733.000000
1909.619141 5839.000000
1910.966675 6225.000000
1912.313477 6328.000000
1913.658691 6893.000000
1915.003662 6135.000000
1916.347900 5547.000000
1917.691284 6563.000000
1919.033325 6001.000000
1920.375122 6755.000000
1921.716064 7034.000000
1923.056274 6242.000000
1924.395508 6318.000000
1925.733765 6423.000000
1927.071411 6511.000000
1928.408325 7144.000000
1929.744385 6788.000000
1931.079224 5660.000000
1932.413696 6847.000000
1933.747437 7286.000000
1935.080322 6329.000000
1936.411743 5805.000000
1937.743286 6437.000000
1939.073486 6670.000000
1940.403198 5844.000000
1941.732056 6115.000000
1943.059692 5914.000000
1944.386841 5086.000000
1945.713257 5932.000000
1947.038940 6576.000000
1948.363281 5818.000000
1949.687378 6616.000000
1951.010620 6332.000000
1952.333130 6520.000000
1953.654541 5796.000000
1954.974976 7513.000000
1956.294800 6025.000000
1957.614258 5645.000000
1958.932739 6933.000000
1960.249878 5973.000000
1961.566650 5906.000000
1962.882690 6658.000000
1964.197998 6618.000000
1965.511841 6374.000000
1966.825439 5759.000000
1968.138306 6256.000000
1969.450317 6088.000000
1970.761719 6093.000000
1972.071777 6389.000000
1973.381348 5923.000000
1974.690186 6213.000000
1975.998413 6656.000000
1977.305298 6130.000000
1978.611572 7310.000000
1979.917480 5603.000000
1981.222168 6447.000000
1982.526367 6009.000000
1983.829346 5772.000000
1985.131958 7700.000000
1986.433594 6122.000000
1987.734619 6878.000000
1989.034058 6166.000000
1990.333618 6740.000000
1991.632080 5380.000000
1992.930054 6104.000000
1994.226440 6229.000000
1995.522827 5869.000000
1996.818237 5625.000000
1998.112915 6568.000000
1999.406738 5725.000000
2000.699341 6566.000000
2001.991455 5799.000000
2003.283081 7259.000000
2004.573975 6516.000000
2005.863281 6359.000000
2007.152344 6933.000000
2008.440674 6067.000000
2009.728271 6150.000000
2011.015015 6740.000000
2012.300659 5719.000000
2013.585938 6406.000000
2014.870239 6106.000000
2016.153931 5660.000000
2017.436279 6085.000000
2018.718262 6575.000000
2019.999756 6809.000000
2021.280273 5968.000000
2022.560059 6160.000000
2023.838745 6834.000000
2025.116699 5923.000000
2026.394165 5930.000000
2027.671021 6360.000000
2028.946167 5821.000000
2030.221436 6709.000000
2031.495728 6078.000000
2032.769043 6044.000000
2034.041504 6017.000000
2035.313599 6250.000000
2036.584595 7019.000000
2037.855347 6645.000000
2039.124756 6052.000000
2040.393066 6811.000000
2041.661377 6716.000000
2042.928711 5947.000000
2044.195313 6015.000000
2045.460693 5733.000000
2046.725464 5806.000000
2047.989990 5468.000000
2049.253418 5899.000000
2050.516357 6494.000000
2051.777344 6210.000000
2053.038818 6172.000000
2054.299072 5941.000000
2055.558594 6515.000000
2056.817383 6272.000000
2058.075195 7048.000000
2059.332520 6216.000000
2060.589111 6078.000000
2061.844238 6558.000000
2063.099365 5689.000000
2064.353516 5601.000000
2065.606934 5716.000000
2066.859619 6856.000000
2068.111084 6273.000000
2069.362305 6374.000000
2070.612793 5695.000000
2071.862549 5529.000000
2073.110840 6473.000000
2074.359131 6531.000000
2075.606445 7497.000000
2076.853027 5639.000000
2078.098877 6122.000000
2079.343506 7050.000000
2080.587646 7743.000000
2081.831299 5603.000000
2083.073975 6059.000000
2084.315430 7044.000000
2085.556641 6029.000000
2086.797363 6467.000000
2088.037109 6835.000000
2089.275635 7122.000000
2090.513672 6220.000000
2091.750977 5822.000000
2092.988037 6683.000000
2094.223633 6118.000000
2095.458496 6280.000000
2096.693115 6152.000000
2097.926758 5709.000000
2099.159424 6146.000000
2100.391357 6893.000000
2101.622803 6497.000000
2102.853271 6848.000000
2104.083008 6027.000000
2105.312500 6065.000000
2106.540039 6030.000000
2107.767822 6107.000000
2108.994873 6356.000000
2110.220947 5539.000000
2111.445557 6487.000000
2112.670410 6964.000000
2113.894043 7171.000000
2115.117188 6256.000000
2116.339111 7574.000000
2117.560791 6115.000000
2118.781494 6904.000000
2120.001465 6131.000000
2121.220947 6200.000000
2122.438965 6673.000000
2123.656982 7163.000000
2124.874023 5793.000000
2126.090576 5874.000000
2127.305420 6572.000000
2128.520508 6391.000000
2129.734619 7031.000000
2130.947998 5802.000000
2132.160645 6181.000000
2133.371826 5856.000000
2134.583252 6554.000000
2135.793457 6799.000000
2137.003174 6005.000000
2138.211426 6234.000000
2139.419678 5720.000000
2140.627197 5937.000000
2141.833496 7750.000000
2143.039063 5915.000000
2144.244385 5757.000000
2145.448730 5493.000000
2146.652344 6394.000000
2147.855469 6273.000000
2149.057129 6634.000000
2150.258545 5378.000000
2151.459229 6342.000000
2152.659180 6076.000000
2153.857910 5986.000000
2155.056396 7016.000000
2156.254395 6221.000000
2157.451416 6021.000000
2158.647705 5184.000000
2159.842773 5333.000000
2161.037598 6188.000000
2162.231689 5654.000000
2163.424805 6170.000000
2164.616943 7033.000000
2165.808838 5914.000000
2167.000000 6408.000000
2168.190186 6360.000000
2169.379639 6561.000000
2170.568604 6870.000000
2171.756592 6061.000000
2172.944336 5813.000000
2174.130615 5968.000000
2175.316162 6683.000000
2176.501465 6056.000000
2177.686279 5926.000000
2178.869873 6430.000000
2180.052734 7569.000000
2181.234619 6351.000000
2182.416260 5993.000000
2183.597412 6636.000000
2184.777344 5832.000000
2185.956299 5627.000000
2187.134766 6430.000000
2188.312988 6923.000000
2189.489990 7285.000000
2190.666016 6769.000000
2191.841797 6178.000000
2193.017090 5672.000000
2194.190918 6803.000000
2195.364258 6219.000000
2196.537354 6199.000000
2197.709229 6480.000000
2198.880615 7141.000000
2200.051514 6398.000000
2201.220703 7006.000000
2202.389893 7607.000000
2203.558594 6289.000000
2204.726318 5842.000000
2205.893066 5704.000000
2207.059082 7228.000000
2208.224609 6735.000000
2209.389893 6018.000000
2210.553711 6780.000000
2211.717041 5485.000000
2212.879150 6281.000000
2214.041504 6319.000000
2215.202637 6705.000000
2216.362793 6740.000000
2217.522461 6339.000000
2218.681885 6627.000000
2219.840088 6398.000000
2220.997314 6390.000000
2222.154297 6872.000000
2223.310547 6730.000000
2224.466064 6858.000000
2225.620850 6304.000000
2226.774658 6509.000000
2227.927490 6096.000000
2229.080811 6929.000000
2230.232178 6248.000000
2231.383301 6212.000000
2232.533691 6607.000000
2233.683594 7789.000000
2234.832520 6431.000000
2235.980957 5260.000000
2237.127930 6453.000000
2238.275146 7110.000000
2239.421143 6115.000000
2240.566895 7271.000000
2241.710938 7376.000000
2242.855225 6811.000000
2243.998535 6233.000000
2245.141113 6015.000000
2246.282715 5767.000000
2247.424072 5913.000000
2248.564453 6486.000000
2249.704102 6518.000000
2250.843262 5898.000000
2251.981201 5907.000000
2253.119141 6295.000000
2254.256104 5417.000000
2255.392334 6397.000000
2256.527588 6180.000000
2257.662109 7307.000000
2258.796387 6474.000000
2259.930176 5515.000000
2261.062500 6143.000000
2262.194336 6896.000000
2263.325684 6327.000000
2264.456055 6508.000000
2265.586182 8126.000000
2266.715088 6766.000000
2267.843506 6184.000000
2268.971436 5550.000000
2270.098389 6253.000000
2271.224609 6000.000000
2272.349854 6796.000000
2273.475098 6597.000000
2274.599609 6516.000000
2275.722900 6034.000000
2276.845459 6372.000000
2277.967529 6065.000000
2279.089111 7403.000000
2280.209961 6408.000000
2281.329590 6457.000000
2282.448730 7185.000000
2283.567627 7726.000000
2284.685791 7298.000000
2285.802979 5929.000000
2286.919189 6495.000000
2288.035156 7126.000000
2289.150391 6965.000000
2290.264893 7420.000000
2291.378174 5886.000000
2292.491455 6394.000000
2293.604004 6073.000000
2294.715820 5431.000000
2295.826904 6833.000000
2296.936768 6468.000000
2298.046143 6253.000000
2299.155273 6782.000000
2300.263428 6327.000000
2301.370605 6795.000000
2302.477539 5929.000000
2303.583740 6206.000000
2304.689453 6700.000000
2305.793701 6619.000000
2306.897705 5506.000000
2308.001221 5799.000000
2309.104248 6669.000000
2310.206055 7432.000000
2311.307129 7322.000000
2312.407715 6644.000000
2313.507813 5574.000000
2314.607178 6454.000000
2315.705078 6617.000000
2316.803467 7160.000000
2317.900391 8233.000000
2318.997070 6980.000000
2320.093262 5849.000000
2321.187744 6935.000000
2322.282227 7640.000000
2323.375977 5863.000000
2324.469482 6332.000000
2325.561279 6706.000000
2326.653076 6934.000000
2327.744141 6180.000000
2328.834473 6314.000000
2329.923828 6928.000000
2331.013184 6093.000000
2332.101318 6365.000000
2333.188965 6860.000000
2334.276367 6568.000000
2335.362061 6773.000000
2336.447510 7810.000000
2337.532715 6395.000000
2338.616943 6756.000000
2339.700195 5941.000000
2340.783203 6546.000000
2341.865234 7165.000000
2342.947021 6079.000000
2344.028076 7489.000000
2345.107910 6727.000000
2346.187256 5772.000000
2347.266113 6827.000000
2348.344482 6539.000000
2349.421387 6347.000000
2350.498047 7015.000000
2351.574463 6096.000000
2352.649902 6518.000000
2353.724365 6010.000000
2354.798584 6363.000000
2355.872070 6815.000000
2356.945068 6253.000000
2358.016846 7105.000000
2359.088379 6317.000000
2360.158936 6802.000000
2361.229248 7534.000000
2362.298584 7579.000000
2363.366943 6911.000000
2364.435059 6802.000000
2365.502441 7048.000000
2366.569336 7225.000000
2367.635498 6123.000000
2368.700439 6918.000000
2369.765381 7089.000000
2370.829590 6377.000000
2371.893066 6962.000000
2372.955322 5778.000000
2374.017578 6353.000000
2375.078857 6406.000000
2376.139893 5982.000000
2377.199707 6353.000000
2378.258789 7977.000000
2379.317871 6575.000000
2380.375977 7616.000000
2381.433350 6953.000000
2382.489746 8059.000000
2383.545898 7846.000000
2384.601563 6287.000000
2385.656494 7125.000000
2386.709961 6795.000000
2387.763672 6574.000000
2388.816406 6373.000000
2389.868652 6835.000000
2390.920166 6215.000000
2391.970703 6682.000000
2393.020996 6577.000000
2394.070313 6255.000000
2395.119629 6307.000000
2396.167480 6947.000000
2397.214844 7097.000000
2398.261963 6342.000000
2399.308105 6742.000000
2400.353516 6211.000000
2401.398193 6771.000000
2402.442871 7703.000000
2403.486084 7521.000000
2404.529297 6593.000000
2405.571045 5767.000000
2406.613037 6726.000000
2407.654297 7127.000000
2408.694580 6111.000000
2409.734131 6479.000000
2410.772705 6391.000000
2411.811523 6021.000000
2412.849121 6619.000000
2413.886475 6962.000000
2414.922607 7411.000000
2415.958496 6283.000000
2416.993652 6350.000000
2418.028320 6694.000000
2419.061523 7233.000000
2420.094971 6546.000000
2421.127441 6746.000000
2422.159668 6821.000000
2423.190430 7088.000000
2424.221191 6431.000000
2425.251465 6964.000000
2426.280518 6948.000000
2427.309570 6715.000000
2428.336914 7400.000000
2429.364746 6734.000000
2430.391357 7309.000000
2431.417725 6964.000000
2432.442627 7783.000000
2433.467773 6689.000000
2434.491943 7148.000000
2435.515869 6767.000000
2436.538574 5905.000000
2437.560547 6418.000000
2438.582275 6695.000000
2439.603271 6708.000000
2440.623779 6090.000000
2441.643066 6551.000000
2442.662354 6625.000000
2443.680664 8483.000000
2444.698730 6337.000000
2445.715332 6492.000000
2446.731934 6602.000000
2447.747803 6075.000000
2448.763672 7095.000000
2449.778076 6978.000000
2450.791748 5620.000000
2451.804932 7364.000000
2452.817871 6118.000000
2453.830078 7283.000000
2454.841309 6753.000000
2455.852295 7828.000000
2456.862549 6424.000000
2457.872314 7629.000000
2458.881104 5966.000000
2459.889160 5923.000000
2460.897217 6385.000000
2461.904053 7404.000000
2462.910645 5494.000000
2463.916016 7497.000000
2464.921143 7007.000000
2465.926025 5951.000000
2466.929688 6649.000000
2467.933105 6377.000000
2468.935547 7607.000000
2469.937744 7371.000000
2470.939453 6890.000000
2471.940186 6614.000000
2472.939941 7051.000000
2473.939697 6794.000000
2474.938477 5743.000000
2475.936768 6624.000000
2476.934082 7121.000000
2477.931152 6286.000000
2478.928223 7076.000000
2479.923828 5927.000000
2480.919434 7181.000000
2481.913330 6771.000000
2482.907227 8145.000000
2483.900635 6928.000000
2484.893555 6875.000000
2485.885498 7579.000000
2486.876709 7287.000000
2487.867676 6802.000000
2488.858154 5897.000000
2489.847656 6607.000000
2490.836426 6530.000000
2491.825195 5707.000000
2492.812988 6849.000000
2493.799561 6646.000000
2494.786133 8019.000000
2495.772217 6788.000000
2496.757568 7171.000000
2497.741943 8455.000000
2498.726074 6069.000000
2499.710205 6971.000000
2500.692871 5872.000000
2501.675049 7083.000000
2502.656738 6834.000000
2503.637695 7391.000000
2504.618164 6579.000000
2505.598389 5796.000000
2506.577148 6395.000000
2507.555664 7617.000000
2508.533691 6795.000000
2509.511230 7143.000000
2510.487793 6077.000000
2511.464111 6003.000000
2512.439697 6450.000000
2513.414795 6239.000000
2514.389404 6491.000000
2515.362793 7543.000000
2516.335938 6799.000000
2517.308838 6961.000000
2518.280762 6190.000000
2519.251953 6843.000000
2520.222656 6950.000000
2521.193115 7902.000000
2522.162842 8155.000000
2523.131592 6172.000000
2524.099609 6166.000000
2525.067627 7840.000000
2526.034668 6344.000000
2527.001465 5543.000000
2527.967041 7296.000000
2528.932617 7004.000000
2529.897461 7732.000000
2530.861816 6440.000000
2531.824951 6398.000000
2532.788330 5908.000000
2533.750732 5996.000000
2534.712891 6712.000000
2535.673828 6464.000000
2536.634033 6169.000000
2537.594482 6264.000000
2538.553955 6780.000000
2539.512695 6865.000000
2540.470459 6744.000000
2541.428467 6222.000000
2542.385742 6820.000000
2543.342041 6092.000000
2544.298096 7075.000000
2545.252930 6253.000000
2546.208008 7888.000000
2547.162354 7092.000000
2548.115967 6940.000000
2549.068604 7295.000000
2550.020996 6791.000000
2550.972900 6920.000000
2551.924072 6480.000000
2552.874512 7776.000000
2553.824463 7399.000000
2554.774170 7387.000000
2555.723145 6685.000000
2556.671631 6360.000000
2557.618896 7124.000000
2558.566162 6402.000000
2559.512695 6627.000000
2560.458740 6814.000000
2561.403809 7465.000000
2562.348633 6764.000000
2563.292969 7264.000000
2564.236816 6946.000000
2565.180176 6693.000000
2566.122070 6667.000000
2567.064209 6633.000000
2568.005615 6201.000000
2568.946289 7237.000000
2569.886230 7346.000000
2570.826172 5766.000000
2571.765137 6218.000000
2572.703857 7594.000000
2573.641602 7274.000000
2574.579102 5521.000000
2575.515869 7037.000000
2576.451904 6865.000000
2577.387451 7569.000000
2578.322266 6333.000000
2579.257080 5999.000000
2580.190918 7130.000000
2581.124268 7262.000000
2582.056885 5926.000000
2582.989258 6966.000000
2583.920898 5503.000000
2584.852051 7116.000000
2585.782715 7029.000000
2586.712158 6932.000000
2587.641602 7245.000000
2588.570557 6487.000000
2589.499268 7392.000000
2590.426270 7383.000000
2591.353516 5993.000000
2592.280273 6902.000000
2593.206299 6398.000000
2594.132080 5704.000000
2595.056641 7631.000000
2595.980957 7667.000000
2596.904785 5413.000000
2597.828125 7349.000000
2598.750488 6353.000000
2599.672607 6935.000000
2600.594238 8303.000000
2601.515137 6455.000000
2602.435303 6055.000000
2603.355225 6374.000000
2604.274658 6406.000000
2605.193848 6494.000000
2606.112061 5907.000000
2607.029053 6034.000000
2607.946289 7289.000000
2608.863281 5933.000000
2609.779297 7617.000000
2610.694092 6683.000000
2611.609375 6705.000000
2612.523926 6574.000000
2613.437500 6679.000000
2614.351074 6155.000000
2615.263428 7683.000000
2616.175781 7090.000000
2617.087158 6864.000000
2617.998291 5687.000000
2618.908691 7270.000000
2619.818848 6726.000000
2620.728271 6161.000000
2621.637207 6680.000000
2622.545166 6266.000000
2623.453369 6861.000000
2624.360596 6712.000000
2625.267334 7166.000000
2626.173340 6016.000000
2627.079102 6597.000000
2627.984131 6511.000000
2628.888916 7808.000000
2629.792969 6504.000000
2630.696045 6505.000000
2631.599121 6498.000000
2632.501221 5586.000000
2633.403320 6789.000000
2634.305176 7080.000000
2635.205322 6799.000000
2636.105713 6449.000000
2637.005371 6476.000000
2637.904785 6079.000000
2638.802734 6956.000000
2639.701172 6767.000000
2640.599121 6407.000000
2641.496338 6129.000000
2642.392334 6242.000000
2643.288330 6985.000000
2644.184082 6122.000000
2645.079102 6567.000000
2645.973877 6647.000000
2646.867188 7089.000000
2647.760498 6322.000000
2648.653564 6840.000000
2649.546387 6503.000000
2650.437500 7530.000000
2651.328857 6475.000000
2652.219727 7752.000000
2653.109863 7404.000000
2653.999756 6562.000000
2654.888428 7377.000000
2655.777344 6698.000000
2656.665771 6669.000000
2657.553223 7393.000000
2658.439697 6552.000000
2659.326660 7134.000000
2660.212891 6865.000000
2661.098633 6875.000000
2661.983154 6506.000000
2662.867676 6469.000000
2663.751953 6237.000000
2664.635498 7135.000000
2665.518555 7839.000000
2666.400879 7380.000000
2667.282715 6287.000000
2668.163818 6663.000000
2669.045166 6134.000000
2669.925049 6638.000000
2670.805176 7428.000000
2671.684570 7278.000000
2672.563965 6267.000000
2673.442627 6180.000000
2674.319580 6493.000000
2675.197266 6816.000000
2676.074219 6485.000000
2676.950439 8187.000000
2677.826172 7273.000000
2678.701172 6303.000000
2679.576416 7769.000000
2680.450684 7026.000000
2681.324463 7406.000000
2682.197510 7039.000000
2683.070313 6294.000000
2683.942871 6131.000000
2684.814697 7037.000000
2685.685791 6624.000000
2686.556641 6915.000000
2687.427002 7185.000000
2688.297119 6727.000000
2689.165527 6415.000000
2690.034668 7417.000000
2690.903076 7086.000000
2691.771240 6678.000000
2692.638672 6926.000000
2693.504883 5947.000000
2694.371582 7194.000000
2695.237305 7473.000000
2696.103027 7229.000000
2696.967285 7929.000000
2697.832275 6599.000000
2698.695801 7309.000000
2699.559570 5875.000000
2700.421875 7479.000000
2701.284668 6815.000000
2702.146484 6074.000000
2703.007813 6926.000000
2703.869141 6723.000000
2704.729248 7503.000000
2705.589355 7358.000000
2706.448975 6681.000000
2707.308350 6920.000000
2708.166016 7198.000000
2709.023926 6907.000000
2709.882324 7372.000000
2710.739502 6830.000000
2711.595947 6041.000000
2712.451904 6885.000000
2713.307861 6143.000000
2714.163086 6912.000000
2715.017578 6177.000000
2715.871582 6882.000000
2716.725586 7366.000000
2717.578613 6315.000000
2718.431885 6436.000000
2719.283447 7766.000000
2720.135498 6869.000000
2720.987305 6296.000000
2721.837891 6570.000000
2722.688477 6721.000000
2723.538574 7253.000000
2724.387939 7099.000000
2725.237305 7053.000000
2726.085449 6729.000000
2726.933105 6578.000000
2727.781250 7091.000000
2728.628174 6914.000000
2729.475586 5639.000000
2730.321533 7579.000000
2731.166748 7077.000000
2732.012451 6494.000000
2732.857178 6957.000000
2733.701904 7427.000000
2734.545410 6958.000000
2735.389160 7854.000000
2736.232178 7213.000000
2737.074707 6075.000000
2737.916260 6311.000000
2738.758301 6813.000000
2739.599365 7004.000000
2740.440186 5846.000000
2741.280762 6007.000000
2742.120117 7887.000000
2742.959473 6891.000000
2743.798828 6933.000000
2744.636963 6869.000000
2745.474609 7935.000000
2746.312256 6459.000000
2747.149414 7159.000000
2747.986328 6242.000000
2748.822754 6091.000000
2749.657959 6638.000000
2750.493408 6354.000000
2751.328369 6399.000000
2752.162598 6244.000000
2752.996582 6911.000000
2753.830078 6933.000000
2754.663574 8060.000000
2755.496094 6870.000000
2756.328125 7328.000000
2757.159668 6858.000000
2757.991211 7182.000000
2758.821777 7252.000000
2759.652588 7340.000000
2760.482178 7361.000000
2761.311768 6697.000000
2762.141113 7296.000000
2762.969727 6881.000000
2763.797852 6821.000000
2764.625488 7046.000000
2765.453125 6691.000000
2766.280273 8029.000000
2767.106689 5846.000000
2767.932617 7503.000000
2768.758057 6968.000000
2769.583252 7830.000000
2770.408447 7126.000000
2771.232422 6845.000000
2772.056396 6598.000000
2772.880371 7689.000000
2773.703125 6641.000000
2774.526123 6884.000000
2775.347900 7014.000000
2776.169678 7016.000000
2776.991455 6611.000000
2777.812256 8019.000000
2778.632324 6593.000000
2779.452637 7092.000000
2780.272461 7340.000000
2781.092285 6491.000000
2781.910156 6038.000000
2782.729248 8103.000000
2783.547119 6593.000000
2784.364746 6812.000000
2785.181885 7170.000000
2785.998535 7357.000000
2786.814941 7226.000000
2787.630859 6283.000000
2788.446533 5989.000000
2789.261230 6389.000000
2790.076416 7110.000000
2790.890869 7144.000000
2791.704834 6671.000000
2792.518555 7499.000000
2793.331055 8890.000000
2794.143799 7033.000000
2794.956055 7556.000000
2795.767822 7255.000000
2796.578857 7426.000000
2797.390625 6516.000000
2798.201172 7251.000000
2799.011719 7028.000000
2799.820801 7415.000000
2800.630615 8232.000000
2801.439697 7904.000000
2802.248535 6714.000000
2803.056885 7212.000000
2803.864258 6194.000000
2804.672119 6505.000000
2805.479248 6941.000000
2806.286133 7052.000000
2807.091797 7260.000000
2807.897949 6673.000000
2808.703369 6522.000000
2809.508789 7346.000000
2810.313477 6308.000000
2811.117188 7609.000000
2811.921387 7582.000000
2812.725098 6412.000000
2813.528564 6176.000000
2814.330566 6392.000000
2815.133301 7411.000000
2815.935303 7880.000000
2816.737061 6125.000000
2817.538330 6592.000000
2818.339111 7332.000000
2819.139404 6570.000000
2819.939941 6688.000000
2820.739502 8055.000000
2821.538574 7213.000000
2822.337646 6521.000000
2823.136475 7072.000000
2823.934814 6396.000000
2824.732178 7055.000000
2825.529785 7442.000000
2826.326660 6767.000000
2827.123779 7352.000000
2827.920166 8060.000000
2828.715820 6998.000000
2829.511475 7353.000000
2830.306885 7675.000000
2831.101807 7464.000000
2831.895996 6668.000000
2832.690186 6828.000000
2833.484131 5747.000000
2834.277588 6927.000000
2835.070313 7196.000000
2835.862793 8188.000000
2836.655273 7673.000000
2837.447510 7839.000000
2838.239258 6499.000000
2839.030029 6824.000000
2839.820801 8944.000000
2840.611816 7515.000000
2841.401855 6274.000000
2842.191406 7670.000000
2842.981201 7212.000000
2843.770020 7457.000000
2844.558838 7934.000000
2845.347656 7817.000000
2846.135498 7633.000000
2846.922852 7293.000000
2847.710449 7622.000000
2848.497559 7412.000000
2849.283936 6691.000000
2850.070313 7490.000000
2850.856445 7211.000000
2851.642090 7548.000000
2852.426758 7273.000000
2853.211914 7015.000000
2853.996826 7556.000000
2854.781006 7114.000000
2855.565186 7020.000000
2856.348145 8278.000000
2857.131348 6834.000000
2857.914307 6824.000000
2858.696777 7769.000000
2859.479004 6281.000000
2860.260742 6744.000000
2861.042236 7672.000000
2861.823975 7572.000000
2862.604980 7635.000000
2863.385254 6690.000000
2864.165283 6781.000000
2864.945313 8125.000000
2865.725098 7552.000000
2866.503906 8199.000000
2867.282959 7692.000000
2868.061523 6855.000000
2868.839844 6987.000000
2869.617676 7341.000000
2870.395264 6979.000000
2871.172607 7572.000000
2871.949707 6979.000000
2872.726318 6419.000000
2873.502441 7547.000000
2874.278564 7206.000000
2875.054199 8368.000000
2875.829590 7234.000000
2876.604492 6731.000000
2877.379150 8099.000000
2878.153809 6664.000000
2878.928223 7893.000000
2879.701904 6860.000000
2880.474854 7275.000000
2881.248535 6798.000000
2882.021240 7676.000000
2882.793945 7970.000000
2883.565918 8248.000000
2884.337646 6234.000000
2885.109863 6789.000000
2885.880859 6980.000000
2886.651367 6197.000000
2887.422363 8321.000000
2888.193359 7448.000000
2888.963623 8087.000000
2889.732910 7665.000000
2890.502441 7027.000000
2891.271973 7295.000000
2892.041016 7433.000000
2892.809570 7911.000000
2893.578125 7746.000000
2894.345703 7114.000000
2895.113770 6626.000000
2895.881348 7466.000000
2896.648926 8430.000000
2897.415283 7425.000000
2898.182617 6524.000000
2898.948730 7289.000000
2899.715088 7117.000000
2900.479980 8389.000000
2901.245361 6990.000000
2902.011230 6524.000000
2902.775635 7798.000000
2903.540039 7723.000000
2904.304688 8470.000000
2905.068359 6701.000000
2905.832764 8505.000000
2906.596436 6740.000000
2907.359375 8442.000000
2908.122070 6557.000000
2908.885254 9010.000000
2909.647949 7054.000000
2910.409424 6825.000000
2911.171387 6825.000000
