scanname Analyse113
timestamp 2017-02-10 22:58:29
ccdbias 955.215820
ccdgain 3.473401
sigmaread 8.960639
laserwavenum -0.420242
wavenumcorrection 0.102722
scancount 1
totalexposurems 10000
singleexposurems 10000
measurementstate Unknown
scanmode Manual
snr 176.096725 3.763761 3.373287
replacelist 4
374 33756.000000 14970.000000
383 33191.000000 11561.000000
671 31184.000000 8694.000000
948 21706.000000 19284.000000
peaks 19
278.169617 0.465331 0.000000 1.123890 0.000134
303.888855 0.470999 0.000000 0.704759 0.000049
334.779358 0.474689 0.000000 0.408691 0.000087
349.765594 0.474818 0.000000 0.107849 0.000014
388.542633 0.489471 0.000000 1.402790 0.000257
497.608368 0.486041 0.000000 0.757574 0.000025
533.390076 0.487103 0.000000 0.862013 0.000142
587.220642 0.496333 0.000000 0.718085 0.000091
675.749512 0.491520 0.000000 1.185203 0.000197
716.194824 0.488243 0.000000 3.200158 0.000602
742.173035 0.478732 0.000000 0.411708 0.000029
766.712341 0.505216 0.000000 4.815404 0.000889
785.500000 0.490803 0.000000 1.846541 0.000430
880.019775 0.466156 0.000000 0.586695 0.000072
1315.496094 0.450053 0.000000 15.693724 0.003430
1336.759399 0.432597 0.000000 9.152707 0.001098
1458.549561 0.404090 0.000000 1.127488 0.000696
2330.000732 0.193128 0.000000 0.203699 0.000293
2547.662598 0.149600 0.000000 0.143488 0.000297
finalresult GLS_NoMatch 0
spectrum 2048
-97.181213 44952.000000
-94.554344 44952.000000
-91.929352 45568.000000
-89.306252 45653.000000
-86.685020 46506.000000
-84.065689 46272.000000
-81.448219 46671.000000
-78.832626 46360.000000
-76.218910 46675.000000
-73.607071 47112.000000
-70.997093 46905.000000
-68.389000 47061.000000
-65.782753 47172.000000
-63.178383 47079.000000
-60.575874 47033.000000
-57.975220 47442.000000
-55.376427 46942.000000
-52.779491 46304.000000
-50.184410 46643.000000
-47.591183 46602.000000
-44.999805 46867.000000
-42.410275 46431.000000
-39.822586 47128.000000
-37.236748 47046.000000
-34.652752 46616.000000
-32.070595 47398.000000
-29.490280 46646.000000
-26.911795 47356.000000
-24.335152 46827.000000
-21.760334 46720.000000
-19.187357 46504.000000
-16.616199 46536.000000
-14.046876 46132.000000
-11.479378 45115.000000
-8.913698 46484.000000
-6.349844 46283.000000
-3.787804 46632.000000
-1.227588 46656.000000
1.330820 46030.000000
3.887407 45287.000000
6.442189 45150.000000
8.995154 45228.000000
11.546319 43845.000000
14.095671 43207.000000
16.643227 41854.000000
19.188971 41484.000000
21.732922 40524.000000
24.275068 38266.000000
26.815418 36402.000000
29.353983 32832.000000
31.890751 29544.000000
34.425716 25364.000000
36.958904 14884.000000
39.490311 7699.000000
42.019924 6932.000000
44.547741 7028.000000
47.073799 6491.000000
49.598068 5340.000000
52.120567 4477.000000
54.641270 4085.000000
57.160217 4285.000000
59.677391 4999.000000
62.192787 6411.000000
64.706406 7965.000000
67.218269 7718.000000
69.728386 5499.000000
72.236710 3645.000000
74.743279 3081.000000
77.248100 2674.000000
79.751167 2075.000000
82.252457 1847.000000
84.752007 1746.000000
87.249802 1701.000000
89.745865 1723.000000
92.240150 1986.000000
94.732697 2249.000000
97.223526 2289.000000
99.712585 2282.000000
102.199898 1986.000000
104.685486 1425.000000
107.169334 1226.000000
109.651436 1241.000000
112.131813 1147.000000
114.610466 1123.000000
117.087395 1054.000000
119.562569 1020.000000
122.036034 1086.000000
124.507767 1039.000000
126.977791 1051.000000
129.446060 1204.000000
131.912659 1264.000000
134.377502 1416.000000
136.840652 1549.000000
139.302063 1754.000000
141.761780 2169.000000
144.219772 2580.000000
146.676071 3132.000000
149.130661 3846.000000
151.583527 4605.000000
154.034714 5738.000000
156.484207 6821.000000
158.931976 8036.000000
161.378036 9428.000000
163.822418 10623.000000
166.265121 11889.000000
168.706131 12842.000000
171.145432 13656.000000
173.583023 14104.000000
176.018982 14583.000000
178.453201 14890.000000
180.885742 15032.000000
183.316635 15139.000000
185.745804 15157.000000
188.173325 15395.000000
190.599167 15399.000000
193.023331 15533.000000
195.445831 15741.000000
197.866638 15858.000000
200.285782 16465.000000
202.703262 17050.000000
205.119049 17318.000000
207.533188 18297.000000
209.945694 19324.000000
212.356522 21129.000000
214.765671 23835.000000
217.173187 24745.000000
219.578995 26957.000000
221.983215 27485.000000
224.385727 28110.000000
226.786621 28490.000000
229.185867 29309.000000
231.583450 29222.000000
233.979370 29010.000000
236.373672 29832.000000
238.766312 30480.000000
241.157333 29810.000000
243.546692 30233.000000
245.934433 30399.000000
248.320526 29993.000000
250.704987 30936.000000
253.087799 29348.000000
255.469040 30482.000000
257.848572 30406.000000
260.226532 30643.000000
262.602814 29740.000000
264.977539 29656.000000
267.350616 29268.000000
269.722046 30616.000000
272.091827 30301.000000
274.460052 30789.000000
276.826630 30437.000000
279.191620 30000.000000
281.554993 30656.000000
283.916718 30567.000000
286.276855 29814.000000
288.635376 30741.000000
290.992310 30315.000000
293.347626 30400.000000
295.701355 30847.000000
298.053436 30869.000000
300.403961 30594.000000
302.752899 30626.000000
305.100189 30168.000000
307.445953 30729.000000
309.790039 30518.000000
312.132599 29740.000000
314.473541 29617.000000
316.812866 29836.000000
319.150635 29931.000000
321.486847 28689.000000
323.821411 30244.000000
326.154419 29781.000000
328.485870 30337.000000
330.815735 29705.000000
333.144012 30038.000000
335.470673 29296.000000
337.795837 30077.000000
340.119385 30134.000000
342.441376 30387.000000
344.761810 29021.000000
347.080627 28721.000000
349.397888 30194.000000
351.713623 30267.000000
354.027771 29282.000000
356.340332 29905.000000
358.651337 29919.000000
360.960815 29200.000000
363.268768 29887.000000
365.575104 30520.000000
367.879852 29850.000000
370.183136 29903.000000
372.484802 30079.000000
374.784973 30086.000000
377.083588 30096.000000
379.380646 30344.000000
381.676147 30374.000000
383.970123 30625.000000
386.262512 31411.000000
388.553406 31261.000000
390.842773 30985.000000
393.130554 31087.000000
395.416809 30918.000000
397.701569 30501.000000
399.984711 31374.000000
402.266418 30937.000000
404.546600 31158.000000
406.825195 30144.000000
409.102264 30850.000000
411.377808 30480.000000
413.651825 30665.000000
415.924408 30653.000000
418.195374 30636.000000
420.464844 30448.000000
422.732819 29887.000000
424.999237 29590.000000
427.264160 30401.000000
429.527618 30188.000000
431.789490 29876.000000
434.049896 30225.000000
436.308746 29508.000000
438.566132 29854.000000
440.822021 30156.000000
443.076416 30013.000000
445.329285 30347.000000
447.580597 29033.000000
449.830505 29792.000000
452.078827 29375.000000
454.325714 29950.000000
456.571136 29178.000000
458.815002 29146.000000
461.057373 28848.000000
463.298248 29890.000000
465.537720 28836.000000
467.775604 30072.000000
470.012054 29659.000000
472.246979 29517.000000
474.480438 28400.000000
476.712463 28793.000000
478.942963 29708.000000
481.171967 29002.000000
483.399506 29202.000000
485.625549 29660.000000
487.850159 28974.000000
490.073303 29705.000000
492.294983 29196.000000
494.515106 29036.000000
496.733826 30037.000000
498.951050 29501.000000
501.166901 30165.000000
503.381134 29712.000000
505.594055 29599.000000
507.805389 29682.000000
510.015289 29254.000000
512.223755 29685.000000
514.430847 29500.000000
516.636353 29634.000000
518.840454 29383.000000
521.043030 29732.000000
523.244202 29234.000000
525.444031 29096.000000
527.642334 28665.000000
529.839111 30146.000000
532.034546 29669.000000
534.228455 29915.000000
536.421021 28176.000000
538.612061 28921.000000
540.801697 29425.000000
542.989929 28430.000000
545.176636 28174.000000
547.361877 28221.000000
549.545837 28394.000000
551.728210 27977.000000
553.909241 28088.000000
556.088745 28159.000000
558.266968 28257.000000
560.443665 28019.000000
562.618958 27689.000000
564.792847 27661.000000
566.965271 28094.000000
569.136292 27921.000000
571.305847 27753.000000
573.474121 28765.000000
575.640869 27833.000000
577.806152 28079.000000
579.970032 28233.000000
582.132629 28602.000000
584.293701 28417.000000
586.453369 28882.000000
588.611694 28851.000000
590.768494 28649.000000
592.923950 28325.000000
595.078003 29170.000000
597.230713 28853.000000
599.381897 27901.000000
601.531738 28391.000000
603.680237 28455.000000
605.827148 29008.000000
607.972839 28527.000000
610.117126 28690.000000
612.259949 28105.000000
614.401306 28882.000000
616.541443 28557.000000
618.680054 27390.000000
620.817383 29140.000000
622.953247 28234.000000
625.087708 27993.000000
627.220703 27487.000000
629.352539 27961.000000
631.482910 27860.000000
633.611877 27504.000000
635.739380 27701.000000
637.865601 27775.000000
639.990295 26602.000000
642.113770 27432.000000
644.235901 26804.000000
646.356567 26659.000000
648.475891 26710.000000
650.593811 27271.000000
652.710388 27192.000000
654.825562 26579.000000
656.939392 26418.000000
659.051758 26900.000000
661.162903 26594.000000
663.272644 27288.000000
665.380920 26811.000000
667.488037 26760.000000
669.593689 26289.000000
671.697876 27431.000000
673.800842 27512.000000
675.902405 26437.000000
678.002625 28172.000000
680.101440 26889.000000
682.198914 27594.000000
684.295105 26920.000000
686.389832 27695.000000
688.483337 26909.000000
690.575500 27423.000000
692.666138 26093.000000
694.755554 27195.000000
696.843689 27185.000000
698.930359 27466.000000
701.015808 26659.000000
703.099731 28038.000000
705.182434 27170.000000
707.263855 27154.000000
709.343811 25448.000000
711.422546 26242.000000
713.499817 26672.000000
715.575806 26004.000000
717.650513 26689.000000
719.723938 26012.000000
721.795837 26679.000000
723.866577 25436.000000
725.935974 26640.000000
728.003967 25914.000000
730.070618 26020.000000
732.136047 25255.000000
734.200134 26200.000000
736.262878 25832.000000
738.324280 25560.000000
740.384399 25463.000000
742.443115 25883.000000
744.500610 25245.000000
746.556824 25420.000000
748.611633 25256.000000
750.665161 25567.000000
752.717285 24547.000000
754.768188 25766.000000
756.817871 24947.000000
758.866089 25171.000000
760.913086 25510.000000
762.958801 25013.000000
765.003113 26899.000000
767.046143 27182.000000
769.087952 26276.500000
771.128418 25371.000000
773.167480 25015.000000
775.205383 25206.000000
777.241943 25345.000000
779.277283 26125.000000
781.311279 26194.000000
783.343872 25610.000000
785.375305 27143.000000
787.405334 26660.500000
789.434082 26178.000000
791.461670 25564.000000
793.487915 25581.000000
795.512756 25947.000000
797.536499 26256.000000
799.558838 25703.000000
801.579956 26168.000000
803.599731 25559.000000
805.618225 27039.000000
807.635498 25567.000000
809.651367 25462.000000
811.666077 26209.000000
813.679443 25434.000000
815.691589 25487.000000
817.702515 25409.000000
819.712097 24636.000000
821.720459 25110.000000
823.727417 24876.000000
825.733154 24502.000000
827.737671 24553.000000
829.740906 24531.000000
831.742859 24032.000000
833.743530 24215.000000
835.742981 24360.000000
837.741089 24206.000000
839.738098 23925.000000
841.733704 24060.000000
843.728149 24121.000000
845.721252 23884.000000
847.713135 23424.000000
849.703674 23914.000000
851.692932 23076.000000
853.681152 23439.000000
855.667969 23481.000000
857.653564 23293.000000
859.637878 22907.000000
861.621094 23244.000000
863.602905 23231.000000
865.583496 23658.000000
867.562805 22581.000000
869.540955 22897.000000
871.517761 23272.000000
873.493286 23571.000000
875.467773 23665.000000
877.440796 23893.000000
879.412781 24374.000000
881.383423 24083.000000
883.352905 24154.000000
885.321045 24342.000000
887.288025 24567.000000
889.253662 23959.000000
891.218140 24146.000000
893.181396 24052.000000
895.143433 23621.000000
897.104187 24078.000000
899.063721 23750.000000
901.021973 23611.000000
902.979126 23603.000000
904.935120 23933.000000
906.889709 23392.000000
908.843079 23696.000000
910.795288 23617.000000
912.746277 23513.000000
914.695984 22846.000000
916.644531 23088.000000
918.591858 23132.000000
920.537903 22702.000000
922.482666 22475.000000
924.426392 22125.000000
926.368958 21957.000000
928.310242 21911.000000
930.250183 21584.000000
932.189026 21475.000000
934.126587 21551.000000
936.062927 21289.000000
937.998108 21374.000000
939.932007 21395.000000
941.864807 21359.000000
943.796387 21337.000000
945.726807 21651.000000
947.656006 21535.000000
949.583862 21494.000000
951.510681 21514.000000
953.436218 21590.000000
955.360474 21886.000000
957.283630 22030.000000
959.205627 21967.000000
961.126343 21669.000000
963.045898 21940.000000
964.964294 22319.000000
966.881653 22113.000000
968.797546 22242.000000
970.712341 22198.000000
972.625916 22372.000000
974.538330 22237.000000
976.449524 22251.000000
978.359558 22368.000000
980.268311 22256.000000
982.176025 22240.000000
984.082520 22115.000000
985.987793 22258.000000
987.891968 21867.000000
989.794922 22028.000000
991.696655 21815.000000
993.597229 21838.000000
995.496643 21623.000000
997.394836 21901.000000
999.291870 21504.000000
1001.187683 21077.000000
1003.082336 20649.000000
1004.975891 20778.000000
1006.868164 20414.000000
1008.759521 20360.000000
1010.649536 20418.000000
1012.538330 20189.000000
1014.425964 20145.000000
1016.312439 20128.000000
1018.197754 20009.000000
1020.081909 20297.000000
1021.964844 20133.000000
1023.846741 19962.000000
1025.727295 20175.000000
1027.606812 20019.000000
1029.485352 20054.000000
1031.362549 20238.000000
1033.238403 19921.000000
1035.113281 19929.000000
1036.987183 19814.000000
1038.859619 19964.000000
1040.731079 19905.000000
1042.601196 20047.000000
1044.470337 20119.000000
1046.338257 20093.000000
1048.205078 20040.000000
1050.070801 20218.000000
1051.935303 20273.000000
1053.798706 20498.000000
1055.660767 20506.000000
1057.521851 20441.000000
1059.381836 20517.000000
1061.240479 20211.000000
1063.098022 20489.000000
1064.954468 20636.000000
1066.809814 20694.000000
1068.663940 20706.000000
1070.517212 20422.000000
1072.369019 20473.000000
1074.219849 20423.000000
1076.069458 20480.000000
1077.917847 20585.000000
1079.765381 19992.000000
1081.611572 20349.000000
1083.456543 20381.000000
1085.300659 20280.000000
1087.143433 20366.000000
1088.984985 20228.000000
1090.825806 20239.000000
1092.665039 19709.000000
1094.503540 19940.000000
1096.340698 19785.000000
1098.176636 19696.000000
1100.011597 19266.000000
1101.845337 18959.000000
1103.678101 18909.000000
1105.509521 19041.000000
1107.340088 19148.000000
1109.169312 18888.000000
1110.997559 18257.000000
1112.824585 18138.000000
1114.650635 18498.000000
1116.475464 18215.000000
1118.299194 18131.000000
1120.121704 18327.000000
1121.943115 18187.000000
1123.763672 18188.000000
1125.582764 18125.000000
1127.401001 18278.000000
1129.217896 18375.000000
1131.033936 18433.000000
1132.848755 18592.000000
1134.662476 18825.000000
1136.475098 18896.000000
1138.286499 19051.000000
1140.096924 19049.000000
1141.906250 19091.000000
1143.714233 19099.000000
1145.521484 19341.000000
1147.327271 19262.000000
1149.132202 19230.000000
1150.936035 19166.000000
1152.738647 19022.000000
1154.540405 18986.000000
1156.340698 19125.000000
1158.140015 19220.000000
1159.938354 18932.000000
1161.735352 19084.000000
1163.531616 18885.000000
1165.326538 18753.000000
1167.120361 18709.000000
1168.913330 18327.000000
1170.704956 18132.000000
1172.495605 17967.000000
1174.285278 18006.000000
1176.073486 18045.000000
1177.860840 17901.000000
1179.647095 17965.000000
1181.432251 17963.000000
1183.216309 17952.000000
1184.999268 17754.000000
1186.781250 17910.000000
1188.562012 17809.000000
1190.341797 17841.000000
1192.120483 17636.000000
1193.898193 17663.000000
1195.674683 17485.000000
1197.450073 17126.000000
1199.224365 17029.000000
1200.997559 16920.000000
1202.769897 16930.000000
1204.540894 16879.000000
1206.311035 16840.000000
1208.079956 16563.000000
1209.847778 16600.000000
1211.614746 16603.000000
1213.380371 16534.000000
1215.145020 16636.000000
1216.908569 16566.000000
1218.671021 16588.000000
1220.432617 16535.000000
1222.192993 16589.000000
1223.952271 16229.000000
1225.710693 16316.000000
1227.467896 16499.000000
1229.223999 16609.000000
1230.979004 16878.000000
1232.733154 16762.000000
1234.485962 16780.000000
1236.237793 16874.000000
1237.988770 17009.000000
1239.738403 17109.000000
1241.487183 17188.000000
1243.234619 17264.000000
1244.981323 16997.000000
1246.726807 17026.000000
1248.471436 17187.000000
1250.214722 17127.000000
1251.957031 16929.000000
1253.698242 17121.000000
1255.438599 16784.000000
1257.177856 16389.000000
1258.915894 15851.000000
1260.653076 15646.000000
1262.389038 15961.000000
1264.124023 16176.000000
1265.858032 16529.000000
1267.591064 16638.000000
1269.322876 16856.000000
1271.053711 16742.000000
1272.783325 16885.000000
1274.512085 16894.000000
1276.239746 16768.000000
1277.966309 17001.000000
1279.692017 16924.000000
1281.416382 16949.000000
1283.139893 16848.000000
1284.862427 16688.000000
1286.583984 16649.000000
1288.304321 16549.000000
1290.023682 16542.000000
1291.741943 16412.000000
1293.459229 16624.000000
1295.175537 16563.000000
1296.890625 16583.000000
1298.604736 16592.000000
1300.317871 16424.000000
1302.030151 16152.000000
1303.741211 15742.000000
1305.451294 15947.000000
1307.160278 15836.000000
1308.868042 15703.000000
1310.575195 15735.000000
1312.280884 15640.000000
1313.985840 15653.000000
1315.689819 15872.000000
1317.392578 15838.000000
1319.094360 16113.000000
1320.795288 18375.000000
1322.494873 11467.500000
1324.193604 4560.000000
1325.891602 14951.000000
1327.588257 14906.000000
1329.283813 15021.000000
1330.978516 14792.000000
1332.671997 14800.000000
1334.364624 14943.000000
1336.056396 14596.000000
1337.746826 14793.000000
1339.436523 14504.000000
1341.125122 14684.000000
1342.812622 14587.000000
1344.499146 14544.000000
1346.184570 14486.000000
1347.869019 14520.000000
1349.552612 14560.000000
1351.234985 14691.000000
1352.916382 14819.000000
1354.596924 15108.000000
1356.276245 15076.000000
1357.954956 15169.000000
1359.632324 15458.000000
1361.308594 15459.000000
1362.983887 15480.000000
1364.658447 15372.000000
1366.331787 15427.000000
1368.004150 15437.000000
1369.675537 15474.000000
1371.345947 15320.000000
1373.015259 15375.000000
1374.683594 15258.000000
1376.351074 15345.000000
1378.017456 14991.000000
1379.682861 15235.000000
1381.347290 14993.000000
1383.010498 14833.000000
1384.673096 14814.000000
1386.334351 14817.000000
1387.994751 14657.000000
1389.654053 14586.000000
1391.312378 14517.000000
1392.969971 14424.000000
1394.626343 14483.000000
1396.281860 14601.000000
1397.936157 14580.000000
1399.589600 14566.000000
1401.241943 14797.000000
1402.893555 14775.000000
1404.543945 14614.000000
1406.193237 14321.000000
1407.841797 13904.000000
1409.489258 13713.000000
1411.135742 13501.000000
1412.781372 13684.000000
1414.426025 13530.000000
1416.069458 13243.000000
1417.712036 13395.000000
1419.353516 13421.000000
1420.994141 13368.000000
1422.633789 13380.000000
1424.272339 13210.000000
1425.910034 13106.000000
1427.546631 13203.000000
1429.182251 13197.000000
1430.817139 13104.000000
1432.450928 12976.000000
1434.083618 13215.000000
1435.715332 13027.000000
1437.346191 13083.000000
1438.975952 13135.000000
1440.604614 12961.000000
1442.232666 13098.000000
1443.859619 13018.000000
1445.485352 13057.000000
1447.110474 13151.000000
1448.734497 13130.000000
1450.357544 13136.000000
1451.979614 13328.000000
1453.600586 13290.000000
1455.220581 13226.000000
1456.839844 13253.000000
1458.457764 14737.000000
1460.075073 12987.000000
1461.691406 13177.000000
1463.306519 13139.000000
1464.920776 13111.000000
1466.534180 13285.000000
1468.146484 13338.000000
1469.757935 13374.000000
1471.368530 13445.000000
1472.977905 13378.000000
1474.586304 13401.000000
1476.193848 13412.000000
1477.800415 13273.000000
1479.406250 13502.000000
1481.010864 13303.000000
1482.614624 13067.000000
1484.217163 12884.000000
1485.819092 12302.000000
1487.419800 12480.000000
1489.019775 12262.000000
1490.618652 12098.000000
1492.216675 12452.000000
1493.813599 12176.000000
1495.409668 12628.000000
1497.004761 13063.000000
1498.598877 13005.000000
1500.192261 12943.000000
1501.784546 12976.000000
1503.375610 12868.000000
1504.966187 12794.000000
1506.555420 12671.000000
1508.144043 12702.000000
1509.731567 12552.000000
1511.317993 12332.000000
1512.903687 12348.000000
1514.488281 12359.000000
1516.072021 12392.000000
1517.654663 12329.000000
1519.236572 12325.000000
1520.817383 12411.000000
1522.397461 12166.000000
1523.976318 11911.000000
1525.554321 11905.000000
1527.131592 11846.000000
1528.707642 11697.000000
1530.282959 11767.000000
1531.857178 11630.000000
1533.430664 11585.000000
1535.002930 11723.000000
1536.574463 11843.000000
1538.145020 11622.000000
1539.714722 11476.000000
1541.283203 11645.000000
1542.850952 11410.000000
1544.417847 11598.000000
1545.983521 11340.000000
1547.548462 11404.000000
1549.112305 11414.000000
1550.675537 11252.000000
1552.237427 11304.000000
1553.798706 11313.000000
1555.358887 11284.000000
1556.918335 11353.000000
1558.476685 11464.000000
1560.034302 11139.000000
1561.590820 11091.000000
1563.146118 11199.000000
1564.700806 11158.000000
1566.254761 11257.000000
1567.807739 11150.000000
1569.359375 11173.000000
1570.910278 11185.000000
1572.460449 11231.000000
1574.009644 11310.000000
1575.557495 11268.000000
1577.104858 11175.000000
1578.651245 11302.000000
1580.196777 11327.000000
1581.741333 11213.000000
1583.284668 11268.000000
1584.827393 11225.000000
1586.369263 11193.000000
1587.910034 11106.000000
1589.449829 11417.000000
1590.988892 11165.000000
1592.526855 10973.000000
1594.064331 11017.000000
1595.600464 11216.000000
1597.135498 11077.000000
1598.670044 10914.000000
1600.203613 11075.000000
1601.736328 10986.000000
1603.267456 11080.000000
1604.798340 11126.000000
1606.328369 11084.000000
1607.857178 10749.000000
1609.384888 11007.000000
1610.911987 10895.000000
1612.438354 11095.000000
1613.963745 11101.000000
1615.488281 11006.000000
1617.011475 10809.000000
1618.533936 10922.000000
1620.055664 10929.000000
1621.576538 10847.000000
1623.095947 10327.000000
1624.614868 10770.000000
1626.133057 10731.000000
1627.650391 10718.000000
1629.166626 10685.000000
1630.681519 10470.000000
1632.195923 10543.000000
1633.709595 10489.000000
1635.222168 10447.000000
1636.733521 10445.000000
1638.244507 10408.000000
1639.754395 10377.000000
1641.263428 10445.000000
1642.771118 10366.000000
1644.278442 10393.000000
1645.784912 10148.000000
1647.290405 10247.000000
1648.795044 10170.000000
1650.298218 10027.000000
1651.800781 10070.000000
1653.302979 10024.000000
1654.803833 9946.000000
1656.303589 9808.000000
1657.802490 9759.000000
1659.301025 9837.000000
1660.798340 9763.000000
1662.294922 9795.000000
1663.789917 9748.000000
1665.284668 9681.000000
1666.778564 9542.000000
1668.271484 10158.000000
1669.763062 7934.000000
1671.254150 9339.000000
1672.744629 9411.000000
1674.234009 9343.000000
1675.721924 9153.000000
1677.209595 9292.000000
1678.696289 9434.000000
1680.182129 9477.000000
1681.667114 9363.000000
1683.150635 9110.000000
1684.633911 9108.000000
1686.116333 9253.000000
1687.597656 9213.000000
1689.077515 9114.000000
1690.557129 9059.000000
1692.036011 9087.000000
1693.513916 9114.000000
1694.990845 9122.000000
1696.466553 9124.000000
1697.941895 9227.000000
1699.416016 8935.000000
1700.889526 9028.000000
1702.361572 9108.000000
1703.833374 9077.000000
1705.304199 9098.000000
1706.774170 9122.000000
1708.242798 9100.000000
1709.710938 9291.000000
1711.178345 9135.000000
1712.644653 9103.000000
1714.110352 9137.000000
1715.574341 8977.000000
1717.038208 9158.000000
1718.501221 9110.000000
1719.963257 9015.000000
1721.424072 9086.000000
1722.884277 8987.000000
1724.343750 9072.000000
1725.802368 9068.000000
1727.260010 9070.000000
1728.716309 8925.000000
1730.172363 9078.000000
1731.627441 9008.000000
1733.081543 9151.000000
1734.534424 8939.000000
1735.987061 8995.000000
1737.438599 8915.000000
1738.889404 8877.000000
1740.339233 8910.000000
1741.787720 8927.000000
1743.235840 8825.000000
1744.683105 8802.000000
1746.129639 8674.000000
1747.574585 8724.000000
1749.019287 8779.000000
1750.463135 8585.000000
1751.906128 8935.000000
1753.347656 8621.000000
1754.788940 8555.000000
1756.229370 8500.000000
1757.668823 8445.000000
1759.107300 8458.000000
1760.544800 8366.000000
1761.981812 8241.000000
1763.417847 8392.000000
1764.853027 8331.000000
1766.286743 8217.000000
1767.720337 8336.000000
1769.152954 8390.000000
1770.584717 8544.000000
1772.015625 8515.000000
1773.445313 8423.000000
1774.874268 8207.000000
1776.302734 7929.000000
1777.730225 7716.000000
1779.156372 7402.000000
1780.582275 7889.000000
1782.007080 7858.000000
1783.431274 7834.000000
1784.854004 7856.000000
1786.276245 7865.000000
1787.697754 7807.000000
1789.118530 7839.000000
1790.538330 7644.000000
1791.956787 7679.000000
1793.374756 7674.000000
1794.792114 7590.000000
1796.208618 7673.000000
1797.623657 7691.000000
1799.038330 7682.000000
1800.452393 7748.000000
1801.865234 7712.000000
1803.277466 7674.000000
1804.688354 7614.000000
1806.098755 7600.000000
1807.508423 7413.000000
1808.917114 7549.000000
1810.324707 7523.000000
1811.731812 7548.000000
1813.138062 7645.000000
1814.543335 7561.000000
1815.947510 7657.000000
1817.351318 7605.000000
1818.754150 7513.000000
1820.156128 7455.000000
1821.557495 7518.000000
1822.957397 7502.000000
1824.356689 7550.000000
1825.755493 7574.000000
1827.153442 7509.000000
1828.550049 7544.000000
1829.946045 7500.000000
1831.341309 7604.000000
1832.735962 7485.000000
1834.129639 7462.000000
1835.521973 7416.000000
1836.913818 7567.000000
1838.305054 7432.000000
1839.695313 7354.000000
1841.084351 7427.000000
1842.473022 7321.000000
1843.860718 7261.000000
1845.247681 7428.000000
1846.633301 7249.000000
1848.018677 7402.000000
1849.403198 7281.000000
1850.786987 7342.000000
1852.169678 7229.000000
1853.551147 7226.000000
1854.932129 7023.000000
1856.312622 7017.000000
1857.692139 7020.000000
1859.070190 7075.000000
1860.448120 7019.000000
1861.825073 7063.000000
1863.201294 6877.000000
1864.576660 6923.000000
1865.950562 6811.000000
1867.324341 6850.000000
1868.697266 6801.000000
1870.069092 6697.000000
1871.439941 6651.000000
1872.810425 6829.000000
1874.179810 6645.000000
1875.548706 6546.000000
1876.916016 6558.000000
1878.283203 6522.000000
1879.649414 6526.000000
1881.014893 6533.000000
1882.379639 6544.000000
1883.742798 6445.000000
1885.105835 6545.000000
1886.468018 6281.000000
1887.829346 6441.000000
1889.189331 6492.000000
1890.548950 6390.000000
1891.907959 6503.000000
1893.265991 6421.000000
1894.623169 6355.000000
1895.979126 6300.000000
1897.334839 6276.000000
1898.689575 6166.000000
1900.043457 6227.000000
1901.396240 6302.000000
1902.748535 6249.000000
1904.100098 6324.000000
1905.450806 6419.000000
1906.800293 6298.000000
1908.149292 6271.000000
1909.497437 6435.000000
1910.844971 6316.000000
1912.191772 6391.000000
1913.536987 6427.000000
1914.881958 6369.000000
1916.226196 6403.000000
1917.569580 6360.000000
1918.911621 6282.000000
1920.253418 6318.000000
1921.594360 6267.000000
1922.934570 6158.000000
1924.273804 6248.000000
1925.612061 6384.000000
1926.949707 6211.000000
1928.286621 6209.000000
1929.622681 6240.000000
1930.957520 6371.000000
1932.291992 6297.000000
1933.625732 6259.000000
1934.958618 6071.000000
1936.290039 6148.000000
1937.621582 6137.000000
1938.951782 5966.000000
1940.281494 6062.000000
1941.610352 6142.000000
1942.937988 6099.000000
1944.265137 6078.000000
1945.591553 6073.000000
1946.917236 6000.000000
1948.241577 6069.000000
1949.565674 5926.000000
1950.888916 6044.000000
1952.211426 5881.000000
1953.532837 6024.000000
1954.853271 5873.000000
1956.173096 5951.000000
1957.492554 5760.000000
1958.811035 5801.000000
1960.128174 5788.000000
1961.444946 5867.000000
1962.760986 5773.000000
1964.076294 5887.000000
1965.390137 5826.000000
1966.703735 5656.000000
1968.016602 5722.000000
1969.328613 5662.000000
1970.640015 5647.000000
1971.950073 5600.000000
1973.259644 5552.000000
1974.568481 5585.000000
1975.876709 5519.000000
1977.183594 5446.000000
1978.489868 5476.000000
1979.795776 5415.000000
1981.100464 5691.000000
1982.404663 5494.000000
1983.707642 5453.000000
1985.010254 5528.000000
1986.311890 5430.000000
1987.612915 5358.000000
1988.912354 5185.000000
1990.211914 5270.000000
1991.510376 5209.000000
1992.808350 5229.000000
1994.104736 5283.000000
1995.401123 5150.000000
1996.696533 5168.000000
1997.991211 5165.000000
1999.285034 5082.000000
2000.577637 5074.000000
2001.869751 5071.000000
2003.161377 5057.000000
2004.452271 4958.000000
2005.741577 5125.000000
2007.030640 5044.000000
2008.318970 5013.000000
2009.606567 4971.000000
2010.893311 4976.000000
2012.178955 4926.000000
2013.464233 4840.000000
2014.748535 4942.000000
2016.032227 4891.000000
2017.314575 4932.000000
2018.596558 4916.000000
2019.878052 4807.000000
2021.158569 4831.000000
2022.438354 4850.000000
2023.717041 4776.000000
2024.994995 4820.000000
2026.272461 4823.000000
2027.549316 4914.000000
2028.824463 4884.000000
2030.099731 4868.000000
2031.374023 4948.000000
2032.647339 4950.000000
2033.919800 4881.000000
2035.191895 4757.000000
2036.462891 4848.000000
2037.733643 4792.000000
2039.003052 4885.000000
2040.271362 4889.000000
2041.539673 4831.000000
2042.807007 4849.000000
2044.073608 4839.000000
2045.338989 4883.000000
2046.603760 5111.000000
2047.868286 4734.000000
2049.131592 4781.000000
2050.394531 4711.000000
2051.655518 4799.000000
2052.916992 4702.000000
2054.177246 4659.000000
2055.436768 4665.000000
2056.695557 4686.000000
2057.953369 4634.000000
2059.210693 4583.000000
2060.467285 4714.000000
2061.722412 4650.000000
2062.977539 4747.000000
2064.231689 4560.000000
2065.485107 4551.000000
2066.737793 4464.000000
2067.989258 4528.000000
2069.240479 4563.000000
2070.490967 4607.000000
2071.740723 4619.000000
2072.989014 4616.000000
2074.237305 4556.000000
2075.484619 4538.000000
2076.731201 4359.000000
2077.977051 4409.000000
2079.221680 4256.000000
2080.465820 4380.000000
2081.709473 4388.000000
2082.952148 4403.000000
2084.193604 4306.000000
2085.434814 4297.000000
2086.675537 4344.000000
2087.915283 4236.000000
2089.153809 4305.000000
2090.391846 4241.000000
2091.629150 4170.000000
2092.866211 4203.000000
2094.101807 4196.000000
2095.336670 4210.000000
2096.571289 4222.000000
2097.804932 4264.000000
2099.037598 4154.000000
2100.269531 4163.000000
2101.500977 4163.000000
2102.731445 4115.000000
2103.961182 4091.000000
2105.190674 4069.000000
2106.418213 4003.000000
2107.645996 3982.000000
2108.873047 3982.000000
2110.099121 3931.000000
2111.323730 3966.000000
2112.548584 3914.000000
2113.772217 4004.000000
2114.995361 4004.000000
2116.217285 3851.000000
2117.438965 3956.000000
2118.659668 4016.000000
2119.879639 3952.000000
2121.099121 3991.000000
2122.317139 4094.000000
2123.535156 3957.000000
2124.752197 3917.000000
2125.968750 3924.000000
2127.183594 3993.000000
2128.398682 3937.000000
2129.612793 4054.000000
2130.826172 3886.000000
2132.038818 3788.000000
2133.250000 3891.000000
2134.461426 3985.000000
2135.671631 3919.000000
2136.881348 3928.000000
2138.089600 3957.000000
2139.297852 3795.000000
2140.505371 3859.000000
2141.711670 3687.000000
2142.917236 3837.000000
2144.122559 3747.000000
2145.326904 3921.000000
2146.530518 3762.000000
2147.733643 3737.000000
2148.935303 3731.000000
2150.136719 3838.000000
2151.337402 3778.000000
2152.537354 3741.000000
2153.736084 3749.000000
2154.934570 3859.000000
2156.132568 3737.000000
2157.329590 3600.000000
2158.525879 3626.000000
2159.720947 3701.000000
2160.915771 3610.000000
2162.109863 3670.000000
2163.302979 3524.000000
2164.495117 3483.000000
2165.687012 3523.000000
2166.878174 3604.000000
2168.068359 3492.000000
2169.257813 3468.000000
2170.446777 3385.000000
2171.634766 3393.000000
2172.822510 3325.000000
2174.008789 3276.000000
2175.194336 3420.000000
2176.379639 3231.000000
2177.564453 3259.000000
2178.748047 3391.000000
2179.930908 3235.000000
2181.112793 3237.000000
2182.294434 3226.000000
2183.475586 3150.000000
2184.655518 3278.000000
2185.834473 3267.000000
2187.012939 3134.000000
2188.191162 3232.000000
2189.368164 3224.000000
2190.544189 3212.000000
2191.719971 3258.000000
2192.895264 3212.000000
2194.069092 3151.000000
2195.242432 3195.000000
2196.415527 3152.000000
2197.587402 3233.000000
2198.758789 3223.000000
2199.929688 3183.000000
2201.098877 3258.000000
2202.268066 3216.000000
2203.436768 3273.000000
2204.604492 3146.000000
2205.771240 3169.000000
2206.937256 3232.000000
2208.102783 3107.000000
2209.268066 3222.000000
2210.431885 3243.000000
2211.595215 3201.000000
2212.757324 3168.000000
2213.919678 3073.000000
2215.080811 3136.000000
2216.240967 3118.000000
2217.400635 3017.000000
2218.560059 3096.000000
2219.718262 3070.000000
2220.875488 3073.000000
2222.032471 3108.000000
2223.188721 3113.000000
2224.344238 3112.000000
2225.499023 3088.000000
2226.652832 2954.000000
2227.805664 2961.000000
2228.958984 2897.000000
2230.110352 2988.000000
2231.261475 3051.000000
2232.411865 2928.000000
2233.561768 2906.000000
2234.710693 2922.000000
2235.859131 2944.000000
2237.006104 2931.000000
2238.153320 2784.000000
2239.299316 2793.000000
2240.445068 2924.000000
2241.589111 2736.000000
2242.733398 2754.000000
2243.876709 2776.000000
2245.019287 2738.000000
2246.160889 2725.000000
2247.302246 2720.000000
2248.442627 2736.000000
2249.582275 2696.000000
2250.721436 2568.000000
2251.859375 2653.000000
2252.997314 2640.000000
2254.134277 2680.000000
2255.270508 2677.000000
2256.405762 2639.000000
2257.540283 2571.000000
2258.674561 2477.000000
2259.808350 2620.000000
2260.940674 2667.000000
2262.072510 2589.000000
2263.203857 2570.000000
2264.334229 2481.000000
2265.464355 2500.000000
2266.593262 2438.000000
2267.721680 2494.000000
2268.849609 2464.000000
2269.976563 2534.000000
2271.102783 2416.000000
2272.228027 2424.000000
2273.353271 2456.000000
2274.477783 2493.000000
2275.601074 2484.000000
2276.723633 2492.000000
2277.845703 2421.000000
2278.967285 2480.000000
2280.088135 2469.000000
2281.207764 2379.000000
2282.326904 2364.000000
2283.445801 2318.000000
2284.563965 2364.000000
2285.681152 2477.000000
2286.797363 2365.000000
2287.913330 2284.000000
2289.028564 2384.000000
2290.143066 2316.000000
2291.256348 2390.000000
2292.369629 2383.000000
2293.482178 2364.000000
2294.593994 2464.000000
2295.705078 2491.000000
2296.814941 2496.000000
2297.924316 2362.000000
2299.033447 2375.000000
2300.141602 2400.000000
2301.248779 2442.000000
2302.355713 2416.000000
2303.461914 2424.000000
2304.567627 2430.000000
2305.671875 2471.000000
2306.775879 2432.000000
2307.879395 2331.000000
2308.982422 2340.000000
2310.084229 2448.000000
2311.185303 2379.000000
2312.285889 2320.000000
2313.385986 2285.000000
2314.485352 2264.000000
2315.583252 2288.000000
2316.681641 2339.000000
2317.778564 2224.000000
2318.875244 2338.000000
2319.971436 2380.000000
2321.065918 2124.000000
2322.160400 2102.000000
2323.254150 2263.000000
2324.347656 2192.000000
2325.439453 2232.000000
2326.531250 2568.000000
2327.622314 2328.000000
2328.712646 2338.000000
2329.802002 2328.000000
2330.891357 2304.000000
2331.979492 2388.000000
2333.067139 2253.000000
2334.154541 2260.000000
2335.240234 2231.000000
2336.325684 2245.000000
2337.410889 2148.000000
2338.495117 2006.000000
2339.578369 2161.000000
2340.661377 2113.000000
2341.743408 2082.000000
2342.825195 2157.000000
2343.906250 2016.000000
2344.986084 2074.000000
2346.065430 2087.000000
2347.144287 2044.000000
2348.222656 1934.000000
2349.299561 2017.000000
2350.376221 2029.000000
2351.452637 1954.000000
2352.528076 1965.000000
2353.602539 1989.000000
2354.676758 1942.000000
2355.750244 1923.000000
2356.823242 1903.000000
2357.895020 1882.000000
2358.966553 1987.000000
2360.037109 1952.000000
2361.107422 1894.000000
2362.176758 1910.000000
2363.245117 1947.000000
2364.313232 1786.000000
2365.380615 1896.000000
2366.447510 1788.000000
2367.513672 1817.000000
2368.578613 1890.000000
2369.643555 1763.000000
2370.707764 1903.000000
2371.771240 1860.000000
2372.833496 1798.000000
2373.895752 1777.000000
2374.957031 1910.000000
2376.018066 1805.000000
2377.077881 1860.000000
2378.136963 1852.000000
2379.196045 1778.000000
2380.254150 1861.000000
2381.311523 1862.000000
2382.367920 1855.000000
2383.424072 1848.000000
2384.479736 1824.000000
2385.534668 1846.000000
2386.588135 1772.000000
2387.641846 1754.000000
2388.694580 1856.000000
2389.746826 1715.000000
2390.798340 1788.000000
2391.848877 1864.000000
2392.899170 1781.000000
2393.948486 1735.000000
2394.997803 1734.000000
2396.045654 1812.000000
2397.093018 1800.000000
2398.140137 1802.000000
2399.186279 1786.000000
2400.231689 1729.000000
2401.276367 1736.000000
2402.321045 1755.000000
2403.364258 1801.000000
2404.407471 1716.000000
2405.449219 1751.000000
2406.491211 1752.000000
2407.532471 1654.000000
2408.572754 1726.000000
2409.612305 1684.000000
2410.650879 1802.000000
2411.689697 1812.000000
2412.727295 1808.000000
2413.764648 1668.000000
2414.800781 1784.000000
2415.836670 1713.000000
2416.871826 1716.000000
2417.906494 1732.000000
2418.939697 1668.000000
2419.973145 1685.000000
2421.005615 1750.000000
2422.037842 1744.000000
2423.068604 1709.000000
2424.099365 1764.000000
2425.129639 1602.000000
2426.158691 1768.000000
2427.187744 1660.000000
2428.215088 1663.000000
2429.242920 1669.000000
2430.269531 1608.000000
2431.295898 1584.000000
2432.320801 1681.000000
2433.345947 1634.000000
2434.370117 1638.000000
2435.394043 1519.000000
2436.416748 1620.000000
2437.438721 1534.000000
2438.460449 1517.000000
2439.481445 1612.000000
2440.501953 1530.000000
2441.521240 1492.000000
2442.540527 1408.000000
2443.558838 1550.000000
2444.576904 1576.000000
2445.593506 1415.000000
2446.610107 1440.000000
2447.625977 1428.000000
2448.641846 1572.000000
2449.656250 1544.000000
2450.669922 1446.000000
2451.683105 1368.000000
2452.696045 1424.000000
2453.708252 1461.000000
2454.719482 1479.000000
2455.730469 1408.000000
2456.740723 1573.000000
2457.750488 1420.000000
2458.759277 1494.000000
2459.767334 1337.000000
2460.775391 1505.000000
2461.782227 1398.000000
2462.788818 1385.000000
2463.794189 1400.000000
2464.799316 1426.000000
2465.804199 1361.000000
2466.807861 1480.000000
2467.811279 1406.000000
2468.813721 1429.000000
2469.815918 1468.000000
2470.817627 1349.000000
2471.818359 1395.000000
2472.818115 1420.000000
2473.817871 1371.000000
2474.816650 1375.000000
2475.814941 1330.000000
2476.812256 1385.000000
2477.809326 1415.000000
2478.806396 1353.000000
2479.802002 1334.000000
2480.797607 1325.000000
2481.791504 1358.000000
2482.785400 1410.000000
2483.778809 1381.000000
2484.771729 1393.000000
2485.763672 1325.000000
2486.754883 1297.000000
2487.745850 1384.000000
2488.736328 1309.000000
2489.725830 1329.000000
2490.714600 1385.000000
2491.703369 1305.000000
2492.691162 1315.000000
2493.677734 1310.000000
2494.664307 1021.000000
2495.650391 1258.000000
2496.635742 1195.000000
2497.620117 1303.000000
2498.604248 1357.000000
2499.588379 1270.000000
2500.571045 1355.000000
2501.553223 1386.000000
2502.534912 1351.000000
2503.515869 1310.000000
2504.496338 1332.000000
2505.476563 1390.000000
2506.455322 1356.000000
2507.433838 1306.000000
2508.411865 1255.000000
2509.389404 1199.000000
2510.365967 1307.000000
2511.342285 1416.000000
2512.317871 1327.000000
2513.292969 1262.000000
2514.267578 1331.000000
2515.240967 1262.000000
2516.214111 1339.000000
2517.187012 1430.000000
2518.158936 1212.000000
2519.130127 1218.000000
2520.100830 1292.000000
2521.071289 1189.000000
2522.041016 1189.000000
2523.009766 1195.000000
2523.977783 1201.000000
2524.945801 1212.000000
2525.912842 1143.000000
2526.879639 1158.000000
2527.845215 1230.000000
2528.810791 1181.000000
2529.775635 1180.000000
2530.739990 1130.000000
2531.703125 1119.000000
2532.666504 1131.000000
2533.628906 1125.000000
2534.591064 1096.000000
2535.552002 1253.000000
2536.512207 1242.000000
2537.472656 1094.000000
2538.432129 1130.000000
2539.390869 1288.000000
2540.348633 1049.000000
2541.306641 1112.000000
2542.263916 1104.000000
2543.220215 1171.000000
2544.176270 1168.000000
2545.131104 1143.000000
2546.086182 1164.000000
2547.040527 1099.000000
2547.994141 1454.000000
2548.946777 1088.000000
2549.899170 1078.000000
2550.851074 1164.000000
2551.802246 1090.000000
2552.752686 1033.000000
2553.702637 1012.000000
2554.652344 1048.000000
2555.601318 984.000000
2556.549805 991.000000
2557.497070 975.000000
2558.444336 1060.000000
2559.390869 1064.000000
2560.336914 1185.000000
2561.281982 1018.000000
2562.226807 986.000000
2563.171143 989.000000
2564.114990 1093.000000
2565.058350 950.000000
2566.000244 1047.000000
2566.942383 996.000000
2567.883789 1102.000000
2568.824463 1082.000000
2569.764404 1020.000000
2570.704346 1101.000000
2571.643311 1016.000000
2572.582031 968.000000
2573.519775 993.000000
2574.457275 992.000000
2575.394043 1066.000000
2576.330078 1036.000000
2577.265625 976.000000
2578.200439 1014.000000
2579.135254 1092.000000
2580.069092 1061.000000
2581.002441 917.000000
2581.935059 984.000000
2582.867432 967.000000
2583.799072 1092.000000
2584.730225 1018.000000
2585.660889 1079.000000
2586.590332 1105.000000
2587.519775 997.000000
2588.448730 1073.000000
2589.377441 1116.000000
2590.304443 859.000000
2591.231689 963.000000
2592.158447 994.000000
2593.084473 939.000000
2594.010254 1024.000000
2594.934814 926.000000
2595.859131 963.000000
2596.782959 1007.000000
2597.706299 962.000000
2598.628662 899.000000
2599.550781 951.000000
2600.472412 970.000000
2601.393311 1029.000000
2602.313477 997.000000
2603.233398 981.000000
2604.152832 930.000000
2605.072021 1017.000000
2605.990234 942.000000
2606.907227 1002.000000
2607.824463 1013.000000
2608.741455 993.000000
2609.657471 921.000000
2610.572266 920.000000
2611.487549 972.000000
2612.402100 935.000000
2613.315674 895.000000
2614.229248 911.000000
2615.141602 909.000000
2616.053955 1020.000000
2616.965332 925.000000
2617.876465 909.000000
2618.786865 907.000000
2619.697021 910.000000
2620.606445 907.000000
2621.515381 858.000000
2622.423340 877.000000
2623.331543 895.000000
2624.238770 901.000000
2625.145508 842.000000
2626.051514 916.000000
2626.957275 821.000000
2627.862305 913.000000
2628.767090 882.000000
2629.671143 901.000000
2630.574219 856.000000
2631.477295 841.000000
2632.379395 842.000000
2633.281494 872.000000
2634.183350 789.000000
2635.083496 863.000000
2635.983887 875.000000
2636.883545 900.000000
2637.782959 868.000000
2638.680908 867.000000
2639.579346 863.000000
2640.477295 855.000000
2641.374512 872.000000
2642.270508 749.000000
2643.166504 710.000000
2644.062256 830.000000
2644.957275 862.000000
2645.852051 863.000000
2646.745361 893.000000
2647.638672 792.000000
2648.531738 797.000000
2649.424561 752.000000
2650.315674 761.000000
2651.207031 805.000000
2652.097900 709.000000
2652.988037 885.000000
2653.877930 716.000000
2654.766602 781.000000
2655.655518 709.000000
2656.543945 757.000000
2657.431396 702.000000
2658.317871 860.000000
2659.204834 755.000000
2660.091064 766.000000
2660.976807 797.000000
2661.861328 720.000000
2662.745850 807.000000
2663.630127 729.000000
2664.513672 749.000000
2665.396729 739.000000
2666.279053 649.000000
2667.160889 853.000000
2668.041992 726.000000
2668.923340 678.000000
2669.803223 849.000000
2670.683350 777.000000
2671.562744 706.000000
2672.442139 744.000000
2673.320801 788.000000
2674.197754 809.000000
2675.075439 869.000000
2675.952393 660.000000
2676.828613 660.000000
2677.704346 684.000000
2678.579346 717.000000
2679.454590 746.000000
2680.328857 800.000000
2681.202637 828.000000
2682.075684 764.000000
2682.948486 679.000000
2683.821045 776.000000
2684.692871 689.000000
2685.563965 668.000000
2686.434814 727.000000
2687.305176 746.000000
2688.175293 859.000000
2689.043701 802.000000
2689.912842 696.000000
2690.781250 647.000000
2691.649414 771.000000
2692.516846 703.000000
2693.383057 703.000000
2694.249756 735.000000
2695.115479 767.000000
2695.981201 738.000000
2696.845459 670.000000
2697.710449 791.000000
2698.573975 778.000000
2699.437744 674.000000
2700.300049 704.000000
2701.162842 664.000000
2702.024658 766.000000
2702.885986 664.000000
2703.747314 560.000000
2704.607422 743.000000
2705.467529 728.000000
2706.327148 691.000000
2707.186523 653.000000
2708.044189 653.000000
2708.902100 665.000000
2709.760498 636.000000
2710.617676 607.000000
2711.474121 691.000000
2712.330078 557.000000
2713.186035 654.000000
2714.041260 636.000000
2714.895752 590.000000
2715.749756 607.000000
2716.603760 667.000000
2717.456787 664.000000
2718.310059 665.000000
2719.161621 524.000000
2720.013672 586.000000
2720.865479 659.000000
2721.716064 692.000000
2722.566650 610.000000
2723.416748 559.000000
2724.266113 628.000000
2725.115479 646.000000
2725.963623 616.000000
2726.811279 612.000000
2727.659424 579.000000
2728.506348 565.000000
2729.353760 685.000000
2730.199707 652.000000
2731.044922 647.000000
2731.890625 566.000000
2732.735352 553.000000
2733.580078 686.000000
2734.423584 612.000000
2735.267334 565.000000
2736.110352 556.000000
2736.952881 665.000000
2737.794434 584.000000
2738.636475 596.000000
2739.477539 606.000000
2740.318359 620.000000
2741.158936 630.000000
2741.998291 635.000000
2742.837646 504.000000
2743.677002 644.000000
2744.515137 512.000000
2745.352783 616.000000
2746.190430 638.000000
2747.027588 460.000000
2747.864502 608.000000
2748.700928 587.000000
2749.536133 569.000000
2750.371582 603.000000
2751.206543 621.000000
2752.040771 640.000000
2752.874756 473.000000
2753.708252 586.000000
2754.541748 594.000000
2755.374268 555.000000
2756.206299 621.000000
2757.037842 558.000000
2757.869385 588.000000
2758.699951 503.000000
2759.530762 570.000000
2760.360352 566.000000
2761.189941 585.000000
2762.019287 644.000000
2762.847900 621.000000
2763.676025 549.000000
2764.503662 336.000000
2765.331299 581.000000
2766.158447 527.000000
2766.984863 546.000000
2767.810791 565.000000
2768.636230 513.000000
2769.461426 461.000000
2770.286621 578.000000
2771.110596 524.000000
2771.934570 502.000000
2772.758545 478.000000
2773.581299 499.000000
2774.404297 520.000000
2775.226074 552.000000
2776.047852 504.000000
2776.869629 473.000000
2777.690430 498.000000
2778.510498 484.000000
2779.330811 492.000000
2780.150635 420.000000
2780.970459 530.000000
2781.788330 451.000000
2782.607422 416.000000
2783.425293 553.000000
2784.242920 488.000000
2785.060059 628.000000
2785.876709 446.000000
2786.693115 473.000000
2787.509033 438.000000
2788.324707 553.000000
2789.139404 416.000000
2789.954590 481.000000
2790.769043 517.000000
2791.583008 532.000000
2792.396729 477.000000
2793.209229 571.000000
2794.021973 537.000000
2794.834229 493.000000
2795.645996 513.000000
2796.457031 525.000000
2797.268799 466.000000
2798.079346 471.000000
2798.889893 459.000000
2799.698975 526.000000
2800.508789 409.000000
2801.317871 459.000000
2802.126709 573.000000
2802.935059 469.000000
2803.742432 520.000000
2804.550293 355.000000
2805.357422 407.000000
2806.164307 506.000000
2806.969971 294.000000
2807.776123 367.000000
2808.581543 387.000000
2809.386963 442.000000
2810.191650 504.000000
2810.995361 412.000000
2811.799561 418.000000
2812.603271 471.000000
2813.406738 449.000000
2814.208740 453.000000
2815.011475 424.000000
2815.813477 424.000000
2816.615234 494.000000
2817.416504 350.000000
2818.217285 391.000000
2819.017578 439.000000
2819.818115 392.000000
2820.617676 384.000000
2821.416748 460.000000
2822.215820 369.000000
2823.014648 391.000000
2823.812988 484.000000
2824.610352 376.000000
2825.407959 372.000000
2826.204834 470.000000
2827.001953 394.000000
2827.798340 231.000000
2828.593994 371.000000
2829.389648 436.000000
2830.185059 517.000000
2830.979980 353.000000
2831.774170 430.000000
2832.568359 414.000000
2833.362305 488.000000
2834.155762 343.000000
2834.948486 326.000000
2835.740967 432.000000
2836.533447 395.000000
2837.325684 484.000000
2838.117432 439.000000
2838.908203 384.000000
2839.698975 368.000000
2840.489990 357.000000
2841.280029 484.000000
2842.069580 311.000000
2842.859375 384.000000
2843.648193 432.000000
2844.437012 369.000000
2845.225830 356.000000
2846.013672 490.000000
2846.801025 337.000000
2847.588623 293.000000
2848.375732 357.000000
2849.162109 395.000000
2849.948486 444.000000
2850.734619 354.000000
2851.520264 373.000000
2852.304932 374.000000
2853.090088 414.000000
2853.875000 420.000000
2854.659180 388.000000
2855.443359 374.000000
2856.226318 281.000000
2857.009521 364.000000
2857.792480 391.000000
2858.574951 353.000000
2859.357178 352.000000
2860.138916 354.000000
2860.920410 373.000000
2861.702148 381.000000
2862.483154 350.000000
2863.263428 387.000000
2864.043457 320.000000
2864.823486 398.000000
2865.603271 305.000000
2866.382080 377.000000
2867.161133 367.000000
2867.939697 356.000000
2868.718018 388.000000
2869.495850 307.000000
2870.273438 418.000000
2871.050781 407.000000
2871.827881 317.000000
2872.604492 380.000000
2873.380615 369.000000
2874.156738 387.000000
2874.932373 298.000000
2875.707764 342.000000
2876.482666 415.000000
2877.257324 403.000000
2878.031982 397.000000
2878.806396 401.000000
2879.580078 345.000000
2880.353027 350.000000
2881.126709 358.000000
2881.899414 257.000000
2882.672119 259.000000
2883.444092 378.000000
2884.215820 315.000000
2884.988037 368.000000
2885.759033 373.000000
2886.529541 458.000000
2887.300537 328.000000
2888.071533 323.000000
2888.841797 335.000000
2889.611084 306.000000
2890.380615 344.000000
2891.150146 388.000000
2891.919189 346.000000
2892.687744 325.000000
2893.456299 349.000000
2894.223877 372.000000
2894.991943 453.000000
2895.759521 448.000000
2896.527100 401.000000
2897.293457 418.000000
2898.060791 467.000000
2898.826904 278.000000
2899.593262 416.000000
2900.358154 347.000000
2901.123535 237.000000
2901.889404 395.000000
2902.653809 291.000000
2903.418213 240.000000
2904.182861 345.000000
2904.946533 358.000000
2905.710938 386.000000
2906.474609 291.000000
2907.237549 317.000000
2908.000244 369.000000
2908.763428 189.000000
2909.526123 281.000000
2910.287598 295.000000
2911.049561 295.000000
spectrumdark 2048
-97.181213 6205.000000
-94.554344 6205.000000
-91.929352 6082.000000
-89.306252 6443.000000
-86.685020 5800.000000
-84.065689 6263.000000
-81.448219 6031.000000
-78.832626 6429.000000
-76.218910 6238.000000
-73.607071 5844.000000
-70.997093 6130.000000
-68.389000 6019.000000
-65.782753 5923.000000
-63.178383 6016.000000
-60.575874 6088.000000
-57.975220 5673.000000
-55.376427 6210.000000
-52.779491 6846.000000
-50.184410 6476.000000
-47.591183 6525.000000
-44.999805 6275.000000
-42.410275 6693.000000
-39.822586 5933.000000
-37.236748 6069.000000
-34.652752 6498.000000
-32.070595 5707.000000
-29.490280 6375.000000
-26.911795 5695.000000
-24.335152 6203.000000
-21.760334 6252.000000
-19.187357 6475.000000
-16.616199 6399.000000
-14.046876 6782.000000
-11.479378 7746.000000
-8.913698 6312.000000
-6.349844 6427.000000
-3.787804 5994.000000
-1.227588 5840.000000
1.330820 6308.000000
3.887407 6893.000000
6.442189 6642.000000
8.995154 6049.000000
11.546319 6708.000000
14.095671 6461.000000
16.643227 6651.000000
19.188971 6044.000000
21.732922 5739.000000
24.275068 6705.000000
26.815418 6782.000000
29.353983 6894.000000
31.890751 6217.000000
34.425716 5798.000000
36.958904 7210.000000
39.490311 6345.000000
42.019924 7105.000000
44.547741 6542.000000
47.073799 7753.000000
49.598068 5696.000000
52.120567 6223.000000
54.641270 6778.000000
57.160217 6404.000000
59.677391 6442.000000
62.192787 6621.000000
64.706406 5639.000000
67.218269 5708.000000
69.728386 6516.000000
72.236710 6557.000000
74.743279 5995.000000
77.248100 6366.000000
79.751167 6465.000000
82.252457 6316.000000
84.752007 6126.000000
87.249802 6359.000000
89.745865 5765.000000
92.240150 7211.000000
94.732697 5717.000000
97.223526 6928.000000
99.712585 7218.000000
102.199898 6363.000000
104.685486 6258.000000
107.169334 6391.000000
109.651436 5777.000000
112.131813 6513.000000
114.610466 6223.000000
117.087395 6492.000000
119.562569 7226.000000
122.036034 6826.000000
124.507767 5902.000000
126.977791 6754.000000
129.446060 6241.000000
131.912659 6313.000000
134.377502 5712.000000
136.840652 6193.000000
139.302063 7316.000000
141.761780 6866.000000
144.219772 6398.000000
146.676071 6005.000000
149.130661 5826.000000
151.583527 6872.000000
154.034714 6333.000000
156.484207 6540.000000
158.931976 6123.000000
161.378036 6636.000000
163.822418 8728.000000
166.265121 6442.000000
168.706131 6768.000000
171.145432 6238.000000
173.583023 7244.000000
176.018982 6596.000000
178.453201 6961.000000
180.885742 7161.000000
183.316635 6669.000000
185.745804 6760.000000
188.173325 6704.000000
190.599167 6323.000000
193.023331 6690.000000
195.445831 7155.000000
197.866638 7349.000000
200.285782 6481.000000
202.703262 6014.000000
205.119049 7660.000000
207.533188 7087.000000
209.945694 6359.000000
212.356522 6051.000000
214.765671 6245.000000
217.173187 7316.000000
219.578995 6163.000000
221.983215 6530.000000
224.385727 6707.000000
226.786621 6910.000000
229.185867 6453.000000
231.583450 6854.000000
233.979370 7221.000000
236.373672 6462.000000
238.766312 5884.000000
241.157333 6763.000000
243.546692 6528.000000
245.934433 6407.000000
248.320526 6976.000000
250.704987 6084.000000
253.087799 7834.000000
255.469040 6672.000000
257.848572 6678.000000
260.226532 6508.000000
262.602814 7521.000000
264.977539 7541.000000
267.350616 7816.000000
269.722046 6189.000000
272.091827 6381.000000
274.460052 5882.000000
276.826630 6298.000000
279.191620 6813.000000
281.554993 6103.000000
283.916718 6194.000000
286.276855 7080.000000
288.635376 6073.000000
290.992310 6511.000000
293.347626 6426.000000
295.701355 5988.000000
298.053436 5960.000000
300.403961 6322.000000
302.752899 6359.000000
305.100189 6884.000000
307.445953 6325.000000
309.790039 6520.000000
312.132599 7405.000000
314.473541 7538.000000
316.812866 7177.000000
319.150635 6930.000000
321.486847 8072.000000
323.821411 6231.000000
326.154419 6469.000000
328.485870 5958.000000
330.815735 6657.000000
333.144012 6412.000000
335.470673 7155.000000
337.795837 6335.000000
340.119385 6216.000000
342.441376 5990.000000
344.761810 7460.000000
347.080627 7746.000000
349.397888 6006.000000
351.713623 5873.000000
354.027771 6997.000000
356.340332 6349.000000
358.651337 6312.000000
360.960815 7085.000000
363.268768 6342.000000
365.575104 5670.000000
367.879852 6394.000000
370.183136 6444.000000
372.484802 6295.000000
374.784973 6308.000000
377.083588 6305.000000
379.380646 6076.000000
381.676147 6124.000000
383.970123 5895.000000
386.262512 5217.000000
388.553406 5618.000000
390.842773 6172.000000
393.130554 6245.000000
395.416809 6538.000000
397.701569 6995.000000
399.984711 6000.000000
402.266418 6409.000000
404.546600 6214.000000
406.825195 7281.000000
409.102264 6491.000000
411.377808 6708.000000
413.651825 6443.000000
415.924408 6372.000000
418.195374 6362.000000
420.464844 6502.000000
422.732819 7089.000000
424.999237 7255.000000
427.264160 6261.000000
429.527618 6237.000000
431.789490 6496.000000
434.049896 5987.000000
436.308746 6638.000000
438.566132 6151.000000
440.822021 5723.000000
443.076416 5780.000000
445.329285 5466.000000
447.580597 6880.000000
449.830505 6038.000000
452.078827 6287.000000
454.325714 5672.000000
456.571136 6481.000000
458.815002 6545.000000
461.057373 6793.000000
463.298248 5655.000000
465.537720 6697.000000
467.775604 5462.000000
470.012054 5895.000000
472.246979 6086.000000
474.480438 7259.000000
476.712463 6722.000000
478.942963 5684.000000
481.171967 6399.000000
483.399506 6296.000000
485.625549 5866.000000
487.850159 6568.000000
490.073303 5840.000000
492.294983 6435.000000
494.515106 6684.000000
496.733826 5676.000000
498.951050 6236.000000
501.166901 5617.000000
503.381134 6175.000000
505.594055 6461.000000
507.805389 6449.000000
510.015289 6904.000000
512.223755 6475.000000
514.430847 6575.000000
516.636353 6370.000000
518.840454 6559.000000
521.043030 6165.000000
523.244202 6623.000000
525.444031 6675.000000
527.642334 6956.000000
529.839111 5335.000000
532.034546 5814.000000
534.228455 5591.000000
536.421021 7519.000000
538.612061 6697.000000
540.801697 6054.000000
542.989929 6936.000000
545.176636 7074.000000
547.361877 6746.000000
549.545837 6235.000000
551.728210 6417.000000
553.909241 6193.000000
556.088745 5985.000000
558.266968 5873.000000
560.443665 6039.000000
562.618958 6407.000000
564.792847 6438.000000
566.965271 5931.000000
569.136292 6047.000000
571.305847 6319.000000
573.474121 5291.000000
575.640869 6429.000000
577.806152 6271.000000
579.970032 6115.000000
582.132629 5746.000000
584.293701 6031.000000
586.453369 5686.000000
588.611694 5810.000000
590.768494 6147.000000
592.923950 6596.000000
595.078003 5751.000000
597.230713 6172.000000
599.381897 7265.000000
601.531738 6790.000000
603.680237 6608.000000
605.827148 5991.000000
607.972839 6508.000000
610.117126 6430.000000
612.259949 7005.000000
614.401306 6164.000000
616.541443 6446.000000
618.680054 7608.000000
620.817383 5744.000000
622.953247 6550.000000
625.087708 6840.000000
627.220703 7232.000000
629.352539 6588.000000
631.482910 6528.000000
633.611877 6828.000000
635.739380 6453.000000
637.865601 6180.000000
639.990295 7309.000000
642.113770 6332.000000
644.235901 6804.000000
646.356567 6838.000000
648.475891 6556.000000
650.593811 5735.000000
652.710388 5728.000000
654.825562 6461.000000
656.939392 6536.000000
659.051758 5884.000000
661.162903 6150.000000
663.272644 5441.000000
665.380920 6058.000000
667.488037 6309.000000
669.593689 6836.000000
671.697876 5645.000000
673.800842 5686.000000
675.902405 6989.000000
678.002625 5306.000000
680.101440 6749.000000
682.198914 6222.000000
684.295105 6957.000000
686.389832 6226.000000
688.483337 7044.000000
690.575500 6550.000000
692.666138 7912.000000
694.755554 6699.000000
696.843689 6465.000000
698.930359 6029.000000
701.015808 6736.000000
703.099731 5129.000000
705.182434 5926.000000
707.263855 5926.000000
709.343811 7510.000000
711.422546 6157.000000
713.499817 5551.000000
715.575806 6580.000000
717.650513 6040.000000
719.723938 6873.000000
721.795837 6255.000000
723.866577 7422.000000
725.935974 5824.000000
728.003967 6465.000000
730.070618 6319.000000
732.136047 7050.000000
734.200134 5752.000000
736.262878 6165.000000
738.324280 6499.000000
740.384399 6571.000000
742.443115 5948.000000
744.500610 6624.000000
746.556824 6455.000000
748.611633 6678.000000
750.665161 6378.000000
752.717285 7476.000000
754.768188 5772.000000
756.817871 6631.000000
758.866089 6357.000000
760.913086 6185.000000
762.958801 7029.000000
765.003113 5361.000000
767.046143 5750.000000
769.087952 6340.500000
771.128418 6931.000000
773.167480 6346.000000
775.205383 6115.000000
777.241943 6004.000000
779.277283 5392.000000
781.311279 5795.000000
783.343872 6865.000000
785.375305 5535.000000
787.405334 5772.000000
789.434082 6009.000000
791.461670 6339.000000
793.487915 6366.000000
795.512756 5814.000000
797.536499 5619.000000
799.558838 6387.000000
801.579956 5883.000000
803.599731 6612.000000
805.618225 4912.000000
807.635498 6659.000000
809.651367 6826.000000
811.666077 5710.000000
813.679443 6449.000000
815.691589 6228.000000
817.702515 6047.000000
819.712097 6544.000000
821.720459 5344.000000
823.727417 5682.000000
825.733154 6084.000000
827.737671 5723.000000
829.740906 5653.000000
831.742859 6484.000000
833.743530 6105.000000
835.742981 5953.000000
837.741089 6330.000000
839.738098 6935.000000
841.733704 6233.000000
843.728149 6003.000000
845.721252 6182.000000
847.713135 6789.000000
849.703674 5527.000000
851.692932 6778.000000
853.681152 5962.000000
855.667969 5632.000000
857.653564 6422.000000
859.637878 7255.000000
861.621094 6341.000000
863.602905 6368.000000
865.583496 5828.000000
867.562805 7725.000000
869.540955 7031.000000
871.517761 6171.000000
873.493286 5924.000000
875.467773 6196.000000
877.440796 6039.000000
879.412781 5446.000000
881.383423 6387.000000
883.352905 6177.000000
885.321045 5572.000000
887.288025 5218.000000
889.253662 6157.000000
891.218140 5886.000000
893.181396 6050.000000
895.143433 6540.000000
897.104187 5760.000000
899.063721 6406.000000
901.021973 6649.000000
902.979126 6349.000000
904.935120 6017.000000
906.889709 6932.000000
908.843079 6465.000000
910.795288 6475.000000
912.746277 6427.000000
914.695984 7126.000000
916.644531 6301.000000
918.591858 6163.000000
920.537903 6174.000000
922.482666 6058.000000
924.426392 6232.000000
926.368958 6010.000000
928.310242 5511.000000
930.250183 6448.000000
932.189026 5704.000000
934.126587 5524.000000
936.062927 5981.000000
937.998108 5842.000000
939.932007 6097.000000
941.864807 5892.000000
943.796387 6717.000000
945.726807 5198.000000
947.656006 6429.000000
949.583862 7027.000000
951.510681 6636.000000
953.436218 5947.000000
955.360474 5340.000000
957.283630 5958.000000
959.205627 6699.000000
961.126343 7288.000000
963.045898 6459.000000
964.964294 5301.000000
966.881653 6396.000000
968.797546 6458.000000
970.712341 6136.000000
972.625916 5939.000000
974.538330 6379.000000
976.449524 6464.000000
978.359558 5516.000000
980.268311 6192.000000
982.176025 6087.000000
984.082520 6406.000000
985.987793 5641.000000
987.891968 6817.000000
989.794922 6221.000000
991.696655 6771.000000
993.597229 6560.000000
995.496643 6635.000000
997.394836 5263.000000
999.291870 6643.000000
1001.187683 6507.000000
1003.082336 7652.000000
1004.975891 5602.000000
1006.868164 7099.000000
1008.759521 6103.000000
1010.649536 5414.000000
1012.538330 6629.000000
1014.425964 6352.000000
1016.312439 6875.000000
1018.197754 6778.000000
1020.081909 5932.000000
1021.964844 5875.000000
1023.846741 6245.000000
1025.727295 5127.000000
1027.606812 5796.000000
1029.485352 6037.000000
1031.362549 5474.000000
1033.238403 6242.000000
1035.113281 5911.000000
1036.987183 6640.000000
1038.859619 7042.000000
1040.731079 6748.000000
1042.601196 5488.000000
1044.470337 5518.000000
1046.338257 5804.000000
1048.205078 7008.000000
1050.070801 6681.000000
1051.935303 6457.000000
1053.798706 6424.000000
1055.660767 6461.000000
1057.521851 5900.000000
1059.381836 6518.000000
1061.240479 6634.000000
1063.098022 5736.000000
1064.954468 6715.000000
1066.809814 5941.000000
1068.663940 5800.000000
1070.517212 6293.000000
1072.369019 6389.000000
1074.219849 6155.000000
1076.069458 6103.000000
1077.917847 5756.000000
1079.765381 7954.000000
1081.611572 5619.000000
1083.456543 6215.000000
1085.300659 5431.000000
1087.143433 5464.000000
1088.984985 6520.000000
1090.825806 5462.000000
1092.665039 5751.000000
1094.503540 6015.000000
1096.340698 6040.000000
1098.176636 6789.000000
1100.011597 6640.000000
1101.845337 5394.000000
1103.678101 5506.000000
1105.509521 6105.000000
1107.340088 7271.000000
1109.169312 6501.000000
1110.997559 6445.000000
1112.824585 7145.000000
1114.650635 5414.000000
1116.475464 6307.000000
1118.299194 7095.000000
1120.121704 6070.000000
1121.943115 5851.000000
1123.763672 5900.000000
1125.582764 6547.000000
1127.401001 7035.000000
1129.217896 6872.000000
1131.033936 6655.000000
1132.848755 6448.000000
1134.662476 5627.000000
1136.475098 5702.000000
1138.286499 5584.000000
1140.096924 6119.000000
1141.906250 6661.000000
1143.714233 6930.000000
1145.521484 5916.000000
1147.327271 5924.000000
1149.132202 5339.000000
1150.936035 5374.000000
1152.738647 6220.000000
1154.540405 6073.000000
1156.340698 6032.000000
1158.140015 6134.000000
1159.938354 5816.000000
1161.735352 5388.000000
1163.531616 5874.000000
1165.326538 6101.000000
1167.120361 6324.000000
1168.913330 7749.000000
1170.704956 5701.000000
1172.495605 6500.000000
1174.285278 5990.000000
1176.073486 5829.000000
1177.860840 7451.000000
1179.647095 6854.000000
1181.432251 5772.000000
1183.216309 5952.000000
1184.999268 7650.000000
1186.781250 5842.000000
1188.562012 5897.000000
1190.341797 6313.000000
1192.120483 6917.000000
1193.898193 6609.000000
1195.674683 7152.000000
1197.450073 6598.000000
1199.224365 6495.000000
1200.997559 6731.000000
1202.769897 6403.000000
1204.540894 6668.000000
1206.311035 5684.000000
1208.079956 6110.000000
1209.847778 6330.000000
1211.614746 5839.000000
1213.380371 5932.000000
1215.145020 6964.000000
1216.908569 6508.000000
1218.671021 5953.000000
1220.432617 6690.000000
1222.192993 5880.000000
1223.952271 6300.000000
1225.710693 6061.000000
1227.467896 7147.000000
1229.223999 6473.000000
1230.979004 5548.000000
1232.733154 6005.000000
1234.485962 5883.000000
1236.237793 5998.000000
1237.988770 6003.000000
1239.738403 4892.000000
1241.487183 7023.000000
1243.234619 6423.000000
1244.981323 6576.000000
1246.726807 6471.000000
1248.471436 6316.000000
1250.214722 6803.000000
1251.957031 6666.000000
1253.698242 5285.000000
1255.438599 5071.000000
1257.177856 5765.000000
1258.915894 6578.000000
1260.653076 7116.000000
1262.389038 6059.000000
1264.124023 6375.000000
1265.858032 7151.000000
1267.591064 5968.000000
1269.322876 6113.000000
1271.053711 6435.000000
1272.783325 7218.000000
1274.512085 5858.000000
1276.239746 5733.000000
1277.966309 5558.000000
1279.692017 5515.000000
1281.416382 6429.000000
1283.139893 5217.000000
1284.862427 6879.000000
1286.583984 6609.000000
1288.304321 6158.000000
1290.023682 6675.000000
1291.741943 7258.000000
1293.459229 6470.000000
1295.175537 5750.000000
1296.890625 6312.000000
1298.604736 6090.000000
1300.317871 5724.000000
1302.030151 6437.000000
1303.741211 8289.000000
1305.451294 5592.000000
1307.160278 6313.000000
1308.868042 6705.000000
1310.575195 7035.000000
1312.280884 5819.000000
1313.985840 6829.000000
1315.689819 6134.000000
1317.392578 6050.000000
1319.094360 6539.000000
1320.795288 6031.000000
1322.494873 18288.000000
1324.193604 30545.000000
1325.891602 5581.000000
1327.588257 6498.000000
1329.283813 7123.000000
1330.978516 6856.000000
1332.671997 5762.000000
1334.364624 5414.000000
1336.056396 7269.000000
1337.746826 6283.000000
1339.436523 6609.000000
1341.125122 6092.000000
1342.812622 7636.000000
1344.499146 5635.000000
1346.184570 6730.000000
1347.869019 5903.000000
1349.552612 7189.000000
1351.234985 6408.000000
1352.916382 5983.000000
1354.596924 6541.000000
1356.276245 6658.000000
1357.954956 5882.000000
1359.632324 6492.000000
1361.308594 5706.000000
1362.983887 5566.000000
1364.658447 6529.000000
1366.331787 6420.000000
1368.004150 6764.000000
1369.675537 5200.000000
1371.345947 6756.000000
1373.015259 6215.000000
1374.683594 5681.000000
1376.351074 5845.000000
1378.017456 6365.000000
1379.682861 6037.000000
1381.347290 5839.000000
1383.010498 5942.000000
1384.673096 5734.000000
1386.334351 6327.000000
1387.994751 6511.000000
1389.654053 6406.000000
1391.312378 6461.000000
1392.969971 6816.000000
1394.626343 6498.000000
1396.281860 6943.000000
1397.936157 6297.000000
1399.589600 5815.000000
1401.241943 6064.000000
1402.893555 6444.000000
1404.543945 7102.000000
1406.193237 6202.000000
1407.841797 7427.000000
1409.489258 7829.000000
1411.135742 6153.000000
1412.781372 6200.000000
1414.426025 5965.000000
1416.069458 7027.000000
1417.712036 7134.000000
1419.353516 6843.000000
1420.994141 6473.000000
1422.633789 6486.000000
1424.272339 6010.000000
1425.910034 6636.000000
1427.546631 6298.000000
1429.182251 5982.000000
1430.817139 6365.000000
1432.450928 5880.000000
1434.083618 6081.000000
1435.715332 5688.000000
1437.346191 6040.000000
1438.975952 6071.000000
1440.604614 7808.000000
1442.232666 5991.000000
1443.859619 6120.000000
1445.485352 6145.000000
1447.110474 6158.000000
1448.734497 6480.000000
1450.357544 6043.000000
1451.979614 5960.000000
1453.600586 7363.000000
1455.220581 6285.000000
1456.839844 6856.000000
1458.457764 5722.000000
1460.075073 17153.000000
1461.691406 5510.000000
1463.306519 7243.000000
1464.920776 6180.000000
1466.534180 5201.000000
1468.146484 5574.000000
1469.757935 6229.000000
1471.368530 6283.000000
1472.977905 5977.000000
1474.586304 5983.000000
1476.193848 6192.000000
1477.800415 6710.000000
1479.406250 5259.000000
1481.010864 6271.000000
1482.614624 5486.000000
1484.217163 6716.000000
1485.819092 5537.000000
1487.419800 5539.000000
1489.019775 5651.000000
1490.618652 6245.000000
1492.216675 6412.000000
1493.813599 6683.000000
1495.409668 6283.000000
1497.004761 6015.000000
1498.598877 5522.000000
1500.192261 6545.000000
1501.784546 5502.000000
1503.375610 5934.000000
1504.966187 6758.000000
1506.555420 6472.000000
1508.144043 6111.000000
1509.731567 6472.000000
1511.317993 6912.000000
1512.903687 6113.000000
1514.488281 6648.000000
1516.072021 6183.000000
1517.654663 6132.000000
1519.236572 6600.000000
1520.817383 6595.000000
1522.397461 6041.000000
1523.976318 6243.000000
1525.554321 6349.000000
1527.131592 6357.000000
1528.707642 5703.000000
1530.282959 5915.000000
1531.857178 6302.000000
1533.430664 5471.000000
1535.002930 5951.000000
1536.574463 6306.000000
1538.145020 6442.000000
1539.714722 6341.000000
1541.283203 5415.000000
1542.850952 6563.000000
1544.417847 5544.000000
1545.983521 6804.000000
1547.548462 5895.000000
1549.112305 5067.000000
1550.675537 7451.000000
1552.237427 6309.000000
1553.798706 5984.000000
1555.358887 5679.000000
1556.918335 5750.000000
1558.476685 5895.000000
1560.034302 6291.000000
1561.590820 7012.000000
1563.146118 5875.000000
1564.700806 6377.000000
1566.254761 5610.000000
1567.807739 6147.000000
1569.359375 5677.000000
1570.910278 5903.000000
1572.460449 6227.000000
1574.009644 6281.000000
1575.557495 5810.000000
1577.104858 5474.000000
1578.651245 5635.000000
1580.196777 5082.000000
1581.741333 6646.000000
1583.284668 6312.000000
1584.827393 6601.000000
1586.369263 6458.000000
1587.910034 6756.000000
1589.449829 5801.000000
1590.988892 6648.000000
1592.526855 5919.000000
1594.064331 6133.000000
1595.600464 5853.000000
1597.135498 6755.000000
1598.670044 6261.000000
1600.203613 5950.000000
1601.736328 5835.000000
1603.267456 6255.000000
1604.798340 6411.000000
1606.328369 5711.000000
1607.857178 6153.000000
1609.384888 6171.000000
1610.911987 5999.000000
1612.438354 5855.000000
1613.963745 6194.000000
1615.488281 5810.000000
1617.011475 5747.000000
1618.533936 5611.000000
1620.055664 6563.000000
1621.576538 6944.000000
1623.095947 15569.000000
1624.614868 6110.000000
1626.133057 6055.000000
1627.650391 5899.000000
1629.166626 6421.000000
1630.681519 7043.000000
1632.195923 6633.000000
1633.709595 5715.000000
1635.222168 6839.000000
1636.733521 5975.000000
1638.244507 6418.000000
1639.754395 6291.000000
1641.263428 6151.000000
1642.771118 5606.000000
1644.278442 6051.000000
1645.784912 7121.000000
1647.290405 6222.000000
1648.795044 6819.000000
1650.298218 6221.000000
1651.800781 6515.000000
1653.302979 6342.000000
1654.803833 6665.000000
1656.303589 7531.000000
1657.802490 5966.000000
1659.301025 6502.000000
1660.798340 6249.000000
1662.294922 5923.000000
1663.789917 6474.000000
1665.284668 6313.000000
1666.778564 5221.000000
1668.271484 5634.000000
1669.763062 20891.000000
1671.254150 6473.000000
1672.744629 6030.000000
1674.234009 5983.000000
1675.721924 6976.000000
1677.209595 6854.000000
1678.696289 6039.000000
1680.182129 5329.000000
1681.667114 6066.000000
1683.150635 6181.000000
1684.633911 6156.000000
1686.116333 5774.000000
1687.597656 6195.000000
1689.077515 6108.000000
1690.557129 5503.000000
1692.036011 6553.000000
1693.513916 6036.000000
1694.990845 6070.000000
1696.466553 5788.000000
1697.941895 5982.000000
1699.416016 6326.000000
1700.889526 5481.000000
1702.361572 5564.000000
1703.833374 6880.000000
1705.304199 6352.000000
1706.774170 7072.000000
1708.242798 5162.000000
1709.710938 5785.000000
1711.178345 6312.000000
1712.644653 5453.000000
1714.110352 5748.000000
1715.574341 6248.000000
1717.038208 5935.000000
1718.501221 6909.000000
1719.963257 6370.000000
1721.424072 6608.000000
1722.884277 5572.000000
1724.343750 5674.000000
1725.802368 6071.000000
1727.260010 6008.000000
1728.716309 6316.000000
1730.172363 6052.000000
1731.627441 6425.000000
1733.081543 5979.000000
1734.534424 6885.000000
1735.987061 5956.000000
1737.438599 6901.000000
1738.889404 5938.000000
1740.339233 6507.000000
1741.787720 5818.000000
1743.235840 7297.000000
1744.683105 6550.000000
1746.129639 6656.000000
1747.574585 6662.000000
1749.019287 6104.000000
1750.463135 5847.000000
1751.906128 5445.000000
1753.347656 6556.000000
1754.788940 6333.000000
1756.229370 6310.000000
1757.668823 6287.000000
1759.107300 5234.000000
1760.544800 6045.000000
1761.981812 7519.000000
1763.417847 5837.000000
1764.853027 7098.000000
1766.286743 6228.000000
1767.720337 6439.000000
1769.152954 6630.000000
1770.584717 5858.000000
1772.015625 5724.000000
1773.445313 6300.000000
1774.874268 6139.000000
1776.302734 6284.000000
1777.730225 6725.000000
1779.156372 6217.000000
1780.582275 5593.000000
1782.007080 6874.000000
1783.431274 5588.000000
1784.854004 6642.000000
1786.276245 6494.000000
1787.697754 6886.000000
1789.118530 5921.000000
1790.538330 6152.000000
1791.956787 6157.000000
1793.374756 6821.000000
1794.792114 5481.000000
1796.208618 6039.000000
1797.623657 6493.000000
1799.038330 5791.000000
1800.452393 6546.000000
1801.865234 5914.000000
1803.277466 6995.000000
1804.688354 7071.000000
1806.098755 7707.000000
1807.508423 6492.000000
1808.917114 5912.000000
1810.324707 5367.000000
1811.731812 6387.000000
1813.138062 6314.000000
1814.543335 6685.000000
1815.947510 5917.000000
1817.351318 5963.000000
1818.754150 6226.000000
1820.156128 6020.000000
1821.557495 5802.000000
1822.957397 6351.000000
1824.356689 6442.000000
1825.755493 6533.000000
1827.153442 7421.000000
1828.550049 5748.000000
1829.946045 6735.000000
1831.341309 5885.000000
1832.735962 8110.000000
1834.129639 5995.000000
1835.521973 6848.000000
1836.913818 6351.000000
1838.305054 5871.000000
1839.695313 7044.000000
1841.084351 6007.000000
1842.473022 6076.000000
1843.860718 5971.000000
1845.247681 5795.000000
1846.633301 6876.000000
1848.018677 5842.000000
1849.403198 6373.000000
1850.786987 6266.000000
1852.169678 6374.000000
1853.551147 5392.000000
1854.932129 6573.000000
1856.312622 6287.000000
1857.692139 5728.000000
1859.070190 5948.000000
1860.448120 6249.000000
1861.825073 7834.000000
1863.201294 6063.000000
1864.576660 6073.000000
1865.950562 5640.000000
1867.324341 5654.000000
1868.697266 6185.000000
1870.069092 5947.000000
1871.439941 6906.000000
1872.810425 5357.000000
1874.179810 6048.000000
1875.548706 6098.000000
1876.916016 7070.000000
1878.283203 6076.000000
1879.649414 6006.000000
1881.014893 6753.000000
1882.379639 7417.000000
1883.742798 6756.000000
1885.105835 6924.000000
1886.468018 6352.000000
1887.829346 6443.000000
1889.189331 5610.000000
1890.548950 5800.000000
1891.907959 6064.000000
1893.265991 6609.000000
1894.623169 7242.000000
1895.979126 5985.000000
1897.334839 7629.000000
1898.689575 5880.000000
1900.043457 5586.000000
1901.396240 5916.000000
1902.748535 6006.000000
1904.100098 5962.000000
1905.450806 6805.000000
1906.800293 6568.000000
1908.149292 6713.000000
1909.497437 5704.000000
1910.844971 6145.000000
1912.191772 6246.000000
1913.536987 6733.000000
1914.881958 6059.000000
1916.226196 5448.000000
1917.569580 6502.000000
1918.911621 6028.000000
1920.253418 6671.000000
1921.594360 7022.000000
1922.934570 6181.000000
1924.273804 6288.000000
1925.612061 6165.000000
1926.949707 6499.000000
1928.286621 7037.000000
1929.622681 6715.000000
1930.957520 5565.000000
1932.291992 6602.000000
1933.625732 7242.000000
1934.958618 6254.000000
1936.290039 5739.000000
1937.621582 6287.000000
1938.951782 6688.000000
1940.281494 5824.000000
1941.610352 6021.000000
1942.937988 5807.000000
1944.265137 4950.000000
1945.591553 5824.000000
1946.917236 6517.000000
1948.241577 5738.000000
1949.565674 6703.000000
1950.888916 6204.000000
1952.211426 6473.000000
1953.532837 5743.000000
1954.853271 7409.000000
1956.173096 5995.000000
1957.492554 5560.000000
1958.811035 6827.000000
1960.128174 5887.000000
1961.444946 5818.000000
1962.760986 6543.000000
1964.076294 6605.000000
1965.390137 6215.000000
1966.703735 5722.000000
1968.016602 6176.000000
1969.328613 5995.000000
1970.640015 6054.000000
1971.950073 6287.000000
1973.259644 5852.000000
1974.568481 6168.000000
1975.876709 6595.000000
1977.183594 6177.000000
1978.489868 7239.000000
1979.795776 5565.000000
1981.100464 6320.000000
1982.404663 5895.000000
1983.707642 5698.000000
1985.010254 7558.000000
1986.311890 6083.000000
1987.612915 6788.000000
1988.912354 6058.000000
1990.211914 6628.000000
1991.510376 5284.000000
1992.808350 6034.000000
1994.104736 6025.000000
1995.401123 5816.000000
1996.696533 5624.000000
1997.991211 6485.000000
1999.285034 5677.000000
2000.577637 6499.000000
2001.869751 5665.000000
2003.161377 7096.000000
2004.452271 6431.000000
2005.741577 6154.000000
2007.030640 6743.000000
2008.318970 5919.000000
2009.606567 6024.000000
2010.893311 6595.000000
2012.178955 5669.000000
2013.464233 6379.000000
2014.748535 5991.000000
2016.032227 5608.000000
2017.314575 6030.000000
2018.596558 6463.000000
2019.878052 6815.000000
2021.158569 5935.000000
2022.438354 6076.000000
2023.717041 6756.000000
2024.994995 5830.000000
2026.272461 5898.000000
2027.549316 6219.000000
2028.824463 5749.000000
2030.099731 6564.000000
2031.374023 6025.000000
2032.647339 5885.000000
2033.919800 5958.000000
2035.191895 6198.000000
2036.462891 6957.000000
2037.733643 6599.000000
2039.003052 6002.000000
2040.271362 6729.000000
2041.539673 6628.000000
2042.807007 5950.000000
2044.073608 5963.000000
2045.338989 5596.000000
2046.603760 5626.000000
2047.868286 5480.000000
2049.131592 5845.000000
2050.394531 6434.000000
2051.655518 6160.000000
2052.916992 6097.000000
2054.177246 5905.000000
2055.436768 6447.000000
2056.695557 6240.000000
2057.953369 6916.000000
2059.210693 6159.000000
2060.467285 6010.000000
2061.722412 6467.000000
2062.977539 5605.000000
2064.231689 5636.000000
2065.485107 5682.000000
2066.737793 6860.000000
2067.989258 6230.000000
2069.240479 6318.000000
2070.490967 5537.000000
2071.740723 5356.000000
2072.989014 6381.000000
2074.237305 6456.000000
2075.484619 7400.000000
2076.731201 5594.000000
2077.977051 6001.000000
2079.221680 7063.000000
2080.465820 7620.000000
2081.709473 5492.000000
2082.952148 6036.000000
2084.193604 6998.000000
2085.434814 5994.000000
2086.675537 6328.000000
2087.915283 6753.000000
2089.153809 6941.000000
2090.391846 6168.000000
2091.629150 5756.000000
2092.866211 6585.000000
2094.101807 6062.000000
2095.336670 6227.000000
2096.571289 6088.000000
2097.804932 5609.000000
2099.037598 6082.000000
2100.269531 6801.000000
2101.500977 6391.000000
2102.731445 6713.000000
2103.961182 6007.000000
2105.190674 6004.000000
2106.418213 6026.000000
2107.645996 6022.000000
2108.873047 6230.000000
2110.099121 5490.000000
2111.323730 6433.000000
2112.548584 6929.000000
2113.772217 7009.000000
2114.995361 6204.000000
2116.217285 7556.000000
2117.438965 5978.000000
2118.659668 6730.000000
2119.879639 6026.000000
2121.099121 6153.000000
2122.317139 6581.000000
2123.535156 7028.000000
2124.752197 5776.000000
2125.968750 5849.000000
2127.183594 6575.000000
2128.398682 6334.000000
2129.612793 6684.000000
2130.826172 5669.000000
2132.038818 6134.000000
2133.250000 5818.000000
2134.461426 6461.000000
2135.671631 6781.000000
2136.881348 5935.000000
2138.089600 6156.000000
2139.297852 5736.000000
2140.505371 5890.000000
2141.711670 7494.000000
2142.917236 5882.000000
2144.122559 5728.000000
2145.326904 5405.000000
2146.530518 6325.000000
2147.733643 6233.000000
2148.935303 6616.000000
2150.136719 5308.000000
2151.337402 6215.000000
2152.537354 6086.000000
2153.736084 5915.000000
2154.934570 6924.000000
2156.132568 6172.000000
2157.329590 6055.000000
2158.525879 5177.000000
2159.720947 5315.000000
2160.915771 6129.000000
2162.109863 5572.000000
2163.302979 6026.000000
2164.495117 6939.000000
2165.687012 5882.000000
2166.878174 6310.000000
2168.068359 6292.000000
2169.257813 6505.000000
2170.446777 6855.000000
2171.634766 6269.000000
2172.822510 5768.000000
2174.008789 5932.000000
2175.194336 6515.000000
2176.379639 6038.000000
2177.564453 5846.000000
2178.748047 6316.000000
2179.930908 7517.000000
2181.112793 6302.000000
2182.294434 6061.000000
2183.475586 6561.000000
2184.655518 5737.000000
2185.834473 5538.000000
2187.012939 6365.000000
2188.191162 6875.000000
2189.368164 7186.000000
2190.544189 6679.000000
2191.719971 6080.000000
2192.895264 5607.000000
2194.069092 6659.000000
2195.242432 6185.000000
2196.415527 6186.000000
2197.587402 6372.000000
2198.758789 7091.000000
2199.929688 6334.000000
2201.098877 6906.000000
2202.268066 7592.000000
2203.436768 6265.000000
2204.604492 5834.000000
2205.771240 5741.000000
2206.937256 7080.000000
2208.102783 6737.000000
2209.268066 5979.000000
2210.431885 6717.000000
2211.595215 5411.000000
2212.757324 6181.000000
2213.919678 6191.000000
2215.080811 6658.000000
2216.240967 6663.000000
2217.400635 6283.000000
2218.560059 6611.000000
2219.718262 6371.000000
2220.875488 6324.000000
2222.032471 6735.000000
2223.188721 6543.000000
2224.344238 6738.000000
2225.499023 6250.000000
2226.652832 6396.000000
2227.805664 6034.000000
2228.958984 6931.000000
2230.110352 6213.000000
2231.261475 6153.000000
2232.411865 6501.000000
2233.561768 7728.000000
2234.710693 6299.000000
2235.859131 5222.000000
2237.006104 6770.000000
2238.153320 7131.000000
2239.299316 6112.000000
2240.445068 7150.000000
2241.589111 7377.000000
2242.733398 6744.000000
2243.876709 6115.000000
2245.019287 5981.000000
2246.160889 5792.000000
2247.302246 5779.000000
2248.442627 6369.000000
2249.582275 6395.000000
2250.721436 5839.000000
2251.859375 5845.000000
2252.997314 6170.000000
2254.134277 5322.000000
2255.270508 6266.000000
2256.405762 6107.000000
2257.540283 7310.000000
2258.674561 6472.000000
2259.808350 5485.000000
2260.940674 6168.000000
2262.072510 6771.000000
2263.203857 6289.000000
2264.334229 6473.000000
2265.464355 8106.000000
2266.593262 6705.000000
2267.721680 6082.000000
2268.849609 5559.000000
2269.976563 6043.000000
2271.102783 5969.000000
2272.228027 6743.000000
2273.353271 6525.000000
2274.477783 6402.000000
2275.601074 5903.000000
2276.723633 6339.000000
2277.845703 5986.000000
2278.967285 7327.000000
2280.088135 6381.000000
2281.207764 6459.000000
2282.326904 7106.000000
2283.445801 7696.000000
2284.563965 7207.000000
2285.681152 5895.000000
2286.797363 6407.000000
2287.913330 7033.000000
2289.028564 6872.000000
2290.143066 7431.000000
2291.256348 5795.000000
2292.369629 6342.000000
2293.482178 6018.000000
2294.593994 5341.000000
2295.705078 6731.000000
2296.814941 6402.000000
2297.924316 6185.000000
2299.033447 6741.000000
2300.141602 6358.000000
2301.248779 6739.000000
2302.355713 5920.000000
2303.461914 6262.000000
2304.567627 6599.000000
2305.671875 6461.000000
2306.775879 5454.000000
2307.879395 5761.000000
2308.982422 6541.000000
2310.084229 7399.000000
2311.185303 7290.000000
2312.285889 6621.000000
2313.385986 5543.000000
2314.485352 6358.000000
2315.583252 6559.000000
2316.681641 6956.000000
2317.778564 8210.000000
2318.875244 6883.000000
2319.971436 5741.000000
2321.065918 6943.000000
2322.160400 7561.000000
2323.254150 5833.000000
2324.347656 6058.000000
2325.439453 6467.000000
2326.531250 6843.000000
2327.622314 6083.000000
2328.712646 6259.000000
2329.802002 6920.000000
2330.891357 6014.000000
2331.979492 6271.000000
2333.067139 6874.000000
2334.154541 6523.000000
2335.240234 6653.000000
2336.325684 7704.000000
2337.410889 6287.000000
2338.495117 6784.000000
2339.578369 5898.000000
2340.661377 6419.000000
2341.743408 7117.000000
2342.825195 5934.000000
2343.906250 7448.000000
2344.986084 6656.000000
2346.065430 5722.000000
2347.144287 6778.000000
2348.222656 6636.000000
2349.299561 6360.000000
2350.376221 6984.000000
2351.452637 6085.000000
2352.528076 6444.000000
2353.602539 5936.000000
2354.676758 6329.000000
2355.750244 6808.000000
2356.823242 6159.000000
2357.895020 7048.000000
2358.966553 6256.000000
2360.037109 6766.000000
2361.107422 7552.000000
2362.176758 7486.000000
2363.245117 6797.000000
2364.313232 6764.000000
2365.380615 7081.000000
2366.447510 7100.000000
2367.513672 6084.000000
2368.578613 6807.000000
2369.643555 7017.000000
2370.707764 6335.000000
2371.771240 6948.000000
2372.833496 5744.000000
2373.895752 6338.000000
2374.957031 6331.000000
2376.018066 5891.000000
2377.077881 6293.000000
2378.136963 7885.000000
2379.196045 6488.000000
2380.254150 7506.000000
2381.311523 6899.000000
2382.367920 7995.000000
2383.424072 7826.000000
2384.479736 6236.000000
2385.534668 7000.000000
2386.588135 6735.000000
2387.641846 6563.000000
2388.694580 6297.000000
2389.746826 6785.000000
2390.798340 6176.000000
2391.848877 6599.000000
2392.899170 6526.000000
2393.948486 6207.000000
2394.997803 6227.000000
2396.045654 6880.000000
2397.093018 6931.000000
2398.140137 6280.000000
2399.186279 6631.000000
2400.231689 6174.000000
2401.276367 6728.000000
2402.321045 7731.000000
2403.364258 7416.000000
2404.407471 6586.000000
2405.449219 5752.000000
2406.491211 6709.000000
2407.532471 7154.000000
2408.572754 6120.000000
2409.612305 6456.000000
2410.650879 6265.000000
2411.689697 5927.000000
2412.727295 6540.000000
2413.764648 6961.000000
2414.800781 7341.000000
2415.836670 6186.000000
2416.871826 6238.000000
2417.906494 6901.000000
2418.939697 7143.000000
2419.973145 6506.000000
2421.005615 6649.000000
2422.037842 6760.000000
2423.068604 7086.000000
2424.099365 6318.000000
2425.129639 6840.000000
2426.158691 6815.000000
2427.187744 6609.000000
2428.215088 6908.000000
2429.242920 6700.000000
2430.269531 7248.000000
2431.295898 6971.000000
2432.320801 7658.000000
2433.345947 6577.000000
2434.370117 7084.000000
2435.394043 6729.000000
2436.416748 5783.000000
2437.438721 6296.000000
2438.460449 6646.000000
2439.481445 6601.000000
2440.501953 6046.000000
2441.521240 6543.000000
2442.540527 6600.000000
2443.558838 8448.000000
2444.576904 6227.000000
2445.593506 6561.000000
2446.610107 6550.000000
2447.625977 6044.000000
2448.641846 6956.000000
2449.656250 6895.000000
2450.669922 5551.000000
2451.683105 7300.000000
2452.696045 5977.000000
2453.708252 7204.000000
2454.719482 6659.000000
2455.730469 7682.000000
2456.740723 6296.000000
2457.750488 7630.000000
2458.759277 5876.000000
2459.767334 6011.000000
2460.775391 6276.000000
2461.782227 7360.000000
2462.788818 5472.000000
2463.794189 7389.000000
2464.799316 6898.000000
2465.804199 5897.000000
2466.807861 6501.000000
2467.811279 6389.000000
2468.813721 7562.000000
2469.815918 7333.000000
2470.817627 6863.000000
2471.818359 6571.000000
2472.818115 6930.000000
2473.817871 6752.000000
2474.816650 5647.000000
2475.814941 6562.000000
2476.812256 7031.000000
2477.809326 6061.000000
2478.806396 6877.000000
2479.802002 5807.000000
2480.797607 7068.000000
2481.791504 6650.000000
2482.785400 8066.000000
2483.778809 6771.000000
2484.771729 6854.000000
2485.763672 7493.000000
2486.754883 7212.000000
2487.745850 6721.000000
2488.736328 5839.000000
2489.725830 6597.000000
2490.714600 6463.000000
2491.703369 5625.000000
2492.691162 6807.000000
2493.677734 6606.000000
2494.664307 8067.000000
2495.650391 6807.000000
2496.635742 7174.000000
2497.620117 8378.000000
2498.604248 6056.000000
2499.588379 6906.000000
2500.571045 5743.000000
2501.553223 7000.000000
2502.534912 6836.000000
2503.515869 7261.000000
2504.496338 6520.000000
2505.476563 5727.000000
2506.455322 6300.000000
2507.433838 7625.000000
2508.411865 6779.000000
2509.389404 7105.000000
2510.365967 6099.000000
2511.342285 5832.000000
2512.317871 6447.000000
2513.292969 6247.000000
2514.267578 6418.000000
2515.240967 7507.000000
2516.214111 6757.000000
2517.187012 6782.000000
2518.158936 6154.000000
2519.130127 6817.000000
2520.100830 6878.000000
2521.071289 7839.000000
2522.041016 8064.000000
2523.009766 6125.000000
2523.977783 6142.000000
2524.945801 7760.000000
2525.912842 6338.000000
2526.879639 5513.000000
2527.845215 7186.000000
2528.810791 7005.000000
2529.775635 7741.000000
2530.739990 6381.000000
2531.703125 6415.000000
2532.666504 5849.000000
2533.628906 5987.000000
2534.591064 6735.000000
2535.552002 6330.000000
2536.512207 6099.000000
2537.472656 6191.000000
2538.432129 6823.000000
2539.390869 6735.000000
2540.348633 6741.000000
2541.306641 6202.000000
2542.263916 6782.000000
2543.220215 6075.000000
2544.176270 7119.000000
2545.131104 6254.000000
2546.086182 7684.000000
2547.040527 7021.000000
2547.994141 6387.000000
2548.946777 7199.000000
2549.899170 6772.000000
2550.851074 6905.000000
2551.802246 6410.000000
2552.752686 7758.000000
2553.702637 7307.000000
2554.652344 7384.000000
2555.601318 6670.000000
2556.549805 6313.000000
2557.497070 7160.000000
2558.444336 6294.000000
2559.390869 6596.000000
2560.336914 6700.000000
2561.281982 7434.000000
2562.226807 6708.000000
2563.171143 7172.000000
2564.114990 6792.000000
2565.058350 6705.000000
2566.000244 6581.000000
2566.942383 6588.000000
2567.883789 6113.000000
2568.824463 7116.000000
2569.764404 7307.000000
2570.704346 5651.000000
2571.643311 6176.000000
2572.582031 7511.000000
2573.519775 7236.000000
2574.457275 5494.000000
2575.394043 6966.000000
2576.330078 6773.000000
2577.265625 7522.000000
2578.200439 6405.000000
2579.135254 5912.000000
2580.069092 7028.000000
2581.002441 7270.000000
2581.935059 5885.000000
2582.867432 6923.000000
2583.799072 5425.000000
2584.730225 7024.000000
2585.660889 6964.000000
2586.590332 6834.000000
2587.519775 7227.000000
2588.448730 6382.000000
2589.377441 7380.000000
2590.304443 7428.000000
2591.231689 5908.000000
2592.158447 6827.000000
2593.084473 6316.000000
2594.010254 5568.000000
2594.934814 7644.000000
2595.859131 7628.000000
2596.782959 5371.000000
2597.706299 7321.000000
2598.628662 6289.000000
2599.550781 6877.000000
2600.472412 8260.000000
2601.393311 6439.000000
2602.313477 5982.000000
2603.233398 6351.000000
2604.152832 6386.000000
2605.072021 6460.000000
2605.990234 5831.000000
2606.907227 6024.000000
2607.824463 7239.000000
2608.741455 5872.000000
2609.657471 7581.000000
2610.572266 6635.000000
2611.487549 6597.000000
2612.402100 6514.000000
2613.315674 6600.000000
2614.229248 6110.000000
2615.141602 7586.000000
2616.053955 6987.000000
2616.965332 6769.000000
2617.876465 5665.000000
2618.786865 7216.000000
2619.697021 6645.000000
2620.606445 6135.000000
2621.515381 6686.000000
2622.423340 6263.000000
2623.331543 6796.000000
2624.238770 6582.000000
2625.145508 7074.000000
2626.051514 5944.000000
2626.957275 6651.000000
2627.862305 6397.000000
2628.767090 7828.000000
2629.671143 6444.000000
2630.574219 6405.000000
2631.477295 6439.000000
2632.379395 5650.000000
2633.281494 6749.000000
2634.183350 7037.000000
2635.083496 6683.000000
2635.983887 6382.000000
2636.883545 6552.000000
2637.782959 5982.000000
2638.680908 6878.000000
2639.579346 6702.000000
2640.477295 6288.000000
2641.374512 6133.000000
2642.270508 6196.000000
2643.166504 6872.000000
2644.062256 6076.000000
2644.957275 6444.000000
2645.852051 6587.000000
2646.745361 7013.000000
2647.638672 6309.000000
2648.531738 6768.000000
2649.424561 6453.000000
2650.315674 7507.000000
2651.207031 6403.000000
2652.097900 7650.000000
2652.988037 7301.000000
2653.877930 6623.000000
2654.766602 7267.000000
2655.655518 6635.000000
2656.543945 6569.000000
2657.431396 7355.000000
2658.317871 6422.000000
2659.204834 7086.000000
2660.091064 6818.000000
2660.976807 6811.000000
2661.861328 6535.000000
2662.745850 6393.000000
2663.630127 6205.000000
2664.513672 7076.000000
2665.396729 7838.000000
2666.279053 7318.000000
2667.160889 6163.000000
2668.041992 6606.000000
2668.923340 6120.000000
2669.803223 6525.000000
2670.683350 7345.000000
2671.562744 7210.000000
2672.442139 6201.000000
2673.320801 6133.000000
2674.197754 6415.000000
2675.075439 6707.000000
2675.952393 6449.000000
2676.828613 8099.000000
2677.704346 7203.000000
2678.579346 6279.000000
2679.454590 7687.000000
2680.328857 6954.000000
2681.202637 7246.000000
2682.075684 6998.000000
2682.948486 6186.000000
2683.821045 6062.000000
2684.692871 7048.000000
2685.563965 6576.000000
2686.434814 6829.000000
2687.305176 7061.000000
2688.175293 6629.000000
2689.043701 6265.000000
2689.912842 7408.000000
2690.781250 7162.000000
2691.649414 6663.000000
2692.516846 6858.000000
2693.383057 5879.000000
2694.249756 7137.000000
2695.115479 7368.000000
2695.981201 7159.000000
2696.845459 7917.000000
2697.710449 6542.000000
2698.573975 7171.000000
2699.437744 5829.000000
2700.300049 7438.000000
2701.162842 6827.000000
2702.024658 5876.000000
2702.885986 6883.000000
2703.747314 6810.000000
2704.607422 7377.000000
2705.467529 7290.000000
2706.327148 6553.000000
2707.186523 6858.000000
2708.044189 7164.000000
2708.902100 6867.000000
2709.760498 7376.000000
2710.617676 6734.000000
2711.474121 6008.000000
2712.330078 6957.000000
2713.186035 6102.000000
2714.041260 6961.000000
2714.895752 6161.000000
2715.749756 6824.000000
2716.603760 7282.000000
2717.456787 6249.000000
2718.310059 6422.000000
2719.161621 7803.000000
2720.013672 6845.000000
2720.865479 6280.000000
2721.716064 6438.000000
2722.566650 6437.000000
2723.416748 7119.000000
2724.266113 7042.000000
2725.115479 7016.000000
2725.963623 6669.000000
2726.811279 6567.000000
2727.659424 7022.000000
2728.506348 6856.000000
2729.353760 5512.000000
2730.199707 7438.000000
2731.044922 6987.000000
2731.890625 6469.000000
2732.735352 6997.000000
2733.580078 7305.000000
2734.423584 6884.000000
2735.267334 7827.000000
2736.110352 7087.000000
2736.952881 6043.000000
2737.794434 6270.000000
2738.636475 6829.000000
2739.477539 6942.000000
2740.318359 5842.000000
2741.158936 5899.000000
2741.998291 7721.000000
2742.837646 6895.000000
2743.677002 6869.000000
2744.515137 6853.000000
2745.352783 7766.000000
2746.190430 6318.000000
2747.027588 7167.000000
2747.864502 6154.000000
2748.700928 6003.000000
2749.536133 6660.000000
2750.371582 6313.000000
2751.206543 6310.000000
2752.040771 6228.000000
2752.874756 6895.000000
2753.708252 6792.000000
2754.541748 8030.000000
2755.374268 6792.000000
2756.206299 7272.000000
2757.037842 6842.000000
2757.869385 7060.000000
2758.699951 7249.000000
2759.530762 7236.000000
2760.360352 7217.000000
2761.189941 6656.000000
2762.019287 7208.000000
2762.847900 6795.000000
2763.676025 6784.000000
2764.503662 7050.000000
2765.331299 6625.000000
2766.158447 7925.000000
2766.984863 5851.000000
2767.810791 7473.000000
2768.636230 6900.000000
2769.461426 7827.000000
2770.286621 7074.000000
2771.110596 6806.000000
2771.934570 6506.000000
2772.758545 7677.000000
2773.581299 6442.000000
2774.404297 6981.000000
2775.226074 6920.000000
2776.047852 7017.000000
2776.869629 6550.000000
2777.690430 7957.000000
2778.510498 6598.000000
2779.330811 7044.000000
2780.150635 7326.000000
2780.970459 6424.000000
2781.788330 5955.000000
2782.607422 8093.000000
2783.425293 6468.000000
2784.242920 6768.000000
2785.060059 7064.000000
2785.876709 7246.000000
2786.693115 7190.000000
2787.509033 6280.000000
2788.324707 5920.000000
2789.139404 6449.000000
2789.954590 6948.000000
2790.769043 7149.000000
2791.583008 6520.000000
2792.396729 7437.000000
2793.209229 8707.000000
2794.021973 6945.000000
2794.834229 7403.000000
2795.645996 7204.000000
2796.457031 7347.000000
2797.268799 6534.000000
2798.079346 7214.000000
2798.889893 6994.000000
2799.698975 7333.000000
2800.508789 8131.000000
2801.317871 7785.000000
2802.126709 6581.000000
2802.935059 7153.000000
2803.742432 6146.000000
2804.550293 6546.000000
2805.357422 6986.000000
2806.164307 6811.000000
2806.969971 7219.000000
2807.776123 6677.000000
2808.581543 6512.000000
2809.386963 7325.000000
2810.191650 6182.000000
2810.995361 7654.000000
2811.799561 7470.000000
2812.603271 6384.000000
2813.406738 6082.000000
2814.208740 6284.000000
2815.011475 7336.000000
2815.813477 7813.000000
2816.615234 6124.000000
2817.416504 6593.000000
2818.217285 7292.000000
2819.017578 6573.000000
2819.818115 6679.000000
2820.617676 8064.000000
2821.416748 7183.000000
2822.215820 6517.000000
2823.014648 7002.000000
2823.812988 6314.000000
2824.610352 7092.000000
2825.407959 7427.000000
2826.204834 6698.000000
2827.001953 7376.000000
2827.798340 8033.000000
2828.593994 7061.000000
2829.389648 7354.000000
2830.185059 7596.000000
2830.979980 7492.000000
2831.774170 6643.000000
2832.568359 6831.000000
2833.362305 5729.000000
2834.155762 6892.000000
2834.948486 7188.000000
2835.740967 8167.000000
2836.533447 7763.000000
2837.325684 7454.000000
2838.117432 6452.000000
2838.908203 6781.000000
2839.698975 8902.000000
2840.489990 7495.000000
2841.280029 6181.000000
2842.069580 7660.000000
2842.859375 7170.000000
2843.648193 7336.000000
2844.437012 7871.000000
2845.225830 7734.000000
2846.013672 7497.000000
2846.801025 7232.000000
2847.588623 7548.000000
2848.375732 7363.000000
2849.162109 6657.000000
2849.948486 7459.000000
2850.734619 7244.000000
2851.520264 7529.000000
2852.304932 7231.000000
2853.090088 6894.000000
2853.875000 7450.000000
2854.659180 7124.000000
2855.443359 6934.000000
2856.226318 8262.000000
2857.009521 6829.000000
2857.792480 6733.000000
2858.574951 7752.000000
2859.357178 6324.000000
2860.138916 6653.000000
2860.920410 7634.000000
2861.702148 7451.000000
2862.483154 7648.000000
2863.263428 6565.000000
2864.043457 6707.000000
2864.823486 8209.000000
2865.603271 7503.000000
2866.382080 8140.000000
2867.161133 7682.000000
2867.939697 6823.000000
2868.718018 7050.000000
2869.495850 7258.000000
2870.273438 6948.000000
2871.050781 7484.000000
2871.827881 7026.000000
2872.604492 6433.000000
2873.380615 7485.000000
2874.156738 7209.000000
2874.932373 8316.000000
2875.707764 7268.000000
2876.482666 6615.000000
2877.257324 7970.000000
2878.031982 6571.000000
2878.806396 7824.000000
2879.580078 6836.000000
2880.353027 7182.000000
2881.126709 6748.000000
2881.899414 7623.000000
2882.672119 7860.000000
2883.444092 8240.000000
2884.215820 6261.000000
2884.988037 6756.000000
2885.759033 6875.000000
2886.529541 6116.000000
2887.300537 8328.000000
2888.071533 7366.000000
2888.841797 7997.000000
2889.611084 7655.000000
2890.380615 6981.000000
2891.150146 7224.000000
2891.919189 7313.000000
2892.687744 7871.000000
2893.456299 7914.000000
2894.223877 6934.000000
2894.991943 6524.000000
2895.759521 7386.000000
2896.527100 8307.000000
2897.293457 7324.000000
2898.060791 6453.000000
2898.826904 7264.000000
2899.593262 6957.000000
2900.358154 8318.000000
2901.123535 7056.000000
2901.889404 6438.000000
2902.653809 7673.000000
2903.418213 7758.000000
2904.182861 8417.000000
2904.946533 6621.000000
2905.710938 8405.000000
2906.474609 6754.000000
2907.237549 8396.000000
2908.000244 6463.000000
2908.763428 9026.000000
2909.526123 6994.000000
2910.287598 6840.000000
2911.049561 6840.000000
