scanname Analyse026
timestamp 2017-02-10 20:31:27
ccdbias 902.404785
ccdgain 3.473401
sigmaread 8.960639
laserwavenum -0.551805
wavenumcorrection -0.028841
scancount 1
totalexposurems 10000
singleexposurems 10000
measurementstate Unknown
scanmode Manual
snr 142.037354 2.142135 1.532214
replacelist 1
671 26811.000000 9986.000000
peaks 13
277.608948 0.401030 0.000000 0.714422 0.000065
289.167725 0.401450 0.000000 0.321239 0.000017
300.291595 0.402593 0.000000 0.321796 0.000023
332.499176 0.403363 0.000000 0.889270 0.000056
384.550568 0.399611 0.000000 0.329556 0.000034
750.354675 0.359942 0.000000 0.528127 0.000042
781.290222 0.360422 0.000000 1.613947 0.000243
808.617310 0.353368 0.000000 0.120860 0.000035
878.443176 0.346307 0.000000 0.381838 0.000078
934.932190 0.330790 0.000000 0.267918 0.000050
1315.296509 0.297465 0.000000 11.117738 0.002278
1334.862061 0.297024 0.000000 7.850521 0.001211
1456.379272 0.263475 0.000000 0.096151 0.000036
finalresult GLS_NoMatch 0
spectrum 2048
-97.049652 45681.000000
-94.422783 45681.000000
-91.797791 46298.000000
-89.174690 46271.000000
-86.553459 47075.000000
-83.934128 46832.000000
-81.316658 47165.000000
-78.701065 46828.000000
-76.087349 47142.000000
-73.475510 47370.000000
-70.865532 47328.000000
-68.257439 47534.000000
-65.651192 47512.000000
-63.046818 47496.000000
-60.444309 47424.000000
-57.843655 47933.000000
-55.244862 47256.000000
-52.647926 46684.000000
-50.052845 47071.000000
-47.459618 47039.000000
-44.868240 47209.000000
-42.278709 46765.000000
-39.691021 47572.000000
-37.105183 47378.000000
-34.521187 47014.000000
-31.939030 47638.000000
-29.358717 47079.000000
-26.780231 47696.000000
-24.203588 47225.000000
-21.628771 47088.000000
-19.055794 46844.000000
-16.484636 46838.000000
-13.915313 46524.000000
-11.347815 45486.000000
-8.782135 46976.000000
-6.218281 46688.000000
-3.656240 47104.000000
-1.096025 47068.000000
1.462384 46492.000000
4.018970 45696.000000
6.573752 45753.000000
9.126718 46048.000000
11.677882 44808.000000
14.227234 44532.000000
16.774790 43749.000000
19.320534 43689.000000
21.864485 43027.000000
24.406631 40517.000000
26.946981 38459.000000
29.485546 36067.000000
32.022316 31899.000000
34.557281 21242.000000
37.090469 12127.000000
39.621876 8650.000000
42.151489 8266.000000
44.679306 7855.000000
47.205364 6876.000000
49.729633 6034.000000
52.252132 5387.000000
54.772835 4944.000000
57.291782 4862.000000
59.808956 5815.000000
62.324352 7128.000000
64.837967 7858.000000
67.349831 8133.000000
69.859947 6393.000000
72.368271 4050.000000
74.874840 3253.000000
77.379662 2811.000000
79.882729 2355.000000
82.384018 2158.000000
84.883568 1968.000000
87.381363 2006.000000
89.877426 2307.000000
92.371712 2847.000000
94.864258 2821.000000
97.355087 2627.000000
99.844147 2172.000000
102.331459 1835.000000
104.817047 1599.000000
107.300896 1639.000000
109.782997 1457.000000
112.263374 1345.000000
114.742027 1294.000000
117.218956 1137.000000
119.694130 1201.000000
122.167595 1103.000000
124.639328 1229.000000
127.109352 1277.000000
129.577621 1318.000000
132.044220 1370.000000
134.509064 1423.000000
136.972214 1647.000000
139.433624 1815.000000
141.893341 2112.000000
144.351334 2571.000000
146.807632 2975.000000
149.262222 3766.000000
151.715088 4262.000000
154.166275 5208.000000
156.615768 6263.000000
159.063538 7427.000000
161.509598 8604.000000
163.953979 9844.000000
166.396683 10868.000000
168.837692 11715.000000
171.276993 12689.000000
173.714584 13005.000000
176.150543 13495.000000
178.584763 13624.000000
181.017303 13570.000000
183.448196 13782.000000
185.877365 13853.000000
188.304886 13917.000000
190.730728 14208.000000
193.154892 14201.000000
195.577393 14248.000000
197.998199 14577.000000
200.417343 14846.000000
202.834824 15292.000000
205.250610 15570.000000
207.664749 16233.000000
210.077255 17058.000000
212.488083 18188.000000
214.897232 19409.000000
217.304749 20271.000000
219.710556 22157.000000
222.114777 23401.000000
224.517288 24399.000000
226.918182 24973.000000
229.317429 25798.000000
231.715012 25826.000000
234.110931 25546.000000
236.505234 26281.000000
238.897873 26674.000000
241.288895 26108.000000
243.678253 26629.000000
246.065994 26827.000000
248.452087 26297.000000
250.836548 27175.000000
253.219360 25588.000000
255.600601 26739.000000
257.980133 26566.000000
260.358093 26814.000000
262.734375 25841.000000
265.109100 25812.000000
267.482178 25353.000000
269.853607 26557.000000
272.223389 26112.000000
274.591614 26642.000000
276.958191 26260.000000
279.323181 26171.000000
281.686554 26617.000000
284.048279 26457.000000
286.408417 25584.000000
288.766937 26471.000000
291.123871 25979.000000
293.479187 26106.000000
295.832916 26394.000000
298.184998 26289.000000
300.535522 26142.000000
302.884460 26219.000000
305.231750 25812.000000
307.577515 26259.000000
309.921600 26194.000000
312.264160 25472.000000
314.605103 25330.000000
316.944427 25612.000000
319.282196 25678.000000
321.618408 24533.000000
323.952972 25764.000000
326.285980 25341.000000
328.617432 25784.000000
330.947296 25456.000000
333.275574 25633.000000
335.602234 24852.000000
337.927399 25427.000000
340.250946 25492.000000
342.572937 25739.000000
344.893372 24537.000000
347.212189 24311.000000
349.529449 25218.000000
351.845184 25431.000000
354.159332 24705.000000
356.471893 25285.000000
358.782898 25341.000000
361.092377 24544.000000
363.400330 25007.000000
365.706665 25470.000000
368.011414 24990.000000
370.314697 25039.000000
372.616364 25008.000000
374.916534 25010.000000
377.215149 24859.000000
379.512207 25311.000000
381.807709 25150.000000
384.101685 25248.000000
386.394073 25735.000000
388.684967 25706.000000
390.974335 25443.000000
393.262115 25685.000000
395.548370 25653.000000
397.833130 25223.000000
400.116272 26024.000000
402.397980 25698.000000
404.678162 26054.000000
406.956757 25022.000000
409.233826 25635.000000
411.509369 25321.000000
413.783386 25331.000000
416.055969 25416.000000
418.326935 25463.000000
420.596405 25390.000000
422.864380 24886.000000
425.130798 24725.000000
427.395721 25163.000000
429.659180 25058.000000
431.921051 24805.000000
434.181458 25076.000000
436.440308 24453.000000
438.697693 24699.000000
440.953583 24784.000000
443.207977 24534.000000
445.460846 24881.000000
447.712158 23901.000000
449.962067 24319.000000
452.210388 24084.000000
454.457275 24424.000000
456.702698 23989.000000
458.946564 23958.000000
461.188934 23942.000000
463.429810 24387.000000
465.669281 23655.000000
467.907166 24259.000000
470.143616 24068.000000
472.378540 24053.000000
474.612000 23606.000000
476.844025 23534.000000
479.074524 23961.000000
481.303528 23593.000000
483.531067 23651.000000
485.757111 23863.000000
487.981720 23436.000000
490.204865 23703.000000
492.426544 23414.000000
494.646667 23367.000000
496.865387 23993.000000
499.082611 23576.000000
501.298462 24078.000000
503.512695 23848.000000
505.725616 23819.000000
507.936951 23794.000000
510.146851 23632.000000
512.355347 24024.000000
514.562439 23916.000000
516.767944 23898.000000
518.972046 23709.000000
521.174622 23965.000000
523.375793 23711.000000
525.575623 23649.000000
527.773926 23176.000000
529.970703 23827.000000
532.166138 23657.000000
534.360046 23945.000000
536.552612 22998.000000
538.743652 23260.000000
540.933289 23634.000000
543.121521 23206.000000
545.308228 22865.000000
547.493469 22776.000000
549.677429 22765.000000
551.859802 22640.000000
554.040833 22536.000000
556.220337 22331.000000
558.398560 22412.000000
560.575256 22331.000000
562.750549 22153.000000
564.924438 22048.000000
567.096863 22137.000000
569.267883 22051.000000
571.437439 21946.000000
573.605713 22214.000000
575.772461 22040.000000
577.937744 22173.000000
580.101624 22133.000000
582.264221 22272.000000
584.425293 22204.000000
586.584961 22256.000000
588.743286 22387.000000
590.900085 22290.000000
593.055542 22136.000000
595.209595 22489.000000
597.362305 22700.000000
599.513489 22159.000000
601.663330 22277.000000
603.811829 22179.000000
605.958740 22343.000000
608.104431 22285.000000
610.248718 22302.000000
612.391541 22131.000000
614.532898 22738.000000
616.673035 22633.000000
618.811646 21781.000000
620.948975 22547.000000
623.084839 22130.000000
625.219299 22039.000000
627.352295 21679.000000
629.484131 21770.000000
631.614502 21754.000000
633.743469 21796.000000
635.870972 21698.000000
637.997192 21494.000000
640.121887 21080.000000
642.245361 21329.000000
644.367493 21184.000000
646.488159 21044.000000
648.607483 20940.000000
650.725403 21076.000000
652.841980 21003.000000
654.957153 20721.000000
657.070984 20617.000000
659.183350 20656.000000
661.294495 20676.000000
663.404236 20601.000000
665.512512 20671.000000
667.619629 20470.000000
669.725281 20388.000000
671.829468 20476.000000
673.932434 20693.000000
676.033997 20366.000000
678.134216 20733.000000
680.233032 20672.000000
682.330505 21032.000000
684.426697 20815.000000
686.521423 21036.000000
688.614929 20614.000000
690.707092 20699.000000
692.797729 20588.000000
694.887146 20937.000000
696.975281 21123.000000
699.061951 21180.000000
701.147400 20937.000000
703.231323 21301.000000
705.314026 20989.000000
707.395447 20906.000000
709.475403 20228.000000
711.554138 19741.000000
713.631409 19762.000000
715.707397 19849.000000
717.782104 19948.000000
719.855530 19648.000000
721.927429 20557.000000
723.998169 20160.000000
726.067566 20055.000000
728.135559 19751.000000
730.202209 19693.000000
732.267639 19525.000000
734.331726 19509.000000
736.394470 19626.000000
738.455872 19369.000000
740.515991 19317.000000
742.574707 19277.000000
744.632202 18979.000000
746.688416 19092.000000
748.743225 19090.000000
750.796753 18929.000000
752.848877 18841.000000
754.899780 19107.000000
756.949463 18708.000000
758.997681 18797.000000
761.044678 18847.000000
763.090393 18429.000000
765.134705 18845.000000
767.177734 20676.000000
769.219543 16183.000000
771.260010 18767.000000
773.299072 18823.000000
775.336975 18731.000000
777.373535 18836.000000
779.408875 18946.000000
781.442871 19066.000000
783.475464 18889.000000
785.506897 19921.000000
787.536926 17592.000000
789.565674 19016.000000
791.593262 19212.000000
793.619507 18993.000000
795.644348 19167.000000
797.668091 19248.000000
799.690430 19419.000000
801.711548 19376.000000
803.731323 19293.000000
805.749817 19638.000000
807.767090 19512.000000
809.782959 19274.000000
811.797668 19471.000000
813.811035 19339.000000
815.823181 19133.000000
817.834106 18977.000000
819.843689 18680.000000
821.852051 18594.000000
823.859009 18338.000000
825.864746 18455.000000
827.869263 18314.000000
829.872498 18140.000000
831.874451 17909.000000
833.875122 18071.000000
835.874573 18031.000000
837.872681 17777.000000
839.869690 17987.000000
841.865295 17847.000000
843.859741 17914.000000
845.852844 17818.000000
847.844727 17479.000000
849.835266 17431.000000
851.824524 17210.000000
853.812744 17148.000000
855.799561 17187.000000
857.785156 17006.000000
859.769470 17078.000000
861.752686 16952.000000
863.734497 17139.000000
865.715088 17083.000000
867.694397 16805.000000
869.672546 17007.000000
871.649353 17321.000000
873.624878 17335.000000
875.599365 17594.000000
877.572388 17907.000000
879.544373 17997.000000
881.515015 17913.000000
883.484497 18014.000000
885.452637 17928.000000
887.419617 17922.000000
889.385254 17651.000000
891.349731 17773.000000
893.312988 17544.000000
895.275024 17491.000000
897.235779 17376.000000
899.195313 17395.000000
901.153564 17285.000000
903.110718 17124.000000
905.066711 17334.000000
907.021301 17121.000000
908.974670 17166.000000
910.926880 17106.000000
912.877869 16832.000000
914.827576 16665.000000
916.776123 16633.000000
918.723450 16713.000000
920.669495 16460.000000
922.614258 16200.000000
924.557983 15977.000000
926.500549 16015.000000
928.441833 15787.000000
930.381775 15608.000000
932.320618 15515.000000
934.258179 16029.000000
936.194519 15506.000000
938.129700 15430.000000
940.063599 15448.000000
941.996399 15638.000000
943.927979 15319.000000
945.858398 15536.000000
947.787598 15307.000000
949.715454 15292.000000
951.642273 15556.000000
953.567810 15455.000000
955.492065 15527.000000
957.415222 15554.000000
959.337219 15643.000000
961.257935 15661.000000
963.177490 15997.000000
965.095886 15842.000000
967.013245 15900.000000
968.929138 16005.000000
970.843933 15950.000000
972.757507 16021.000000
974.669922 15884.000000
976.581116 16047.000000
978.491150 15937.000000
980.399902 15949.000000
982.307617 15934.000000
984.214111 15809.000000
986.119385 15845.000000
988.023560 15730.000000
989.926514 15537.000000
991.828247 15688.000000
993.728821 15686.000000
995.628235 15454.000000
997.526428 15480.000000
999.423462 15362.000000
1001.319275 14997.000000
1003.213928 14775.000000
1005.107483 14728.000000
1006.999756 14616.000000
1008.891113 14628.000000
1010.781128 14483.000000
1012.669922 14290.000000
1014.557556 14368.000000
1016.444031 14116.000000
1018.329346 14260.000000
1020.213501 14283.000000
1022.096436 14220.000000
1023.978333 14179.000000
1025.858887 14284.000000
1027.738403 14097.000000
1029.616943 14389.000000
1031.494141 14199.000000
1033.369995 14210.000000
1035.244873 14363.000000
1037.118774 14226.000000
1038.991211 14350.000000
1040.862671 14215.000000
1042.732788 14172.000000
1044.601929 14162.000000
1046.469849 14097.000000
1048.336670 14157.000000
1050.202393 14393.000000
1052.066895 14335.000000
1053.930298 14315.000000
1055.792358 14559.000000
1057.653442 14490.000000
1059.513428 14463.000000
1061.372070 14209.000000
1063.229614 14358.000000
1065.086060 14371.000000
1066.941406 14316.000000
1068.795532 14554.000000
1070.648804 14430.000000
1072.500610 14280.000000
1074.351440 14467.000000
1076.201050 14273.000000
1078.049438 14343.000000
1079.896973 14195.000000
1081.743164 14228.000000
1083.588135 14369.000000
1085.432251 14217.000000
1087.275024 14325.000000
1089.116577 14145.000000
1090.957397 14219.000000
1092.796631 13818.000000
1094.635132 13942.000000
1096.472290 13846.000000
1098.308228 13627.000000
1100.143188 13427.000000
1101.976929 13173.000000
1103.809692 13155.000000
1105.641113 13148.000000
1107.471680 13458.000000
1109.300903 12973.000000
1111.129150 12623.000000
1112.956177 12626.000000
1114.782227 12671.000000
1116.607056 12747.000000
1118.430786 12738.000000
1120.253296 12810.000000
1122.074707 12688.000000
1123.895264 12581.000000
1125.714355 12575.000000
1127.532593 12720.000000
1129.349487 12780.000000
1131.165527 12844.000000
1132.980347 12929.000000
1134.794067 12749.000000
1136.606689 13037.000000
1138.418091 12905.000000
1140.228516 13157.000000
1142.037842 13127.000000
1143.845825 13274.000000
1145.653076 13306.000000
1147.458862 13194.000000
1149.263794 13193.000000
1151.067627 13226.000000
1152.870239 13276.000000
1154.671997 13128.000000
1156.472290 13273.000000
1158.271606 13054.000000
1160.069946 13043.000000
1161.866943 13132.000000
1163.663208 13032.000000
1165.458130 12775.000000
1167.251953 12616.000000
1169.044922 12623.000000
1170.836548 12476.000000
1172.627197 12384.000000
1174.416870 12415.000000
1176.205078 12356.000000
1177.992432 12273.000000
1179.778687 12088.000000
1181.563843 12259.000000
1183.347900 12106.000000
1185.130859 12175.000000
1186.912842 12190.000000
1188.693604 12064.000000
1190.473389 12157.000000
1192.252075 12024.000000
1194.029785 12027.000000
1195.806274 11915.000000
1197.581665 11776.000000
1199.355957 11687.000000
1201.129150 11436.000000
1202.901489 11478.000000
1204.672485 11438.000000
1206.442627 11416.000000
1208.211548 11350.000000
1209.979370 11443.000000
1211.746338 11152.000000
1213.511963 11317.000000
1215.276611 11367.000000
1217.040161 11344.000000
1218.802612 11458.000000
1220.564209 11293.000000
1222.324585 11325.000000
1224.083862 11174.000000
1225.842285 11164.000000
1227.599487 11157.000000
1229.355591 11287.000000
1231.110596 11354.000000
1232.864746 11491.000000
1234.617554 11380.000000
1236.369385 11354.000000
1238.120361 11602.000000
1239.869995 11601.000000
1241.618774 11510.000000
1243.366211 11615.000000
1245.112915 11563.000000
1246.858398 11532.000000
1248.603027 11623.000000
1250.346313 11559.000000
1252.088623 11482.000000
1253.829834 11522.000000
1255.570190 11355.000000
1257.309448 11091.000000
1259.047485 10727.000000
1260.784668 10643.000000
1262.520630 10781.000000
1264.255615 10962.000000
1265.989624 11030.000000
1267.722656 11337.000000
1269.454468 11294.000000
1271.185303 11435.000000
1272.914917 11496.000000
1274.643677 11444.000000
1276.371338 11354.000000
1278.097900 11516.000000
1279.823608 11470.000000
1281.547974 11304.000000
1283.271484 11317.000000
1284.994019 11264.000000
1286.715576 11259.000000
1288.435913 11288.000000
1290.155273 11180.000000
1291.873535 11006.000000
1293.590820 11061.000000
1295.307129 11190.000000
1297.022217 11316.000000
1298.736328 11176.000000
1300.449463 11083.000000
1302.161743 10839.000000
1303.872803 10741.000000
1305.582886 10672.000000
1307.291870 10737.000000
1308.999634 10635.000000
1310.706787 10519.000000
1312.412476 10573.000000
1314.117432 10388.000000
1315.821411 10517.000000
1317.524170 10803.000000
1319.225952 10806.000000
1320.926880 10821.000000
1322.626465 6889.500000
1324.325195 2958.000000
1326.023193 10274.000000
1327.719849 10191.000000
1329.415405 10115.000000
1331.110107 10098.000000
1332.803589 10077.000000
1334.496216 10135.000000
1336.187988 9855.000000
1337.878418 9993.000000
1339.568115 10023.000000
1341.256714 9885.000000
1342.944214 9798.000000
1344.630737 9838.000000
1346.316162 9794.000000
1348.000610 9822.000000
1349.684204 9977.000000
1351.366577 9971.000000
1353.047974 10003.000000
1354.728516 10056.000000
1356.407837 10191.000000
1358.086548 10326.000000
1359.763916 10519.000000
1361.440186 10407.000000
1363.115479 10443.000000
1364.790039 10262.000000
1366.463379 10327.000000
1368.135742 10363.000000
1369.807129 10341.000000
1371.477539 10122.000000
1373.146851 10169.000000
1374.815186 10186.000000
1376.482666 10175.000000
1378.149048 10162.000000
1379.814453 10141.000000
1381.478882 10010.000000
1383.142090 10095.000000
1384.804688 9827.000000
1386.465942 9852.000000
1388.126343 9803.000000
1389.785645 9687.000000
1391.443970 9581.000000
1393.101563 9682.000000
1394.757935 9756.000000
1396.413452 9661.000000
1398.067749 9731.000000
1399.721191 9710.000000
1401.373535 9736.000000
1403.025146 9800.000000
1404.675537 9597.000000
1406.324829 9366.000000
1407.973389 9167.000000
1409.620850 9228.000000
1411.267334 9113.000000
1412.912964 8943.000000
1414.557617 8983.000000
1416.201050 9117.000000
1417.843628 8748.000000
1419.485107 8773.000000
1421.125732 8806.000000
1422.765381 8850.000000
1424.403931 8766.000000
1426.041626 8799.000000
1427.678223 8690.000000
1429.313843 8757.000000
1430.948730 8624.000000
1432.582520 8717.000000
1434.215210 8793.000000
1435.846924 8588.000000
1437.477783 8670.000000
1439.107544 8576.000000
1440.736206 8686.000000
1442.364258 8638.000000
1443.991211 8580.000000
1445.616943 8603.000000
1447.242065 8600.000000
1448.866089 8841.000000
1450.489136 8865.000000
1452.111206 8955.000000
1453.732178 8874.000000
1455.352173 8992.000000
1456.971436 8914.000000
1458.589355 8998.000000
1460.206665 8703.000000
1461.822998 8712.000000
1463.438110 8808.000000
1465.052368 8745.000000
1466.665771 8881.000000
1468.278076 8930.000000
1469.889526 8892.000000
1471.500122 8821.000000
1473.109497 8727.000000
1474.717896 8721.000000
1476.325439 8817.000000
1477.932007 8927.000000
1479.537842 8783.000000
1481.142456 8659.000000
1482.746216 8621.000000
1484.348755 8457.000000
1485.950684 8174.000000
1487.551392 8159.000000
1489.151367 8142.000000
1490.750244 8001.000000
1492.348267 8034.000000
1493.945190 8036.000000
1495.541260 8283.000000
1497.136353 8576.000000
1498.730469 8446.000000
1500.323853 8612.000000
1501.916138 8516.000000
1503.507202 8454.000000
1505.097778 8337.000000
1506.687012 8241.000000
1508.275635 8184.000000
1509.863159 8101.000000
1511.449585 8008.000000
1513.035278 8223.000000
1514.619873 8002.000000
1516.203613 8081.000000
1517.786255 8030.000000
1519.368164 7871.000000
1520.948975 8098.000000
1522.529053 8001.000000
1524.107910 7786.000000
1525.685913 7712.000000
1527.263184 7722.000000
1528.839233 7676.000000
1530.414551 7607.000000
1531.988770 7512.000000
1533.562256 7616.000000
1535.134521 7540.000000
1536.706055 7640.000000
1538.276611 7526.000000
1539.846313 7420.000000
1541.414795 7580.000000
1542.982544 7384.000000
1544.549438 7417.000000
1546.115112 7321.000000
1547.680054 7392.000000
1549.243896 7264.000000
1550.807129 7401.000000
1552.369019 7221.000000
1553.930298 7334.000000
1555.490479 7336.000000
1557.049927 7345.000000
1558.608276 7435.000000
1560.165894 7134.000000
1561.722412 7208.000000
1563.277710 7181.000000
1564.832397 7106.000000
1566.386353 7270.000000
1567.939331 7203.000000
1569.490967 7287.000000
1571.041870 7234.000000
1572.592041 7259.000000
1574.141235 7247.000000
1575.689087 7294.000000
1577.236450 7295.000000
1578.782837 7147.000000
1580.328369 7262.000000
1581.872925 7193.000000
1583.416260 7244.000000
1584.958984 7293.000000
1586.500854 7247.000000
1588.041626 7220.000000
1589.581421 7162.000000
1591.120483 7172.000000
1592.658447 7078.000000
1594.195923 7046.000000
1595.732056 7091.000000
1597.267090 7113.000000
1598.801636 6984.000000
1600.335205 7023.000000
1601.867920 6944.000000
1603.399048 7038.000000
1604.929932 7077.000000
1606.459961 6951.000000
1607.988770 6829.000000
1609.516479 7017.000000
1611.043579 7004.000000
1612.569946 7150.000000
1614.095337 7085.000000
1615.619873 6959.000000
1617.143066 6997.000000
1618.665527 7065.000000
1620.187256 6964.000000
1621.708130 6979.000000
1623.227539 6710.000000
1624.746460 6861.000000
1626.264648 6785.000000
1627.781982 6808.000000
1629.298218 6763.000000
1630.813110 6723.000000
1632.327515 6646.000000
1633.841187 6550.000000
1635.353760 6780.000000
1636.865112 6654.000000
1638.376099 6623.000000
1639.885986 6628.000000
1641.395020 6628.000000
1642.902710 6536.000000
1644.410034 6517.000000
1645.916504 6573.000000
1647.421997 6515.000000
1648.926636 6413.000000
1650.429810 6387.000000
1651.932373 6418.000000
1653.434570 6442.000000
1654.935425 6294.000000
1656.435181 6251.000000
1657.934082 6262.000000
1659.432617 6181.000000
1660.929932 6303.000000
1662.426514 6185.000000
1663.921509 6338.000000
1665.416260 6115.000000
1666.910156 6030.000000
1668.403076 6167.000000
1669.894653 5459.000000
1671.385742 5928.000000
1672.876221 6009.000000
1674.365601 5901.000000
1675.853516 5933.000000
1677.341187 5971.000000
1678.827881 5973.000000
1680.313721 6115.000000
1681.798706 5898.000000
1683.282227 5822.000000
1684.765503 5810.000000
1686.247925 5731.000000
1687.729248 5731.000000
1689.209106 5736.000000
1690.688721 5705.000000
1692.167603 5817.000000
1693.645508 5789.000000
1695.122437 5645.000000
1696.598145 5660.000000
1698.073486 5634.000000
1699.547607 5714.000000
1701.021118 5806.000000
1702.493164 5769.000000
1703.964966 5732.000000
1705.435791 5867.000000
1706.905762 5732.000000
1708.374390 5728.000000
1709.842529 5750.000000
1711.309937 5747.000000
1712.776245 5785.000000
1714.241943 5625.000000
1715.705933 5760.000000
1717.169800 5764.000000
1718.632813 5727.000000
1720.094849 5690.000000
1721.555664 5606.000000
1723.015869 5720.000000
1724.475342 5661.000000
1725.933960 5662.000000
1727.391602 5697.000000
1728.847900 5716.000000
1730.303955 5721.000000
1731.759033 5694.000000
1733.213135 5692.000000
1734.666016 5591.000000
1736.118652 5632.000000
1737.570190 5622.000000
1739.020996 5516.000000
1740.470825 5516.000000
1741.919312 5511.000000
1743.367432 5448.000000
1744.814697 5464.000000
1746.261230 5461.000000
1747.706177 5415.000000
1749.150879 5447.000000
1750.594727 5336.000000
1752.037720 5341.000000
1753.479248 5301.000000
1754.920532 5407.000000
1756.360962 5063.000000
1757.800415 5219.000000
1759.238892 5211.000000
1760.676392 5258.000000
1762.113403 5039.000000
1763.549438 5042.000000
1764.984619 5134.000000
1766.418335 5202.000000
1767.851929 5324.000000
1769.284546 5258.000000
1770.716309 5329.000000
1772.147217 5192.000000
1773.576904 5152.000000
1775.005859 4923.000000
1776.434326 5016.000000
1777.861816 4893.000000
1779.287964 4615.000000
1780.713867 4844.000000
1782.138672 4994.000000
1783.562866 4916.000000
1784.985596 4869.000000
1786.407837 4870.000000
1787.829346 4845.000000
1789.250122 4700.000000
1790.669922 4815.000000
1792.088379 4838.000000
1793.506348 4799.000000
1794.923706 4734.000000
1796.340210 4776.000000
1797.755249 4734.000000
1799.169922 4688.000000
1800.583984 4770.000000
1801.996826 4676.000000
1803.409058 4704.000000
1804.819946 4576.000000
1806.230347 4579.000000
1807.640015 4596.000000
1809.048706 4712.000000
1810.456299 4712.000000
1811.863403 4656.000000
1813.269653 4783.000000
1814.674927 4563.000000
1816.079102 4764.000000
1817.482910 4659.000000
1818.885742 4663.000000
1820.287720 4609.000000
1821.689087 4715.000000
1823.088989 4640.000000
1824.488281 4597.000000
1825.887085 4678.000000
1827.285034 4610.000000
1828.681641 4546.000000
1830.077637 4588.000000
1831.472900 4462.000000
1832.867554 4552.000000
1834.261230 4576.000000
1835.653564 4576.000000
1837.045410 4628.000000
1838.436646 4572.000000
1839.826904 4552.000000
1841.215942 4475.000000
1842.604614 4580.000000
1843.992310 4512.000000
1845.379272 4463.000000
1846.764893 4496.000000
1848.150269 4387.000000
1849.534790 4468.000000
1850.918579 4380.000000
1852.301270 4462.000000
1853.682739 4427.000000
1855.063721 4363.000000
1856.444214 4315.000000
1857.823730 4205.000000
1859.201782 4284.000000
1860.579712 4283.000000
1861.956665 4185.000000
1863.332886 4242.000000
1864.708252 4231.000000
1866.082153 4081.000000
1867.455933 4166.000000
1868.828857 4037.000000
1870.200684 4111.000000
1871.571533 4018.000000
1872.942017 4099.000000
1874.311401 4053.000000
1875.680298 4165.000000
1877.047607 4167.000000
1878.414795 3989.000000
1879.781006 4082.000000
1881.146484 4009.000000
1882.511230 3934.000000
1883.874390 3986.000000
1885.237427 4051.000000
1886.599609 3992.000000
1887.960938 3921.000000
1889.320923 3828.000000
1890.680542 3905.000000
1892.039551 4010.000000
1893.397583 3816.000000
1894.754761 3882.000000
1896.110718 3853.000000
1897.466431 3810.000000
1898.821167 3889.000000
1900.175049 3856.000000
1901.527832 3784.000000
1902.880127 3806.000000
1904.231689 3851.000000
1905.582397 3854.000000
1906.931885 3803.000000
1908.280884 3756.000000
1909.629028 3883.000000
1910.976563 3694.000000
1912.323364 3751.000000
1913.668579 3937.000000
1915.013550 3881.000000
1916.357788 3853.000000
1917.701172 3883.000000
1919.043213 3846.000000
1920.385010 3839.000000
1921.725952 3710.000000
1923.066162 3746.000000
1924.405396 3910.000000
1925.743652 3892.000000
1927.081299 3870.000000
1928.418213 3756.000000
1929.754272 3847.000000
1931.089111 3820.000000
1932.423584 3661.000000
1933.757324 3787.000000
1935.090210 3772.000000
1936.421631 3673.000000
1937.753174 3664.000000
1939.083374 3634.000000
1940.413086 3766.000000
1941.741943 3684.000000
1943.069580 3683.000000
1944.396729 3716.000000
1945.723145 3669.000000
1947.048828 3684.000000
1948.373169 3623.000000
1949.697266 3710.000000
1951.020508 3605.000000
1952.343018 3557.000000
1953.664429 3607.000000
1954.984863 3603.000000
1956.304688 3511.000000
1957.624146 3521.000000
1958.942627 3401.000000
1960.259766 3423.000000
1961.576538 3569.000000
1962.892578 3454.000000
1964.207886 3557.000000
1965.521729 3398.000000
1966.835327 3541.000000
1968.148193 3427.000000
1969.460205 3433.000000
1970.771606 3357.000000
1972.081665 3415.000000
1973.391235 3431.000000
1974.700073 3363.000000
1976.008301 3318.000000
1977.315186 3277.000000
1978.621460 3338.000000
1979.927368 3330.000000
1981.232056 3330.000000
1982.536255 3324.000000
1983.839233 3291.000000
1985.141846 3203.000000
1986.443481 3261.000000
1987.744507 3252.000000
1989.043945 3212.000000
1990.343506 3126.000000
1991.641968 3185.000000
1992.939941 3127.000000
1994.236328 3189.000000
1995.532715 3203.000000
1996.828125 3052.000000
1998.122803 3149.000000
1999.416626 3074.000000
2000.709229 2945.000000
2002.001343 2958.000000
2003.292969 2979.000000
2004.583862 2910.000000
2005.873169 3007.000000
2007.162231 3018.000000
2008.450562 3024.000000
2009.738159 2966.000000
2011.024902 2952.000000
2012.310547 2970.000000
2013.595825 2956.000000
2014.880127 3064.000000
2016.163818 2915.000000
2017.446167 2895.000000
2018.728149 2809.000000
2020.009644 2983.000000
2021.290161 2927.000000
2022.569946 2969.000000
2023.848633 2910.000000
2025.126587 2902.000000
2026.404053 2950.000000
2027.680908 2809.000000
2028.956055 2998.000000
2030.231323 3065.000000
2031.505615 2867.000000
2032.778931 2931.000000
2034.051392 2933.000000
2035.323486 2992.000000
2036.594482 3033.000000
2037.865234 2798.000000
2039.134644 2918.000000
2040.402954 2771.000000
2041.671265 2912.000000
2042.938599 2786.000000
2044.205200 2791.000000
2045.470581 2824.000000
2046.735352 2986.000000
2047.999878 2888.000000
2049.263184 2859.000000
2050.526123 2867.000000
2051.787109 2803.000000
2053.048584 2844.000000
2054.308838 2804.000000
2055.568359 2625.000000
2056.827148 2746.000000
2058.084961 2866.000000
2059.342285 2744.000000
2060.598877 2880.000000
2061.854004 2735.000000
2063.109131 2735.000000
2064.363281 2821.000000
2065.616699 2716.000000
2066.869385 2655.000000
2068.120850 2670.000000
2069.372070 2730.000000
2070.622559 2751.000000
2071.872314 2883.000000
2073.120605 2410.000000
2074.368896 2633.000000
2075.616211 2648.000000
2076.862793 2674.000000
2078.108643 2667.000000
2079.353271 2688.000000
2080.597412 2715.000000
2081.841064 2720.000000
2083.083740 2587.000000
2084.325195 2539.000000
2085.566406 2668.000000
2086.807129 2478.000000
2088.046875 2587.000000
2089.285400 2550.000000
2090.523438 2562.000000
2091.760742 2433.000000
2092.997803 2463.000000
2094.233398 2533.000000
2095.468262 2560.000000
2096.702881 2529.000000
2097.936523 2458.000000
2099.169189 2526.000000
2100.401123 2365.000000
2101.632568 2477.000000
2102.863037 2511.000000
2104.092773 2437.000000
2105.322266 2508.000000
2106.549805 2379.000000
2107.777588 2393.000000
2109.004639 2359.000000
2110.230713 2443.000000
2111.455322 2344.000000
2112.680176 2251.000000
2113.903809 2410.000000
2115.126953 2437.000000
2116.348877 2365.000000
2117.570557 2376.000000
2118.791260 2378.000000
2120.011230 2381.000000
2121.230713 2414.000000
2122.448730 2287.000000
2123.666748 2324.000000
2124.883789 2333.000000
2126.100342 2411.000000
2127.315186 2363.000000
2128.530273 2311.000000
2129.744385 2295.000000
2130.957764 2390.000000
2132.170410 2262.000000
2133.381592 2250.000000
2134.593018 2415.000000
2135.803223 2382.000000
2137.012939 2323.000000
2138.221191 2332.000000
2139.429443 2329.000000
2140.636963 2310.000000
2141.843262 2260.000000
2143.048828 2286.000000
2144.254150 2260.000000
2145.458496 2165.000000
2146.662109 2283.000000
2147.865234 2308.000000
2149.066895 2243.000000
2150.268311 2284.000000
2151.468994 2282.000000
2152.668945 2338.000000
2153.867676 2252.000000
2155.066162 2367.000000
2156.264160 2335.000000
2157.461182 2167.000000
2158.657471 2148.000000
2159.852539 2192.000000
2161.047363 2125.000000
2162.241455 2134.000000
2163.434570 2234.000000
2164.626709 2176.000000
2165.818604 2068.000000
2167.009766 2095.000000
2168.199951 1972.000000
2169.389404 2057.000000
2170.578369 1947.000000
2171.766357 2012.000000
2172.954102 1999.000000
2174.140381 1971.000000
2175.325928 2009.000000
2176.511230 1846.000000
2177.696045 2037.000000
2178.879639 1898.000000
2180.062500 1902.000000
2181.244385 2059.000000
2182.426025 2004.000000
2183.607178 2074.000000
2184.787109 1996.000000
2185.966064 1961.000000
2187.144531 1889.000000
2188.322754 1868.000000
2189.499756 1941.000000
2190.675781 1892.000000
2191.851563 2002.000000
2193.026855 1965.000000
2194.200684 1936.000000
2195.374023 1926.000000
2196.547119 1876.000000
2197.718994 1860.000000
2198.890381 2039.000000
2200.061279 1897.000000
2201.230469 1980.000000
2202.399658 1880.000000
2203.568359 1884.000000
2204.736084 1895.000000
2205.902832 1874.000000
2207.068848 1951.000000
2208.234375 1853.000000
2209.399658 1912.000000
2210.563477 1918.000000
2211.726807 1931.000000
2212.888916 1930.000000
2214.051270 1886.000000
2215.212402 1904.000000
2216.372559 1921.000000
2217.532227 1902.000000
2218.691650 1743.000000
2219.849854 1929.000000
2221.007080 1892.000000
2222.164063 1822.000000
2223.320313 1847.000000
2224.475830 1750.000000
2225.630615 1770.000000
2226.784424 1825.000000
2227.937256 1775.000000
2229.090576 1849.000000
2230.241943 1815.000000
2231.393066 1791.000000
2232.543457 1763.000000
2233.693359 1746.000000
2234.842285 1847.000000
2235.990723 1790.000000
2237.137695 1825.000000
2238.284912 1669.000000
2239.430908 1728.000000
2240.576660 1690.000000
2241.720703 1693.000000
2242.864990 1654.000000
2244.008301 1670.000000
2245.150879 1692.000000
2246.292480 1636.000000
2247.433838 1559.000000
2248.574219 1653.000000
2249.713867 1584.000000
2250.853027 1605.000000
2251.990967 1608.000000
2253.128906 1622.000000
2254.265869 1469.000000
2255.402100 1523.000000
2256.537354 1641.000000
2257.671875 1572.000000
2258.806152 1516.000000
2259.939941 1642.000000
2261.072266 1559.000000
2262.204102 1518.000000
2263.335449 1509.000000
2264.465820 1491.000000
2265.595947 1521.000000
2266.724854 1550.000000
2267.853271 1483.000000
2268.981201 1571.000000
2270.108154 1433.000000
2271.234375 1459.000000
2272.359619 1503.000000
2273.484863 1537.000000
2274.609375 1451.000000
2275.732666 1474.000000
2276.855225 1498.000000
2277.977295 1521.000000
2279.098877 1441.000000
2280.219727 1454.000000
2281.339355 1539.000000
2282.458496 1460.000000
2283.577393 1429.000000
2284.695557 1450.000000
2285.812744 1468.000000
2286.928955 1381.000000
2288.044922 1412.000000
2289.160156 1435.000000
2290.274658 1465.000000
2291.387939 1557.000000
2292.501221 1470.000000
2293.613770 1400.000000
2294.725586 1489.000000
2295.836670 1419.000000
2296.946533 1439.000000
2298.055908 1468.000000
2299.165039 1468.000000
2300.273193 1474.000000
2301.380371 1393.000000
2302.487305 1495.000000
2303.593506 1476.000000
2304.699219 1345.000000
2305.803467 1452.000000
2306.907471 1373.000000
2308.010986 1399.000000
2309.114014 1445.000000
2310.215820 1433.000000
2311.316895 1396.000000
2312.417480 1387.000000
2313.517578 1389.000000
2314.616943 1379.000000
2315.714844 1423.000000
2316.813232 1392.000000
2317.910156 1358.000000
2319.006836 1326.000000
2320.103027 1394.000000
2321.197510 1402.000000
2322.291992 1311.000000
2323.385742 1353.000000
2324.479248 1309.000000
2325.571045 1387.000000
2326.662842 1321.000000
2327.753906 1381.000000
2328.844238 1502.000000
2329.933594 1570.000000
2331.022949 1421.000000
2332.111084 1447.000000
2333.198730 1310.000000
2334.286133 1384.000000
2335.371826 1332.000000
2336.457275 1377.000000
2337.542480 1321.000000
2338.626709 1288.000000
2339.709961 1276.000000
2340.792969 1256.000000
2341.875000 1449.000000
2342.956787 1281.000000
2344.037842 1268.000000
2345.117676 1195.000000
2346.197021 1267.000000
2347.275879 1182.000000
2348.354248 1213.000000
2349.431152 1200.000000
2350.507813 1145.000000
2351.584229 1238.000000
2352.659668 1279.000000
2353.734131 1254.000000
2354.808350 1161.000000
2355.881836 1265.000000
2356.954834 1160.000000
2358.026611 1158.000000
2359.098145 1148.000000
2360.168701 1142.000000
2361.239014 1138.000000
2362.308350 1240.000000
2363.376709 1063.000000
2364.444824 1069.000000
2365.512207 1092.000000
2366.579102 1161.000000
2367.645264 1049.000000
2368.710205 1157.000000
2369.775146 1126.000000
2370.839355 1015.000000
2371.902832 1154.000000
2372.965088 1111.000000
2374.027344 1091.000000
2375.088623 1111.000000
2376.149658 1175.000000
2377.209473 1040.000000
2378.268555 1063.000000
2379.327637 1154.000000
2380.385742 1030.000000
2381.443115 1002.000000
2382.499512 1065.000000
2383.555664 1150.000000
2384.611328 1048.000000
2385.666260 1059.000000
2386.719727 1052.000000
2387.773438 1102.000000
2388.826172 1109.000000
2389.878418 1013.000000
2390.929932 1175.000000
2391.980469 1061.000000
2393.030762 1044.000000
2394.080078 1110.000000
2395.129395 1126.000000
2396.177246 1106.000000
2397.224609 1041.000000
2398.271729 1104.000000
2399.317871 1055.000000
2400.363281 1072.000000
2401.407959 1017.000000
2402.452637 1090.000000
2403.495850 988.000000
2404.539063 1098.000000
2405.580811 1092.000000
2406.622803 1054.000000
2407.664063 1016.000000
2408.704346 1001.000000
2409.743896 1096.000000
2410.782471 1020.000000
2411.821289 1008.000000
2412.858887 1100.000000
2413.896240 1030.000000
2414.932373 1015.000000
2415.968262 977.000000
2417.003418 955.000000
2418.038086 1016.000000
2419.071289 969.000000
2420.104736 1013.000000
2421.137207 926.000000
2422.169434 1009.000000
2423.200195 1016.000000
2424.230957 970.000000
2425.261230 986.000000
2426.290283 1068.000000
2427.319336 1033.000000
2428.346680 880.000000
2429.374512 968.000000
2430.401123 971.000000
2431.427490 892.000000
2432.452393 930.000000
2433.477539 967.000000
2434.501709 1075.000000
2435.525635 958.000000
2436.548340 929.000000
2437.570313 981.000000
2438.592041 982.000000
2439.613037 997.000000
2440.633545 924.000000
2441.652832 895.000000
2442.672119 886.000000
2443.690430 932.000000
2444.708496 898.000000
2445.725098 891.000000
2446.741699 970.000000
2447.757568 827.000000
2448.773438 915.000000
2449.787842 744.000000
2450.801514 933.000000
2451.814697 853.000000
2452.827637 903.000000
2453.839844 927.000000
2454.851074 855.000000
2455.862061 862.000000
2456.872314 885.000000
2457.882080 983.000000
2458.890869 903.000000
2459.898926 846.000000
2460.906982 893.000000
2461.913818 890.000000
2462.920410 851.000000
2463.925781 827.000000
2464.930908 867.000000
2465.935791 885.000000
2466.939453 832.000000
2467.942871 817.000000
2468.945313 789.000000
2469.947510 810.000000
2470.949219 886.000000
2471.949951 871.000000
2472.949707 973.000000
2473.949463 773.000000
2474.948242 825.000000
2475.946533 804.000000
2476.943848 754.000000
2477.940918 794.000000
2478.937988 779.000000
2479.933594 819.000000
2480.929199 804.000000
2481.923096 876.000000
2482.916992 700.000000
2483.910400 885.000000
2484.903320 822.000000
2485.895264 673.000000
2486.886475 771.000000
2487.877441 967.000000
2488.867920 802.000000
2489.857422 820.000000
2490.846191 866.000000
2491.834961 790.000000
2492.822754 785.000000
2493.809326 871.000000
2494.795898 784.000000
2495.781982 751.000000
2496.767334 868.000000
2497.751709 709.000000
2498.735840 790.000000
2499.719971 765.000000
2500.702637 789.000000
2501.684814 756.000000
2502.666504 803.000000
2503.647461 776.000000
2504.627930 769.000000
2505.608154 745.000000
2506.586914 672.000000
2507.565430 721.000000
2508.543457 804.000000
2509.520996 874.000000
2510.497559 682.000000
2511.473877 811.000000
2512.449463 815.000000
2513.424561 772.000000
2514.399170 671.000000
2515.372559 701.000000
2516.345703 706.000000
2517.318604 690.000000
2518.290527 736.000000
2519.261719 674.000000
2520.232422 745.000000
2521.202881 744.000000
2522.172607 649.000000
2523.141357 783.000000
2524.109375 747.000000
2525.077393 634.000000
2526.044434 721.000000
2527.011230 714.000000
2527.976807 690.000000
2528.942383 646.000000
2529.907227 813.000000
2530.871582 746.000000
2531.834717 637.000000
2532.798096 753.000000
2533.760498 652.000000
2534.722656 705.000000
2535.683594 744.000000
2536.643799 705.000000
2537.604248 659.000000
2538.563721 729.000000
2539.522461 694.000000
2540.480225 711.000000
2541.438232 679.000000
2542.395508 646.000000
2543.351807 643.000000
2544.307861 720.000000
2545.262695 654.000000
2546.217773 642.000000
2547.172119 745.000000
2548.125732 467.000000
2549.078369 572.000000
2550.030762 696.000000
2550.982666 703.000000
2551.933838 622.000000
2552.884277 570.000000
2553.834229 656.000000
2554.783936 580.000000
2555.732910 593.000000
2556.681396 667.000000
2557.628662 692.000000
2558.575928 644.000000
2559.522461 561.000000
2560.468506 529.000000
2561.413574 567.000000
2562.358398 688.000000
2563.302734 621.000000
2564.246582 582.000000
2565.189941 583.000000
2566.131836 659.000000
2567.073975 575.000000
2568.015381 549.000000
2568.956055 555.000000
2569.895996 509.000000
2570.835938 610.000000
2571.774902 650.000000
2572.713623 579.000000
2573.651367 566.000000
2574.588867 539.000000
2575.525635 679.000000
2576.461670 608.000000
2577.397217 629.000000
2578.332031 689.000000
2579.266846 529.000000
2580.200684 562.000000
2581.134033 553.000000
2582.066650 501.000000
2582.999023 667.000000
2583.930664 630.000000
2584.861816 544.000000
2585.792480 647.000000
2586.721924 621.000000
2587.651367 530.000000
2588.580322 540.000000
2589.509033 552.000000
2590.436035 513.000000
2591.363281 613.000000
2592.290039 593.000000
2593.216064 476.000000
2594.141846 549.000000
2595.066406 597.000000
2595.990723 475.000000
2596.914551 609.000000
2597.837891 620.000000
2598.760254 542.000000
2599.682373 537.000000
2600.604004 555.000000
2601.524902 621.000000
2602.445068 568.000000
2603.364990 581.000000
2604.284424 590.000000
2605.203613 577.000000
2606.121826 582.000000
2607.038818 520.000000
2607.956055 571.000000
2608.873047 589.000000
2609.789063 593.000000
2610.703857 541.000000
2611.619141 529.000000
2612.533691 563.000000
2613.447266 602.000000
2614.360840 438.000000
2615.273193 538.000000
2616.185547 554.000000
2617.096924 593.000000
2618.008057 563.000000
2618.918457 495.000000
2619.828613 552.000000
2620.738037 481.000000
2621.646973 591.000000
2622.554932 529.000000
2623.463135 466.000000
2624.370361 544.000000
2625.277100 549.000000
2626.183105 551.000000
2627.088867 498.000000
2627.993896 520.000000
2628.898682 589.000000
2629.802734 530.000000
2630.705811 507.000000
2631.608887 492.000000
2632.510986 535.000000
2633.413086 454.000000
2634.314941 501.000000
2635.215088 526.000000
2636.115479 548.000000
2637.015137 533.000000
2637.914551 472.000000
2638.812500 450.000000
2639.710938 452.000000
2640.608887 441.000000
2641.506104 417.000000
2642.402100 480.000000
2643.298096 460.000000
2644.193848 464.000000
2645.088867 501.000000
2645.983643 422.000000
2646.876953 404.000000
2647.770264 472.000000
2648.663330 517.000000
2649.556152 486.000000
2650.447266 448.000000
2651.338623 540.000000
2652.229492 404.000000
2653.119629 511.000000
2654.009521 456.000000
2654.898193 459.000000
2655.787109 393.000000
2656.675537 377.000000
2657.562988 395.000000
2658.449463 419.000000
2659.336426 494.000000
2660.222656 425.000000
2661.108398 461.000000
2661.992920 394.000000
2662.877441 390.000000
2663.761719 448.000000
2664.645264 426.000000
2665.528320 398.000000
2666.410645 428.000000
2667.292480 421.000000
2668.173584 404.000000
2669.054932 460.000000
2669.934814 489.000000
2670.814941 427.000000
2671.694336 406.000000
2672.573730 465.000000
2673.452393 451.000000
2674.329346 386.000000
2675.207031 470.000000
2676.083984 439.000000
2676.960205 391.000000
2677.835938 435.000000
2678.710938 508.000000
2679.586182 480.000000
2680.460449 358.000000
2681.334229 474.000000
2682.207275 401.000000
2683.080078 341.000000
2683.952637 436.000000
2684.824463 421.000000
2685.695557 297.000000
2686.566406 410.000000
2687.436768 409.000000
2688.306885 411.000000
2689.175293 367.000000
2690.044434 379.000000
2690.912842 413.000000
2691.781006 410.000000
2692.648438 354.000000
2693.514648 409.000000
2694.381348 399.000000
2695.247070 351.000000
2696.112793 385.000000
2696.977051 385.000000
2697.842041 446.000000
2698.705566 378.000000
2699.569336 366.000000
2700.431641 394.000000
2701.294434 382.000000
2702.156250 408.000000
2703.017578 364.000000
2703.878906 311.000000
2704.739014 431.000000
2705.599121 388.000000
2706.458740 432.000000
2707.318115 424.000000
2708.175781 294.000000
2709.033691 375.000000
2709.892090 333.000000
2710.749268 443.000000
2711.605713 384.000000
2712.461670 380.000000
2713.317627 321.000000
2714.172852 438.000000
2715.027344 433.000000
2715.881348 360.000000
2716.735352 419.000000
2717.588379 366.000000
2718.441650 415.000000
2719.293213 419.000000
2720.145264 316.000000
2720.997070 325.000000
2721.847656 353.000000
2722.698242 354.000000
2723.548340 407.000000
2724.397705 401.000000
2725.247070 375.000000
2726.095215 370.000000
2726.942871 407.000000
2727.791016 361.000000
2728.637939 298.000000
2729.485352 399.000000
2730.331299 488.000000
2731.176514 211.000000
2732.022217 322.000000
2732.866943 372.000000
2733.711670 363.000000
2734.555176 277.000000
2735.398926 342.000000
2736.241943 64.000000
2737.084473 383.000000
2737.926025 321.000000
2738.768066 374.000000
2739.609131 340.000000
2740.449951 372.000000
2741.290527 354.000000
2742.129883 373.000000
2742.969238 343.000000
2743.808594 220.000000
2744.646729 276.000000
2745.484375 376.000000
2746.322021 363.000000
2747.159180 302.000000
2747.996094 333.000000
2748.832520 304.000000
2749.667725 372.000000
2750.503174 286.000000
2751.338135 388.000000
2752.172363 203.000000
2753.006348 356.000000
2753.839844 320.000000
2754.673340 380.000000
2755.505859 299.000000
2756.337891 270.000000
2757.169434 340.000000
2758.000977 268.000000
2758.831543 209.000000
2759.662354 386.000000
2760.491943 280.000000
2761.321533 251.000000
2762.150879 376.000000
2762.979492 301.000000
2763.807617 332.000000
2764.635254 256.000000
2765.462891 291.000000
2766.290039 344.000000
2767.116455 311.000000
2767.942383 309.000000
2768.767822 295.000000
2769.593018 269.000000
2770.418213 257.000000
2771.242188 393.000000
2772.066162 265.000000
2772.890137 290.000000
2773.712891 307.000000
2774.535889 287.000000
2775.357666 334.000000
2776.179443 278.000000
2777.001221 379.000000
2777.822021 354.000000
2778.642090 254.000000
2779.462402 288.000000
2780.282227 264.000000
2781.102051 298.000000
2781.919922 313.000000
2782.739014 256.000000
2783.556885 293.000000
2784.374512 293.000000
2785.191650 236.000000
2786.008301 246.000000
2786.824707 175.000000
2787.640625 263.000000
2788.456299 291.000000
2789.270996 224.000000
2790.086182 232.000000
2790.900635 226.000000
2791.714600 161.000000
2792.528320 275.000000
2793.340820 260.000000
2794.153564 348.000000
2794.965820 260.000000
2795.777588 234.000000
2796.588623 274.000000
2797.400391 335.000000
2798.210938 228.000000
2799.021484 140.000000
2799.830566 305.000000
2800.640381 196.000000
2801.449463 322.000000
2802.258301 308.000000
2803.066650 288.000000
2803.874023 347.000000
2804.681885 325.000000
2805.489014 228.000000
2806.295898 333.000000
2807.101563 460.000000
2807.907715 261.000000
2808.713135 278.000000
2809.518555 264.000000
2810.323242 295.000000
2811.126953 296.000000
2811.931152 247.000000
2812.734863 304.000000
2813.538330 320.000000
2814.340332 221.000000
2815.143066 152.000000
2815.945068 234.000000
2816.746826 227.000000
2817.548096 211.000000
2818.348877 226.000000
2819.149170 169.000000
2819.949707 364.000000
2820.749268 306.000000
2821.548340 99.000000
2822.347412 260.000000
2823.146240 230.000000
2823.944580 184.000000
2824.741943 247.000000
2825.539551 186.000000
2826.336426 289.000000
2827.133545 281.000000
2827.929932 407.000000
2828.725586 207.000000
2829.521240 175.000000
2830.316650 426.000000
2831.111572 239.000000
2831.905762 278.000000
2832.699951 254.000000
2833.493896 267.000000
2834.287354 269.000000
2835.080078 214.000000
2835.872559 193.000000
2836.665039 316.000000
2837.457275 259.000000
2838.249023 249.000000
2839.039795 263.000000
2839.830566 225.000000
2840.621582 291.000000
2841.411621 310.000000
2842.201172 255.000000
2842.990967 243.000000
2843.779785 238.000000
2844.568604 246.000000
2845.357422 261.000000
2846.145264 309.000000
2846.932617 213.000000
2847.720215 160.000000
2848.507324 176.000000
2849.293701 234.000000
2850.080078 182.000000
2850.866211 253.000000
2851.651855 164.000000
2852.436523 228.000000
2853.221680 268.000000
2854.006592 179.000000
2854.790771 214.000000
2855.574951 251.000000
2856.357910 237.000000
2857.141113 125.000000
2857.924072 266.000000
2858.706543 272.000000
2859.488770 222.000000
2860.270508 281.000000
2861.052002 230.000000
2861.833740 291.000000
2862.614746 272.000000
2863.395020 232.000000
2864.175049 183.000000
2864.955078 255.000000
2865.734863 159.000000
2866.513672 256.000000
2867.292725 217.000000
2868.071289 161.000000
2868.849609 202.000000
2869.627441 235.000000
2870.405029 276.000000
2871.182373 298.000000
2871.959473 329.000000
2872.736084 228.000000
2873.512207 313.000000
2874.288330 267.000000
2875.063965 165.000000
2875.839355 246.000000
2876.614258 240.000000
2877.388916 267.000000
2878.163574 314.000000
2878.937988 358.000000
2879.711670 236.000000
2880.484619 268.000000
2881.258301 333.000000
2882.031006 256.000000
2882.803711 160.000000
2883.575684 240.000000
2884.347412 215.000000
2885.119629 177.000000
2885.890625 256.000000
2886.661133 232.000000
2887.432129 348.000000
2888.203125 282.000000
2888.973389 365.000000
2889.742676 196.000000
2890.512207 228.000000
2891.281738 180.000000
2892.050781 120.000000
2892.819336 251.000000
2893.587891 235.000000
2894.355469 179.000000
2895.123535 223.000000
2895.891113 273.000000
2896.658691 246.000000
2897.425049 177.000000
2898.192383 219.000000
2898.958496 294.000000
2899.724854 129.000000
2900.489746 228.000000
2901.255127 210.000000
2902.020996 207.000000
2902.785400 188.000000
2903.549805 133.000000
2904.314453 212.000000
2905.078125 212.000000
2905.842529 303.000000
2906.606201 184.000000
2907.369141 206.000000
2908.131836 276.000000
2908.895020 228.000000
2909.657715 182.000000
2910.419189 288.000000
2911.181152 288.000000
spectrumdark 2048
-97.049652 6188.000000
-94.422783 6188.000000
-91.797791 6058.000000
-89.174690 6410.000000
-86.553459 5822.000000
-83.934128 6207.000000
-81.316658 6001.000000
-78.701065 6408.000000
-76.087349 6192.000000
-73.475510 6013.000000
-70.865532 6095.000000
-68.257439 5962.000000
-65.651192 5976.000000
-63.046818 6028.000000
-60.444309 6118.000000
-57.843655 5602.000000
-55.244862 6256.000000
-52.647926 6832.000000
-50.052845 6441.000000
-47.459618 6497.000000
-44.868240 6289.000000
-42.278709 6712.000000
-39.691021 5861.000000
-37.105183 6063.000000
-34.521187 6442.000000
-31.939030 5751.000000
-29.358717 6348.000000
-26.780231 5699.000000
-24.203588 6182.000000
-21.628771 6237.000000
-19.055794 6483.000000
-16.484636 6480.000000
-13.915313 6770.000000
-11.347815 7732.000000
-8.782135 6238.000000
-6.218281 6418.000000
-3.656240 5913.000000
-1.096025 5821.000000
1.462384 6265.000000
4.018970 6936.000000
6.573752 6632.000000
9.126718 6022.000000
11.677882 6731.000000
14.227234 6414.000000
16.774790 6632.000000
19.320534 5985.000000
21.864485 5773.000000
24.406631 6670.000000
26.946981 6793.000000
29.485546 6848.000000
32.022316 6178.000000
34.557281 5750.000000
37.090469 7220.000000
39.621876 6327.000000
42.151489 7064.000000
44.679306 6512.000000
47.205364 7836.000000
49.729633 5685.000000
52.252132 6271.000000
54.772835 6729.000000
57.291782 6320.000000
59.808956 6445.000000
62.324352 6631.000000
64.837967 5642.000000
67.349831 5686.000000
69.859947 6500.000000
72.368271 6551.000000
74.874840 5906.000000
77.379662 6281.000000
79.882729 6444.000000
82.384018 6240.000000
84.883568 6119.000000
87.381363 6321.000000
89.877426 5706.000000
92.371712 7176.000000
94.864258 5856.000000
97.355087 6907.000000
99.844147 7171.000000
102.331459 6356.000000
104.817047 6192.000000
107.300896 6380.000000
109.782997 5743.000000
112.263374 6718.000000
114.742027 6172.000000
117.218956 6445.000000
119.694130 7193.000000
122.167595 6822.000000
124.639328 5893.000000
127.109352 6732.000000
129.577621 6175.000000
132.044220 6254.000000
134.509064 5768.000000
136.972214 6194.000000
139.433624 7292.000000
141.893341 6915.000000
144.351334 6357.000000
146.807632 6012.000000
149.262222 5773.000000
151.715088 6836.000000
154.166275 6371.000000
156.615768 6646.000000
159.063538 6092.000000
161.509598 6695.000000
163.953979 8721.000000
166.396683 6503.000000
168.837692 6804.000000
171.276993 6221.000000
173.714584 7210.000000
176.150543 6619.000000
178.584763 6943.000000
181.017303 7208.000000
183.448196 6662.000000
185.877365 7129.000000
188.304886 6667.000000
190.730728 6278.000000
193.154892 6672.000000
195.577393 7168.000000
197.998199 7339.000000
200.417343 6503.000000
202.834824 6032.000000
205.250610 7617.000000
207.664749 7176.000000
210.077255 6358.000000
212.488083 6090.000000
214.897232 6216.000000
217.304749 7451.000000
219.710556 6141.000000
222.114777 6544.000000
224.517288 6709.000000
226.918182 6889.000000
229.317429 6471.000000
231.715012 6843.000000
234.110931 7292.000000
236.505234 6511.000000
238.897873 6163.000000
241.288895 6895.000000
243.678253 6506.000000
246.065994 6309.000000
248.452087 6967.000000
250.836548 6155.000000
253.219360 7838.000000
255.600601 6608.000000
257.980133 6703.000000
260.358093 6506.000000
262.734375 7571.000000
265.109100 7601.000000
267.482178 7809.000000
269.853607 6198.000000
272.223389 6456.000000
274.591614 5862.000000
276.958191 6310.000000
279.323181 6490.000000
281.686554 6001.000000
284.048279 6216.000000
286.408417 7140.000000
288.766937 6053.000000
291.123871 6528.000000
293.479187 6383.000000
295.832916 5969.000000
298.184998 6012.000000
300.535522 6339.000000
302.884460 6360.000000
305.231750 6846.000000
307.577515 6323.000000
309.921600 6484.000000
312.264160 7375.000000
314.605103 7568.000000
316.944427 7128.000000
319.282196 6986.000000
321.618408 8100.000000
323.952972 6270.000000
326.285980 6492.000000
328.617432 6021.000000
330.947296 6561.000000
333.275574 6385.000000
335.602234 7248.000000
337.927399 6372.000000
340.250946 6211.000000
342.572937 6051.000000
344.893372 7567.000000
347.212189 7701.000000
349.529449 6028.000000
351.845184 5855.000000
354.159332 6931.000000
356.471893 6311.000000
358.782898 6239.000000
361.092377 7084.000000
363.400330 6306.000000
365.706665 5679.000000
368.011414 6459.000000
370.314697 6402.000000
372.616364 6340.000000
374.916534 6320.000000
377.215149 6319.000000
379.512207 5683.000000
381.807709 6049.000000
384.101685 5880.000000
386.394073 5237.000000
388.684967 5587.000000
390.974335 6222.000000
393.262115 6270.000000
395.548370 6536.000000
397.833130 7002.000000
400.116272 6090.000000
402.397980 6412.000000
404.678162 6176.000000
406.956757 7289.000000
409.233826 6492.000000
411.509369 6716.000000
413.783386 6553.000000
416.055969 6448.000000
418.326935 6451.000000
420.596405 6532.000000
422.864380 7188.000000
425.130798 7231.000000
427.395721 6297.000000
429.659180 6283.000000
431.921051 6464.000000
434.181458 5929.000000
436.440308 6667.000000
438.697693 6150.000000
440.953583 5678.000000
443.207977 5809.000000
445.460846 5450.000000
447.712158 6939.000000
449.962067 6136.000000
452.210388 6249.000000
454.457275 5702.000000
456.702698 6509.000000
458.946564 6474.000000
461.188934 6445.000000
463.429810 5635.000000
465.669281 6701.000000
467.907166 5458.000000
470.143616 5889.000000
472.378540 6110.000000
474.612000 7146.000000
476.844025 6738.000000
479.074524 5657.000000
481.303528 6410.000000
483.531067 6368.000000
485.757111 5925.000000
487.981720 6533.000000
490.204865 5846.000000
492.426544 6385.000000
494.646667 6728.000000
496.865387 5687.000000
499.082611 6307.000000
501.298462 5541.000000
503.512695 6163.000000
505.725616 6416.000000
507.936951 6431.000000
510.146851 6918.000000
512.355347 6470.000000
514.562439 6574.000000
516.767944 6412.000000
518.972046 6566.000000
521.174622 6208.000000
523.375793 6577.000000
525.575623 6620.000000
527.773926 6937.000000
529.970703 5300.000000
532.166138 5841.000000
534.360046 5603.000000
536.552612 7521.000000
538.743652 6626.000000
540.933289 5993.000000
543.121521 6899.000000
545.308228 7167.000000
547.493469 6783.000000
549.677429 6144.000000
551.859802 6351.000000
554.040833 6155.000000
556.220337 6034.000000
558.398560 5835.000000
560.575256 6044.000000
562.750549 6362.000000
564.924438 6458.000000
567.096863 5845.000000
569.267883 6027.000000
571.437439 6277.000000
573.605713 5264.000000
575.772461 6436.000000
577.937744 6219.000000
580.101624 6135.000000
582.264221 5742.000000
584.425293 6024.000000
586.584961 5677.000000
588.743286 5750.000000
590.900085 6158.000000
593.055542 6588.000000
595.209595 5760.000000
597.362305 6094.000000
599.513489 7292.000000
601.663330 6800.000000
603.811829 6641.000000
605.958740 5996.000000
608.104431 6488.000000
610.248718 6456.000000
612.391541 7016.000000
614.532898 6139.000000
616.673035 6397.000000
618.811646 7685.000000
620.948975 5685.000000
623.084839 6633.000000
625.219299 6867.000000
627.352295 7246.000000
629.484131 6622.000000
631.614502 6575.000000
633.743469 6766.000000
635.870972 6499.000000
637.997192 6180.000000
640.121887 7332.000000
642.245361 6322.000000
644.367493 6777.000000
646.488159 6815.000000
648.607483 6521.000000
650.725403 5688.000000
652.841980 5672.000000
654.957153 6514.000000
657.070984 6410.000000
659.183350 5811.000000
661.294495 6061.000000
663.404236 5413.000000
665.512512 6032.000000
667.619629 6297.000000
669.725281 6827.000000
671.829468 5914.000000
673.932434 5707.000000
676.033997 6973.000000
678.134216 5342.000000
680.233032 6734.000000
682.330505 6148.000000
684.426697 7034.000000
686.521423 6283.000000
688.614929 7028.000000
690.707092 6645.000000
692.797729 8040.000000
694.887146 6673.000000
696.975281 6431.000000
699.061951 6008.000000
701.147400 6751.000000
703.231323 5080.000000
705.314026 5883.000000
707.395447 5906.000000
709.475403 7581.000000
711.554138 6219.000000
713.631409 5576.000000
715.707397 6551.000000
717.782104 6092.000000
719.855530 7066.000000
721.927429 6259.000000
723.998169 7385.000000
726.067566 5750.000000
728.135559 6449.000000
730.202209 6392.000000
732.267639 7087.000000
734.331726 5794.000000
736.394470 6165.000000
738.455872 6531.000000
740.515991 6597.000000
742.574707 6015.000000
744.632202 6652.000000
746.688416 6679.000000
748.743225 6647.000000
750.796753 6391.000000
752.848877 7515.000000
754.899780 5768.000000
756.949463 6743.000000
758.997681 6330.000000
761.044678 6134.000000
763.090393 7083.000000
765.134705 5341.000000
767.177734 5758.000000
769.219543 14972.000000
771.260010 7020.000000
773.299072 6334.000000
775.336975 6122.000000
777.373535 5977.000000
779.408875 5388.000000
781.442871 5745.000000
783.475464 6921.000000
785.506897 5565.000000
787.536926 12175.000000
789.565674 6009.000000
791.593262 6247.000000
793.619507 6435.000000
795.644348 5806.000000
797.668091 5519.000000
799.690430 6323.000000
801.711548 5834.000000
803.731323 6667.000000
805.749817 4928.000000
807.767090 6798.000000
809.782959 6890.000000
811.797668 5713.000000
813.811035 6390.000000
815.823181 6320.000000
817.834106 6084.000000
819.843689 6489.000000
821.852051 5303.000000
823.859009 5709.000000
825.864746 6056.000000
827.869263 5757.000000
829.872498 5646.000000
831.874451 6510.000000
833.875122 6047.000000
835.874573 5900.000000
837.872681 6286.000000
839.869690 6965.000000
841.865295 6268.000000
843.859741 5970.000000
845.852844 6160.000000
847.844727 6796.000000
849.835266 5618.000000
851.824524 6841.000000
853.812744 5972.000000
855.799561 5829.000000
857.785156 6480.000000
859.769470 7249.000000
861.752686 6359.000000
863.734497 6421.000000
865.715088 5862.000000
867.694397 7780.000000
869.672546 7023.000000
871.649353 6126.000000
873.624878 6210.000000
875.599365 6180.000000
877.572388 6056.000000
879.544373 5427.000000
881.515015 6405.000000
883.484497 6128.000000
885.452637 5568.000000
887.419617 5224.000000
889.385254 6162.000000
891.349731 5807.000000
893.312988 5989.000000
895.275024 6545.000000
897.235779 5840.000000
899.195313 6408.000000
901.153564 6667.000000
903.110718 6363.000000
905.066711 6026.000000
907.021301 6900.000000
908.974670 6465.000000
910.926880 6446.000000
912.877869 6394.000000
914.827576 7072.000000
916.776123 6277.000000
918.723450 6146.000000
920.669495 6097.000000
922.614258 6036.000000
924.557983 6337.000000
926.500549 5934.000000
928.441833 5588.000000
930.381775 6479.000000
932.320618 5673.000000
934.258179 5531.000000
936.194519 5960.000000
938.129700 5784.000000
940.063599 6083.000000
941.996399 5846.000000
943.927979 6826.000000
945.858398 5220.000000
947.787598 6397.000000
949.715454 7066.000000
951.642273 6568.000000
953.567810 6008.000000
955.492065 5409.000000
957.415222 5990.000000
959.337219 6753.000000
961.257935 7248.000000
963.177490 6433.000000
965.095886 5275.000000
967.013245 6437.000000
968.929138 6399.000000
970.843933 6128.000000
972.757507 5939.000000
974.669922 6450.000000
976.581116 6479.000000
978.491150 5463.000000
980.399902 6212.000000
982.307617 6099.000000
984.214111 6352.000000
986.119385 5691.000000
988.023560 6787.000000
989.926514 6213.000000
991.828247 6746.000000
993.728821 6544.000000
995.628235 6663.000000
997.526428 5251.000000
999.423462 6447.000000
1001.319275 6548.000000
1003.213928 7629.000000
1005.107483 5550.000000
1006.999756 6958.000000
1008.891113 6102.000000
1010.781128 5388.000000
1012.669922 6586.000000
1014.557556 6292.000000
1016.444031 6932.000000
1018.329346 6717.000000
1020.213501 5952.000000
1022.096436 5901.000000
1023.978333 6277.000000
1025.858887 5220.000000
1027.738403 5866.000000
1029.616943 6093.000000
1031.494141 5427.000000
1033.369995 6214.000000
1035.244873 5865.000000
1037.118774 6609.000000
1038.991211 7023.000000
1040.862671 6694.000000
1042.732788 5529.000000
1044.601929 5483.000000
1046.469849 5770.000000
1048.336670 7066.000000
1050.202393 6717.000000
1052.066895 6475.000000
1053.930298 6455.000000
1055.792358 6452.000000
1057.653442 5944.000000
1059.513428 6502.000000
1061.372070 6699.000000
1063.229614 5903.000000
1065.086060 6720.000000
1066.941406 5956.000000
1068.795532 5773.000000
1070.648804 6250.000000
1072.500610 6367.000000
1074.351440 6140.000000
1076.201050 6156.000000
1078.049438 5779.000000
1079.896973 8009.000000
1081.743164 5642.000000
1083.588135 6201.000000
1085.432251 5473.000000
1087.275024 5519.000000
1089.116577 6523.000000
1090.957397 5409.000000
1092.796631 5814.000000
1094.635132 6014.000000
1096.472290 6035.000000
1098.308228 6822.000000
1100.143188 6594.000000
1101.976929 5472.000000
1103.809692 5713.000000
1105.641113 6151.000000
1107.471680 7264.000000
1109.300903 6557.000000
1111.129150 6472.000000
1112.956177 7115.000000
1114.782227 5451.000000
1116.607056 6269.000000
1118.430786 7099.000000
1120.253296 6056.000000
1122.074707 5862.000000
1123.895264 5931.000000
1125.714355 6562.000000
1127.532593 7019.000000
1129.349487 6885.000000
1131.165527 6692.000000
1132.980347 6499.000000
1134.794067 5609.000000
1136.606689 5802.000000
1138.418091 5706.000000
1140.228516 6088.000000
1142.037842 6750.000000
1143.845825 6987.000000
1145.653076 5949.000000
1147.458862 5957.000000
1149.263794 5381.000000
1151.067627 5401.000000
1152.870239 6086.000000
1154.671997 6147.000000
1156.472290 6062.000000
1158.271606 6126.000000
1160.069946 5883.000000
1161.866943 5464.000000
1163.663208 5914.000000
1165.458130 6108.000000
1167.251953 6349.000000
1169.044922 7722.000000
1170.836548 5805.000000
1172.627197 6489.000000
1174.416870 5964.000000
1176.205078 5810.000000
1177.992432 7469.000000
1179.778687 6842.000000
1181.563843 5783.000000
1183.347900 5988.000000
1185.130859 7689.000000
1186.912842 5858.000000
1188.693604 5904.000000
1190.473389 6355.000000
1192.252075 6920.000000
1194.029785 6698.000000
1195.806274 7157.000000
1197.581665 6553.000000
1199.355957 6490.000000
1201.129150 6840.000000
1202.901489 6456.000000
1204.672485 6722.000000
1206.442627 5679.000000
1208.211548 6165.000000
1209.979370 6317.000000
1211.746338 5877.000000
1213.511963 5884.000000
1215.276611 6975.000000
1217.040161 6547.000000
1218.802612 5915.000000
1220.564209 6726.000000
1222.324585 5905.000000
1224.083862 6282.000000
1225.842285 6050.000000
1227.599487 7258.000000
1229.355591 6560.000000
1231.110596 5527.000000
1232.864746 5989.000000
1234.617554 5836.000000
1236.369385 6056.000000
1238.120361 5940.000000
1239.869995 4882.000000
1241.618774 7066.000000
1243.366211 6493.000000
1245.112915 6593.000000
1246.858398 6505.000000
1248.603027 6420.000000
1250.346313 6733.000000
1252.088623 6667.000000
1253.829834 5354.000000
1255.570190 5139.000000
1257.309448 5788.000000
1259.047485 6570.000000
1260.784668 7183.000000
1262.520630 6172.000000
1264.255615 6391.000000
1265.989624 7253.000000
1267.722656 5917.000000
1269.454468 6230.000000
1271.185303 6360.000000
1272.914917 7198.000000
1274.643677 5946.000000
1276.371338 5722.000000
1278.097900 5509.000000
1279.823608 5529.000000
1281.547974 6505.000000
1283.271484 5208.000000
1284.994019 6896.000000
1286.715576 6623.000000
1288.435913 6318.000000
1290.155273 6682.000000
1291.873535 7308.000000
1293.590820 6444.000000
1295.307129 5722.000000
1297.022217 6281.000000
1298.736328 6204.000000
1300.449463 5773.000000
1302.161743 6480.000000
1303.872803 8348.000000
1305.582886 5258.000000
1307.291870 6280.000000
1308.999634 6670.000000
1310.706787 7052.000000
1312.412476 5813.000000
1314.117432 6877.000000
1315.821411 6141.000000
1317.524170 6008.000000
1319.225952 6624.000000
1320.926880 6115.000000
1322.626465 18736.500000
1324.325195 31358.000000
1326.023193 5580.000000
1327.719849 6497.000000
1329.415405 7182.000000
1331.110107 6869.000000
1332.803589 5736.000000
1334.496216 5405.000000
1336.187988 7462.000000
1337.878418 6257.000000
1339.568115 6563.000000
1341.256714 6101.000000
1342.944214 7643.000000
1344.630737 5672.000000
1346.316162 6722.000000
1348.000610 5954.000000
1349.684204 7211.000000
1351.366577 6327.000000
1353.047974 6001.000000
1354.728516 6593.000000
1356.407837 6725.000000
1358.086548 5887.000000
1359.763916 6450.000000
1361.440186 5798.000000
1363.115479 5555.000000
1364.790039 6679.000000
1366.463379 6535.000000
1368.135742 6800.000000
1369.807129 5153.000000
1371.477539 6830.000000
1373.146851 6230.000000
1374.815186 5674.000000
1376.482666 5988.000000
1378.149048 6519.000000
1379.814453 6144.000000
1381.478882 5888.000000
1383.142090 5885.000000
1384.804688 5752.000000
1386.465942 6451.000000
1388.126343 6544.000000
1389.785645 6441.000000
1391.443970 6547.000000
1393.101563 6868.000000
1394.757935 6447.000000
1396.413452 7013.000000
1398.067749 6294.000000
1399.721191 5871.000000
1401.373535 6148.000000
1403.025146 6435.000000
1404.675537 7159.000000
1406.324829 6300.000000
1407.973389 7527.000000
1409.620850 7828.000000
1411.267334 6246.000000
1412.912964 6230.000000
1414.557617 5993.000000
1416.201050 6931.000000
1417.843628 7193.000000
1419.485107 6881.000000
1421.125732 6524.000000
1422.765381 6478.000000
1424.403931 6067.000000
1426.041626 6579.000000
1427.678223 6362.000000
1429.313843 6008.000000
1430.948730 6473.000000
1432.582520 5874.000000
1434.215210 6167.000000
1435.846924 5689.000000
1437.477783 6128.000000
1439.107544 6138.000000
1440.736206 7777.000000
1442.364258 5959.000000
1443.991211 6242.000000
1445.616943 6229.000000
1447.242065 6188.000000
1448.866089 6526.000000
1450.489136 5998.000000
1452.111206 6041.000000
1453.732178 7411.000000
1455.352173 6296.000000
1456.971436 6929.000000
1458.589355 5697.000000
1460.206665 14314.000000
1461.822998 5566.000000
1463.438110 7228.000000
1465.052368 6366.000000
1466.665771 5154.000000
1468.278076 5577.000000
1469.889526 6349.000000
1471.500122 6344.000000
1473.109497 5992.000000
1474.717896 5989.000000
1476.325439 6142.000000
1477.932007 6635.000000
1479.537842 5308.000000
1481.142456 6256.000000
1482.746216 5479.000000
1484.348755 6669.000000
1485.950684 5530.000000
1487.551392 5452.000000
1489.151367 5584.000000
1490.750244 6251.000000
1492.348267 6594.000000
1493.945190 6632.000000
1495.541260 6352.000000
1497.136353 6036.000000
1498.730469 5502.000000
1500.323853 6549.000000
1501.916138 5453.000000
1503.507202 6153.000000
1505.097778 6796.000000
1506.687012 6460.000000
1508.275635 6139.000000
1509.863159 6550.000000
1511.449585 6903.000000
1513.035278 6096.000000
1514.619873 6624.000000
1516.203613 6358.000000
1517.786255 6128.000000
1519.368164 6691.000000
1520.948975 6653.000000
1522.529053 6028.000000
1524.107910 6245.000000
1525.685913 6412.000000
1527.263184 6323.000000
1528.839233 5650.000000
1530.414551 5892.000000
1531.988770 6334.000000
1533.562256 5469.000000
1535.134521 5959.000000
1536.706055 6377.000000
1538.276611 6444.000000
1539.846313 6313.000000
1541.414795 5459.000000
1542.982544 6618.000000
1544.549438 5622.000000
1546.115112 6860.000000
1547.680054 5970.000000
1549.243896 5055.000000
1550.807129 7416.000000
1552.369019 6373.000000
1553.930298 5968.000000
1555.490479 5705.000000
1557.049927 5746.000000
1558.608276 5856.000000
1560.165894 6279.000000
1561.722412 7041.000000
1563.277710 5934.000000
1564.832397 6376.000000
1566.386353 5625.000000
1567.939331 6323.000000
1569.490967 5671.000000
1571.041870 5948.000000
1572.592041 6197.000000
1574.141235 6347.000000
1575.689087 5778.000000
1577.236450 5486.000000
1578.782837 5681.000000
1580.328369 5126.000000
1581.872925 6655.000000
1583.416260 6360.000000
1584.958984 6561.000000
1586.500854 6394.000000
1588.041626 6660.000000
1589.581421 5850.000000
1591.120483 6648.000000
1592.658447 5895.000000
1594.195923 6128.000000
1595.732056 5973.000000
1597.267090 6724.000000
1598.801636 6224.000000
1600.335205 5975.000000
1601.867920 6237.000000
1603.399048 6351.000000
1604.929932 6273.000000
1606.459961 5785.000000
1607.988770 6151.000000
1609.516479 6162.000000
1611.043579 5983.000000
1612.569946 5819.000000
1614.095337 6235.000000
1615.619873 5878.000000
1617.143066 5749.000000
1618.665527 5630.000000
1620.187256 6598.000000
1621.708130 6906.000000
1623.227539 15520.000000
1624.746460 6215.000000
1626.264648 6085.000000
1627.781982 5953.000000
1629.298218 6428.000000
1630.813110 7045.000000
1632.327515 6778.000000
1633.841187 5862.000000
1635.353760 6854.000000
1636.865112 5969.000000
1638.376099 6490.000000
1639.885986 6288.000000
1641.395020 6193.000000
1642.902710 5632.000000
1644.410034 6114.000000
1645.916504 7133.000000
1647.421997 6225.000000
1648.926636 6830.000000
1650.429810 6221.000000
1651.932373 6645.000000
1653.434570 6315.000000
1654.935425 6723.000000
1656.435181 7588.000000
1657.934082 6198.000000
1659.432617 6538.000000
1660.929932 6267.000000
1662.426514 5982.000000
1663.921509 6468.000000
1665.416260 6377.000000
1666.910156 5261.000000
1668.403076 5638.000000
1669.894653 20820.000000
1671.385742 6472.000000
1672.876221 6123.000000
1674.365601 5946.000000
1675.853516 6933.000000
1677.341187 6828.000000
1678.827881 6088.000000
1680.313721 5434.000000
1681.798706 6097.000000
1683.282227 6222.000000
1684.765503 6204.000000
1686.247925 5900.000000
1687.729248 6264.000000
1689.209106 6226.000000
1690.688721 5508.000000
1692.167603 6584.000000
1693.645508 6009.000000
1695.122437 6177.000000
1696.598145 5781.000000
1698.073486 6049.000000
1699.547607 6272.000000
1701.021118 5466.000000
1702.493164 5555.000000
1703.964966 6918.000000
1705.435791 6371.000000
1706.905762 7052.000000
1708.374390 5197.000000
1709.842529 5791.000000
1711.309937 6393.000000
1712.776245 5487.000000
1714.241943 5760.000000
1715.705933 6198.000000
1717.169800 5950.000000
1718.632813 6926.000000
1720.094849 6343.000000
1721.555664 6653.000000
1723.015869 5517.000000
1724.475342 6448.000000
1725.933960 6144.000000
1727.391602 6022.000000
1728.847900 6243.000000
1730.303955 6066.000000
1731.759033 6456.000000
1733.213135 6037.000000
1734.666016 6888.000000
1736.118652 5975.000000
1737.570190 6744.000000
1739.020996 5972.000000
1740.470825 6586.000000
1741.919312 5976.000000
1743.367432 7603.000000
1744.814697 6572.000000
1746.261230 6648.000000
1747.706177 6745.000000
1749.150879 6144.000000
1750.594727 5891.000000
1752.037720 5572.000000
1753.479248 6593.000000
1754.920532 6378.000000
1756.360962 19528.000000
1757.800415 6271.000000
1759.238892 5264.000000
1760.676392 6075.000000
1762.113403 7624.000000
1763.549438 5917.000000
1764.984619 7191.000000
1766.418335 6209.000000
1767.851929 6462.000000
1769.284546 6653.000000
1770.716309 5766.000000
1772.147217 5922.000000
1773.576904 6386.000000
1775.005859 6189.000000
1776.434326 6255.000000
1777.861816 6673.000000
1779.287964 6249.000000
1780.713867 5656.000000
1782.138672 6826.000000
1783.562866 5543.000000
1784.985596 6627.000000
1786.407837 6534.000000
1787.829346 6928.000000
1789.250122 5929.000000
1790.669922 6167.000000
1792.088379 6143.000000
1793.506348 6905.000000
1794.923706 5532.000000
1796.340210 6027.000000
1797.755249 6562.000000
1799.169922 5882.000000
1800.583984 6563.000000
1801.996826 6016.000000
1803.409058 7011.000000
1804.819946 7145.000000
1806.230347 7817.000000
1807.640015 6442.000000
1809.048706 5916.000000
1810.456299 5387.000000
1811.863403 6454.000000
1813.269653 6298.000000
1814.674927 6773.000000
1816.079102 5905.000000
1817.482910 5979.000000
1818.885742 6209.000000
1820.287720 5997.000000
1821.689087 5834.000000
1823.088989 6386.000000
1824.488281 6539.000000
1825.887085 6582.000000
1827.285034 7402.000000
1828.681641 5817.000000
1830.077637 6829.000000
1831.472900 5998.000000
1832.867554 8076.000000
1834.261230 6028.000000
1835.653564 6842.000000
1837.045410 6355.000000
1838.436646 5904.000000
1839.826904 7080.000000
1841.215942 6053.000000
1842.604614 6013.000000
1843.992310 5943.000000
1845.379272 5805.000000
1846.764893 6908.000000
1848.150269 5906.000000
1849.534790 6343.000000
1850.918579 6350.000000
1852.301270 6370.000000
1853.682739 5393.000000
1855.063721 6512.000000
1856.444214 6351.000000
1857.823730 5732.000000
1859.201782 6024.000000
1860.579712 6274.000000
1861.956665 7913.000000
1863.332886 6122.000000
1864.708252 6060.000000
1866.082153 5668.000000
1867.455933 5741.000000
1868.828857 6247.000000
1870.200684 5929.000000
1871.571533 6897.000000
1872.942017 5436.000000
1874.311401 6058.000000
1875.680298 6051.000000
1877.047607 7146.000000
1878.414795 6106.000000
1879.781006 5977.000000
1881.146484 6757.000000
1882.511230 7559.000000
1883.874390 6781.000000
1885.237427 6888.000000
1886.599609 6310.000000
1887.960938 6495.000000
1889.320923 5703.000000
1890.680542 5798.000000
1892.039551 6096.000000
1893.397583 6664.000000
1894.754761 7219.000000
1896.110718 5978.000000
1897.466431 7649.000000
1898.821167 5828.000000
1900.175049 5513.000000
1901.527832 5947.000000
1902.880127 5920.000000
1904.231689 5971.000000
1905.582397 6909.000000
1906.931885 6587.000000
1908.280884 6738.000000
1909.629028 5817.000000
1910.976563 6198.000000
1912.323364 6327.000000
1913.668579 6767.000000
1915.013550 6060.000000
1916.357788 5471.000000
1917.701172 6521.000000
1919.043213 5975.000000
1920.385010 6702.000000
1921.725952 7073.000000
1923.066162 6215.000000
1924.405396 6267.000000
1925.743652 6334.000000
1927.081299 6448.000000
1928.418213 7023.000000
1929.754272 6719.000000
1931.089111 5618.000000
1932.423584 6728.000000
1933.757324 7237.000000
1935.090210 6262.000000
1936.421631 5763.000000
1937.753174 6329.000000
1939.083374 6748.000000
1940.413086 5735.000000
1941.741943 6104.000000
1943.069580 5878.000000
1944.396729 5042.000000
1945.723145 5864.000000
1947.048828 6530.000000
1948.373169 5749.000000
1949.697266 6644.000000
1951.020508 6368.000000
1952.343018 6413.000000
1953.664429 5785.000000
1954.984863 7434.000000
1956.304688 6085.000000
1957.624146 5573.000000
1958.942627 6875.000000
1960.259766 5938.000000
1961.576538 5845.000000
1962.892578 6595.000000
1964.207886 6567.000000
1965.521729 6322.000000
1966.835327 5617.000000
1968.148193 6270.000000
1969.460205 6042.000000
1970.771606 6119.000000
1972.081665 6285.000000
1973.391235 5846.000000
1974.700073 6200.000000
1976.008301 6604.000000
1977.315186 6163.000000
1978.621460 7215.000000
1979.927368 5561.000000
1981.232056 6389.000000
1982.536255 5876.000000
1983.839233 5726.000000
1985.141846 7635.000000
1986.443481 6114.000000
1987.744507 6771.000000
1989.043945 5985.000000
1990.343506 6624.000000
1991.641968 5291.000000
1992.939941 6084.000000
1994.236328 6234.000000
1995.532715 5751.000000
1996.828125 5600.000000
1998.122803 6491.000000
1999.416626 5737.000000
2000.709229 6605.000000
2002.001343 5754.000000
2003.292969 7193.000000
2004.583862 6511.000000
2005.873169 6275.000000
2007.162231 6862.000000
2008.450562 5912.000000
2009.738159 6015.000000
2011.024902 6654.000000
2012.310547 5646.000000
2013.595825 6373.000000
2014.880127 5981.000000
2016.163818 5635.000000
2017.446167 6097.000000
2018.728149 6568.000000
2020.009644 6771.000000
2021.290161 5959.000000
2022.569946 6095.000000
2023.848633 6759.000000
2025.126587 5880.000000
2026.404053 5914.000000
2027.680908 6363.000000
2028.956055 5659.000000
2030.231323 6598.000000
2031.505615 6085.000000
2032.778931 6005.000000
2034.051392 5967.000000
2035.323486 6147.000000
2036.594482 6873.000000
2037.865234 6659.000000
2039.134644 6058.000000
2040.402954 6966.000000
2041.671265 6611.000000
2042.938599 6011.000000
2044.205200 6015.000000
2045.470581 5653.000000
2046.735352 5781.000000
2047.999878 5435.000000
2049.263184 5847.000000
2050.526123 6442.000000
2051.787109 6195.000000
2053.048584 6075.000000
2054.308838 5890.000000
2055.568359 6651.000000
2056.827148 6304.000000
2058.084961 6875.000000
2059.342285 6227.000000
2060.598877 6012.000000
2061.854004 6534.000000
2063.109131 5681.000000
2064.363281 5614.000000
2065.616699 5666.000000
2066.869385 6909.000000
2068.120850 6300.000000
2069.372070 6398.000000
2070.622559 5644.000000
2071.872314 5373.000000
2073.120605 6530.000000
2074.368896 6552.000000
2075.616211 7465.000000
2076.862793 5608.000000
2078.108643 5962.000000
2079.353271 7041.000000
2080.597412 7600.000000
2081.841064 5419.000000
2083.083740 6025.000000
2084.325195 7008.000000
2085.566406 5958.000000
2086.807129 6425.000000
2088.046875 6775.000000
2089.285400 7082.000000
2090.523438 6165.000000
2091.760742 5864.000000
2092.997803 6651.000000
2094.233398 6091.000000
2095.468262 6189.000000
2096.702881 6074.000000
2097.936523 5617.000000
2099.169189 6082.000000
2100.401123 6923.000000
2101.632568 6426.000000
2102.863037 6764.000000
2104.092773 6030.000000
2105.322266 5981.000000
2106.549805 6042.000000
2107.777588 5977.000000
2109.004639 6392.000000
2110.230713 5488.000000
2111.455322 6410.000000
2112.680176 6932.000000
2113.903809 7058.000000
2115.126953 6177.000000
2116.348877 7525.000000
2117.570557 6000.000000
2118.791260 6833.000000
2120.011230 6036.000000
2121.230713 6174.000000
2122.448730 6666.000000
2123.666748 7076.000000
2124.883789 5746.000000
2126.100342 5808.000000
2127.315186 6577.000000
2128.530273 6400.000000
2129.744385 7017.000000
2130.957764 5733.000000
2132.170410 6101.000000
2133.381592 5890.000000
2134.593018 6508.000000
2135.803223 6623.000000
2137.012939 5971.000000
2138.221191 6170.000000
2139.429443 5616.000000
2140.636963 5892.000000
2141.843262 7731.000000
2143.048828 5823.000000
2144.254150 5713.000000
2145.458496 5553.000000
2146.662109 6309.000000
2147.865234 6210.000000
2149.066895 6463.000000
2150.268311 5330.000000
2151.468994 6279.000000
2152.668945 6042.000000
2153.867676 5965.000000
2155.066162 6906.000000
2156.264160 6157.000000
2157.461182 6003.000000
2158.657471 5165.000000
2159.852539 5303.000000
2161.047363 6157.000000
2162.241455 5611.000000
2163.434570 6026.000000
2164.626709 6970.000000
2165.818604 5947.000000
2167.009766 6378.000000
2168.199951 6351.000000
2169.389404 6484.000000
2170.578369 6777.000000
2171.766357 6003.000000
2172.954102 5760.000000
2174.140381 5919.000000
2175.325928 6545.000000
2176.511230 6086.000000
2177.696045 5758.000000
2178.879639 6385.000000
2180.062500 7539.000000
2181.244385 6274.000000
2182.426025 5944.000000
2183.607178 6525.000000
2184.787109 5719.000000
2185.966064 5574.000000
2187.144531 6401.000000
2188.322754 6925.000000
2189.499756 7214.000000
2190.675781 6755.000000
2191.851563 6097.000000
2193.026855 5643.000000
2194.200684 6686.000000
2195.374023 6185.000000
2196.547119 6178.000000
2197.718994 6554.000000
2198.890381 7046.000000
2200.061279 6332.000000
2201.230469 6854.000000
2202.399658 7589.000000
2203.568359 6288.000000
2204.736084 5956.000000
2205.902832 5696.000000
2207.068848 7121.000000
2208.234375 6742.000000
2209.399658 6004.000000
2210.563477 6744.000000
2211.726807 5421.000000
2212.888916 6186.000000
2214.051270 6184.000000
2215.212402 6708.000000
2216.372559 6640.000000
2217.532227 6290.000000
2218.691650 6609.000000
2219.849854 6360.000000
2221.007080 6324.000000
2222.164063 6777.000000
2223.320313 6625.000000
2224.475830 6822.000000
2225.630615 6308.000000
2226.784424 6420.000000
2227.937256 6079.000000
2229.090576 6919.000000
2230.241943 6209.000000
2231.393066 6169.000000
2232.543457 6532.000000
2233.693359 7710.000000
2234.842285 6294.000000
2235.990723 5162.000000
2237.137695 6699.000000
2238.284912 6981.000000
2239.430908 6053.000000
2240.576660 7277.000000
2241.720703 7320.000000
2242.864990 6706.000000
2244.008301 6190.000000
2245.150879 5983.000000
2246.292480 5783.000000
2247.433838 5884.000000
2248.574219 6408.000000
2249.713867 6412.000000
2250.853027 5878.000000
2251.990967 5906.000000
2253.128906 6165.000000
2254.265869 5341.000000
2255.402100 6365.000000
2256.537354 6133.000000
2257.671875 7245.000000
2258.806152 6443.000000
2259.939941 5427.000000
2261.072266 6162.000000
2262.204102 6842.000000
2263.335449 6362.000000
2264.465820 6567.000000
2265.595947 8046.000000
2266.724854 6652.000000
2267.853271 6113.000000
2268.981201 5520.000000
2270.108154 6179.000000
2271.234375 5984.000000
2272.359619 6721.000000
2273.484863 6543.000000
2274.609375 6416.000000
2275.732666 5930.000000
2276.855225 6332.000000
2277.977295 5963.000000
2279.098877 7399.000000
2280.219727 6377.000000
2281.339355 6405.000000
2282.458496 7121.000000
2283.577393 7691.000000
2284.695557 7191.000000
2285.812744 5903.000000
2286.928955 6535.000000
2288.044922 7063.000000
2289.160156 6902.000000
2290.274658 7410.000000
2291.387939 5790.000000
2292.501221 6354.000000
2293.613770 6047.000000
2294.725586 5385.000000
2295.836670 6804.000000
2296.946533 6428.000000
2298.055908 6197.000000
2299.165039 6667.000000
2300.273193 6334.000000
2301.380371 6809.000000
2302.487305 5832.000000
2303.593506 6219.000000
2304.699219 6654.000000
2305.803467 6608.000000
2306.907471 5491.000000
2308.010986 5800.000000
2309.114014 6530.000000
2310.215820 7445.000000
2311.316895 7308.000000
2312.417480 6622.000000
2313.517578 5525.000000
2314.616943 6388.000000
2315.714844 6574.000000
2316.813232 7028.000000
2317.910156 8209.000000
2319.006836 6955.000000
2320.103027 5789.000000
2321.197510 6837.000000
2322.291992 7637.000000
2323.385742 5830.000000
2324.479248 6070.000000
2325.571045 6567.000000
2326.662842 7022.000000
2327.753906 6127.000000
2328.844238 6269.000000
2329.933594 6961.000000
2331.022949 6043.000000
2332.111084 6312.000000
2333.198730 6874.000000
2334.286133 6527.000000
2335.371826 6739.000000
2336.457275 7747.000000
2337.542480 6261.000000
2338.626709 6736.000000
2339.709961 5906.000000
2340.792969 6459.000000
2341.875000 7603.000000
2342.956787 6031.000000
2344.037842 7452.000000
2345.117676 6673.000000
2346.197021 5699.000000
2347.275879 6814.000000
2348.354248 6503.000000
2349.431152 6305.000000
2350.507813 6971.000000
2351.584229 6014.000000
2352.659668 6401.000000
2353.734131 5918.000000
2354.808350 6314.000000
2355.881836 6751.000000
2356.954834 6208.000000
2358.026611 7030.000000
2359.098145 6288.000000
2360.168701 6853.000000
2361.239014 7534.000000
2362.308350 7508.000000
2363.376709 6861.000000
2364.444824 6832.000000
2365.512207 7087.000000
2366.579102 7120.000000
2367.645264 6076.000000
2368.710205 6855.000000
2369.775146 7032.000000
2370.839355 6427.000000
2371.902832 6981.000000
2372.965088 5844.000000
2374.027344 6278.000000
2375.088623 6317.000000
2376.149658 5886.000000
2377.209473 6322.000000
2378.268555 7852.000000
2379.327637 6440.000000
2380.385742 7595.000000
2381.443115 6953.000000
2382.499512 8084.000000
2383.555664 7812.000000
2384.611328 6324.000000
2385.666260 7067.000000
2386.719727 6778.000000
2387.773438 6597.000000
2388.826172 6256.000000
2389.878418 6808.000000
2390.929932 6090.000000
2391.980469 6672.000000
2393.030762 6571.000000
2394.080078 6257.000000
2395.129395 6132.000000
2396.177246 6916.000000
2397.224609 6969.000000
2398.271729 6250.000000
2399.317871 6723.000000
2400.363281 6180.000000
2401.407959 6792.000000
2402.452637 7742.000000
2403.495850 7489.000000
2404.539063 6507.000000
2405.580811 5745.000000
2406.622803 6725.000000
2407.664063 7137.000000
2408.704346 6122.000000
2409.743896 6402.000000
2410.782471 6354.000000
2411.821289 5986.000000
2412.858887 6499.000000
2413.896240 6884.000000
2414.932373 7429.000000
2415.968262 6264.000000
2417.003418 6317.000000
2418.038086 6630.000000
2419.071289 7292.000000
2420.104736 6471.000000
2421.137207 6773.000000
2422.169434 6839.000000
2423.200195 7089.000000
2424.230957 6392.000000
2425.261230 6855.000000
2426.290283 6814.000000
2427.319336 6623.000000
2428.346680 7482.000000
2429.374512 6684.000000
2430.401123 7291.000000
2431.427490 6980.000000
2432.452393 7782.000000
2433.477539 6573.000000
2434.501709 7057.000000
2435.525635 6747.000000
2436.548340 5784.000000
2437.570313 6336.000000
2438.592041 6631.000000
2439.613037 6651.000000
2440.633545 6050.000000
2441.652832 6540.000000
2442.672119 6601.000000
2443.690430 8455.000000
2444.708496 6307.000000
2445.725098 6489.000000
2446.741699 6521.000000
2447.757568 6035.000000
2448.773438 6995.000000
2449.787842 6902.000000
2450.801514 5531.000000
2451.814697 7326.000000
2452.827637 5970.000000
2453.839844 7150.000000
2454.851074 6729.000000
2455.862061 7690.000000
2456.872314 6417.000000
2457.882080 7620.000000
2458.890869 5908.000000
2459.898926 5943.000000
2460.906982 6308.000000
2461.913818 7323.000000
2462.920410 5424.000000
2463.925781 7388.000000
2464.930908 6891.000000
2465.935791 5861.000000
2466.939453 6575.000000
2467.942871 6421.000000
2468.945313 7589.000000
2469.947510 7311.000000
2470.949219 6859.000000
2471.949951 6567.000000
2472.949707 6919.000000
2473.949463 6815.000000
2474.948242 5662.000000
2475.946533 6579.000000
2476.943848 7062.000000
2477.940918 6119.000000
2478.937988 6978.000000
2479.933594 5804.000000
2480.929199 7114.000000
2481.923096 6676.000000
2482.916992 8115.000000
2483.910400 6837.000000
2484.903320 6672.000000
2485.895264 7560.000000
2486.886475 7197.000000
2487.877441 6679.000000
2488.867920 5835.000000
2489.857422 6573.000000
2490.846191 6525.000000
2491.834961 5663.000000
2492.822754 6851.000000
2493.809326 6563.000000
2494.795898 8043.000000
2495.781982 6751.000000
2496.767334 6863.000000
2497.751709 8295.000000
2498.735840 6039.000000
2499.719971 6922.000000
2500.702637 5755.000000
2501.684814 7010.000000
2502.666504 6842.000000
2503.647461 7242.000000
2504.627930 6541.000000
2505.608154 5739.000000
2506.586914 6357.000000
2507.565430 7565.000000
2508.543457 6705.000000
2509.520996 7014.000000
2510.497559 6106.000000
2511.473877 5935.000000
2512.449463 6418.000000
2513.424561 6222.000000
2514.399170 6529.000000
2515.372559 7628.000000
2516.345703 6838.000000
2517.318604 6937.000000
2518.290527 6136.000000
2519.261719 6858.000000
2520.232422 6909.000000
2521.202881 7840.000000
2522.172607 8082.000000
2523.141357 6069.000000
2524.109375 6125.000000
2525.077393 7746.000000
2526.044434 6280.000000
2527.011230 5540.000000
2527.976807 7219.000000
2528.942383 7042.000000
2529.907227 7676.000000
2530.871582 6345.000000
2531.834717 6420.000000
2532.798096 5870.000000
2533.760498 6008.000000
2534.722656 6697.000000
2535.683594 6366.000000
2536.643799 6145.000000
2537.604248 6156.000000
2538.563721 6684.000000
2539.522461 6818.000000
2540.480225 6625.000000
2541.438232 6246.000000
2542.395508 6781.000000
2543.351807 6076.000000
2544.307861 7064.000000
2545.262695 6238.000000
2546.217773 7753.000000
2547.172119 6986.000000
2548.125732 6860.000000
2549.078369 7272.000000
2550.030762 6717.000000
2550.982666 6919.000000
2551.933838 6420.000000
2552.884277 7728.000000
2553.834229 7072.000000
2554.783936 7402.000000
2555.732910 6643.000000
2556.681396 6241.000000
2557.628662 7097.000000
2558.575928 6289.000000
2559.522461 6596.000000
2560.468506 6827.000000
2561.413574 7418.000000
2562.358398 6667.000000
2563.302734 7210.000000
2564.246582 6856.000000
2565.189941 6662.000000
2566.131836 6604.000000
2567.073975 6579.000000
2568.015381 6205.000000
2568.956055 7161.000000
2569.895996 7333.000000
2570.835938 5700.000000
2571.774902 6194.000000
2572.713623 7494.000000
2573.651367 7234.000000
2574.588867 5518.000000
2575.525635 6977.000000
2576.461670 6829.000000
2577.397217 7497.000000
2578.332031 6272.000000
2579.266846 5993.000000
2580.200684 7079.000000
2581.134033 6998.000000
2582.066650 5935.000000
2582.999023 6892.000000
2583.930664 5430.000000
2584.861816 7110.000000
2585.792480 6964.000000
2586.721924 6887.000000
2587.651367 7245.000000
2588.580322 6485.000000
2589.509033 7636.000000
2590.436035 7389.000000
2591.363281 5895.000000
2592.290039 6790.000000
2593.216064 6343.000000
2594.141846 5656.000000
2595.066406 7619.000000
2595.990723 7670.000000
2596.914551 5357.000000
2597.837891 7362.000000
2598.760254 6320.000000
2599.682373 6843.000000
2600.604004 8316.000000
2601.524902 6379.000000
2602.445068 5809.000000
2603.364990 6344.000000
2604.284424 6414.000000
2605.203613 6429.000000
2606.121826 5799.000000
2607.038818 6027.000000
2607.956055 7288.000000
2608.873047 5880.000000
2609.789063 7539.000000
2610.703857 6630.000000
2611.619141 6678.000000
2612.533691 6540.000000
2613.447266 6564.000000
2614.360840 6198.000000
2615.273193 7597.000000
2616.185547 7024.000000
2617.096924 6749.000000
2618.008057 5741.000000
2618.918457 7273.000000
2619.828613 6599.000000
2620.738037 6156.000000
2621.646973 6578.000000
2622.554932 6211.000000
2623.463135 6943.000000
2624.370361 6598.000000
2625.277100 7017.000000
2626.183105 6216.000000
2627.088867 6647.000000
2627.993896 6479.000000
2628.898682 7796.000000
2629.802734 6503.000000
2630.705811 6368.000000
2631.608887 6467.000000
2632.510986 5623.000000
2633.413086 6769.000000
2634.314941 7038.000000
2635.215088 6716.000000
2636.115479 6394.000000
2637.015137 6407.000000
2637.914551 5994.000000
2638.812500 6925.000000
2639.710938 6825.000000
2640.608887 6420.000000
2641.506104 6179.000000
2642.402100 6201.000000
2643.298096 6727.000000
2644.193848 6134.000000
2645.088867 6457.000000
2645.983643 6667.000000
2646.876953 7295.000000
2647.770264 6295.000000
2648.663330 6760.000000
2649.556152 6435.000000
2650.447266 7415.000000
2651.338623 6351.000000
2652.229492 7635.000000
2653.119629 7340.000000
2654.009521 6559.000000
2654.898193 7275.000000
2655.787109 6654.000000
2656.675537 6634.000000
2657.562988 7300.000000
2658.449463 6515.000000
2659.336426 7086.000000
2660.222656 6837.000000
2661.108398 6793.000000
2661.992920 6548.000000
2662.877441 6410.000000
2663.761719 6181.000000
2664.645264 7058.000000
2665.528320 7774.000000
2666.410645 7304.000000
2667.292480 6216.000000
2668.173584 6586.000000
2669.054932 6100.000000
2669.934814 6488.000000
2670.814941 7385.000000
2671.694336 7204.000000
2672.573730 6332.000000
2673.452393 6113.000000
2674.329346 6420.000000
2675.207031 6699.000000
2676.083984 6405.000000
2676.960205 8160.000000
2677.835938 7170.000000
2678.710938 6240.000000
2679.586182 7731.000000
2680.460449 7022.000000
2681.334229 7333.000000
2682.207275 7041.000000
2683.080078 6196.000000
2683.952637 6094.000000
2684.824463 6988.000000
2685.695557 6638.000000
2686.566406 6919.000000
2687.436768 7073.000000
2688.306885 6705.000000
2689.175293 6372.000000
2690.044434 7392.000000
2690.912842 7122.000000
2691.781006 6691.000000
2692.648438 6942.000000
2693.514648 5869.000000
2694.381348 7192.000000
2695.247070 7464.000000
2696.112793 7202.000000
2696.977051 8040.000000
2697.842041 6590.000000
2698.705566 7281.000000
2699.569336 5837.000000
2700.431641 7469.000000
2701.294434 6813.000000
2702.156250 5924.000000
2703.017578 6847.000000
2703.878906 6747.000000
2704.739014 7431.000000
2705.599121 7350.000000
2706.458740 6584.000000
2707.318115 6842.000000
2708.175781 7234.000000
2709.033691 6898.000000
2709.892090 7384.000000
2710.749268 6669.000000
2711.605713 5961.000000
2712.461670 6817.000000
2713.317627 6093.000000
2714.172852 6924.000000
2715.027344 6083.000000
2715.881348 6842.000000
2716.735352 7291.000000
2717.588379 6210.000000
2718.441650 6581.000000
2719.293213 7706.000000
2720.145264 6804.000000
2720.997070 6315.000000
2721.847656 6536.000000
2722.698242 6482.000000
2723.548340 7100.000000
2724.397705 7000.000000
2725.247070 7014.000000
2726.095215 6656.000000
2726.942871 6545.000000
2727.791016 7033.000000
2728.637939 6877.000000
2729.485352 5496.000000
2730.331299 7464.000000
2731.176514 7062.000000
2732.022217 6438.000000
2732.866943 7054.000000
2733.711670 7280.000000
2734.555176 6956.000000
2735.398926 7805.000000
2736.241943 7268.000000
2737.084473 6061.000000
2737.926025 6253.000000
2738.768066 6785.000000
2739.609131 7591.000000
2740.449951 5768.000000
2741.290527 5910.000000
2742.129883 7739.000000
2742.969238 6859.000000
2743.808594 6979.000000
2744.646729 6804.000000
2745.484375 7848.000000
2746.322021 6290.000000
2747.159180 7171.000000
2747.996094 6234.000000
2748.832520 6016.000000
2749.667725 6593.000000
2750.503174 6329.000000
2751.338135 6383.000000
2752.172363 6328.000000
2753.006348 6840.000000
2753.839844 6838.000000
2754.673340 7979.000000
2755.505859 6831.000000
2756.337891 7324.000000
2757.169434 6816.000000
2758.000977 7153.000000
2758.831543 7250.000000
2759.662354 7162.000000
2760.491943 7285.000000
2761.321533 6733.000000
2762.150879 7255.000000
2762.979492 6889.000000
2763.807617 6789.000000
2764.635254 6807.000000
2765.462891 6642.000000
2766.290039 7834.000000
2767.116455 5822.000000
2767.942383 7482.000000
2768.767822 6863.000000
2769.593018 7817.000000
2770.418213 7052.000000
2771.242188 6721.000000
2772.066162 6517.000000
2772.890137 7655.000000
2773.712891 6650.000000
2774.535889 6980.000000
2775.357666 6839.000000
2776.179443 6974.000000
2777.001221 6491.000000
2777.822021 7964.000000
2778.642090 6548.000000
2779.462402 7034.000000
2780.282227 7285.000000
2781.102051 6442.000000
2781.919922 5940.000000
2782.739014 8085.000000
2783.556885 6488.000000
2784.374512 6678.000000
2785.191650 7197.000000
2786.008301 7289.000000
2786.824707 7279.000000
2787.640625 6296.000000
2788.456299 5988.000000
2789.270996 6451.000000
2790.086182 7014.000000
2790.900635 7219.000000
2791.714600 6653.000000
2792.528320 7460.000000
2793.340820 8779.000000
2794.153564 6924.000000
2794.965820 7391.000000
2795.777588 7267.000000
2796.588623 7357.000000
2797.400391 6483.000000
2798.210938 7272.000000
2799.021484 7122.000000
2799.830566 7390.000000
2800.640381 8210.000000
2801.449463 7759.000000
2802.258301 6637.000000
2803.066650 7168.000000
2803.874023 6124.000000
2804.681885 6476.000000
2805.489014 6918.000000
2806.295898 6962.000000
2807.101563 7092.000000
2807.907715 6593.000000
2808.713135 6457.000000
2809.518555 7292.000000
2810.323242 6180.000000
2811.126953 7645.000000
2811.931152 7490.000000
2812.734863 6335.000000
2813.538330 6077.000000
2814.340332 6629.000000
2815.143066 7383.000000
2815.945068 7813.000000
2816.746826 6175.000000
2817.548096 6555.000000
2818.348877 7250.000000
2819.149170 6530.000000
2819.949707 6630.000000
2820.749268 8051.000000
2821.548340 7214.000000
2822.347412 6420.000000
2823.146240 6904.000000
2823.944580 6413.000000
2824.741943 7023.000000
2825.539551 7073.000000
2826.336426 6664.000000
2827.133545 7356.000000
2827.929932 7955.000000
2828.725586 6962.000000
2829.521240 7415.000000
2830.316650 7540.000000
2831.111572 7448.000000
2831.905762 6638.000000
2832.699951 6808.000000
2833.493896 5762.000000
2834.287354 6828.000000
2835.080078 7188.000000
2835.872559 8192.000000
2836.665039 7648.000000
2837.457275 7504.000000
2838.249023 6413.000000
2839.039795 6805.000000
2839.830566 8837.000000
2840.621582 7461.000000
2841.411621 6216.000000
2842.201172 7674.000000
2842.990967 7150.000000
2843.779785 7358.000000
2844.568604 7818.000000
2845.357422 7668.000000
2846.145264 7493.000000
2846.932617 7185.000000
2847.720215 7528.000000
2848.507324 7340.000000
2849.293701 6609.000000
2850.080078 7499.000000
2850.866211 7227.000000
2851.651855 7548.000000
2852.436523 7208.000000
2853.221680 6894.000000
2854.006592 7479.000000
2854.790771 7107.000000
2855.574951 6901.000000
2856.357910 8324.000000
2857.141113 6812.000000
2857.924072 6739.000000
2858.706543 7714.000000
2859.488770 6278.000000
2860.270508 6657.000000
2861.052002 7629.000000
2861.833740 7443.000000
2862.614746 7616.000000
2863.395020 6592.000000
2864.175049 6762.000000
2864.955078 8167.000000
2865.734863 7542.000000
2866.513672 8076.000000
2867.292725 7696.000000
2868.071289 6857.000000
2868.849609 7054.000000
2869.627441 7228.000000
2870.405029 6917.000000
2871.182373 7501.000000
2871.959473 6931.000000
2872.736084 6448.000000
2873.512207 7425.000000
2874.288330 7127.000000
2875.063965 8334.000000
2875.839355 7234.000000
2876.614258 6656.000000
2877.388916 8018.000000
2878.163574 6623.000000
2878.937988 7789.000000
2879.711670 6788.000000
2880.484619 7213.000000
2881.258301 6745.000000
2882.031006 7607.000000
2882.803711 7926.000000
2883.575684 8236.000000
2884.347412 6243.000000
2885.119629 6827.000000
2885.890625 6903.000000
2886.661133 6212.000000
2887.432129 8229.000000
2888.203125 7362.000000
2888.973389 7915.000000
2889.742676 7655.000000
2890.512207 6968.000000
2891.281738 7235.000000
2892.050781 7440.000000
2892.819336 7902.000000
2893.587891 7663.000000
2894.355469 7057.000000
2895.123535 6555.000000
2895.891113 7440.000000
2896.658691 8380.000000
2897.425049 7347.000000
2898.192383 6530.000000
2898.958496 7187.000000
2899.724854 7041.000000
2900.489746 8280.000000
2901.255127 6955.000000
2902.020996 6432.000000
2902.785400 7763.000000
2903.549805 7739.000000
2904.314453 8436.000000
2905.078125 6651.000000
2905.842529 8492.000000
2906.606201 6714.000000
2907.369141 8410.000000
2908.131836 6468.000000
2908.895020 9062.000000
2909.657715 7037.000000
2910.419189 6744.000000
2911.181152 6744.000000
