scanname Analyse021
timestamp 2017-02-10 20:21:39
ccdbias 904.531738
ccdgain 3.473401
sigmaread 8.960639
laserwavenum -0.614726
wavenumcorrection -0.091762
scancount 1
totalexposurems 10000
singleexposurems 10000
measurementstate Unknown
scanmode Manual
snr 292.320618 9.973978 8.562762
replacelist 5
672 50858.000000 31263.000000
754 46599.000000 17254.000000
858 41343.000000 15573.000000
889 38681.000000 21503.000000
948 35906.000000 19524.000000
peaks 64
278.429169 0.723069 0.000000 1.623176 0.000201
287.829742 0.722683 0.000000 0.819379 0.000045
329.939026 0.742319 0.000000 0.925828 0.000150
336.217896 0.747081 0.000000 0.959326 0.000104
342.612183 0.745462 0.000000 0.740855 0.000034
350.843079 0.748919 0.000000 0.552265 0.000022
360.719635 0.752508 0.000000 0.655326 0.000059
386.151154 0.752736 0.000000 1.283969 0.000290
463.400208 0.771380 0.000000 0.553346 0.000042
487.637726 0.781726 0.000000 0.848182 0.000109
534.758179 0.783975 0.000000 0.742032 0.000158
551.922668 0.823259 0.000000 0.583981 0.000241
559.556885 0.823846 0.000000 1.358754 0.000236
573.178589 0.829516 0.000000 0.292329 0.000074
583.213440 0.823824 0.000000 0.662856 0.000106
660.432495 0.857211 0.000000 0.943086 0.000141
673.308472 0.853378 0.000000 1.328344 0.000262
680.295898 0.853518 0.000000 0.367670 0.000044
715.783325 0.873485 0.000000 5.509718 0.001161
724.640564 0.855683 0.000000 1.259907 0.000054
742.288269 0.878323 0.000000 1.025808 0.000114
757.146362 0.905021 0.000000 6.104285 0.000700
777.394409 0.912585 0.000000 11.368069 0.002380
832.249084 0.904216 0.000000 0.409933 0.000164
842.140930 0.909471 0.000000 1.218157 0.000059
853.213257 0.935604 0.000000 1.207000 0.000302
868.149414 0.930088 0.000000 0.602266 0.000137
937.860901 1.002987 0.000000 0.630304 0.000386
954.348022 0.982006 0.000000 3.470956 0.001060
1013.565674 1.023021 0.000000 2.248887 0.000835
1020.053406 1.023510 0.000000 0.999885 0.000154
1027.152954 1.034606 0.000000 0.567759 0.000248
1044.208984 1.030206 0.000000 4.072234 0.001335
1104.364990 1.045009 0.000000 2.219219 0.000613
1119.035645 1.079623 0.000000 0.813350 0.000333
1134.471069 1.060421 0.000000 1.799395 0.000815
1150.219360 1.044605 0.000000 2.497594 0.001004
1174.053345 1.070548 0.000000 1.590678 0.000521
1185.697998 1.072721 0.000000 0.840177 0.000070
1211.203979 1.138430 0.000000 0.837246 0.000255
1222.662476 1.149413 0.000000 1.499426 0.000558
1232.804810 1.133527 0.000000 1.293642 0.000343
1260.146973 1.167168 0.000000 2.945849 0.001373
1280.925293 1.112061 0.000000 0.348769 0.000459
1313.875610 1.159438 0.000000 1.940040 0.000733
1329.810547 1.206411 0.000000 3.744009 0.001838
1348.309692 1.209167 0.000000 0.601606 0.000642
1387.368774 1.164203 0.000000 0.620854 0.000260
1413.941406 1.174437 0.000000 1.338496 0.000650
1433.322876 1.200989 0.000000 0.939400 0.000257
1447.765503 1.209735 0.000000 1.644748 0.000548
1459.251953 1.210189 0.000000 3.319137 0.001941
1489.872681 1.211691 0.000000 3.589375 0.002134
1512.170044 1.135386 0.000000 0.068037 0.000109
1531.991333 1.161720 0.000000 0.679185 0.000824
1544.191772 1.155535 0.000000 0.590884 0.000319
1578.665405 1.156708 0.000000 1.559581 0.001315
1619.228516 1.145999 0.000000 0.933066 0.000654
1668.552490 1.178411 0.000000 5.692740 0.003952
1700.997437 1.090877 0.000000 1.318746 0.001409
1711.368530 1.077683 0.000000 0.829097 0.000464
1755.821411 1.104214 0.000000 2.708287 0.002401
1781.498291 1.041779 0.000000 0.739359 0.000729
1812.148560 1.020998 0.000000 0.145817 0.000446
finalresult GLS_NoMatch 0
spectrum 2048
-96.986732 45662.000000
-94.359863 45662.000000
-91.734871 46299.000000
-89.111771 46254.000000
-86.490540 46975.000000
-83.871208 46813.000000
-81.253738 47112.000000
-78.638145 46849.000000
-76.024429 47205.000000
-73.412590 47341.000000
-70.802612 47322.000000
-68.194519 47485.000000
-65.588272 47575.000000
-62.983898 47534.000000
-60.381390 47370.000000
-57.780735 47924.000000
-55.181942 47293.000000
-52.585007 46663.000000
-49.989925 47049.000000
-47.396698 47024.000000
-44.805321 47233.000000
-42.215790 46698.000000
-39.628101 47615.000000
-37.042263 47502.000000
-34.458267 47003.000000
-31.876108 47813.000000
-29.295795 47160.000000
-26.717310 47742.000000
-24.140667 47281.000000
-21.565849 47115.000000
-18.992872 46833.000000
-16.421715 46897.000000
-13.852391 46556.000000
-11.284893 45510.000000
-8.719213 47010.000000
-6.155360 46698.000000
-3.593319 47145.000000
-1.033103 47235.000000
1.525305 46560.000000
4.081892 45905.000000
6.636674 46027.000000
9.189639 46407.000000
11.740804 45298.000000
14.290155 45060.000000
16.837711 44367.000000
19.383455 44699.000000
21.927406 44318.000000
24.469553 42148.000000
27.009903 40195.000000
29.548468 37451.000000
32.085236 33377.000000
34.620201 24971.000000
37.153389 14287.000000
39.684795 9202.000000
42.214409 8358.000000
44.742226 7918.000000
47.268284 6957.000000
49.792553 6146.000000
52.315052 5608.000000
54.835754 5221.000000
57.354702 5300.000000
59.871876 6203.000000
62.387272 7716.000000
64.900887 8340.000000
67.412750 8006.000000
69.922867 6153.000000
72.431190 4203.000000
74.937759 3592.000000
77.442581 3187.000000
79.945648 2684.000000
82.446938 2319.000000
84.946487 2275.000000
87.444283 2276.000000
89.940346 2630.000000
92.434631 3016.000000
94.927177 3169.000000
97.418007 2975.000000
99.907066 2911.000000
102.394379 2373.000000
104.879967 1791.000000
107.363815 1789.000000
109.845917 1758.000000
112.326294 1685.000000
114.804947 1675.000000
117.281876 1629.000000
119.757050 1563.000000
122.230515 1592.000000
124.702248 1811.000000
127.172272 2019.000000
129.640549 2226.000000
132.107147 10610.000000
134.571991 27428.000000
137.035141 34874.000000
139.496552 35701.000000
141.956268 38668.000000
144.414261 41773.000000
146.870560 43612.000000
149.325150 44772.000000
151.778015 44461.000000
154.229202 45460.000000
156.678696 45669.000000
159.126465 46424.000000
161.572525 46109.000000
164.016907 44230.000000
166.459610 46621.000000
168.900620 46390.000000
171.339920 46980.000000
173.777512 45986.000000
176.213470 46627.000000
178.647690 46405.000000
181.080231 46127.000000
183.511124 46643.000000
185.940292 46216.000000
188.367813 46790.000000
190.793655 47101.000000
193.217819 46874.000000
195.640320 46342.000000
198.061127 46179.000000
200.480270 46981.000000
202.897751 47490.000000
205.313538 45884.000000
207.727676 46383.000000
210.140182 47274.000000
212.551010 47423.000000
214.960159 47309.000000
217.367676 46141.000000
219.773483 47357.000000
222.177704 46968.000000
224.580215 46825.000000
226.981110 46586.000000
229.380356 47118.000000
231.777939 46701.000000
234.173859 46292.000000
236.568161 47011.000000
238.960800 47456.000000
241.351822 46731.000000
243.741180 47054.000000
246.128922 47212.000000
248.515015 46571.000000
250.899475 47509.000000
253.282288 45630.000000
255.663528 46999.000000
258.043060 46932.000000
260.421021 46979.000000
262.797302 46051.000000
265.172028 45956.000000
267.545105 45686.000000
269.916534 47399.000000
272.286316 47051.000000
274.654541 47709.000000
277.021118 47224.000000
279.386108 47104.000000
281.749481 47569.000000
284.111206 47315.000000
286.471344 46422.000000
288.829865 47573.000000
291.186798 47040.000000
293.542114 47154.000000
295.895844 47570.000000
298.247925 47552.000000
300.598450 47137.000000
302.947388 47152.000000
305.294678 46728.000000
307.640442 47188.000000
309.984528 47075.000000
312.327087 46186.000000
314.668030 45929.000000
317.007355 46325.000000
319.345123 46621.000000
321.681335 45494.000000
324.015900 47285.000000
326.348907 47081.000000
328.680359 47561.000000
331.010223 46866.000000
333.338501 47132.000000
335.665161 46283.000000
337.990326 47194.000000
340.313873 47317.000000
342.635864 47440.000000
344.956299 46084.000000
347.275116 45814.000000
349.592377 47544.000000
351.908112 47710.000000
354.222260 46688.000000
356.534821 47152.000000
358.845825 47189.000000
361.155304 46532.000000
363.463257 47176.000000
365.769592 47891.000000
368.074341 47027.000000
370.377625 47178.000000
372.679291 47284.000000
374.979462 47160.000000
377.278076 47319.000000
379.575134 47842.000000
381.870636 47483.000000
384.164612 47736.000000
386.457001 48305.000000
388.747894 47925.000000
391.037262 47452.000000
393.325043 47274.000000
395.611298 47121.000000
397.896057 46399.000000
400.179199 47542.000000
402.460907 47095.000000
404.741089 47363.000000
407.019684 46250.000000
409.296753 47011.000000
411.572296 46657.000000
413.846313 46978.000000
416.118896 46906.000000
418.389862 47185.000000
420.659332 47130.000000
422.927307 46405.000000
425.193726 46232.000000
427.458649 47204.000000
429.722107 47271.000000
431.983978 47036.000000
434.244385 47557.000000
436.503235 46859.000000
438.760620 47379.000000
441.016510 47843.000000
443.270905 47720.000000
445.523773 48090.000000
447.775085 46593.000000
450.024994 47450.000000
452.273315 47239.000000
454.520203 47860.000000
456.765625 47056.000000
459.009491 47022.000000
461.251862 47029.000000
463.492737 47866.000000
465.732208 46851.000000
467.970093 48128.000000
470.206543 47680.000000
472.441467 47445.000000
474.674927 46121.000000
476.906952 46798.000000
479.137451 47800.000000
481.366455 47115.000000
483.593994 47214.000000
485.820038 47547.000000
488.044647 46907.000000
490.267792 47649.000000
492.489471 47114.000000
494.709595 46848.000000
496.928314 47878.000000
499.145538 47234.000000
501.361389 48034.000000
503.575623 47375.000000
505.788544 47076.000000
507.999878 47005.000000
510.209778 46633.000000
512.418213 47096.000000
514.625305 46949.000000
516.830811 47080.000000
519.034912 46910.000000
521.237488 47290.000000
523.438660 46884.000000
525.638489 46794.000000
527.836792 46527.000000
530.033569 48185.000000
532.229004 47612.000000
534.422913 47975.000000
536.615479 45972.000000
538.806519 46742.000000
540.996155 47402.000000
543.184387 46497.000000
545.371094 46303.000000
547.556335 46692.000000
549.740295 47261.000000
551.922668 47057.000000
554.103699 47278.000000
556.283203 47451.000000
558.461426 47632.000000
560.638123 47434.000000
562.813416 47078.000000
564.987305 46995.000000
567.159729 47574.000000
569.330750 47407.000000
571.500305 47127.000000
573.668579 48184.000000
575.835327 47093.000000
578.000610 47087.000000
580.164490 47294.000000
582.327087 47762.000000
584.488159 47400.000000
586.647827 47810.000000
588.806152 47653.000000
590.962952 47340.000000
593.118408 46916.000000
595.272461 47657.000000
597.425171 47361.000000
599.576355 46221.000000
601.726196 46693.000000
603.874695 46808.000000
606.021606 47374.000000
608.167297 46967.000000
610.311584 47015.000000
612.454407 46378.000000
614.595764 47255.000000
616.735901 46917.000000
618.874512 45749.000000
621.011841 47723.000000
623.147705 46804.000000
625.282166 46558.000000
627.415161 46385.000000
629.546997 46851.000000
631.677368 46861.000000
633.806335 46615.000000
635.933838 47041.000000
638.060059 47211.000000
640.184753 46103.000000
642.308228 47022.000000
644.430359 46667.000000
646.551025 46553.000000
648.670349 46897.000000
650.788269 47838.000000
652.904846 47816.000000
655.020020 47110.000000
657.133850 46938.000000
659.246216 47602.000000
661.357361 47319.000000
663.467102 48017.000000
665.575378 47328.000000
667.682495 47124.000000
669.788147 46644.000000
671.892334 47535.000000
673.995300 47667.000000
676.096863 46428.000000
678.197083 48053.000000
680.295898 46688.000000
682.393372 47241.000000
684.489563 46402.000000
686.584290 47041.000000
688.677795 46390.000000
690.769958 46815.000000
692.860596 45430.000000
694.950012 46780.000000
697.038147 46954.000000
699.124817 47399.000000
701.210266 46657.000000
703.294189 48224.000000
705.376892 47531.000000
707.458313 47477.000000
709.538269 45830.000000
711.617004 47155.000000
713.694275 47832.000000
715.770264 46809.000000
717.844971 47237.000000
719.918396 46380.000000
721.990295 47077.000000
724.061035 46004.000000
726.130432 47569.000000
728.198425 46923.000000
730.265076 47003.000000
732.330505 46235.000000
734.394592 47544.000000
736.457336 47147.000000
738.518738 46818.000000
740.578857 46698.000000
742.637573 47350.000000
744.695068 46716.000000
746.751282 46806.000000
748.806091 46644.000000
750.859619 47031.000000
752.911743 45899.000000
754.962646 47620.000000
757.012329 46656.000000
759.060547 47004.000000
761.107544 47130.000000
763.153259 46251.000000
765.197571 48008.000000
767.240601 47591.000000
769.282410 38172.000000
771.322876 46144.000000
773.361938 46986.000000
775.399841 47328.000000
777.436401 47327.000000
779.471741 48053.000000
781.505737 47615.000000
783.538330 46440.000000
785.569763 47735.000000
787.599792 41718.000000
789.628540 47330.000000
791.656128 47065.000000
793.682373 46940.000000
795.707214 47526.000000
797.730957 47723.000000
799.753296 46856.000000
801.774414 47425.000000
803.794189 46616.000000
805.812683 48400.000000
807.829956 46465.000000
809.845825 46488.000000
811.860535 47542.000000
813.873901 46844.000000
815.886047 46976.000000
817.896973 47211.000000
819.906555 46692.000000
821.914917 47924.000000
823.921875 47569.000000
825.927612 47256.000000
827.932129 47499.000000
829.935364 47572.000000
831.937317 46747.000000
833.937988 47111.000000
835.937439 47279.000000
837.935547 46843.000000
839.932556 46225.000000
841.928162 46974.000000
843.922607 47195.000000
845.915710 47011.000000
847.907593 46369.000000
849.898132 47715.000000
851.887390 46424.000000
853.875610 47201.000000
855.862427 47433.000000
857.848022 46791.000000
859.832336 45927.000000
861.815552 46853.000000
863.797363 46833.000000
865.777954 47309.000000
867.757263 45470.000000
869.735413 46093.000000
871.712219 47005.000000
873.687744 47027.000000
875.662231 46993.000000
877.635254 47204.000000
879.607239 47779.000000
881.577881 46750.000000
883.547363 47089.000000
885.515503 47634.000000
887.482483 48037.000000
889.448120 46970.000000
891.412598 47296.000000
893.375854 47146.000000
895.337891 46651.000000
897.298645 47335.000000
899.258179 46777.000000
901.216431 46461.000000
903.173584 46800.000000
905.129578 47110.000000
907.084167 46174.000000
909.037537 46629.000000
910.989746 46629.000000
912.940735 46783.000000
914.890442 45972.000000
916.838989 46747.000000
918.786316 46898.000000
920.732361 46893.000000
922.677124 47026.000000
924.620850 46731.000000
926.563416 47047.000000
928.504700 47431.000000
930.444641 46517.000000
932.383484 47252.000000
934.321045 47487.000000
936.257385 46998.000000
938.192566 47174.000000
940.126465 46893.000000
942.059265 47172.000000
943.990845 46233.000000
945.921265 47844.000000
947.850464 46599.000000
949.778320 45954.000000
951.705139 46360.000000
953.630676 47067.000000
955.554932 47600.000000
957.478088 46969.000000
959.400085 46320.000000
961.320801 45733.000000
963.240356 46517.000000
965.158752 47669.000000
967.076111 46599.000000
968.992004 46656.000000
970.906799 46865.000000
972.820374 47054.000000
974.732788 46643.000000
976.643982 46622.000000
978.554016 47497.000000
980.462769 46709.000000
982.370483 46773.000000
984.276978 46589.000000
986.182251 47219.000000
988.086426 46126.000000
989.989380 46631.000000
991.891113 46138.000000
993.791687 46318.000000
995.691101 46306.000000
997.589294 47616.000000
999.486328 46390.000000
1001.382141 46327.000000
1003.276794 45152.000000
1005.170349 47187.000000
1007.062622 45605.000000
1008.953979 46741.000000
1010.843994 47510.000000
1012.732788 46228.000000
1014.620422 46482.000000
1016.506897 45822.000000
1018.392212 46033.000000
1020.276367 46788.000000
1022.159302 46901.000000
1024.041260 46519.000000
1025.921875 47547.000000
1027.801392 46874.000000
1029.679932 46768.000000
1031.557129 47390.000000
1033.432983 46523.000000
1035.307861 46866.000000
1037.181763 46149.000000
1039.054199 45741.000000
1040.925659 46012.000000
1042.795776 47281.000000
1044.664917 47199.000000
1046.532837 46926.000000
1048.399658 45530.000000
1050.265381 46051.000000
1052.129883 46361.000000
1053.993286 46343.000000
1055.855347 46332.000000
1057.716431 46867.000000
1059.576416 46299.000000
1061.435059 46130.000000
1063.292603 46945.000000
1065.149048 46028.000000
1067.004395 46734.000000
1068.858521 46882.000000
1070.711792 46437.000000
1072.563599 46401.000000
1074.414429 46456.000000
1076.264038 46535.000000
1078.112427 46963.000000
1079.959961 44723.000000
1081.806152 47033.000000
1083.651123 46376.000000
1085.495239 47106.000000
1087.338013 47001.000000
1089.179565 46071.000000
1091.020386 47061.000000
1092.859619 46719.000000
1094.698120 46433.000000
1096.535278 46434.000000
1098.371216 45634.000000
1100.206177 45858.000000
1102.039917 47018.000000
1103.872681 46725.000000
1105.704102 46173.000000
1107.534668 45140.000000
1109.363892 45844.000000
1111.192139 45907.000000
1113.019165 45214.000000
1114.845215 46938.000000
1116.670044 45964.000000
1118.493774 45135.000000
1120.316284 46234.000000
1122.137695 46457.000000
1123.958252 46460.000000
1125.777344 45679.000000
1127.595581 45274.000000
1129.412476 45372.000000
1131.228516 45733.000000
1133.043335 45845.000000
1134.857056 46641.000000
1136.669678 46488.000000
1138.481079 46640.000000
1140.291504 46202.000000
1142.100830 45606.000000
1143.908813 45394.000000
1145.716064 46400.000000
1147.521851 46396.000000
1149.326782 46925.000000
1151.130615 46911.000000
1152.933228 46204.000000
1154.734985 46137.000000
1156.535278 46264.000000
1158.334595 46154.000000
1160.132935 46373.000000
1161.929932 46788.000000
1163.726196 46259.000000
1165.521118 46037.000000
1167.314941 45895.000000
1169.107910 44415.000000
1170.899536 46508.000000
1172.690186 45567.000000
1174.479858 46049.000000
1176.268066 46175.000000
1178.055420 44454.000000
1179.841675 45128.000000
1181.626831 46247.000000
1183.410889 46030.000000
1185.193848 44218.000000
1186.975830 46153.000000
1188.756592 45984.000000
1190.536377 45578.000000
1192.315063 44951.000000
1194.092773 45161.000000
1195.869263 44689.000000
1197.644653 45133.000000
1199.418945 45232.000000
1201.192139 44961.000000
1202.964478 45041.000000
1204.735474 44985.000000
1206.505615 45891.000000
1208.274536 45520.000000
1210.042358 45282.000000
1211.809326 45870.000000
1213.574951 45677.000000
1215.339600 44614.000000
1217.103149 44971.000000
1218.865601 45652.000000
1220.627197 44893.000000
1222.387573 45713.000000
1224.146851 45220.000000
1225.905273 45546.000000
1227.662476 44421.000000
1229.418579 45230.000000
1231.173584 46099.000000
1232.927734 45629.000000
1234.680542 45780.000000
1236.432373 45618.000000
1238.183350 45720.000000
1239.932983 46731.000000
1241.681763 44681.000000
1243.429199 45140.000000
1245.175903 45064.000000
1246.921387 45160.000000
1248.666016 45185.000000
1250.409302 44833.000000
1252.151611 44848.000000
1253.892822 46189.000000
1255.633179 46313.000000
1257.372437 45719.000000
1259.110474 44923.000000
1260.847656 44336.000000
1262.583618 45431.000000
1264.318604 45138.000000
1266.052612 44275.000000
1267.785645 45543.000000
1269.517456 45384.000000
1271.248291 45174.000000
1272.977905 44339.000000
1274.706665 45547.000000
1276.434326 45899.000000
1278.160889 45929.000000
1279.886597 45919.000000
1281.610962 44947.000000
1283.334473 46186.000000
1285.057007 44530.000000
1286.778564 44747.000000
1288.498901 44986.000000
1290.218262 44750.000000
1291.936523 44044.000000
1293.653809 44873.000000
1295.370117 45474.000000
1297.085205 44815.000000
1298.799316 45036.000000
1300.512451 45419.000000
1302.224731 44606.000000
1303.935791 42688.000000
1305.645874 45794.000000
1307.354858 44728.000000
1309.062622 44413.000000
1310.769775 43991.000000
1312.475464 45124.000000
1314.180420 44175.000000
1315.884399 44720.000000
1317.587158 45013.000000
1319.288940 44362.000000
1320.989868 44869.000000
1322.689453 41106.000000
1324.388184 43162.500000
1326.086182 45219.000000
1327.782837 44004.000000
1329.478394 43190.000000
1331.173096 43399.000000
1332.866577 44430.000000
1334.559204 44782.000000
1336.250977 42856.000000
1337.941406 43888.000000
1339.631104 43661.000000
1341.319702 44036.000000
1343.007202 42597.000000
1344.693726 44505.000000
1346.379150 43420.000000
1348.063599 44225.000000
1349.747192 43007.000000
1351.429565 43929.000000
1353.110962 44346.000000
1354.791504 43737.000000
1356.470825 43594.000000
1358.149536 44398.000000
1359.826904 43690.000000
1361.503174 44428.000000
1363.178467 44555.000000
1364.853027 43480.000000
1366.526367 43621.000000
1368.198730 43240.000000
1369.870117 44804.000000
1371.540527 43077.000000
1373.209839 43707.000000
1374.878174 44054.000000
1376.545654 43743.000000
1378.212036 43205.000000
1379.877441 43362.000000
1381.541870 43590.000000
1383.205078 43459.000000
1384.867676 43515.000000
1386.528931 42895.000000
1388.189331 42531.000000
1389.848633 42664.000000
1391.506958 42462.000000
1393.164551 42042.000000
1394.820923 42470.000000
1396.476440 41769.000000
1398.130737 42376.000000
1399.784180 42672.000000
1401.436523 42445.000000
1403.088135 41964.000000
1404.738525 41097.000000
1406.387817 41811.000000
1408.036377 40287.000000
1409.683838 39677.000000
1411.330322 41149.000000
1412.975952 40986.000000
1414.620605 41106.000000
1416.264038 40021.000000
1417.906616 39745.000000
1419.548096 40027.000000
1421.188721 40231.000000
1422.828369 40163.000000
1424.466919 40518.000000
1426.104614 39890.000000
1427.741211 40086.000000
1429.376831 40399.000000
1431.011719 39962.000000
1432.645508 40396.000000
1434.278198 40193.000000
1435.909912 40724.000000
1437.540771 40229.000000
1439.170532 40397.000000
1440.799194 38628.000000
1442.427246 40542.000000
1444.054199 40255.000000
1445.679932 40333.000000
1447.305054 40395.000000
1448.929077 40108.000000
1450.552124 40600.000000
1452.174194 40650.000000
1453.795166 39370.000000
1455.415161 40386.000000
1457.034424 39711.000000
1458.652344 40967.000000
1460.269653 40967.500000
1461.885986 40968.000000
1463.501099 38732.000000
1465.115356 39629.000000
1466.728760 40706.000000
1468.341064 40302.000000
1469.952515 39568.000000
1471.563110 39452.000000
1473.172485 39658.000000
1474.780884 39627.000000
1476.388428 39232.000000
1477.994995 38481.000000
1479.600830 39736.000000
1481.205444 38712.000000
1482.809204 39265.000000
1484.411743 37901.000000
1486.013672 39041.000000
1487.614380 39008.000000
1489.214355 38873.000000
1490.813232 38225.000000
1492.411255 38090.000000
1494.008179 38003.000000
1495.604248 38375.000000
1497.199341 38727.000000
1498.793457 39258.000000
1500.386841 38016.000000
1501.979126 38971.000000
1503.570190 38150.000000
1505.160767 37495.000000
1506.750000 37651.000000
1508.338623 37996.000000
1509.926147 37285.000000
1511.512573 36949.000000
1513.098267 37506.000000
1514.682861 36978.000000
1516.266602 37081.000000
1517.849243 37169.000000
1519.431152 36678.000000
1521.011963 36425.000000
1522.592041 36860.000000
1524.170898 36425.000000
1525.748901 36122.000000
1527.326172 36120.000000
1528.902222 36534.000000
1530.477539 36249.000000
1532.051758 35822.000000
1533.625244 36515.000000
1535.197510 35984.000000
1536.769043 35521.000000
1538.339600 35359.000000
1539.909302 35372.000000
1541.477783 36186.000000
1543.045532 35019.000000
1544.612427 35839.000000
1546.178101 34561.000000
1547.743042 35291.000000
1549.306885 35968.000000
1550.870117 33686.000000
1552.432007 34711.000000
1553.993286 34934.000000
1555.553467 35081.000000
1557.112915 35100.000000
1558.671265 34812.000000
1560.228882 34550.000000
1561.785400 33804.000000
1563.340698 34965.000000
1564.895386 34416.000000
1566.449341 35204.000000
1568.002319 34497.000000
1569.553955 35117.000000
1571.104858 34930.000000
1572.655029 34632.000000
1574.204224 34519.000000
1575.752075 34879.000000
1577.299438 35277.000000
1578.845825 35183.000000
1580.391357 35889.000000
1581.935913 34418.000000
1583.479248 34754.000000
1585.021973 34374.000000
1586.563843 34437.000000
1588.104614 34022.000000
1589.644409 34832.000000
1591.183472 33892.000000
1592.721436 34528.000000
1594.258911 34277.000000
1595.795044 34532.000000
1597.330078 33756.000000
1598.864624 33981.000000
1600.398193 34256.000000
1601.930908 34147.000000
1603.462036 34093.000000
1604.992920 33968.000000
1606.522949 34370.000000
1608.051758 34008.000000
1609.579468 33982.000000
1611.106567 34190.000000
1612.632935 34323.000000
1614.158325 34031.000000
1615.682861 34489.000000
1617.206055 34660.000000
1618.728516 35084.000000
1620.250244 34375.000000
1621.771118 34278.000000
1623.290527 34201.000000
1624.809448 34124.000000
1626.327637 33256.000000
1627.844971 33386.000000
1629.361206 32872.000000
1630.876099 32280.000000
1632.390503 32291.000000
1633.904175 33048.000000
1635.416748 31992.000000
1636.928101 32708.000000
1638.439087 32064.000000
1639.948975 32193.000000
1641.458008 32151.000000
1642.965698 32596.000000
1644.473022 32079.000000
1645.979492 31179.000000
1647.484985 31922.000000
1648.989624 31239.000000
1650.492798 31736.000000
1651.995361 31275.000000
1653.497559 31394.000000
1654.998413 31008.000000
1656.498169 30013.000000
1657.997070 31241.000000
1659.495605 30754.000000
1660.992920 30983.000000
1662.489502 31175.000000
1663.984497 30786.000000
1665.479248 31041.000000
1666.973145 32215.000000
1668.466064 32206.000000
1669.957642 31718.500000
1671.448730 31231.000000
1672.939209 29646.000000
1674.428589 29678.000000
1675.916504 28709.000000
1677.404175 28741.000000
1678.890869 29419.000000
1680.376709 29749.000000
1681.861694 28988.000000
1683.345215 28786.000000
1684.828491 28717.000000
1686.310913 28881.000000
1687.792236 28602.000000
1689.272095 28608.000000
1690.751709 29135.000000
1692.230591 28166.000000
1693.708496 28679.000000
1695.185425 28556.000000
1696.661133 28968.000000
1698.136475 28638.000000
1699.610596 28417.000000
1701.084106 29162.000000
1702.556152 29201.000000
1704.027954 28080.000000
1705.498779 28500.000000
1706.968750 27791.000000
1708.437378 29545.000000
1709.905518 28838.000000
1711.372925 28307.000000
1712.839233 29288.000000
1714.304932 29037.000000
1715.768921 28634.000000
1717.232788 28965.000000
1718.695801 28031.000000
1720.157837 28516.000000
1721.618652 28154.000000
1723.078857 29212.000000
1724.538330 28318.000000
1725.996948 28622.000000
1727.454590 28649.000000
1728.910889 28396.000000
1730.366943 28637.000000
1731.822021 28231.000000
1733.276123 28728.000000
1734.729004 27845.000000
1736.181641 28636.000000
1737.633179 27742.000000
1739.083984 28590.000000
1740.533813 27916.000000
1741.982300 28442.000000
1743.430420 26811.000000
1744.877686 27789.000000
1746.324219 27548.000000
1747.769165 27620.000000
1749.213867 28105.000000
1750.657715 28559.000000
1752.100708 29102.000000
1753.542236 28368.000000
1754.983521 29048.000000
1756.423950 28641.000000
1757.863403 28234.000000
1759.301880 27656.000000
1760.739380 26944.000000
1762.176392 25644.000000
1763.612427 27139.000000
1765.047607 26004.000000
1766.481323 26839.000000
1767.914917 26644.000000
1769.347534 26332.000000
1770.779297 26898.000000
1772.210205 26672.000000
1773.639893 25994.000000
1775.068848 25792.000000
1776.497314 25344.000000
1777.924805 24444.000000
1779.350952 24381.000000
1780.776855 25687.000000
1782.201660 24792.000000
1783.625854 25781.000000
1785.048584 24904.000000
1786.470825 25021.000000
1787.892334 24621.000000
1789.313110 25132.000000
1790.732910 24589.000000
1792.151367 24549.000000
1793.569336 24090.000000
1794.986694 24751.000000
1796.403198 24433.000000
1797.818237 24222.000000
1799.232910 24534.000000
1800.646973 24225.000000
1802.059814 24763.000000
1803.472046 24194.000000
1804.882935 24045.000000
1806.293335 23489.000000
1807.703003 24070.000000
1809.111694 24167.000000
1810.519287 24543.000000
1811.926392 24014.000000
1813.332642 24183.000000
1814.737915 24004.000000
1816.142090 24355.000000
1817.545898 24373.000000
1818.948730 24215.000000
1820.350708 24177.000000
1821.752075 24268.000000
1823.151978 24074.000000
1824.551270 24067.000000
1825.950073 24121.000000
1827.348022 23319.000000
1828.744629 24313.000000
1830.140625 23792.000000
1831.535889 24498.000000
1832.930542 23093.000000
1834.324219 24118.000000
1835.716553 23615.000000
1837.108398 23760.000000
1838.499634 23916.000000
1839.889893 23270.000000
1841.278931 23647.000000
1842.667603 23594.000000
1844.055298 23569.000000
1845.442261 23616.000000
1846.827881 23232.000000
1848.213257 23582.000000
1849.597778 23288.000000
1850.981567 23251.000000
1852.364258 22995.000000
1853.745728 23225.000000
1855.126709 22760.000000
1856.507202 22467.000000
1857.886719 22623.000000
1859.264771 22805.000000
1860.642700 22930.000000
1862.019653 22084.000000
1863.395874 22414.000000
1864.771240 22342.000000
1866.145142 22102.000000
1867.518921 22053.000000
1868.891846 21816.000000
1870.263672 21837.000000
1871.634521 21555.000000
1873.005005 21808.000000
1874.374390 21571.000000
1875.743286 21500.000000
1877.110596 21174.000000
1878.477783 21474.000000
1879.843994 21248.000000
1881.209473 21178.000000
1882.574219 20940.000000
1883.937378 20912.000000
1885.300415 21067.000000
1886.662598 20939.000000
1888.023926 20815.000000
1889.383911 20905.000000
1890.743530 20628.000000
1892.102539 20682.000000
1893.460571 20654.000000
1894.817749 20334.000000
1896.173706 20722.000000
1897.529419 20248.000000
1898.884155 20520.000000
1900.238037 20728.000000
1901.590820 20613.000000
1902.943115 20604.000000
1904.294678 20603.000000
1905.645386 20480.000000
1906.994873 20532.000000
1908.343872 20602.000000
1909.692017 20560.000000
1911.039551 20454.000000
1912.386353 20320.000000
1913.731567 20576.000000
1915.076538 20456.000000
1916.420776 20792.000000
1917.764160 20708.000000
1919.106201 20763.000000
1920.447998 20681.000000
1921.788940 20431.000000
1923.129150 20496.000000
1924.468384 20421.000000
1925.806641 20535.000000
1927.144287 20538.000000
1928.481201 20407.000000
1929.817261 20423.000000
1931.152100 20442.000000
1932.486572 20317.000000
1933.820313 19997.000000
1935.153198 19983.000000
1936.484619 20065.000000
1937.816162 19916.000000
1939.146362 19761.000000
1940.476074 19809.000000
1941.804932 19954.000000
1943.132568 19843.000000
1944.459717 19921.000000
1945.786133 19894.000000
1947.111816 19657.000000
1948.436157 19809.000000
1949.760254 19586.000000
1951.083496 19505.000000
1952.406006 19600.000000
1953.727417 19419.000000
1955.047852 19150.000000
1956.367676 19472.000000
1957.687134 19322.000000
1959.005615 19013.000000
1960.322754 18930.000000
1961.639526 18973.000000
1962.955566 18788.000000
1964.270874 18796.000000
1965.584717 18894.000000
1966.898315 18887.000000
1968.211182 18775.000000
1969.523193 18909.000000
1970.834595 18837.000000
1972.144653 18508.000000
1973.454224 18474.000000
1974.763062 18135.000000
1976.071289 18029.000000
1977.378174 18121.000000
1978.684448 17823.000000
1979.990356 18228.000000
1981.295044 18162.000000
1982.599243 17981.000000
1983.902222 18045.000000
1985.204834 18062.000000
1986.506470 17976.000000
1987.807495 17507.000000
1989.106934 17278.000000
1990.406494 17390.000000
1991.704956 17404.000000
1993.002930 17236.000000
1994.299316 17201.000000
1995.595703 17304.000000
1996.891113 17276.000000
1998.185791 16917.000000
1999.479614 17067.000000
2000.772217 16923.000000
2002.064331 16704.000000
2003.355957 16532.000000
2004.646851 16501.000000
2005.936157 16718.000000
2007.225220 16657.000000
2008.513550 16676.000000
2009.801147 16785.000000
2011.087891 16570.000000
2012.373535 16596.000000
2013.658813 16517.000000
2014.943115 16555.000000
2016.226807 16497.000000
2017.509155 16291.000000
2018.791138 16369.000000
2020.072632 16222.000000
2021.353149 16365.000000
2022.632935 16277.000000
2023.911621 16122.000000
2025.189575 16145.000000
2026.467041 16196.000000
2027.743896 16362.000000
2029.019043 16385.000000
2030.294312 16361.000000
2031.568604 16483.000000
2032.841919 16496.000000
2034.114380 16433.000000
2035.386475 16409.000000
2036.657471 16483.000000
2037.928223 16337.000000
2039.197632 16588.000000
2040.465942 16419.000000
2041.734253 16450.000000
2043.001587 16174.000000
2044.268188 16247.000000
2045.533569 16193.000000
2046.798340 16229.000000
2048.062744 16152.000000
2049.326172 16108.000000
2050.589111 15970.000000
2051.850098 15930.000000
2053.111572 15943.000000
2054.371826 15653.000000
2055.631348 15524.000000
2056.890137 15564.000000
2058.147949 15605.000000
2059.405273 15458.000000
2060.661865 15687.000000
2061.916992 15628.000000
2063.172119 15499.000000
2064.426270 15577.000000
2065.679688 15473.000000
2066.932373 15366.000000
2068.183838 15388.000000
2069.435059 15398.000000
2070.685547 15346.000000
2071.935303 15513.000000
2073.183594 14864.000000
2074.431885 15060.000000
2075.679199 15104.000000
2076.925781 15009.000000
2078.171631 15041.000000
2079.416260 14792.000000
2080.660400 14963.000000
2081.904053 14717.000000
2083.146729 14630.000000
2084.388184 14658.000000
2085.629395 14496.000000
2086.870117 14590.000000
2088.109863 14610.000000
2089.348389 14377.000000
2090.586426 14372.000000
2091.823730 14421.000000
2093.060791 14333.000000
2094.296387 14199.000000
2095.531250 14318.000000
2096.765869 14420.000000
2097.999512 14397.000000
2099.232178 14150.000000
2100.464111 14206.000000
2101.695557 13967.000000
2102.926025 13991.000000
2104.155762 14102.000000
2105.385254 13927.000000
2106.612793 13849.000000
2107.840576 13669.000000
2109.067627 13514.000000
2110.293701 13541.000000
2111.518311 13606.000000
2112.743164 13343.000000
2113.966797 13493.000000
2115.189941 13380.000000
2116.411865 13319.000000
2117.633545 13521.000000
2118.854248 13434.000000
2120.074219 13442.000000
2121.293701 13577.000000
2122.511719 13485.000000
2123.729736 13479.000000
2124.946777 13636.000000
2126.163330 13537.000000
2127.378174 13587.000000
2128.593262 13507.000000
2129.807373 13503.000000
2131.020752 13371.000000
2132.233398 13054.000000
2133.444580 13294.000000
2134.656006 13443.000000
2135.866211 13059.000000
2137.075928 13253.000000
2138.284180 13292.000000
2139.492432 13373.000000
2140.699951 13094.000000
2141.906250 12862.000000
2143.111816 13042.000000
2144.317139 13105.000000
2145.521484 13086.000000
2146.725098 13265.000000
2147.928223 13184.000000
2149.129883 13056.000000
2150.331299 13071.000000
2151.531982 12981.000000
2152.731934 12819.000000
2153.930664 13140.000000
2155.129150 13103.000000
2156.327148 12946.000000
2157.524170 12739.000000
2158.720459 12534.000000
2159.915527 12613.000000
2161.110352 12562.000000
2162.304443 12468.000000
2163.497559 12345.000000
2164.689697 12231.000000
2165.881592 12287.000000
2167.072754 12096.000000
2168.262939 12077.000000
2169.452393 12094.000000
2170.641357 11930.000000
2171.829346 11817.000000
2173.017090 11660.000000
2174.203369 11593.000000
2175.388916 11411.000000
2176.574219 11629.000000
2177.759033 11485.000000
2178.942627 11421.000000
2180.125488 11346.000000
2181.307373 11390.000000
2182.489014 11366.000000
2183.670166 11386.000000
2184.850098 11355.000000
2186.029053 11436.000000
2187.207520 11101.000000
2188.385742 11267.000000
2189.562744 11165.000000
2190.738770 11089.000000
2191.914551 11319.000000
2193.089844 11314.000000
2194.263672 11214.000000
2195.437012 11218.000000
2196.610107 11230.000000
2197.781982 11187.000000
2198.953369 11176.000000
2200.124268 11300.000000
2201.293457 11148.000000
2202.462646 11116.000000
2203.631348 11209.000000
2204.799072 11265.000000
2205.965820 11159.000000
2207.131836 11132.000000
2208.297363 11184.000000
2209.462646 11209.000000
2210.626465 11106.000000
2211.789795 11102.000000
2212.951904 11079.000000
2214.114258 11027.000000
2215.275391 10990.000000
2216.435547 11164.000000
2217.595215 10940.000000
2218.754639 10915.000000
2219.912842 10839.000000
2221.070068 10811.000000
2222.227051 10843.000000
2223.383301 10817.000000
2224.538818 10615.000000
2225.693604 10691.000000
2226.847412 10818.000000
2228.000244 10605.000000
2229.153564 10599.000000
2230.304932 10590.000000
2231.456055 10595.000000
2232.606445 10444.000000
2233.756348 10461.000000
2234.905273 10486.000000
2236.053711 10524.000000
2237.200684 10305.000000
2238.347900 10137.000000
2239.493896 10166.000000
2240.639648 10103.000000
2241.783691 10032.000000
2242.927979 9981.000000
2244.071289 10033.000000
2245.213867 9824.000000
2246.355469 9781.000000
2247.496826 9696.000000
2248.637207 9627.000000
2249.776855 9502.000000
2250.916016 9517.000000
2252.053955 9502.000000
2253.191895 9393.000000
2254.328857 9490.000000
2255.465088 9452.000000
2256.600342 9386.000000
2257.734863 9381.000000
2258.869141 9450.000000
2260.002930 9567.000000
2261.135254 9743.000000
2262.267090 9489.000000
2263.398438 9175.000000
2264.528809 9045.000000
2265.658936 9098.000000
2266.787842 9114.000000
2267.916260 8875.000000
2269.044189 8995.000000
2270.171143 8942.000000
2271.297363 9004.000000
2272.422607 8924.000000
2273.547852 9002.000000
2274.672363 9035.000000
2275.795654 8960.000000
2276.918213 8955.000000
2278.040283 8945.000000
2279.161865 8929.000000
2280.282715 8709.000000
2281.402344 8856.000000
2282.521484 8867.000000
2283.640381 8593.000000
2284.758545 8554.000000
2285.875732 8430.000000
2286.991943 8597.000000
2288.107910 8443.000000
2289.223145 8605.000000
2290.337646 8576.000000
2291.450928 8732.000000
2292.564209 8630.000000
2293.676758 8710.000000
2294.788574 8838.000000
2295.899658 8699.000000
2297.009521 8843.000000
2298.118896 8796.000000
2299.228027 8765.000000
2300.336182 8657.000000
2301.443359 8658.000000
2302.550293 8786.000000
2303.656494 8733.000000
2304.762207 8673.000000
2305.866455 8631.000000
2306.970459 8704.000000
2308.073975 8752.000000
2309.177002 8627.000000
2310.278809 8443.000000
2311.379883 8449.000000
2312.480469 8427.000000
2313.580566 8433.000000
2314.679932 8450.000000
2315.777832 8398.000000
2316.876221 8442.000000
2317.973145 8270.000000
2319.069824 8294.000000
2320.166016 8312.000000
2321.260498 8248.000000
2322.354980 8168.000000
2323.448730 8119.000000
2324.542236 8075.000000
2325.634033 8112.000000
2326.725830 8332.000000
2327.816895 8064.000000
2328.907227 8042.000000
2329.996582 8202.000000
2331.085938 8115.000000
2332.174072 8239.000000
2333.261719 7995.000000
2334.349121 7987.000000
2335.434814 7887.000000
2336.520264 7882.000000
2337.605469 7834.000000
2338.689697 7634.000000
2339.772949 7747.000000
2340.855957 7693.000000
2341.937988 7588.000000
2343.019775 7671.000000
2344.100830 7593.000000
2345.180664 7494.000000
2346.260010 7551.000000
2347.338867 7445.000000
2348.417236 7422.000000
2349.494141 7421.000000
2350.570801 7324.000000
2351.647217 7269.000000
2352.722656 7405.000000
2353.797119 7212.000000
2354.871338 7247.000000
2355.944824 7267.000000
2357.017822 7162.000000
2358.089600 7090.000000
2359.161133 7104.000000
2360.231689 7031.000000
2361.302002 7071.000000
2362.371338 6987.000000
2363.439697 6927.000000
2364.507813 7067.000000
2365.575195 6857.000000
2366.642090 6914.000000
2367.708252 6934.000000
2368.773193 7019.000000
2369.838135 6791.000000
2370.902344 6843.000000
2371.965820 6841.000000
2373.028076 6788.000000
2374.090332 6822.000000
2375.151611 6727.000000
2376.212646 6785.000000
2377.272461 6778.000000
2378.331543 6748.000000
2379.390625 6744.000000
2380.448730 6710.000000
2381.506104 6645.000000
2382.562500 6639.000000
2383.618652 6632.000000
2384.674316 6649.000000
2385.729248 6675.000000
2386.782715 6563.000000
2387.836426 6474.000000
2388.889160 6620.000000
2389.941406 6670.000000
2390.992920 6621.000000
2392.043457 6593.000000
2393.093750 6620.000000
2394.143066 6587.000000
2395.192383 6600.000000
2396.240234 6551.000000
2397.287598 6542.000000
2398.334717 6527.000000
2399.380859 6679.000000
2400.426270 6488.000000
2401.470947 6542.000000
2402.515625 6304.000000
2403.558838 6442.000000
2404.602051 6354.000000
2405.643799 6388.000000
2406.685791 6412.000000
2407.727051 6419.000000
2408.767334 6441.000000
2409.806885 6460.000000
2410.845459 6452.000000
2411.884277 6300.000000
2412.921875 6389.000000
2413.959229 6366.000000
2414.995361 6436.000000
2416.031250 6413.000000
2417.066406 6305.000000
2418.101074 6443.000000
2419.134277 6365.000000
2420.167725 6268.000000
2421.200195 6381.000000
2422.232422 6246.000000
2423.263184 6318.000000
2424.293945 6162.000000
2425.324219 6329.000000
2426.353271 6194.000000
2427.382324 6028.000000
2428.409668 6231.000000
2429.437500 6144.000000
2430.464111 6138.000000
2431.490479 6041.000000
2432.515381 6124.000000
2433.540527 6003.000000
2434.564697 6072.000000
2435.588623 5928.000000
2436.611328 5801.000000
2437.633301 5872.000000
2438.655029 5951.000000
2439.676025 5957.000000
2440.696533 5768.000000
2441.715820 5598.000000
2442.735107 5624.000000
2443.753418 5739.000000
2444.771484 5687.000000
2445.788086 5576.000000
2446.804688 5664.000000
2447.820557 5549.000000
2448.836426 5518.000000
2449.850830 5606.000000
2450.864502 5588.000000
2451.877686 5452.000000
2452.890625 5606.000000
2453.902832 5499.000000
2454.914063 5576.000000
2455.925049 5452.000000
2456.935303 5428.000000
2457.945068 5368.000000
2458.953857 5349.000000
2459.961914 5344.000000
2460.969971 5416.000000
2461.976807 5364.000000
2462.983398 5144.000000
2463.988770 5119.000000
2464.993896 5129.000000
2465.998779 5236.000000
2467.002441 5257.000000
2468.005859 5261.000000
2469.008301 5155.000000
2470.010498 5454.000000
2471.012207 5247.000000
2472.012939 5141.000000
2473.012695 4963.000000
2474.012451 5075.000000
2475.011230 5137.000000
2476.009521 5175.000000
2477.006836 4943.000000
2478.003906 5139.000000
2479.000977 5150.000000
2479.996582 5021.000000
2480.992188 5005.000000
2481.986084 5122.000000
2482.979980 5135.000000
2483.973389 4988.000000
2484.966309 5114.000000
2485.958252 4915.000000
2486.949463 4992.000000
2487.940430 4946.000000
2488.930908 5040.000000
2489.920410 5157.000000
2490.909180 5030.000000
2491.897949 5073.000000
2492.885742 5056.000000
2493.872314 5103.000000
2494.858887 4919.000000
2495.844971 5071.000000
2496.830322 5090.000000
2497.814697 4912.000000
2498.798828 5018.000000
2499.782959 5119.000000
2500.765625 5027.000000
2501.747803 4927.000000
2502.729492 4908.000000
2503.710449 4839.000000
2504.690918 4954.000000
2505.671143 4957.000000
2506.649902 4857.000000
2507.628418 4877.000000
2508.606445 4933.000000
2509.583984 4829.000000
2510.560547 4838.000000
2511.536865 4853.000000
2512.512451 4793.000000
2513.487549 4862.000000
2514.462158 4854.000000
2515.435547 4781.000000
2516.408691 4703.000000
2517.381592 4674.000000
2518.353516 4736.000000
2519.324707 4696.000000
2520.295410 4647.000000
2521.265869 4642.000000
2522.235596 4520.000000
2523.204346 4579.000000
2524.172363 4551.000000
2525.140381 4511.000000
2526.107422 4532.000000
2527.074219 4603.000000
2528.039795 4626.000000
2529.005371 4562.000000
2529.970215 4510.000000
2530.934570 4461.000000
2531.897705 4487.000000
2532.861084 4499.000000
2533.823486 4504.000000
2534.785645 4505.000000
2535.746582 4618.000000
2536.706787 4481.000000
2537.667236 4399.000000
2538.626709 4552.000000
2539.585449 4462.000000
2540.543213 4312.000000
2541.501221 4362.000000
2542.458496 4286.000000
2543.414795 4264.000000
2544.370850 4217.000000
2545.325684 4188.000000
2546.280762 4100.000000
2547.235107 4120.000000
2548.188721 4573.000000
2549.141357 4067.000000
2550.093750 4172.000000
2551.045654 4108.000000
2551.996826 4087.000000
2552.947266 4098.000000
2553.897217 3966.000000
2554.846924 4036.000000
2555.795898 4179.000000
2556.744385 4091.000000
2557.691650 4076.000000
2558.638916 4136.000000
2559.585449 4093.000000
2560.531494 3967.000000
2561.476563 3877.000000
2562.421387 3991.000000
2563.365723 3831.000000
2564.309570 3917.000000
2565.252930 3929.000000
2566.194824 3937.000000
2567.136963 3929.000000
2568.078369 3902.000000
2569.019043 3919.000000
2569.958984 3861.000000
2570.898926 3998.000000
2571.837891 3926.000000
2572.776611 3916.000000
2573.714355 3962.000000
2574.651855 3858.000000
2575.588623 3809.000000
2576.524658 3956.000000
2577.460205 3824.000000
2578.395020 3971.000000
2579.329834 3907.000000
2580.263672 3907.000000
2581.197021 3897.000000
2582.129639 3813.000000
2583.062012 3750.000000
2583.993652 3922.000000
2584.924805 3762.000000
2585.855469 3897.000000
2586.784912 3833.000000
2587.714355 3717.000000
2588.643311 3740.000000
2589.572021 3752.000000
2590.499023 3798.000000
2591.426270 3750.000000
2592.353027 3691.000000
2593.279053 3753.000000
2594.204834 3700.000000
2595.129395 3773.000000
2596.053711 3815.000000
2596.977539 3794.000000
2597.900879 3649.000000
2598.823242 3724.000000
2599.745361 3686.000000
2600.666992 3673.000000
2601.587891 3689.000000
2602.508057 3745.000000
2603.427979 3676.000000
2604.347412 3724.000000
2605.266602 3714.000000
2606.184814 3638.000000
2607.101807 3582.000000
2608.019043 3568.000000
2608.936035 3577.000000
2609.852051 3595.000000
2610.766846 3445.000000
2611.682129 3529.000000
2612.596680 3439.000000
2613.510254 3585.000000
2614.423828 3605.000000
2615.336182 3538.000000
2616.248535 3482.000000
2617.159912 3495.000000
2618.071045 3565.000000
2618.981445 3575.000000
2619.891602 3425.000000
2620.801025 3320.000000
2621.709961 3413.000000
2622.617920 3475.000000
2623.526123 3433.000000
2624.433350 3434.000000
2625.340088 3388.000000
2626.246094 3431.000000
2627.151855 3330.000000
2628.056885 3222.000000
2628.961670 3359.000000
2629.865723 3276.000000
2630.768799 3390.000000
2631.671875 3344.000000
2632.573975 3281.000000
2633.476074 3331.000000
2634.377930 3207.000000
2635.278076 3264.000000
2636.178467 3272.000000
2637.078125 3270.000000
2637.977539 3210.000000
2638.875488 3230.000000
2639.773926 3153.000000
2640.671875 3159.000000
2641.569092 3073.000000
2642.465088 3100.000000
2643.361084 3335.000000
2644.256836 3102.000000
2645.151855 3143.000000
2646.046631 3094.000000
2646.939941 3036.000000
2647.833252 3033.000000
2648.726318 2993.000000
2649.619141 2998.000000
2650.510254 3039.000000
2651.401611 3180.000000
2652.292480 2926.000000
2653.182617 2961.000000
2654.072510 2984.000000
2654.961182 2991.000000
2655.850098 2984.000000
2656.738525 2939.000000
2657.625977 2961.000000
2658.512451 2940.000000
2659.399414 3065.000000
2660.285645 2899.000000
2661.171387 2830.000000
2662.055908 2930.000000
2662.940430 2908.000000
2663.824707 2983.000000
2664.708252 2882.000000
2665.591309 2851.000000
2666.473633 2875.000000
2667.355469 2999.000000
2668.236572 2901.000000
2669.117920 2871.000000
2669.997803 2898.000000
2670.877930 2814.000000
2671.757324 3007.000000
2672.636719 2885.000000
2673.515381 2878.000000
2674.392334 2889.000000
2675.270020 2848.000000
2676.146973 2790.000000
2677.023193 2834.000000
2677.898926 2964.000000
2678.773926 2913.000000
2679.649170 2843.000000
2680.523438 2772.000000
2681.397217 2800.000000
2682.270264 2808.000000
2683.143066 2826.000000
2684.015625 2838.000000
2684.887451 2736.000000
2685.758545 2739.000000
2686.629395 2756.000000
2687.499756 2727.000000
2688.369873 2720.000000
2689.238281 2683.000000
2690.107422 2674.000000
2690.975830 2687.000000
2691.843994 2757.000000
2692.711426 2732.000000
2693.577637 2730.000000
2694.444336 2668.000000
2695.310059 2730.000000
2696.175781 2617.000000
2697.040039 2596.000000
2697.905029 2736.000000
2698.768555 2691.000000
2699.632324 2668.000000
2700.494629 2567.000000
2701.357422 2536.000000
2702.219238 2608.000000
2703.080566 2587.000000
2703.941895 2544.000000
2704.802002 2638.000000
2705.662109 2603.000000
2706.521729 2560.000000
2707.381104 2503.000000
2708.238770 2535.000000
2709.096680 2499.000000
2709.955078 2523.000000
2710.812256 2476.000000
2711.668701 2457.000000
2712.524658 2510.000000
2713.380615 2481.000000
2714.235840 2519.000000
2715.090332 2484.000000
2715.944336 2345.000000
2716.798340 2479.000000
2717.651367 2537.000000
2718.504639 2393.000000
2719.356201 2433.000000
2720.208252 2434.000000
2721.060059 2347.000000
2721.910645 2322.000000
2722.761230 2458.000000
2723.611328 2319.000000
2724.460693 2401.000000
2725.310059 2410.000000
2726.158203 2363.000000
2727.005859 2316.000000
2727.854004 2346.000000
2728.700928 2282.000000
2729.548340 2425.000000
2730.394287 2409.000000
2731.239502 2379.000000
2732.085205 2313.000000
2732.929932 2352.000000
2733.774658 2259.000000
2734.618164 2262.000000
2735.461914 2331.000000
2736.304932 2243.000000
2737.147461 2301.000000
2737.989014 2210.000000
2738.831055 2212.000000
2739.672119 2258.000000
2740.512939 2217.000000
2741.353516 2178.000000
2742.192871 2163.000000
2743.032227 2187.000000
2743.871582 2372.000000
2744.709717 2254.000000
2745.547363 2300.000000
2746.385010 2266.000000
2747.222168 2199.000000
2748.059082 2248.000000
2748.895508 2220.000000
2749.730713 2107.000000
2750.566162 2309.000000
2751.401123 2211.000000
2752.235352 2220.000000
2753.069336 2200.000000
2753.902832 2179.000000
2754.736328 2163.000000
2755.568848 2194.000000
2756.400879 2076.000000
2757.232422 2256.000000
2758.063965 2237.000000
2758.894531 2162.000000
2759.725342 2108.000000
2760.554932 2281.000000
2761.384521 2145.000000
2762.213867 2106.000000
2763.042480 2112.000000
2763.870605 2136.000000
2764.698242 2066.000000
2765.525879 2074.000000
2766.353027 2188.000000
2767.179443 2084.000000
2768.005371 1985.000000
2768.830811 2056.000000
2769.656006 2064.000000
2770.481201 2008.000000
2771.305176 1969.000000
2772.129150 1953.000000
2772.953125 2120.000000
2773.775879 1969.000000
2774.598877 2012.000000
2775.420654 1933.000000
2776.242432 1929.000000
2777.064209 1988.000000
2777.885010 1977.000000
2778.705078 2020.000000
2779.525391 1962.000000
2780.345215 2007.000000
2781.165039 1941.000000
2781.982910 2015.000000
2782.802002 1933.000000
2783.619873 1995.000000
2784.437500 1977.000000
2785.254639 1965.000000
2786.071289 1845.000000
2786.887695 1957.000000
2787.703613 1961.000000
2788.519287 1878.000000
2789.333984 1817.000000
2790.149170 1867.000000
2790.963623 1870.000000
2791.777588 1918.000000
2792.591309 1776.000000
2793.403809 1962.000000
2794.216553 1793.000000
2795.028809 1840.000000
2795.840576 1757.000000
2796.651611 1884.000000
2797.463379 1900.000000
2798.273926 1770.000000
2799.084473 1832.000000
2799.893555 1858.000000
2800.703369 1707.000000
2801.512451 1785.000000
2802.321289 1799.000000
2803.129639 1776.000000
2803.937012 1696.000000
2804.744873 1686.000000
2805.552002 1823.000000
2806.358887 1703.000000
2807.164551 1903.000000
2807.970703 1672.000000
2808.776123 1835.000000
2809.581543 1790.000000
2810.386230 1689.000000
2811.189941 1801.000000
2811.994141 1804.000000
2812.797852 1791.000000
2813.601318 1685.000000
2814.403320 1791.000000
2815.206055 1719.000000
2816.008057 1644.000000
2816.809814 1747.000000
2817.611084 1801.000000
2818.411865 1806.000000
2819.212158 1711.000000
2820.012695 1757.000000
2820.812256 1591.000000
2821.611328 1714.000000
2822.410400 1740.000000
2823.209229 1649.000000
2824.007568 1674.000000
2824.804932 1746.000000
2825.602539 1712.000000
2826.399414 1619.000000
2827.196533 1643.000000
2827.992920 1812.000000
2828.788574 1656.000000
2829.584229 1673.000000
2830.379639 1561.000000
2831.174561 1629.000000
2831.968750 1611.000000
2832.762939 1616.000000
2833.556885 1598.000000
2834.350342 1602.000000
2835.143066 1597.000000
2835.935547 1758.000000
2836.728027 1631.000000
2837.520264 1624.000000
2838.312012 1584.000000
2839.102783 1638.000000
2839.893555 1605.000000
2840.684570 1603.000000
2841.474609 1628.000000
2842.264160 1615.000000
2843.053955 1588.000000
2843.842773 1490.000000
2844.631592 1599.000000
2845.420410 1484.000000
2846.208252 1541.000000
2846.995605 1472.000000
2847.783203 1548.000000
2848.570313 1509.000000
2849.356689 1605.000000
2850.143066 1505.000000
2850.929199 1504.000000
2851.714844 1472.000000
2852.499512 1599.000000
2853.284668 1498.000000
2854.069580 1526.000000
2854.853760 1520.000000
2855.637939 1492.000000
2856.420898 1457.000000
2857.204102 1408.000000
2857.987061 1532.000000
2858.769531 1409.000000
2859.551758 1447.000000
2860.333496 1475.000000
2861.114990 1411.000000
2861.896729 1336.000000
2862.677734 1361.000000
2863.458008 1461.000000
2864.238037 1451.000000
2865.018066 1485.000000
2865.797852 1412.000000
2866.576660 1371.000000
2867.355713 1469.000000
2868.134277 1445.000000
2868.912598 1422.000000
2869.690430 1380.000000
2870.468018 1501.000000
2871.245361 1374.000000
2872.022461 1399.000000
2872.799072 1397.000000
2873.575195 1492.000000
2874.351318 1569.000000
2875.126953 1393.000000
2875.902344 1399.000000
2876.677246 1447.000000
2877.451904 1525.000000
2878.226563 1542.000000
2879.000977 1462.000000
2879.774658 1470.000000
2880.547607 1421.000000
2881.321289 1450.000000
2882.093994 1483.000000
2882.866699 1428.000000
2883.638672 1315.000000
2884.410400 1406.000000
2885.182617 1380.000000
2885.953613 1414.000000
2886.724121 1355.000000
2887.495117 1353.000000
2888.266113 1304.000000
2889.036377 1391.000000
2889.805664 1352.000000
2890.575195 1414.000000
2891.344727 1398.000000
2892.113770 1353.000000
2892.882324 1270.000000
2893.650879 1325.000000
2894.418457 1320.000000
2895.186523 1363.000000
2895.954102 1334.000000
2896.721680 1365.000000
2897.488037 1293.000000
2898.255371 1272.000000
2899.021484 1151.000000
2899.787842 1248.000000
2900.552734 1282.000000
2901.318115 1246.000000
2902.083984 1300.000000
2902.848389 1185.000000
2903.612793 1288.000000
2904.377441 1232.000000
2905.141113 1237.000000
2905.905518 1305.000000
2906.669189 1209.000000
2907.432129 1215.000000
2908.194824 1248.000000
2908.958008 1337.000000
2909.720703 1261.000000
2910.482178 1182.000000
2911.244141 1182.000000
spectrumdark 2048
-96.986732 6188.000000
-94.359863 6188.000000
-91.734871 6044.000000
-89.111771 6374.000000
-86.490540 5930.000000
-83.871208 6264.000000
-81.253738 6065.000000
-78.638145 6425.000000
-76.024429 6204.000000
-73.412590 6029.000000
-70.802612 6113.000000
-68.194519 5966.000000
-65.588272 5938.000000
-62.983898 5997.000000
-60.381390 6122.000000
-57.780735 5607.000000
-55.181942 6257.000000
-52.585007 6896.000000
-49.989925 6466.000000
-47.396698 6493.000000
-44.805321 6278.000000
-42.215790 6803.000000
-39.628101 5880.000000
-37.042263 6008.000000
-34.458267 6499.000000
-31.876108 5665.000000
-29.295795 6323.000000
-26.717310 5712.000000
-24.140667 6160.000000
-21.565849 6274.000000
-18.992872 6539.000000
-16.421715 6434.000000
-13.852391 6744.000000
-11.284893 7788.000000
-8.719213 6264.000000
-6.155360 6446.000000
-3.593319 5965.000000
-1.033103 5829.000000
1.525305 6360.000000
4.081892 6892.000000
6.636674 6597.000000
9.189639 5978.000000
11.740804 6723.000000
14.290155 6440.000000
16.837711 6696.000000
19.383455 6022.000000
21.927406 5756.000000
24.469553 6719.000000
27.009903 6833.000000
29.548468 6808.000000
32.085236 6241.000000
34.620201 5813.000000
37.153389 7287.000000
39.684795 6318.000000
42.214409 7052.000000
44.742226 6479.000000
47.268284 7867.000000
49.792553 5691.000000
52.315052 6216.000000
54.835754 6680.000000
57.354702 6354.000000
59.871876 6454.000000
62.387272 6654.000000
64.900887 5637.000000
67.412750 5717.000000
69.922867 6492.000000
72.431190 6592.000000
74.937759 5945.000000
77.442581 6343.000000
79.945648 6427.000000
82.446938 6328.000000
84.946487 6148.000000
87.444283 6335.000000
89.940346 5742.000000
92.434631 7283.000000
94.927177 5813.000000
97.418007 6932.000000
99.907066 7163.000000
102.394379 6404.000000
104.879967 6295.000000
107.363815 6379.000000
109.845917 5748.000000
112.326294 6703.000000
114.804947 6168.000000
117.281876 6543.000000
119.757050 7306.000000
122.230515 6797.000000
124.702248 5882.000000
127.172272 6708.000000
129.640549 6251.000000
132.107147 6297.000000
134.571991 5735.000000
137.035141 6189.000000
139.496552 7293.000000
141.956268 6923.000000
144.414261 6358.000000
146.870560 6042.000000
149.325150 5807.000000
151.778015 6807.000000
154.229202 6370.000000
156.678696 6609.000000
159.126465 6076.000000
161.572525 6646.000000
164.016907 8682.000000
166.459610 6388.000000
168.900620 6694.000000
171.339920 6181.000000
173.777512 7252.000000
176.213470 6645.000000
178.647690 6945.000000
181.080231 7233.000000
183.511124 6707.000000
185.940292 7160.000000
188.367813 6646.000000
190.793655 6363.000000
193.217819 6614.000000
195.640320 7122.000000
198.061127 7341.000000
200.480270 6532.000000
202.897751 6010.000000
205.313538 7636.000000
207.727676 7137.000000
210.140182 6302.000000
212.551010 6096.000000
214.960159 6240.000000
217.367676 7416.000000
219.773483 6207.000000
222.177704 6585.000000
224.580215 6737.000000
226.981110 6964.000000
229.380356 6440.000000
231.777939 6875.000000
234.173859 7295.000000
236.568161 6562.000000
238.960800 6149.000000
241.351822 6853.000000
243.741180 6550.000000
246.128922 6330.000000
248.515015 7032.000000
250.899475 6082.000000
253.282288 7959.000000
255.663528 6577.000000
258.043060 6676.000000
260.421021 6600.000000
262.797302 7520.000000
265.172028 7595.000000
267.545105 7874.000000
269.916534 6145.000000
272.286316 6464.000000
274.654541 5837.000000
277.021118 6322.000000
279.386108 6444.000000
281.749481 6003.000000
284.111206 6256.000000
286.471344 7127.000000
288.829865 5968.000000
291.186798 6516.000000
293.542114 6391.000000
295.895844 5981.000000
298.247925 6010.000000
300.598450 6377.000000
302.947388 6384.000000
305.294678 6823.000000
307.640442 6386.000000
309.984528 6469.000000
312.327087 7379.000000
314.668030 7636.000000
317.007355 7182.000000
319.345123 6952.000000
321.681335 8063.000000
324.015900 6266.000000
326.348907 6513.000000
328.680359 6017.000000
331.010223 6665.000000
333.338501 6431.000000
335.665161 7264.000000
337.990326 6366.000000
340.313873 6223.000000
342.635864 6067.000000
344.956299 7510.000000
347.275116 7740.000000
349.592377 6020.000000
351.908112 5874.000000
354.222260 6886.000000
356.534821 6385.000000
358.845825 6364.000000
361.155304 7057.000000
363.463257 6393.000000
365.769592 5693.000000
368.074341 6531.000000
370.377625 6401.000000
372.679291 6290.000000
374.979462 6386.000000
377.278076 6266.000000
379.575134 5722.000000
381.870636 6107.000000
384.164612 5864.000000
386.457001 5272.000000
388.747894 5637.000000
391.037262 6148.000000
393.325043 6299.000000
395.611298 6464.000000
397.896057 7156.000000
400.179199 6071.000000
402.460907 6449.000000
404.741089 6195.000000
407.019684 7312.000000
409.296753 6500.000000
411.572296 6866.000000
413.846313 6574.000000
416.118896 6603.000000
418.389862 6360.000000
420.659332 6392.000000
422.927307 7113.000000
425.193726 7264.000000
427.458649 6290.000000
429.722107 6272.000000
431.983978 6493.000000
434.244385 5991.000000
436.503235 6685.000000
438.760620 6189.000000
441.016510 5720.000000
443.270905 5830.000000
445.523773 5443.000000
447.775085 6935.000000
450.024994 6066.000000
452.273315 6300.000000
454.520203 5652.000000
456.765625 6458.000000
459.009491 6514.000000
461.251862 6536.000000
463.492737 5673.000000
465.732208 6673.000000
467.970093 5401.000000
470.206543 5856.000000
472.441467 6109.000000
474.674927 7426.000000
476.906952 6707.000000
479.137451 5699.000000
481.366455 6413.000000
483.593994 6314.000000
485.820038 6000.000000
488.044647 6627.000000
490.267792 5850.000000
492.489471 6418.000000
494.709595 6681.000000
496.928314 5665.000000
499.145538 6279.000000
501.361389 5497.000000
503.575623 6141.000000
505.788544 6426.000000
507.999878 6482.000000
510.209778 6886.000000
512.418213 6471.000000
514.625305 6583.000000
516.830811 6429.000000
519.034912 6549.000000
521.237488 6181.000000
523.438660 6599.000000
525.638489 6694.000000
527.836792 6975.000000
530.033569 5326.000000
532.229004 5902.000000
534.422913 5519.000000
536.615479 7544.000000
538.806519 6743.000000
540.996155 6056.000000
543.184387 7004.000000
545.371094 7202.000000
547.556335 6797.000000
549.740295 6234.000000
551.922668 6440.000000
554.103699 6237.000000
556.283203 6036.000000
558.461426 5866.000000
560.638123 6052.000000
562.813416 6389.000000
564.987305 6475.000000
567.159729 5920.000000
569.330750 6109.000000
571.500305 6365.000000
573.668579 5298.000000
575.835327 6391.000000
578.000610 6381.000000
580.164490 6155.000000
582.327087 5691.000000
584.488159 6056.000000
586.647827 5678.000000
588.806152 5823.000000
590.962952 6135.000000
593.118408 6570.000000
595.272461 5812.000000
597.425171 6124.000000
599.576355 7263.000000
601.726196 6770.000000
603.874695 6673.000000
606.021606 6052.000000
608.167297 6520.000000
610.311584 6482.000000
612.454407 7105.000000
614.595764 6183.000000
616.735901 6504.000000
618.874512 7709.000000
621.011841 5756.000000
623.147705 6634.000000
625.282166 6899.000000
627.415161 7137.000000
629.546997 6662.000000
631.677368 6593.000000
633.806335 6813.000000
635.933838 6414.000000
638.060059 6246.000000
640.184753 7336.000000
642.308228 6426.000000
644.430359 6778.000000
646.551025 6893.000000
648.670349 6561.000000
650.788269 5633.000000
652.904846 5657.000000
655.020020 6380.000000
657.133850 6491.000000
659.246216 5842.000000
661.357361 6147.000000
663.467102 5458.000000
665.575378 6084.000000
667.682495 6291.000000
669.788147 6841.000000
671.892334 5878.000000
673.995300 5776.000000
676.096863 7028.000000
678.197083 5382.000000
680.295898 6718.000000
682.393372 6225.000000
684.489563 7040.000000
686.584290 6400.000000
688.677795 7040.000000
690.769958 6621.000000
692.860596 8019.000000
694.950012 6633.000000
697.038147 6472.000000
699.124817 6021.000000
701.210266 6739.000000
703.294189 5222.000000
705.376892 5947.000000
707.458313 5980.000000
709.538269 7590.000000
711.617004 6234.000000
713.694275 5576.000000
715.770264 6571.000000
717.844971 6129.000000
719.918396 7036.000000
721.990295 6341.000000
724.061035 7376.000000
726.130432 5791.000000
728.198425 6434.000000
730.265076 6369.000000
732.330505 7102.000000
734.394592 5816.000000
736.457336 6202.000000
738.518738 6561.000000
740.578857 6671.000000
742.637573 6004.000000
744.695068 6649.000000
746.751282 6549.000000
748.806091 6739.000000
750.859619 6347.000000
752.911743 7469.000000
754.962646 5742.000000
757.012329 6711.000000
759.060547 6358.000000
761.107544 6203.000000
763.153259 7062.000000
765.197571 5325.000000
767.240601 5747.000000
769.282410 15164.000000
771.322876 7222.000000
773.361938 6369.000000
775.399841 6051.000000
777.436401 6026.000000
779.471741 5316.000000
781.505737 5749.000000
783.538330 6911.000000
785.569763 5583.000000
787.599792 11628.000000
789.628540 6021.000000
791.656128 6247.000000
793.682373 6359.000000
795.707214 5799.000000
797.730957 5541.000000
799.753296 6407.000000
801.774414 5895.000000
803.794189 6683.000000
805.812683 4850.000000
807.829956 6795.000000
809.845825 6798.000000
811.860535 5682.000000
813.873901 6426.000000
815.886047 6316.000000
817.896973 6066.000000
819.906555 6589.000000
821.914917 5361.000000
823.921875 5724.000000
825.927612 6009.000000
827.932129 5796.000000
829.935364 5671.000000
831.937317 6507.000000
833.937988 6104.000000
835.937439 5919.000000
837.935547 6356.000000
839.932556 6978.000000
841.928162 6207.000000
843.922607 6036.000000
845.915710 6218.000000
847.907593 6825.000000
849.898132 5516.000000
851.887390 6806.000000
853.875610 6013.000000
855.862427 5789.000000
857.848022 6430.000000
859.832336 7300.000000
861.815552 6324.000000
863.797363 6403.000000
865.777954 5927.000000
867.757263 7721.000000
869.735413 7101.000000
871.712219 6209.000000
873.687744 6202.000000
875.662231 6171.000000
877.635254 6018.000000
879.607239 5398.000000
881.577881 6431.000000
883.547363 6077.000000
885.515503 5578.000000
887.482483 5164.000000
889.448120 6232.000000
891.412598 5914.000000
893.375854 6039.000000
895.337891 6525.000000
897.298645 5840.000000
899.258179 6396.000000
901.216431 6700.000000
903.173584 6346.000000
905.129578 6022.000000
907.084167 6937.000000
909.037537 6489.000000
910.989746 6529.000000
912.940735 6385.000000
914.890442 7121.000000
916.838989 6343.000000
918.786316 6179.000000
920.732361 6179.000000
922.677124 6038.000000
924.620850 6339.000000
926.563416 5990.000000
928.504700 5591.000000
930.444641 6483.000000
932.383484 5760.000000
934.321045 5498.000000
936.257385 5976.000000
938.192566 5855.000000
940.126465 6123.000000
942.059265 5864.000000
943.990845 6821.000000
945.921265 5180.000000
947.850464 6399.000000
949.778320 7030.000000
951.705139 6661.000000
953.630676 5942.000000
955.554932 5404.000000
957.478088 6047.000000
959.400085 6724.000000
961.320801 7286.000000
963.240356 6501.000000
965.158752 5368.000000
967.076111 6478.000000
968.992004 6385.000000
970.906799 6173.000000
972.820374 6030.000000
974.732788 6392.000000
976.643982 6437.000000
978.554016 5494.000000
980.462769 6279.000000
982.370483 6168.000000
984.276978 6365.000000
986.182251 5767.000000
988.086426 6832.000000
989.989380 6262.000000
991.891113 6793.000000
993.791687 6575.000000
995.691101 6594.000000
997.589294 5276.000000
999.486328 6453.000000
1001.382141 6515.000000
1003.276794 7679.000000
1005.170349 5617.000000
1007.062622 7228.000000
1008.953979 6066.000000
1010.843994 5331.000000
1012.732788 6579.000000
1014.620422 6323.000000
1016.506897 6957.000000
1018.392212 6769.000000
1020.276367 5986.000000
1022.159302 5882.000000
1024.041260 6259.000000
1025.921875 5231.000000
1027.801392 5898.000000
1029.679932 6044.000000
1031.557129 5401.000000
1033.432983 6250.000000
1035.307861 5935.000000
1037.181763 6632.000000
1039.054199 7000.000000
1040.925659 6775.000000
1042.795776 5493.000000
1044.664917 5559.000000
1046.532837 5821.000000
1048.399658 7253.000000
1050.265381 6719.000000
1052.129883 6427.000000
1053.993286 6462.000000
1055.855347 6462.000000
1057.716431 5923.000000
1059.576416 6514.000000
1061.435059 6662.000000
1063.292603 5825.000000
1065.149048 6724.000000
1067.004395 5999.000000
1068.858521 5848.000000
1070.711792 6280.000000
1072.563599 6299.000000
1074.414429 6209.000000
1076.264038 6143.000000
1078.112427 5729.000000
1079.959961 7944.000000
1081.806152 5583.000000
1083.651123 6242.000000
1085.495239 5463.000000
1087.338013 5551.000000
1089.179565 6484.000000
1091.020386 5475.000000
1092.859619 5785.000000
1094.698120 6074.000000
1096.535278 6015.000000
1098.371216 6845.000000
1100.206177 6587.000000
1102.039917 5422.000000
1103.872681 5649.000000
1105.704102 6206.000000
1107.534668 7251.000000
1109.363892 6507.000000
1111.192139 6461.000000
1113.019165 7087.000000
1114.845215 5420.000000
1116.670044 6334.000000
1118.493774 7179.000000
1120.316284 6078.000000
1122.137695 5862.000000
1123.958252 5885.000000
1125.777344 6673.000000
1127.595581 7074.000000
1129.412476 6980.000000
1131.228516 6613.000000
1133.043335 6494.000000
1134.857056 5663.000000
1136.669678 5865.000000
1138.481079 5680.000000
1140.291504 6150.000000
1142.100830 6749.000000
1143.908813 6930.000000
1145.716064 5942.000000
1147.521851 5932.000000
1149.326782 5396.000000
1151.130615 5395.000000
1152.933228 6060.000000
1154.734985 6136.000000
1156.535278 6029.000000
1158.334595 6116.000000
1160.132935 5847.000000
1161.929932 5460.000000
1163.726196 5948.000000
1165.521118 6098.000000
1167.314941 6289.000000
1169.107910 7762.000000
1170.899536 5596.000000
1172.690186 6524.000000
1174.479858 6029.000000
1176.268066 5858.000000
1178.055420 7541.000000
1179.841675 6889.000000
1181.626831 5748.000000
1183.410889 5966.000000
1185.193848 7744.000000
1186.975830 5798.000000
1188.756592 5931.000000
1190.536377 6309.000000
1192.315063 6937.000000
1194.092773 6684.000000
1195.869263 7137.000000
1197.644653 6602.000000
1199.418945 6515.000000
1201.192139 6727.000000
1202.964478 6605.000000
1204.735474 6683.000000
1206.505615 5732.000000
1208.274536 6094.000000
1210.042358 6318.000000
1211.809326 5742.000000
1213.574951 5939.000000
1215.339600 6993.000000
1217.103149 6605.000000
1218.865601 5949.000000
1220.627197 6704.000000
1222.387573 5911.000000
1224.146851 6403.000000
1225.905273 6055.000000
1227.662476 7234.000000
1229.418579 6408.000000
1231.173584 5554.000000
1232.927734 6022.000000
1234.680542 5854.000000
1236.432373 6040.000000
1238.183350 5977.000000
1239.932983 4960.000000
1241.681763 7025.000000
1243.429199 6505.000000
1245.175903 6636.000000
1246.921387 6495.000000
1248.666016 6449.000000
1250.409302 6751.000000
1252.151611 6710.000000
1253.892822 5356.000000
1255.633179 5178.000000
1257.372437 5754.000000
1259.110474 6550.000000
1260.847656 7128.000000
1262.583618 6064.000000
1264.318604 6409.000000
1266.052612 7284.000000
1267.785645 6000.000000
1269.517456 6181.000000
1271.248291 6377.000000
1272.977905 7239.000000
1274.706665 5956.000000
1276.434326 5656.000000
1278.160889 5574.000000
1279.886597 5535.000000
1281.610962 6486.000000
1283.334473 5233.000000
1285.057007 6897.000000
1286.778564 6632.000000
1288.498901 6346.000000
1290.218262 6625.000000
1291.936523 7282.000000
1293.653809 6462.000000
1295.370117 5768.000000
1297.085205 6405.000000
1298.799316 6163.000000
1300.512451 5765.000000
1302.224731 6540.000000
1303.935791 8444.000000
1305.645874 5298.000000
1307.354858 6330.000000
1309.062622 6651.000000
1310.769775 7041.000000
1312.475464 5844.000000
1314.180420 6849.000000
1315.884399 6209.000000
1317.587158 5971.000000
1319.288940 6602.000000
1320.989868 6060.000000
1322.689453 9835.000000
1324.388184 7714.500000
1326.086182 5594.000000
1327.782837 6493.000000
1329.478394 7108.000000
1331.173096 6867.000000
1332.866577 5775.000000
1334.559204 5409.000000
1336.250977 7322.000000
1337.941406 6312.000000
1339.631104 6559.000000
1341.319702 6130.000000
1343.007202 7602.000000
1344.693726 5704.000000
1346.379150 6793.000000
1348.063599 6011.000000
1349.747192 7261.000000
1351.429565 6345.000000
1353.110962 5933.000000
1354.791504 6582.000000
1356.470825 6703.000000
1358.149536 5907.000000
1359.826904 6538.000000
1361.503174 5794.000000
1363.178467 5620.000000
1364.853027 6646.000000
1366.526367 6466.000000
1368.198730 6821.000000
1369.870117 5180.000000
1371.540527 6833.000000
1373.209839 6141.000000
1374.878174 5736.000000
1376.545654 5923.000000
1378.212036 6420.000000
1379.877441 6175.000000
1381.541870 5843.000000
1383.205078 5889.000000
1384.867676 5806.000000
1386.528931 6324.000000
1388.189331 6651.000000
1389.848633 6438.000000
1391.506958 6606.000000
1393.164551 6945.000000
1394.820923 6444.000000
1396.476440 7059.000000
1398.130737 6385.000000
1399.784180 6012.000000
1401.436523 6154.000000
1403.088135 6480.000000
1404.738525 7139.000000
1406.387817 6275.000000
1408.036377 7501.000000
1409.683838 7937.000000
1411.330322 6232.000000
1412.975952 6187.000000
1414.620605 6007.000000
1416.264038 7007.000000
1417.906616 7215.000000
1419.548096 6860.000000
1421.188721 6507.000000
1422.828369 6483.000000
1424.466919 6078.000000
1426.104614 6622.000000
1427.741211 6372.000000
1429.376831 6014.000000
1431.011719 6403.000000
1432.645508 5981.000000
1434.278198 6172.000000
1435.909912 5628.000000
1437.540771 6153.000000
1439.170532 6106.000000
1440.799194 7903.000000
1442.427246 5984.000000
1444.054199 6253.000000
1445.679932 6195.000000
1447.305054 6200.000000
1448.929077 6543.000000
1450.552124 6077.000000
1452.174194 6035.000000
1453.795166 7375.000000
1455.415161 6349.000000
1457.034424 6915.000000
1458.652344 5675.000000
1460.269653 5605.000000
1461.885986 5535.000000
1463.501099 7299.000000
1465.115356 6387.000000
1466.728760 5230.000000
1468.341064 5612.000000
1469.952515 6310.000000
1471.563110 6386.000000
1473.172485 6022.000000
1474.780884 5965.000000
1476.388428 6245.000000
1477.994995 6836.000000
1479.600830 5400.000000
1481.205444 6273.000000
1482.809204 5543.000000
1484.411743 6782.000000
1486.013672 5529.000000
1487.614380 5492.000000
1489.214355 5654.000000
1490.813232 6335.000000
1492.411255 6584.000000
1494.008179 6722.000000
1495.604248 6345.000000
1497.199341 6032.000000
1498.793457 5458.000000
1500.386841 6612.000000
1501.979126 5540.000000
1503.570190 6238.000000
1505.160767 6804.000000
1506.750000 6541.000000
1508.338623 6065.000000
1509.926147 6629.000000
1511.512573 6880.000000
1513.098267 6192.000000
1514.682861 6635.000000
1516.266602 6438.000000
1517.849243 6211.000000
1519.431152 6592.000000
1521.011963 6708.000000
1522.592041 6091.000000
1524.170898 6313.000000
1525.748901 6438.000000
1527.326172 6296.000000
1528.902222 5752.000000
1530.477539 5962.000000
1532.051758 6291.000000
1533.625244 5517.000000
1535.197510 5984.000000
1536.769043 6412.000000
1538.339600 6492.000000
1539.909302 6399.000000
1541.477783 5411.000000
1543.045532 6565.000000
1544.612427 5596.000000
1546.178101 6825.000000
1547.743042 5951.000000
1549.306885 5102.000000
1550.870117 7482.000000
1552.432007 6372.000000
1553.993286 5966.000000
1555.553467 5751.000000
1557.112915 5756.000000
1558.671265 6053.000000
1560.228882 6328.000000
1561.785400 7124.000000
1563.340698 5903.000000
1564.895386 6385.000000
1566.449341 5599.000000
1568.002319 6356.000000
1569.553955 5656.000000
1571.104858 5915.000000
1572.655029 6218.000000
1574.204224 6347.000000
1575.752075 5852.000000
1577.299438 5433.000000
1578.845825 5675.000000
1580.391357 5072.000000
1581.935913 6687.000000
1583.479248 6336.000000
1585.021973 6590.000000
1586.563843 6415.000000
1588.104614 6773.000000
1589.644409 5787.000000
1591.183472 6680.000000
1592.721436 5920.000000
1594.258911 6167.000000
1595.795044 5923.000000
1597.330078 6702.000000
1598.864624 6252.000000
1600.398193 5964.000000
1601.930908 6186.000000
1603.462036 6278.000000
1604.992920 6308.000000
1606.522949 5761.000000
1608.051758 6137.000000
1609.579468 6208.000000
1611.106567 6052.000000
1612.632935 5945.000000
1614.158325 6271.000000
1615.682861 5838.000000
1617.206055 5777.000000
1618.728516 5608.000000
1620.250244 6622.000000
1621.771118 6998.000000
1623.290527 6644.000000
1624.809448 6290.000000
1626.327637 6108.000000
1627.844971 5921.000000
1629.361206 6445.000000
1630.876099 6979.000000
1632.390503 6789.000000
1633.904175 5805.000000
1635.416748 6822.000000
1636.928101 5986.000000
1638.439087 6470.000000
1639.948975 6251.000000
1641.458008 6167.000000
1642.965698 5597.000000
1644.473022 6145.000000
1645.979492 7121.000000
1647.484985 6286.000000
1648.989624 6810.000000
1650.492798 6151.000000
1651.995361 6530.000000
1653.497559 6359.000000
1654.998413 6693.000000
1656.498169 7613.000000
1657.997070 6174.000000
1659.495605 6536.000000
1660.992920 6263.000000
1662.489502 6015.000000
1663.984497 6487.000000
1665.479248 6257.000000
1666.973145 5213.000000
1668.466064 5779.000000
1669.957642 6159.000000
1671.448730 6539.000000
1672.939209 6074.000000
1674.428589 5978.000000
1675.916504 6958.000000
1677.404175 6910.000000
1678.890869 6050.000000
1680.376709 5480.000000
1681.861694 6112.000000
1683.345215 6184.000000
1684.828491 6157.000000
1686.310913 5953.000000
1687.792236 6240.000000
1689.272095 6180.000000
1690.751709 5561.000000
1692.230591 6586.000000
1693.708496 6070.000000
1695.185425 6156.000000
1696.661133 5781.000000
1698.136475 6078.000000
1699.610596 6356.000000
1701.084106 5549.000000
1702.556152 5612.000000
1704.027954 6878.000000
1705.498779 6417.000000
1706.968750 7068.000000
1708.437378 5130.000000
1709.905518 5824.000000
1711.372925 6457.000000
1712.839233 5467.000000
1714.304932 5757.000000
1715.768921 6244.000000
1717.232788 6024.000000
1718.695801 6994.000000
1720.157837 6419.000000
1721.618652 6646.000000
1723.078857 5500.000000
1724.538330 6392.000000
1725.996948 6173.000000
1727.454590 6086.000000
1728.910889 6281.000000
1730.366943 6096.000000
1731.822021 6513.000000
1733.276123 6031.000000
1734.729004 6909.000000
1736.181641 6014.000000
1737.633179 6861.000000
1739.083984 5954.000000
1740.533813 6599.000000
1741.982300 6027.000000
1743.430420 7629.000000
1744.877686 6594.000000
1746.324219 6676.000000
1747.769165 6687.000000
1749.213867 6190.000000
1750.657715 5786.000000
1752.100708 5508.000000
1753.542236 6577.000000
1754.983521 6363.000000
1756.423950 6305.500000
1757.863403 6248.000000
1759.301880 5300.000000
1760.739380 6123.000000
1762.176392 7586.000000
1763.612427 5889.000000
1765.047607 7109.000000
1766.481323 6221.000000
1767.914917 6431.000000
1769.347534 6657.000000
1770.779297 5839.000000
1772.210205 5906.000000
1773.639893 6411.000000
1775.068848 6126.000000
1776.497314 6318.000000
1777.924805 6731.000000
1779.350952 6240.000000
1780.776855 5591.000000
1782.201660 6900.000000
1783.625854 5584.000000
1785.048584 6722.000000
1786.470825 6517.000000
1787.892334 6863.000000
1789.313110 5800.000000
1790.732910 6221.000000
1792.151367 6188.000000
1793.569336 6847.000000
1794.986694 5538.000000
1796.403198 6096.000000
1797.818237 6534.000000
1799.232910 5852.000000
1800.646973 6538.000000
1802.059814 6016.000000
1803.472046 7020.000000
1804.882935 7216.000000
1806.293335 7788.000000
1807.703003 6493.000000
1809.111694 5920.000000
1810.519287 5357.000000
1811.926392 6484.000000
1813.332642 6396.000000
1814.737915 6702.000000
1816.142090 5952.000000
1817.545898 5999.000000
1818.948730 6257.000000
1820.350708 6053.000000
1821.752075 5893.000000
1823.151978 6357.000000
1824.551270 6526.000000
1825.950073 6575.000000
1827.348022 7538.000000
1828.744629 5686.000000
1830.140625 6798.000000
1831.535889 5941.000000
1832.930542 8131.000000
1834.324219 6065.000000
1835.716553 6848.000000
1837.108398 6404.000000
1838.499634 5858.000000
1839.889893 7135.000000
1841.278931 6043.000000
1842.667603 6140.000000
1844.055298 6000.000000
1845.442261 5829.000000
1846.827881 6875.000000
1848.213257 5879.000000
1849.597778 6416.000000
1850.981567 6300.000000
1852.364258 6379.000000
1853.745728 5390.000000
1855.126709 6586.000000
1856.507202 6337.000000
1857.886719 5768.000000
1859.264771 5975.000000
1860.642700 6269.000000
1862.019653 7877.000000
1863.395874 6114.000000
1864.771240 6056.000000
1866.145142 5667.000000
1867.518921 5762.000000
1868.891846 6194.000000
1870.263672 5992.000000
1871.634521 6945.000000
1873.005005 5451.000000
1874.374390 6052.000000
1875.743286 6089.000000
1877.110596 7164.000000
1878.477783 5999.000000
1879.843994 6075.000000
1881.209473 6728.000000
1882.574219 7567.000000
1883.937378 6856.000000
1885.300415 6887.000000
1886.662598 6399.000000
1888.023926 6473.000000
1889.383911 5646.000000
1890.743530 5849.000000
1892.102539 6206.000000
1893.460571 6650.000000
1894.817749 7359.000000
1896.173706 5904.000000
1897.529419 7639.000000
1898.884155 5864.000000
1900.238037 5552.000000
1901.590820 5914.000000
1902.943115 5989.000000
1904.294678 5983.000000
1905.645386 6960.000000
1906.994873 6561.000000
1908.343872 6664.000000
1909.692017 5838.000000
1911.039551 6266.000000
1912.386353 6320.000000
1913.731567 6834.000000
1915.076538 6089.000000
1916.420776 5420.000000
1917.764160 6537.000000
1919.106201 6009.000000
1920.447998 6700.000000
1921.788940 7011.000000
1923.129150 6232.000000
1924.468384 6370.000000
1925.806641 6318.000000
1927.144287 6513.000000
1928.481201 7026.000000
1929.817261 6741.000000
1931.152100 5681.000000
1932.486572 6677.000000
1933.820313 7234.000000
1935.153198 6236.000000
1936.484619 5703.000000
1937.816162 6378.000000
1939.146362 6619.000000
1940.476074 5849.000000
1941.804932 6105.000000
1943.132568 5870.000000
1944.459717 5052.000000
1945.786133 5850.000000
1947.111816 6567.000000
1948.436157 5810.000000
1949.760254 6621.000000
1951.083496 6401.000000
1952.406006 6428.000000
1953.727417 5786.000000
1955.047852 7481.000000
1956.367676 6047.000000
1957.687134 5543.000000
1959.005615 6852.000000
1960.322754 5973.000000
1961.639526 5866.000000
1962.955566 6618.000000
1964.270874 6607.000000
1965.584717 6340.000000
1966.898315 5695.000000
1968.211182 6232.000000
1969.523193 5992.000000
1970.834595 6014.000000
1972.144653 6364.000000
1973.454224 5822.000000
1974.763062 6244.000000
1976.071289 6673.000000
1977.378174 6141.000000
1978.684448 7301.000000
1979.990356 5541.000000
1981.295044 6464.000000
1982.599243 5923.000000
1983.902222 5719.000000
1985.204834 7583.000000
1986.506470 6178.000000
1987.807495 6797.000000
1989.106934 6111.000000
1990.406494 6658.000000
1991.704956 5338.000000
1993.002930 6101.000000
1994.299316 6195.000000
1995.595703 5775.000000
1996.891113 5617.000000
1998.185791 6528.000000
1999.479614 5743.000000
2000.772217 6522.000000
2002.064331 5735.000000
2003.355957 7194.000000
2004.646851 6533.000000
2005.936157 6378.000000
2007.225220 6821.000000
2008.513550 5959.000000
2009.801147 5992.000000
2011.087891 6655.000000
2012.373535 5673.000000
2013.658813 6419.000000
2014.943115 5971.000000
2016.226807 5581.000000
2017.509155 6095.000000
2018.791138 6510.000000
2020.072632 6759.000000
2021.353149 5887.000000
2022.632935 6123.000000
2023.911621 6762.000000
2025.189575 5877.000000
2026.467041 5927.000000
2027.743896 6286.000000
2029.019043 5871.000000
2030.294312 6628.000000
2031.568604 6062.000000
2032.841919 5942.000000
2034.114380 5976.000000
2035.386475 6223.000000
2036.657471 6984.000000
2037.928223 6609.000000
2039.197632 6001.000000
2040.465942 6972.000000
2041.734253 6554.000000
2043.001587 5981.000000
2044.268188 5998.000000
2045.533569 5650.000000
2046.798340 5541.000000
2048.062744 5424.000000
2049.326172 5866.000000
2050.589111 6364.000000
2051.850098 6176.000000
2053.111572 6042.000000
2054.371826 5956.000000
2055.631348 6689.000000
2056.890137 6304.000000
2058.147949 6984.000000
2059.405273 5920.000000
2060.661865 6008.000000
2061.916992 6491.000000
2063.172119 5625.000000
2064.426270 5617.000000
2065.679688 5648.000000
2066.932373 6865.000000
2068.183838 6258.000000
2069.435059 6390.000000
2070.685547 5639.000000
2071.935303 5421.000000
2073.183594 6523.000000
2074.431885 6517.000000
2075.679199 7492.000000
2076.925781 5638.000000
2078.171631 6055.000000
2079.416260 7055.000000
2080.660400 7615.000000
2081.904053 5484.000000
2083.146729 6060.000000
2084.388184 6974.000000
2085.629395 5971.000000
2086.870117 6374.000000
2088.109863 6757.000000
2089.348389 7108.000000
2090.586426 6217.000000
2091.823730 5806.000000
2093.060791 6684.000000
2094.296387 6167.000000
2095.531250 6244.000000
2096.765869 6099.000000
2097.999512 5569.000000
2099.232178 6073.000000
2100.464111 6958.000000
2101.695557 6445.000000
2102.926025 6811.000000
2104.155762 6046.000000
2105.385254 5975.000000
2106.612793 6040.000000
2107.840576 6019.000000
2109.067627 6415.000000
2110.293701 5472.000000
2111.518311 6379.000000
2112.743164 6956.000000
2113.966797 7091.000000
2115.189941 6258.000000
2116.411865 7532.000000
2117.633545 6058.000000
2118.854248 6768.000000
2120.074219 6051.000000
2121.293701 6176.000000
2122.511719 6593.000000
2123.729736 7044.000000
2124.946777 5768.000000
2126.163330 5794.000000
2127.378174 6560.000000
2128.593262 6386.000000
2129.807373 6948.000000
2131.020752 5673.000000
2132.233398 6124.000000
2133.444580 5884.000000
2134.656006 6492.000000
2135.866211 6848.000000
2137.075928 5967.000000
2138.284180 6196.000000
2139.492432 5652.000000
2140.699951 5960.000000
2141.906250 7752.000000
2143.111816 5999.000000
2144.317139 5708.000000
2145.521484 5593.000000
2146.725098 6256.000000
2147.928223 6185.000000
2149.129883 6494.000000
2150.331299 5340.000000
2151.531982 6310.000000
2152.731934 6176.000000
2153.930664 5943.000000
2155.129150 6973.000000
2156.327148 6213.000000
2157.524170 6040.000000
2158.720459 5168.000000
2159.915527 5306.000000
2161.110352 6134.000000
2162.304443 5559.000000
2163.497559 6097.000000
2164.689697 6961.000000
2165.881592 5928.000000
2167.072754 6349.000000
2168.262939 6258.000000
2169.452393 6463.000000
2170.641357 6770.000000
2171.829346 6021.000000
2173.017090 5763.000000
2174.203369 5941.000000
2175.388916 6591.000000
2176.574219 5980.000000
2177.759033 5839.000000
2178.942627 6382.000000
2180.125488 7523.000000
2181.307373 6330.000000
2182.489014 5973.000000
2183.670166 6543.000000
2184.850098 5676.000000
2186.029053 5551.000000
2187.207520 6372.000000
2188.385742 6855.000000
2189.562744 7238.000000
2190.738770 6781.000000
2191.914551 6091.000000
2193.089844 5620.000000
2194.263672 6727.000000
2195.437012 6188.000000
2196.610107 6138.000000
2197.781982 6582.000000
2198.953369 7148.000000
2200.124268 6351.000000
2201.293457 6956.000000
2202.462646 7620.000000
2203.631348 6309.000000
2204.799072 5988.000000
2205.965820 5639.000000
2207.131836 7265.000000
2208.297363 6705.000000
2209.462646 5975.000000
2210.626465 6784.000000
2211.789795 5483.000000
2212.951904 6239.000000
2214.114258 6271.000000
2215.275391 6671.000000
2216.435547 6644.000000
2217.595215 6391.000000
2218.754639 6642.000000
2219.912842 6318.000000
2221.070068 6315.000000
2222.227051 6745.000000
2223.383301 6614.000000
2224.538818 6796.000000
2225.693604 6288.000000
2226.847412 6387.000000
2228.000244 6039.000000
2229.153564 6960.000000
2230.304932 6180.000000
2231.456055 6196.000000
2232.606445 6574.000000
2233.756348 7703.000000
2234.905273 6312.000000
2236.053711 5204.000000
2237.200684 6829.000000
2238.347900 7112.000000
2239.493896 6079.000000
2240.639648 7245.000000
2241.783691 7348.000000
2242.927979 6759.000000
2244.071289 6185.000000
2245.213867 6015.000000
2246.355469 5791.000000
2247.496826 5888.000000
2248.637207 6422.000000
2249.776855 6439.000000
2250.916016 5854.000000
2252.053955 5871.000000
2253.191895 6176.000000
2254.328857 5321.000000
2255.465088 6331.000000
2256.600342 6140.000000
2257.734863 7294.000000
2258.869141 6396.000000
2260.002930 5455.000000
2261.135254 6103.000000
2262.267090 6824.000000
2263.398438 6340.000000
2264.528809 6480.000000
2265.658936 8058.000000
2266.787842 6627.000000
2267.916260 6140.000000
2269.044189 5516.000000
2270.171143 6188.000000
2271.297363 5940.000000
2272.422607 6694.000000
2273.547852 6516.000000
2274.672363 6440.000000
2275.795654 5937.000000
2276.918213 6321.000000
2278.040283 5972.000000
2279.161865 7332.000000
2280.282715 6429.000000
2281.402344 6403.000000
2282.521484 7110.000000
2283.640381 7669.000000
2284.758545 7208.000000
2285.875732 5943.000000
2286.991943 6434.000000
2288.107910 7048.000000
2289.223145 6943.000000
2290.337646 7437.000000
2291.450928 5867.000000
2292.564209 6316.000000
2293.676758 6012.000000
2294.788574 5311.000000
2295.899658 6767.000000
2297.009521 6431.000000
2298.118896 6172.000000
2299.228027 6692.000000
2300.336182 6422.000000
2301.443359 6779.000000
2302.550293 5903.000000
2303.656494 6240.000000
2304.762207 6661.000000
2305.866455 6672.000000
2306.970459 5471.000000
2308.073975 5703.000000
2309.177002 6540.000000
2310.278809 7514.000000
2311.379883 7349.000000
2312.480469 6587.000000
2313.580566 5518.000000
2314.679932 6372.000000
2315.777832 6564.000000
2316.876221 6978.000000
2317.973145 8198.000000
2319.069824 6920.000000
2320.166016 5817.000000
2321.260498 6889.000000
2322.354980 7476.000000
2323.448730 5853.000000
2324.542236 6041.000000
2325.634033 6463.000000
2326.725830 6922.000000
2327.816895 6188.000000
2328.907227 6303.000000
2329.996582 6938.000000
2331.085938 6047.000000
2332.174072 6333.000000
2333.261719 6865.000000
2334.349121 6499.000000
2335.434814 6729.000000
2336.520264 7746.000000
2337.605469 6286.000000
2338.689697 6795.000000
2339.772949 5930.000000
2340.855957 6459.000000
2341.937988 7144.000000
2343.019775 5973.000000
2344.100830 7466.000000
2345.180664 6681.000000
2346.260010 5726.000000
2347.338867 6772.000000
2348.417236 6575.000000
2349.494141 6349.000000
2350.570801 6998.000000
2351.647217 6021.000000
2352.722656 6477.000000
2353.797119 5975.000000
2354.871338 6322.000000
2355.944824 6777.000000
2357.017822 6310.000000
2358.089600 7046.000000
2359.161133 6291.000000
2360.231689 6864.000000
2361.302002 7490.000000
2362.371338 7549.000000
2363.439697 6853.000000
2364.507813 6723.000000
2365.575195 7165.000000
2366.642090 7208.000000
2367.708252 6047.000000
2368.773193 6858.000000
2369.838135 6978.000000
2370.902344 6338.000000
2371.965820 6948.000000
2373.028076 5855.000000
2374.090332 6357.000000
2375.151611 6376.000000
2376.212646 5877.000000
2377.272461 6312.000000
2378.331543 7926.000000
2379.390625 6531.000000
2380.448730 7572.000000
2381.506104 6943.000000
2382.562500 8081.000000
2383.618652 7865.000000
2384.674316 6254.000000
2385.729248 7057.000000
2386.782715 6834.000000
2387.836426 6699.000000
2388.889160 6315.000000
2389.941406 6760.000000
2390.992920 6183.000000
2392.043457 6633.000000
2393.093750 6483.000000
2394.143066 6315.000000
2395.192383 6236.000000
2396.240234 6862.000000
2397.287598 6958.000000
2398.334717 6307.000000
2399.380859 6674.000000
2400.426270 6192.000000
2401.470947 6740.000000
2402.515625 7792.000000
2403.558838 7507.000000
2404.602051 6589.000000
2405.643799 5956.000000
2406.685791 6732.000000
2407.727051 7141.000000
2408.767334 6094.000000
2409.806885 6394.000000
2410.845459 6324.000000
2411.884277 6172.000000
2412.921875 6543.000000
2413.959229 6880.000000
2414.995361 7392.000000
2416.031250 6256.000000
2417.066406 6312.000000
2418.101074 6642.000000
2419.134277 7188.000000
2420.167725 6476.000000
2421.200195 6673.000000
2422.232422 6869.000000
2423.263184 7033.000000
2424.293945 6449.000000
2425.324219 6836.000000
2426.353271 6870.000000
2427.382324 6758.000000
2428.409668 7359.000000
2429.437500 6650.000000
2430.464111 7284.000000
2431.490479 6944.000000
2432.515381 7665.000000
2433.540527 6570.000000
2434.564697 7117.000000
2435.588623 6752.000000
2436.611328 5925.000000
2437.633301 6354.000000
2438.655029 6652.000000
2439.676025 6646.000000
2440.696533 6073.000000
2441.715820 6551.000000
2442.735107 6597.000000
2443.753418 8464.000000
2444.771484 6272.000000
2445.788086 6490.000000
2446.804688 6582.000000
2447.820557 6066.000000
2448.836426 7020.000000
2449.850830 6872.000000
2450.864502 5545.000000
2451.877686 7249.000000
2452.890625 6009.000000
2453.902832 7189.000000
2454.914063 6684.000000
2455.925049 7734.000000
2456.935303 6414.000000
2457.945068 7646.000000
2458.953857 5911.000000
2459.961914 5992.000000
2460.969971 6273.000000
2461.976807 7309.000000
2462.983398 5521.000000
2463.988770 7482.000000
2464.993896 6960.000000
2465.998779 5827.000000
2467.002441 6482.000000
2468.005859 6378.000000
2469.008301 7644.000000
2470.010498 7361.000000
2471.012207 6915.000000
2472.012939 6601.000000
2473.012695 7068.000000
2474.012451 6768.000000
2475.011230 5678.000000
2476.009521 6590.000000
2477.006836 7074.000000
2478.003906 6056.000000
2479.000977 6988.000000
2479.996582 5893.000000
2480.992188 7173.000000
2481.986084 6681.000000
2482.979980 8084.000000
2483.973389 6869.000000
2484.966309 6726.000000
2485.958252 7574.000000
2486.949463 7275.000000
2487.940430 6824.000000
2488.930908 5827.000000
2489.920410 6544.000000
2490.909180 6560.000000
2491.897949 5626.000000
2492.885742 6825.000000
2493.872314 6535.000000
2494.858887 8128.000000
2495.844971 6773.000000
2496.830322 7085.000000
2497.814697 8295.000000
2498.798828 6046.000000
2499.782959 6836.000000
2500.765625 5746.000000
2501.747803 7003.000000
2502.729492 6843.000000
2503.710449 7317.000000
2504.690918 6501.000000
2505.671143 5765.000000
2506.649902 6419.000000
2507.628418 7570.000000
2508.606445 6767.000000
2509.583984 7114.000000
2510.560547 6115.000000
2511.536865 5991.000000
2512.512451 6465.000000
2513.487549 6255.000000
2514.462158 6428.000000
2515.435547 7630.000000
2516.408691 6774.000000
2517.381592 6978.000000
2518.353516 6130.000000
2519.324707 6837.000000
2520.295410 6936.000000
2521.265869 7816.000000
2522.235596 8137.000000
2523.204346 6137.000000
2524.172363 6171.000000
2525.140381 7736.000000
2526.107422 6289.000000
2527.074219 5527.000000
2528.039795 7226.000000
2529.005371 6991.000000
2529.970215 7741.000000
2530.934570 6342.000000
2531.897705 6378.000000
2532.861084 5837.000000
2533.823486 5967.000000
2534.785645 6678.000000
2535.746582 6385.000000
2536.706787 6121.000000
2537.667236 6162.000000
2538.626709 6702.000000
2539.585449 6832.000000
2540.543213 6635.000000
2541.501221 6203.000000
2542.458496 6789.000000
2543.414795 6069.000000
2544.370850 7124.000000
2545.325684 6282.000000
2546.280762 7795.000000
2547.235107 7098.000000
2548.188721 6410.000000
2549.141357 7284.000000
2550.093750 6724.000000
2551.045654 6990.000000
2551.996826 6393.000000
2552.947266 7736.000000
2553.897217 7124.000000
2554.846924 7468.000000
2555.795898 6621.000000
2556.744385 6302.000000
2557.691650 7080.000000
2558.638916 6276.000000
2559.585449 6572.000000
2560.531494 6750.000000
2561.476563 7449.000000
2562.421387 6721.000000
2563.365723 7253.000000
2564.309570 6901.000000
2565.252930 6653.000000
2566.194824 6587.000000
2567.136963 6555.000000
2568.078369 6142.000000
2569.019043 7174.000000
2569.958984 7315.000000
2570.898926 5655.000000
2571.837891 6155.000000
2572.776611 7512.000000
2573.714355 7132.000000
2574.651855 5498.000000
2575.588623 7058.000000
2576.524658 6779.000000
2577.460205 7505.000000
2578.395020 6357.000000
2579.329834 5945.000000
2580.263672 7096.000000
2581.197021 7050.000000
2582.129639 5846.000000
2583.062012 6947.000000
2583.993652 5407.000000
2584.924805 7068.000000
2585.855469 6953.000000
2586.784912 6889.000000
2587.714355 7222.000000
2588.643311 6515.000000
2589.572021 7581.000000
2590.499023 7354.000000
2591.426270 5886.000000
2592.353027 6808.000000
2593.279053 6298.000000
2594.204834 5658.000000
2595.129395 7628.000000
2596.053711 7597.000000
2596.977539 5345.000000
2597.900879 7429.000000
2598.823242 6232.000000
2599.745361 6845.000000
2600.666992 8271.000000
2601.587891 6450.000000
2602.508057 5731.000000
2603.427979 6364.000000
2604.347412 6359.000000
2605.266602 6410.000000
2606.184814 5812.000000
2607.101807 6011.000000
2608.019043 7341.000000
2608.936035 5878.000000
2609.852051 7565.000000
2610.766846 6692.000000
2611.682129 6646.000000
2612.596680 6651.000000
2613.510254 6505.000000
2614.423828 6131.000000
2615.336182 7596.000000
2616.248535 7088.000000
2617.159912 6814.000000
2618.071045 5707.000000
2618.981445 7210.000000
2619.891602 6708.000000
2620.801025 6189.000000
2621.709961 6669.000000
2622.617920 6234.000000
2623.526123 6901.000000
2624.433350 6628.000000
2625.340088 7058.000000
2626.246094 5950.000000
2627.151855 6644.000000
2628.056885 6567.000000
2628.961670 7825.000000
2629.865723 6500.000000
2630.768799 6357.000000
2631.671875 6412.000000
2632.573975 5710.000000
2633.476074 6738.000000
2634.377930 7033.000000
2635.278076 6870.000000
2636.178467 6380.000000
2637.078125 6457.000000
2637.977539 6057.000000
2638.875488 6935.000000
2639.773926 6776.000000
2640.671875 6397.000000
2641.569092 6198.000000
2642.465088 6151.000000
2643.361084 6715.000000
2644.256836 6088.000000
2645.151855 6498.000000
2646.046631 6633.000000
2646.939941 7323.000000
2647.833252 6295.000000
2648.726318 6832.000000
2649.619141 6520.000000
2650.510254 7431.000000
2651.401611 6358.000000
2652.292480 7663.000000
2653.182617 7321.000000
2654.072510 6517.000000
2654.961182 7342.000000
2655.850098 6644.000000
2656.738525 6591.000000
2657.625977 7307.000000
2658.512451 6471.000000
2659.399414 7045.000000
2660.285645 6845.000000
2661.171387 6895.000000
2662.055908 6538.000000
2662.940430 6455.000000
2663.824707 6166.000000
2664.708252 7138.000000
2665.591309 7831.000000
2666.473633 7373.000000
2667.355469 6211.000000
2668.236572 6577.000000
2669.117920 6133.000000
2669.997803 6611.000000
2670.877930 7414.000000
2671.757324 7186.000000
2672.636719 6339.000000
2673.515381 6151.000000
2674.392334 6450.000000
2675.270020 6769.000000
2676.146973 6433.000000
2677.023193 8103.000000
2677.898926 7198.000000
2678.773926 6233.000000
2679.649170 7779.000000
2680.523438 7030.000000
2681.397217 7399.000000
2682.270264 7037.000000
2683.143066 6162.000000
2684.015625 6090.000000
2684.887451 6989.000000
2685.758545 6575.000000
2686.629395 6903.000000
2687.499756 7169.000000
2688.369873 6693.000000
2689.238281 6299.000000
2690.107422 7407.000000
2690.975830 7135.000000
2691.843994 6699.000000
2692.711426 6942.000000
2693.577637 5870.000000
2694.444336 7119.000000
2695.310059 7374.000000
2696.175781 7227.000000
2697.040039 7957.000000
2697.905029 6580.000000
2698.768555 7219.000000
2699.632324 5856.000000
2700.494629 7450.000000
2701.357422 6847.000000
2702.219238 5961.000000
2703.080566 6878.000000
2703.941895 6749.000000
2704.802002 7404.000000
2705.662109 7307.000000
2706.521729 6575.000000
2707.381104 6868.000000
2708.238770 7167.000000
2709.096680 6905.000000
2709.955078 7322.000000
2710.812256 6703.000000
2711.668701 6013.000000
2712.524658 6882.000000
2713.380615 6115.000000
2714.235840 6964.000000
2715.090332 6179.000000
2715.944336 6855.000000
2716.798340 7273.000000
2717.651367 6251.000000
2718.504639 6557.000000
2719.356201 7730.000000
2720.208252 6699.000000
2721.060059 6362.000000
2721.910645 6519.000000
2722.761230 6407.000000
2723.611328 7192.000000
2724.460693 6982.000000
2725.310059 7005.000000
2726.158203 6679.000000
2727.005859 6590.000000
2727.854004 6989.000000
2728.700928 6852.000000
2729.548340 5522.000000
2730.394287 7475.000000
2731.239502 6993.000000
2732.085205 6446.000000
2732.929932 7065.000000
2733.774658 7316.000000
2734.618164 6926.000000
2735.461914 7802.000000
2736.304932 7172.000000
2737.147461 6014.000000
2737.989014 6292.000000
2738.831055 6804.000000
2739.672119 6948.000000
2740.512939 5785.000000
2741.353516 5944.000000
2742.192871 7781.000000
2743.032227 6861.000000
2743.871582 6852.000000
2744.709717 6770.000000
2745.547363 7876.000000
2746.385010 6322.000000
2747.222168 7170.000000
2748.059082 6205.000000
2748.895508 6044.000000
2749.730713 6717.000000
2750.566162 6296.000000
2751.401123 6336.000000
2752.235352 6247.000000
2753.069336 6877.000000
2753.902832 6826.000000
2754.736328 8020.000000
2755.568848 6824.000000
2756.400879 7335.000000
2757.232422 6835.000000
2758.063965 7117.000000
2758.894531 7304.000000
2759.725342 7244.000000
2760.554932 7238.000000
2761.384521 6702.000000
2762.213867 7295.000000
2763.042480 6820.000000
2763.870605 6772.000000
2764.698242 6856.000000
2765.525879 6649.000000
2766.353027 7867.000000
2767.179443 5841.000000
2768.005371 7548.000000
2768.830811 6885.000000
2769.656006 7806.000000
2770.481201 7106.000000
2771.305176 6834.000000
2772.129150 6609.000000
2772.953125 7562.000000
2773.775879 6632.000000
2774.598877 6984.000000
2775.420654 6957.000000
2776.242432 6975.000000
2777.064209 6520.000000
2777.885010 7989.000000
2778.705078 6577.000000
2779.525391 7003.000000
2780.345215 7258.000000
2781.165039 6476.000000
2781.982910 5922.000000
2782.802002 8038.000000
2783.619873 6475.000000
2784.437500 6749.000000
2785.254639 7121.000000
2786.071289 7309.000000
2786.887695 7205.000000
2787.703613 6275.000000
2788.519287 6006.000000
2789.333984 6451.000000
2790.149170 7006.000000
2790.963623 7159.000000
2791.777588 6586.000000
2792.591309 7396.000000
2793.403809 8750.000000
2794.216553 6997.000000
2795.028809 7443.000000
2795.840576 7216.000000
2796.651611 7321.000000
2797.463379 6492.000000
2798.273926 7222.000000
2799.084473 7015.000000
2799.893555 7376.000000
2800.703369 8275.000000
2801.512451 7768.000000
2802.321289 6613.000000
2803.129639 7174.000000
2803.937012 6152.000000
2804.744873 6519.000000
2805.552002 6908.000000
2806.358887 7018.000000
2807.164551 7149.000000
2807.970703 6684.000000
2808.776123 6479.000000
2809.581543 7337.000000
2810.386230 6237.000000
2811.189941 7619.000000
2811.994141 7512.000000
2812.797852 6330.000000
2813.601318 6154.000000
2814.403320 6574.000000
2815.206055 7326.000000
2816.008057 7885.000000
2816.809814 6124.000000
2817.611084 6505.000000
2818.411865 7240.000000
2819.212158 6536.000000
2820.012695 6654.000000
2820.812256 8072.000000
2821.611328 7163.000000
2822.410400 6488.000000
2823.209229 6905.000000
2824.007568 6376.000000
2824.804932 7024.000000
2825.602539 7058.000000
2826.399414 6677.000000
2827.196533 7410.000000
2827.992920 8001.000000
2828.788574 7033.000000
2829.584229 7324.000000
2830.379639 7599.000000
2831.174561 7477.000000
2831.968750 6619.000000
2832.762939 6914.000000
2833.556885 5780.000000
2834.350342 6918.000000
2835.143066 7159.000000
2835.935547 8094.000000
2836.728027 7633.000000
2837.520264 7721.000000
2838.312012 6465.000000
2839.102783 6786.000000
2839.893555 8900.000000
2840.684570 7506.000000
2841.474609 6294.000000
2842.264160 7647.000000
2843.053955 7164.000000
2843.842773 7385.000000
2844.631592 7800.000000
2845.420410 7733.000000
2846.208252 7503.000000
2846.995605 7253.000000
2847.783203 7555.000000
2848.570313 7333.000000
2849.356689 6570.000000
2850.143066 7499.000000
2850.929199 7259.000000
2851.714844 7554.000000
2852.499512 7138.000000
2853.284668 6940.000000
2854.069580 7483.000000
2854.853760 7130.000000
2855.637939 6921.000000
2856.420898 8325.000000
2857.204102 6860.000000
2857.987061 6779.000000
2858.769531 7792.000000
2859.551758 6243.000000
2860.333496 6690.000000
2861.114990 7633.000000
2861.896729 7571.000000
2862.677734 7653.000000
2863.458008 6583.000000
2864.238037 6724.000000
2865.018066 8195.000000
2865.797852 7487.000000
2866.576660 8154.000000
2867.355713 7703.000000
2868.134277 6825.000000
2868.912598 7063.000000
2869.690430 7295.000000
2870.468018 6913.000000
2871.245361 7522.000000
2872.022461 6986.000000
2872.799072 6494.000000
2873.575195 7454.000000
2874.351318 7135.000000
2875.126953 8340.000000
2875.902344 7284.000000
2876.677246 6708.000000
2877.451904 8104.000000
2878.226563 6659.000000
2879.000977 7884.000000
2879.774658 6869.000000
2880.547607 7249.000000
2881.321289 6792.000000
2882.093994 7631.000000
2882.866699 7849.000000
2883.638672 8303.000000
2884.410400 6243.000000
2885.182617 6821.000000
2885.953613 6922.000000
2886.724121 6143.000000
2887.495117 8303.000000
2888.266113 7422.000000
2889.036377 7999.000000
2889.805664 7661.000000
2890.575195 6947.000000
2891.344727 7202.000000
2892.113770 7364.000000
2892.882324 7974.000000
2893.650879 7742.000000
2894.418457 7067.000000
2895.186523 6601.000000
2895.954102 7481.000000
2896.721680 8340.000000
2897.488037 7481.000000
2898.255371 6526.000000
2899.021484 7334.000000
2899.787842 7035.000000
2900.552734 8305.000000
2901.318115 7038.000000
2902.083984 6457.000000
2902.848389 7813.000000
2903.612793 7734.000000
2904.377441 8451.000000
2905.141113 6668.000000
2905.905518 8478.000000
2906.669189 6783.000000
2907.432129 8433.000000
2908.194824 6494.000000
2908.958008 9073.000000
2909.720703 6993.000000
2910.482178 6831.000000
2911.244141 6831.000000
