scanname Analyse056
timestamp 2017-02-10 21:14:37
ccdbias 896.277832
ccdgain 3.473401
sigmaread 8.960639
laserwavenum -0.502238
wavenumcorrection 0.020726
scancount 1
totalexposurems 10000
singleexposurems 10000
measurementstate Unknown
scanmode Manual
snr 97.201363 1.175402 0.733494
replacelist 0
peaks 8
395.399414 0.251725 0.000000 0.137097 0.000012
807.950134 0.227307 0.000000 0.237269 0.000036
843.773804 0.224698 0.000000 0.337039 0.000064
878.696960 0.226037 0.000000 0.510090 0.000119
1155.624878 0.191455 0.000000 0.060704 0.000027
1318.588013 0.206627 0.000000 9.269673 0.002539
1455.676147 0.174619 0.000000 0.138810 0.000027
2548.476318 0.076463 0.000000 0.219794 0.003452
finalresult GLS_Multiple 84
A1697	Ethyl vinyl ether	1.554225e-001
A2782	Acetamide	1.520858e-001
A8462	Ethanol	1.515219e-001
A12040	Ethanol w/ sweetener	1.493988e-001
A11101	Hydrogen peroxide, 70%	1.479893e-001
A0273	Denatured Solvent Alcohol	1.443708e-001
A13500	Poly(propylene-co-ethylene)	1.442924e-001
A0113	Hydrogen peroxide	1.442132e-001
A13180	Polypropylene (lot B)	1.438255e-001
A4972	Boric acid	1.430110e-001
A0115	Polypropylene	1.428908e-001
A3164	Ammonium chromate	1.417700e-001
A3082	Methyl n-propyl ether	1.401348e-001
A0251	Ethylamine	1.386542e-001
A11100	Hydrogen peroxide, 50%	1.373158e-001
A1270	Methyl DL-lactate	1.358764e-001
A6290	Bis(2,2,2-trifluoroethyl) phosphite	1.358654e-001
A11925	Butyl (S)-(-)-2-pyrrolidone-5-carboxylate	1.356726e-001
A2453	Calcium chromate	1.352531e-001
A0524	Propionic acid	1.345623e-001
A1531	Ethyl formate	1.345104e-001
A9092	p-Tolyl ether	1.330170e-001
A9919	Sodium hydrogentartrate	1.325836e-001
A4807	2-(2-Nitroethoxy)tetrahydropyran	1.324774e-001
A1351	Sodium propionate	1.324382e-001
A4543	1,4-Butanediol divinyl ether	1.309944e-001
A3222	Potassium nitrite	1.296968e-001
A2721	Formaldehyde diethyl acetal	1.294670e-001
A14031	Methyl (S)-(+)-2-pyrrolidone-5-carboxylate	1.289208e-001
A2413	Sodium selenate	1.284588e-001
A2017	Isopropylamine	1.278590e-001
A2313	Barium peroxide	1.277533e-001
A14612	Ammonium hydrogenoxalate hydrate	1.277313e-001
A0969	Diethylene glycol monopropyl ether	1.274410e-001
A0518	Propylene glycol	1.271547e-001
A0098	Roundup (weed and grass killer)	1.271493e-001
A14069	(R)-(-)-1,2-Propanediol	1.270222e-001
A0400	Potassium permanganate	1.265842e-001
A1550	Nitroethane	1.264102e-001
A7749	Ethyl ethoxyacetate	1.259733e-001
A2703	Acetaldehyde dimethyl acetal	1.256147e-001
A10674	Dibutyl succinate	1.254478e-001
A13507	Poly(methyl methacrylate-co-ethyl acrylate)	1.254274e-001
A3938	Lead(II) acetylacetonate	1.252191e-001
A4722	1,3-Dicyclohexylurea	1.248681e-001
A6700	4'-Methoxypropiophenone	1.247263e-001
A3573	Ammonium tartrate dibasic	1.244711e-001
A4629	1,4,5,6-Tetrahydropyrimidine	1.244380e-001
A1676	Trifluoroacetic acid	1.244314e-001
A4025	2,4-Dimethylpentane	1.244089e-001
A1871	Methyl salicylate	1.243480e-001
A0673	Hexachlorocyclopentadiene	1.241351e-001
A5771	2-Methylnaphthalene-bis(hexachlorocyclopentadiene)	1.239041e-001
A6278	6-Methylnicotinamide	1.238213e-001
A7262	2-(Trifluoromethyl)benzenesulfonyl chloride	1.234313e-001
A7119	2-Deoxy-D-ribose	1.231592e-001
A0761	N,N,N',N'-Tetrakis(2-Hydroxypropyl)ethylenediamine	1.231421e-001
A5382	3-Methoxypropionic acid	1.229875e-001
A1716	2-Aminopyridine	1.222140e-001
A5310	4-Methyl-3-nitroanisole	1.220432e-001
A2210	Calcium peroxide hydrate	1.219172e-001
A7284	4-Chloro-3,5-dinitrobenzoic acid	1.218829e-001
A12725	Cerium(III) fluoride	1.217258e-001
A2435	Sodium percarbonate	1.216249e-001
A7885	beta-Carotene	1.215988e-001
A3184	Selenourea	1.215160e-001
A2456	Sodium hydrogen sulfide	1.213993e-001
A3976	2-Aminopyrimidine	1.213874e-001
A12448	Tribromofluoromethane	1.213077e-001
A8610	5-Methyl-2-pyrrolidinone	1.207526e-001
A5890	5-Nitroisoquinoline	1.206264e-001
A8663	4-Methyl-3,5-dinitrobenzoic acid	1.205224e-001
A13320	Titanium tetrachloride	1.202547e-001
A9546	4-Methoxy-alpha-methylbenzyl alcohol	1.202547e-001
A8054	Cyclohexyl isothiocyanate	1.200759e-001
A0361	Dimethyl succinate	1.200245e-001
A0007	Cyclohexane	1.197826e-001
A9244	Bis(4-methoxyphenyl)phosphinic acid	1.194924e-001
A1547	Isovaleric acid	1.193472e-001
A1644	Ethyl isobutyrate	1.189759e-001
A0199	Isobutyric acid	1.189251e-001
A1754	N,N-Dimethylhydrazine	1.188527e-001
A1149	Methyl 2-aminobenzoate	1.186192e-001
A14340	Titanium(IV) fluoride	1.183971e-001
spectrum 2048
-97.099220 46987.000000
-94.472351 46987.000000
-91.847359 47168.000000
-89.224258 46876.000000
-86.603027 47512.000000
-83.983696 47124.000000
-81.366226 47266.000000
-78.750633 46953.000000
-76.136917 47188.000000
-73.525078 47504.000000
-70.915100 47315.000000
-68.307007 47461.000000
-65.700760 47530.000000
-63.096386 47412.000000
-60.493877 47267.000000
-57.893223 47814.000000
-55.294430 47233.000000
-52.697495 46567.000000
-50.102413 46941.000000
-47.509186 46934.000000
-44.917809 47101.000000
-42.328278 46638.000000
-39.740589 47398.000000
-37.154751 47281.000000
-34.570755 46832.000000
-31.988598 47654.000000
-29.408285 46944.000000
-26.829800 47544.000000
-24.253157 47134.000000
-21.678339 47068.000000
-19.105362 46832.000000
-16.534204 46812.000000
-13.964880 46497.000000
-11.397382 45536.000000
-8.831702 46944.000000
-6.267848 46816.000000
-3.705808 47201.000000
-1.145592 47306.000000
1.412816 47008.000000
3.969403 46224.000000
6.524185 46404.000000
9.077150 46967.000000
11.628315 46161.000000
14.177667 46283.000000
16.725222 45947.000000
19.270966 46412.000000
21.814917 46415.000000
24.357063 44837.000000
26.897413 43785.000000
29.435978 42265.000000
31.972746 40569.000000
34.507713 36779.000000
37.040901 28545.000000
39.572308 14599.000000
42.101921 12683.000000
44.629738 12389.000000
47.155796 11249.000000
49.680065 9518.000000
52.202564 8121.000000
54.723267 7745.000000
57.242214 8618.000000
59.759388 11334.000000
62.274784 14339.000000
64.788399 17334.000000
67.300262 18586.000000
69.810379 13041.000000
72.318703 8157.000000
74.825272 6787.000000
77.330093 5216.000000
79.833160 3752.000000
82.334450 3275.000000
84.834000 3061.000000
87.331795 2855.000000
89.827858 3088.000000
92.322144 3752.000000
94.814690 4370.000000
97.305519 5193.000000
99.794579 5229.000000
102.281891 3729.000000
104.767479 2560.000000
107.251328 2184.000000
109.733429 2062.000000
112.213806 1782.000000
114.692459 1701.000000
117.169388 1601.000000
119.644562 1504.000000
122.118027 1489.000000
124.589760 1500.000000
127.059784 1390.000000
129.528061 1467.000000
131.994659 1515.000000
134.459503 1411.000000
136.922653 1620.000000
139.384064 1697.000000
141.843781 1953.000000
144.301773 2279.000000
146.758072 2698.000000
149.212662 2912.000000
151.665527 3321.000000
154.116714 3710.000000
156.566208 4334.000000
159.013977 5132.000000
161.460037 5957.000000
163.904419 6693.000000
166.347122 7436.000000
168.788132 7997.000000
171.227432 8301.000000
173.665024 8598.000000
176.100983 9014.000000
178.535202 9068.000000
180.967743 9022.000000
183.398636 9045.000000
185.827805 9076.000000
188.255325 9148.000000
190.681168 9068.000000
193.105331 9201.000000
195.527832 9231.000000
197.948639 9444.000000
200.367783 9576.000000
202.785263 9900.000000
205.201050 10137.000000
207.615189 10566.000000
210.027695 11028.000000
212.438522 11796.000000
214.847672 12336.000000
217.255188 13058.000000
219.660995 13788.000000
222.065216 14545.000000
224.467728 15225.000000
226.868622 15600.000000
229.267868 16276.000000
231.665451 16428.000000
234.061371 16474.000000
236.455673 16742.000000
238.848312 16796.000000
241.239334 16812.000000
243.628693 16825.000000
246.016434 16972.000000
248.402527 16780.000000
250.786987 16863.000000
253.169800 16647.000000
255.551041 16841.000000
257.930573 16777.000000
260.308533 16879.000000
262.684814 16803.000000
265.059540 16670.000000
267.432617 16571.000000
269.804047 16643.000000
272.173828 16794.000000
274.542053 16695.000000
276.908630 16643.000000
279.273621 16502.000000
281.636993 16534.000000
283.998718 16596.000000
286.358856 16402.000000
288.717377 16554.000000
291.074310 16480.000000
293.429626 16584.000000
295.783356 16528.000000
298.135437 16572.000000
300.485962 16420.000000
302.834900 16367.000000
305.182190 16452.000000
307.527954 16236.000000
309.872040 16252.000000
312.214600 16123.000000
314.555542 16007.000000
316.894867 16205.000000
319.232635 16108.000000
321.568848 16072.000000
323.903412 16109.000000
326.236420 16143.000000
328.567871 16079.000000
330.897736 15965.000000
333.226013 15988.000000
335.552673 15882.000000
337.877838 16017.000000
340.201385 15854.000000
342.523376 15858.000000
344.843811 15799.000000
347.162628 15732.000000
349.479889 15678.000000
351.795624 15725.000000
354.109772 15752.000000
356.422333 15830.000000
358.733337 15617.000000
361.042816 15569.000000
363.350769 15798.000000
365.657104 15759.000000
367.961853 15817.000000
370.265137 15769.000000
372.566803 15718.000000
374.866974 15744.000000
377.165588 15809.000000
379.462646 15794.000000
381.758148 15833.000000
384.052124 15920.000000
386.344513 15987.000000
388.635406 15934.000000
390.924774 16080.000000
393.212555 16175.000000
395.498810 16249.000000
397.783569 16310.000000
400.066711 16401.000000
402.348419 16424.000000
404.628601 16338.000000
406.907196 16125.000000
409.184265 16343.000000
411.459808 16082.000000
413.733826 15983.000000
416.006409 15952.000000
418.277374 16115.000000
420.546844 16013.000000
422.814819 15929.000000
425.081238 15982.000000
427.346161 15932.000000
429.609619 15809.000000
431.871490 15770.000000
434.131897 15597.000000
436.390747 15729.000000
438.648132 15759.000000
440.904022 15787.000000
443.158417 15680.000000
445.411285 15523.000000
447.662598 15413.000000
449.912506 15305.000000
452.160828 15386.000000
454.407715 15381.000000
456.653137 15274.000000
458.897003 15186.000000
461.139374 15237.000000
463.380249 15217.000000
465.619720 15207.000000
467.857605 15135.000000
470.094055 15252.000000
472.328979 15177.000000
474.562439 15118.000000
476.794464 14967.000000
479.024963 14894.000000
481.253967 14852.000000
483.481506 14819.000000
485.707550 14949.000000
487.932159 14894.000000
490.155304 14840.000000
492.376984 14832.000000
494.597107 14971.000000
496.815826 15105.000000
499.033051 15168.000000
501.248901 14960.000000
503.463135 15048.000000
505.676056 15231.000000
507.887390 14938.000000
510.097290 15089.000000
512.305725 15119.000000
514.512817 15244.000000
516.718323 14974.000000
518.922424 14948.000000
521.125000 15009.000000
523.326172 14967.000000
525.526001 15036.000000
527.724304 14932.000000
529.921082 14983.000000
532.116516 14947.000000
534.310425 15002.000000
536.502991 14713.000000
538.694031 14836.000000
540.883667 14821.000000
543.071899 14665.000000
545.258606 14672.000000
547.443848 14605.000000
549.627808 14320.000000
551.810181 14203.000000
553.991211 14235.000000
556.170715 14124.000000
558.348938 14107.000000
560.525635 14204.000000
562.700928 14066.000000
564.874817 14094.000000
567.047241 13867.000000
569.218262 14014.000000
571.387817 13920.000000
573.556091 13969.000000
575.722839 13855.000000
577.888123 13977.000000
580.052002 13985.000000
582.214600 14231.000000
584.375671 14122.000000
586.535339 14066.000000
588.693665 14099.000000
590.850464 14223.000000
593.005920 14186.000000
595.159973 14252.000000
597.312683 14140.000000
599.463867 14398.000000
601.613708 14127.000000
603.762207 14112.000000
605.909119 14231.000000
608.054810 14052.000000
610.199097 14200.000000
612.341919 14250.000000
614.483276 14144.000000
616.623413 14230.000000
618.762024 14000.000000
620.899353 14043.000000
623.035217 14104.000000
625.169678 14024.000000
627.302673 13832.000000
629.434509 13791.000000
631.564880 13949.000000
633.693848 13743.000000
635.821350 13596.000000
637.947571 13615.000000
640.072266 13469.000000
642.195740 13451.000000
644.317871 13342.000000
646.438538 13103.000000
648.557861 13261.000000
650.675781 13406.000000
652.792358 13275.000000
654.907532 13204.000000
657.021362 12994.000000
659.133728 13094.000000
661.244873 13084.000000
663.354614 13130.000000
665.462891 13084.000000
667.570007 12908.000000
669.675659 12992.000000
671.779846 12792.000000
673.882813 13037.000000
675.984375 13048.000000
678.084595 13128.000000
680.183411 13235.000000
682.280884 13357.000000
684.377075 13279.000000
686.471802 13224.000000
688.565308 13181.000000
690.657471 13078.000000
692.748108 13185.000000
694.837524 13450.000000
696.925659 13392.000000
699.012329 13374.000000
701.097778 13427.000000
703.181702 13406.000000
705.264404 13321.000000
707.345825 13409.000000
709.425781 13008.000000
711.504517 12641.000000
713.581787 12599.000000
715.657776 12770.000000
717.732483 12645.000000
719.805908 12513.000000
721.877808 13006.000000
723.948547 12823.000000
726.017944 12632.000000
728.085938 12430.000000
730.152588 12485.000000
732.218018 12491.000000
734.282104 12353.000000
736.344849 12256.000000
738.406250 12279.000000
740.466370 12186.000000
742.525085 12258.000000
744.582581 12242.000000
746.638794 12144.000000
748.693604 12142.000000
750.747131 12108.000000
752.799255 12005.000000
754.850159 11960.000000
756.899841 12053.000000
758.948059 11972.000000
760.995056 12084.000000
763.040771 11774.000000
765.085083 11911.000000
767.128113 12058.000000
769.169922 11373.000000
771.210388 12060.000000
773.249451 11864.000000
775.287354 12026.000000
777.323914 11980.000000
779.359253 12094.000000
781.393250 12203.000000
783.425842 11945.000000
785.457275 12263.000000
787.487305 11885.000000
789.516052 12204.000000
791.543640 12271.000000
793.569885 12275.000000
795.594727 12210.000000
797.618469 12329.000000
799.640808 12325.000000
801.661926 12422.000000
803.681702 12434.000000
805.700195 12637.000000
807.717468 12493.000000
809.733337 12550.000000
811.748047 12505.000000
813.761414 12413.000000
815.773560 12231.000000
817.784485 12013.000000
819.794067 11972.000000
821.802429 11997.000000
823.809387 11935.000000
825.815125 11782.000000
827.819641 11743.000000
829.822876 11697.000000
831.824829 11465.000000
833.825500 11334.000000
835.824951 11444.000000
837.823059 11454.000000
839.820068 11642.000000
841.815674 11597.000000
843.810120 11587.000000
845.803223 11516.000000
847.795105 11392.000000
849.785645 11116.000000
851.774902 11094.000000
853.763123 11006.000000
855.749939 11023.000000
857.735535 11065.000000
859.719849 10876.000000
861.703064 10996.000000
863.684875 11024.000000
865.665466 11123.000000
867.644775 10927.000000
869.622925 10916.000000
871.599731 11072.000000
873.575256 11212.000000
875.549744 11482.000000
877.522766 11733.000000
879.494751 11669.000000
881.465393 11627.000000
883.434875 11763.000000
885.403015 11611.000000
887.369995 11379.000000
889.335632 11443.000000
891.300110 11426.000000
893.263367 11258.000000
895.225403 11187.000000
897.186157 11214.000000
899.145691 11166.000000
901.103943 11079.000000
903.061096 10980.000000
905.017090 11153.000000
906.971680 11036.000000
908.925049 11036.000000
910.877258 10951.000000
912.828247 11008.000000
914.777954 10749.000000
916.726501 10704.000000
918.673828 10656.000000
920.619873 10571.000000
922.564636 10368.000000
924.508362 10186.000000
926.450928 10180.000000
928.392212 10125.000000
930.332153 9931.000000
932.270996 9937.000000
934.208557 9832.000000
936.144897 9972.000000
938.080078 9862.000000
940.013977 9886.000000
941.946777 9914.000000
943.878357 9789.000000
945.808777 9968.000000
947.737976 9724.000000
949.665833 9812.000000
951.592651 9744.000000
953.518188 9819.000000
955.442444 9976.000000
957.365601 9856.000000
959.287598 10104.000000
961.208313 10040.000000
963.127869 9963.000000
965.046265 10112.000000
966.963623 10128.000000
968.879517 10164.000000
970.794312 10168.000000
972.707886 10314.000000
974.620300 10172.000000
976.531494 10225.000000
978.441528 10227.000000
980.350281 10147.000000
982.257996 10187.000000
984.164490 10183.000000
986.069763 10105.000000
987.973938 10055.000000
989.876892 9935.000000
991.778625 10062.000000
993.679199 9837.000000
995.578613 10033.000000
997.476807 9910.000000
999.373840 9881.000000
1001.269653 9740.000000
1003.164307 9450.000000
1005.057861 9559.000000
1006.950134 9408.000000
1008.841492 9242.000000
1010.731506 9280.000000
1012.620300 9168.000000
1014.507935 8990.000000
1016.394409 9100.000000
1018.279724 9052.000000
1020.163879 9068.000000
1022.046814 9140.000000
1023.928711 8963.000000
1025.809326 9131.000000
1027.688843 9049.000000
1029.567383 9044.000000
1031.444580 9176.000000
1033.320435 9062.000000
1035.195313 9199.000000
1037.069214 9199.000000
1038.941650 9168.000000
1040.813110 9164.000000
1042.683228 9224.000000
1044.552368 9138.000000
1046.420288 9175.000000
1048.287109 9164.000000
1050.152832 9300.000000
1052.017334 9228.000000
1053.880737 9224.000000
1055.742798 9330.000000
1057.603882 9252.000000
1059.463867 9184.000000
1061.322510 9196.000000
1063.180054 9164.000000
1065.036499 9108.000000
1066.891846 9252.000000
1068.745972 9340.000000
1070.599243 9153.000000
1072.451050 9275.000000
1074.301880 9171.000000
1076.151489 9173.000000
1077.999878 9195.000000
1079.847412 9195.000000
1081.693604 9234.000000
1083.538574 9230.000000
1085.382690 9155.000000
1087.225464 9102.000000
1089.067017 9150.000000
1090.907837 9057.000000
1092.747070 8939.000000
1094.585571 8974.000000
1096.422729 8961.000000
1098.258667 8851.000000
1100.093628 8650.000000
1101.927368 8517.000000
1103.760132 8303.000000
1105.591553 8482.000000
1107.422119 8589.000000
1109.251343 8267.000000
1111.079590 8186.000000
1112.906616 8141.000000
1114.732666 8177.000000
1116.557495 7983.000000
1118.381226 8186.000000
1120.203735 8156.000000
1122.025146 8074.000000
1123.845703 8145.000000
1125.664795 8149.000000
1127.483032 8140.000000
1129.299927 8169.000000
1131.115967 8268.000000
1132.930786 8138.000000
1134.744507 8367.000000
1136.557129 8275.000000
1138.368530 8407.000000
1140.178955 8421.000000
1141.988281 8476.000000
1143.796265 8454.000000
1145.603516 8445.000000
1147.409302 8567.000000
1149.214233 8583.000000
1151.018066 8597.000000
1152.820679 8600.000000
1154.622437 8626.000000
1156.422729 8615.000000
1158.222046 8567.000000
1160.020386 8525.000000
1161.817383 8436.000000
1163.613647 8301.000000
1165.408569 8359.000000
1167.202393 8278.000000
1168.995361 8126.000000
1170.786987 8140.000000
1172.577637 7978.000000
1174.367310 7941.000000
1176.155518 7888.000000
1177.942871 7872.000000
1179.729126 7724.000000
1181.514282 7983.000000
1183.298340 7841.000000
1185.081299 7727.000000
1186.863281 7753.000000
1188.644043 7781.000000
1190.423828 7758.000000
1192.202515 7834.000000
1193.980225 7738.000000
1195.756714 7687.000000
1197.532104 7646.000000
1199.306396 7488.000000
1201.079590 7428.000000
1202.851929 7579.000000
1204.622925 7323.000000
1206.393066 7504.000000
1208.161987 7412.000000
1209.929810 7252.000000
1211.696777 7250.000000
1213.462402 7402.000000
1215.227051 7276.000000
1216.990601 7324.000000
1218.753052 7315.000000
1220.514648 7332.000000
1222.275024 7224.000000
1224.034302 7125.000000
1225.792725 7201.000000
1227.549927 7183.000000
1229.306030 7384.000000
1231.061035 7384.000000
1232.815186 7346.000000
1234.567993 7338.000000
1236.319824 7446.000000
1238.070801 7380.000000
1239.820435 7423.000000
1241.569214 7420.000000
1243.316650 7524.000000
1245.063354 7495.000000
1246.808838 7517.000000
1248.553467 7525.000000
1250.296753 7391.000000
1252.039063 7427.000000
1253.780273 7429.000000
1255.520630 7261.000000
1257.259888 7145.000000
1258.997925 6991.000000
1260.735107 6977.000000
1262.471069 7098.000000
1264.206055 6945.000000
1265.940063 7103.000000
1267.673096 7195.000000
1269.404907 7242.000000
1271.135742 7320.000000
1272.865356 7421.000000
1274.594116 7390.000000
1276.321777 7306.000000
1278.048340 7481.000000
1279.774048 7520.000000
1281.498413 7350.000000
1283.221924 7372.000000
1284.944458 7272.000000
1286.666016 7278.000000
1288.386353 7237.000000
1290.105713 7393.000000
1291.823975 7265.000000
1293.541260 7244.000000
1295.257568 7280.000000
1296.972656 7274.000000
1298.686768 7227.000000
1300.399902 7191.000000
1302.112183 7071.000000
1303.823242 6884.000000
1305.533325 6969.000000
1307.242310 6798.000000
1308.950073 6837.000000
1310.657227 6818.000000
1312.362915 6796.000000
1314.067871 6817.000000
1315.771851 6839.000000
1317.474609 6966.000000
1319.176392 7059.000000
1320.877319 6900.000000
1322.576904 11022.000000
1324.275635 2001.000000
1325.973633 6724.000000
1327.670288 6662.000000
1329.365845 6817.000000
1331.060547 6705.000000
1332.754028 6697.000000
1334.446655 6628.000000
1336.138428 6467.000000
1337.828857 6447.000000
1339.518555 6470.000000
1341.207153 6418.000000
1342.894653 6244.000000
1344.581177 6411.000000
1346.266602 6422.000000
1347.951050 6349.000000
1349.634644 6405.000000
1351.317017 6507.000000
1352.998413 6579.000000
1354.678955 6631.000000
1356.358276 6702.000000
1358.036987 6726.000000
1359.714355 6881.000000
1361.390625 6833.000000
1363.065918 6850.000000
1364.740479 6825.000000
1366.413818 6740.000000
1368.086182 6782.000000
1369.757568 6757.000000
1371.427979 6705.000000
1373.097290 6747.000000
1374.765625 6732.000000
1376.433105 6709.000000
1378.099487 6566.000000
1379.764893 6695.000000
1381.429321 6493.000000
1383.092529 6592.000000
1384.755127 6395.000000
1386.416382 6528.000000
1388.076782 6378.000000
1389.736084 6366.000000
1391.394409 6383.000000
1393.052002 6313.000000
1394.708374 6329.000000
1396.363892 6396.000000
1398.018188 6395.000000
1399.671631 6409.000000
1401.323975 6457.000000
1402.975586 6322.000000
1404.625977 6247.000000
1406.275269 6130.000000
1407.923828 5998.000000
1409.571289 5893.000000
1411.217773 5913.000000
1412.863403 5807.000000
1414.508057 5884.000000
1416.151489 5881.000000
1417.794067 5654.000000
1419.435547 5778.000000
1421.076172 5750.000000
1422.715820 5787.000000
1424.354370 5806.000000
1425.992065 5641.000000
1427.628662 5645.000000
1429.264282 5648.000000
1430.899170 5611.000000
1432.532959 5600.000000
1434.165649 5681.000000
1435.797363 5590.000000
1437.428223 5636.000000
1439.057983 5606.000000
1440.686646 5759.000000
1442.314697 5631.000000
1443.941650 5772.000000
1445.567383 5716.000000
1447.192505 5699.000000
1448.816528 5742.000000
1450.439575 5805.000000
1452.061646 6004.000000
1453.682617 5817.000000
1455.302612 6015.000000
1456.921875 6067.000000
1458.539795 5931.000000
1460.157104 5601.000000
1461.773438 5769.000000
1463.388550 5810.000000
1465.002808 5883.000000
1466.616211 5830.000000
1468.228516 5969.000000
1469.839966 5879.000000
1471.450562 5679.000000
1473.059937 5803.000000
1474.668335 5796.000000
1476.275879 5817.000000
1477.882446 5753.000000
1479.488281 5714.000000
1481.092896 5738.000000
1482.696655 5580.000000
1484.299194 5438.000000
1485.901123 5254.000000
1487.501831 5369.000000
1489.101807 5260.000000
1490.700684 5095.000000
1492.298706 5295.000000
1493.895630 5191.000000
1495.491699 5466.000000
1497.086792 5564.000000
1498.680908 5458.000000
1500.274292 5477.000000
1501.866577 5489.000000
1503.457642 5536.000000
1505.048218 5352.000000
1506.637451 5333.000000
1508.226074 5305.000000
1509.813599 5261.000000
1511.400024 5236.000000
1512.985718 5164.000000
1514.570313 5235.000000
1516.154053 5259.000000
1517.736694 5187.000000
1519.318604 5211.000000
1520.899414 5165.000000
1522.479492 5233.000000
1524.058350 5067.000000
1525.636353 5015.000000
1527.213623 5050.000000
1528.789673 4929.000000
1530.364990 4894.000000
1531.939209 4871.000000
1533.512695 4930.000000
1535.084961 4856.000000
1536.656494 4891.000000
1538.227051 4868.000000
1539.796753 4897.000000
1541.365234 4888.000000
1542.932983 4900.000000
1544.499878 4787.000000
1546.065552 4755.000000
1547.630493 4855.000000
1549.194336 4672.000000
1550.757568 4729.000000
1552.319458 4745.000000
1553.880737 4913.000000
1555.440918 4814.000000
1557.000366 4832.000000
1558.558716 4674.000000
1560.116333 4647.000000
1561.672852 4799.000000
1563.228149 4697.000000
1564.782837 4712.000000
1566.336792 4695.000000
1567.889771 4550.000000
1569.441406 4690.000000
1570.992310 4754.000000
1572.542480 4628.000000
1574.091675 4718.000000
1575.639526 4755.000000
1577.186890 4684.000000
1578.733276 4773.000000
1580.278809 4713.000000
1581.823364 4696.000000
1583.366699 4694.000000
1584.909424 4660.000000
1586.451294 4713.000000
1587.992065 4622.000000
1589.531860 4711.000000
1591.070923 4752.000000
1592.608887 4569.000000
1594.146362 4589.000000
1595.682495 4732.000000
1597.217529 4623.000000
1598.752075 4528.000000
1600.285645 4629.000000
1601.818359 4566.000000
1603.349487 4524.000000
1604.880371 4654.000000
1606.410400 4612.000000
1607.939209 4558.000000
1609.466919 4572.000000
1610.994019 4496.000000
1612.520386 4696.000000
1614.045776 4597.000000
1615.570313 4564.000000
1617.093506 4511.000000
1618.615967 4528.000000
1620.137695 4588.000000
1621.658569 4549.000000
1623.177979 4440.000000
1624.696899 4491.000000
1626.215088 4497.000000
1627.732422 4477.000000
1629.248657 4391.000000
1630.763550 4460.000000
1632.277954 4294.000000
1633.791626 4493.000000
1635.304199 4399.000000
1636.815552 4418.000000
1638.326538 4460.000000
1639.836426 4441.000000
1641.345459 4326.000000
1642.853149 4322.000000
1644.360474 4299.000000
1645.866943 4196.000000
1647.372437 4250.000000
1648.877075 4207.000000
1650.380249 4228.000000
1651.882813 4285.000000
1653.385010 4283.000000
1654.885864 4111.000000
1656.385620 4085.000000
1657.884521 4101.000000
1659.383057 4114.000000
1660.880371 4079.000000
1662.376953 4010.000000
1663.871948 4035.000000
1665.366699 3982.000000
1666.860596 4049.000000
1668.353516 4051.000000
1669.845093 3332.000000
1671.336182 3998.000000
1672.826660 4036.000000
1674.316040 3938.000000
1675.803955 3886.000000
1677.291626 3913.000000
1678.778320 3964.000000
1680.264160 3948.000000
1681.749146 3896.000000
1683.232666 3808.000000
1684.715942 3810.000000
1686.198364 3805.000000
1687.679688 3784.000000
1689.159546 3755.000000
1690.639160 3812.000000
1692.118042 3737.000000
1693.595947 3690.000000
1695.072876 3863.000000
1696.548584 3775.000000
1698.023926 3749.000000
1699.498047 3705.000000
1700.971558 3828.000000
1702.443604 3743.000000
1703.915405 3678.000000
1705.386230 3731.000000
1706.856201 3693.000000
1708.324829 3664.000000
1709.792969 3759.000000
1711.260376 3813.000000
1712.726685 3766.000000
1714.192383 3818.000000
1715.656372 3633.000000
1717.120239 3642.000000
1718.583252 3730.000000
1720.045288 3703.000000
1721.506104 3776.000000
1722.966309 3645.000000
1724.425781 3669.000000
1725.884399 3783.000000
1727.342041 3679.000000
1728.798340 3556.000000
1730.254395 3769.000000
1731.709473 3694.000000
1733.163574 3639.000000
1734.616455 3646.000000
1736.069092 3665.000000
1737.520630 3579.000000
1738.971436 3635.000000
1740.421265 3545.000000
1741.869751 3568.000000
1743.317871 3554.000000
1744.765137 3541.000000
1746.211670 3627.000000
1747.656616 3451.000000
1749.101318 3521.000000
1750.545166 3369.000000
1751.988159 3574.000000
1753.429688 3503.000000
1754.870972 3497.000000
1756.311401 3377.000000
1757.750854 3375.000000
1759.189331 3424.000000
1760.626831 3346.000000
1762.063843 3322.000000
1763.499878 3303.000000
1764.935059 3322.000000
1766.368774 3469.000000
1767.802368 3419.000000
1769.234985 3427.000000
1770.666748 3461.000000
1772.097656 3440.000000
1773.527344 3346.000000
1774.956299 3306.000000
1776.384766 3267.000000
1777.812256 3098.000000
1779.238403 2972.000000
1780.664307 3252.000000
1782.089111 3231.000000
1783.513306 3251.000000
1784.936035 3223.000000
1786.358276 3152.000000
1787.779785 3153.000000
1789.200562 3114.000000
1790.620361 3167.000000
1792.038818 3094.000000
1793.456787 3031.000000
1794.874146 3071.000000
1796.290649 3112.000000
1797.705688 2975.000000
1799.120361 3048.000000
1800.534424 2998.000000
1801.947266 3118.000000
1803.359497 2919.000000
1804.770386 2963.000000
1806.180786 2907.000000
1807.590454 3017.000000
1808.999146 3015.000000
1810.406738 2977.000000
1811.813843 2938.000000
1813.220093 2871.000000
1814.625366 3037.000000
1816.029541 2978.000000
1817.433350 2994.000000
1818.836182 3100.000000
1820.238159 2999.000000
1821.639526 2906.000000
1823.039429 3051.000000
1824.438721 2923.000000
1825.837524 2889.000000
1827.235474 2947.000000
1828.632080 2984.000000
1830.028076 2978.000000
1831.423340 3059.000000
1832.817993 2903.000000
1834.211670 2938.000000
1835.604004 2995.000000
1836.995850 2977.000000
1838.387085 2977.000000
1839.777344 2974.000000
1841.166382 2872.000000
1842.555054 3022.000000
1843.942749 2947.000000
1845.329712 2939.000000
1846.715332 2884.000000
1848.100708 2900.000000
1849.485229 2884.000000
1850.869019 2898.000000
1852.251709 2922.000000
1853.633179 2804.000000
1855.014160 2785.000000
1856.394653 2780.000000
1857.774170 2775.000000
1859.152222 2720.000000
1860.530151 2723.000000
1861.907104 2898.000000
1863.283325 2756.000000
1864.658691 2705.000000
1866.032593 2703.000000
1867.406372 2729.000000
1868.779297 2683.000000
1870.151123 2672.000000
1871.521973 2746.000000
1872.892456 2658.000000
1874.261841 2706.000000
1875.630737 2690.000000
1876.998047 2564.000000
1878.365234 2631.000000
1879.731445 2629.000000
1881.096924 2548.000000
1882.461670 2483.000000
1883.824829 2531.000000
1885.187866 2654.000000
1886.550049 2567.000000
1887.911377 2523.000000
1889.271362 2647.000000
1890.630981 2605.000000
1891.989990 2508.000000
1893.348022 2537.000000
1894.705200 2474.000000
1896.061157 2398.000000
1897.416870 2575.000000
1898.771606 2559.000000
1900.125488 2603.000000
1901.478271 2596.000000
1902.830566 2492.000000
1904.182129 2535.000000
1905.532837 2518.000000
1906.882324 2398.000000
1908.231323 2495.000000
1909.579468 2516.000000
1910.927002 2494.000000
1912.273804 2464.000000
1913.619019 2537.000000
1914.963989 2438.000000
1916.308228 2479.000000
1917.651611 2508.000000
1918.993652 2432.000000
1920.335449 2418.000000
1921.676392 2469.000000
1923.016602 2473.000000
1924.355835 2397.000000
1925.694092 2513.000000
1927.031738 2416.000000
1928.368652 2423.000000
1929.704712 2465.000000
1931.039551 2543.000000
1932.374023 2470.000000
1933.707764 2420.000000
1935.040649 2441.000000
1936.372070 2474.000000
1937.703613 2329.000000
1939.033813 2451.000000
1940.363525 2296.000000
1941.692383 2430.000000
1943.020020 2339.000000
1944.347168 2394.000000
1945.673584 2334.000000
1946.999268 2516.000000
1948.323608 2348.000000
1949.647705 2317.000000
1950.970947 2292.000000
1952.293457 2328.000000
1953.614868 2281.000000
1954.935303 2389.000000
1956.255127 2241.000000
1957.574585 2296.000000
1958.893066 2324.000000
1960.210205 2345.000000
1961.526978 2255.000000
1962.843018 2401.000000
1964.158325 2340.000000
1965.472168 2191.000000
1966.785767 2267.000000
1968.098633 2271.000000
1969.410645 2239.000000
1970.722046 2236.000000
1972.032104 2222.000000
1973.341675 2177.000000
1974.650513 2142.000000
1975.958740 2147.000000
1977.265625 2175.000000
1978.571899 2108.000000
1979.877808 2197.000000
1981.182495 2193.000000
1982.486694 2123.000000
1983.789673 2129.000000
1985.092285 2205.000000
1986.393921 2166.000000
1987.694946 2026.000000
1988.994385 1974.000000
1990.293945 2118.000000
1991.592407 2078.000000
1992.890381 2017.000000
1994.186768 2073.000000
1995.483154 2005.000000
1996.778564 2059.000000
1998.073242 1960.000000
1999.367065 1982.000000
2000.659668 1986.000000
2001.951782 1949.000000
2003.243408 1942.000000
2004.534302 1956.000000
2005.823608 1748.000000
2007.112671 1968.000000
2008.401001 1879.000000
2009.688599 1863.000000
2010.975342 1992.000000
2012.260986 1940.000000
2013.546265 1876.000000
2014.830566 1957.000000
2016.114258 1899.000000
2017.396606 1935.000000
2018.678589 2031.000000
2019.960083 1867.000000
2021.240601 2027.000000
2022.520386 1929.000000
2023.799072 1951.000000
2025.077026 1810.000000
2026.354492 1894.000000
2027.631348 1786.000000
2028.906494 1913.000000
2030.181763 1938.000000
2031.456055 1892.000000
2032.729370 1897.000000
2034.001831 1911.000000
2035.273926 1898.000000
2036.544922 1921.000000
2037.815674 1931.000000
2039.085083 1818.000000
2040.353394 1934.000000
2041.621704 1840.000000
2042.889038 1894.000000
2044.155640 1846.000000
2045.421021 1812.000000
2046.685791 1447.000000
2047.950317 1943.000000
2049.213623 1833.000000
2050.476563 1876.000000
2051.737549 1796.000000
2052.999023 1842.000000
2054.259277 1833.000000
2055.518799 1839.000000
2056.777588 1760.000000
2058.035400 1845.000000
2059.292725 1841.000000
2060.549316 1757.000000
2061.804443 1843.000000
2063.059570 1789.000000
2064.313721 1770.000000
2065.567139 1846.000000
2066.819824 1693.000000
2068.071289 1821.000000
2069.322510 1767.000000
2070.572998 1845.000000
2071.822754 1863.000000
2073.071045 1415.000000
2074.319336 1755.000000
2075.566650 1671.000000
2076.813232 1789.000000
2078.059082 1726.000000
2079.303711 1718.000000
2080.547852 1730.000000
2081.791504 1694.000000
2083.034180 1758.000000
2084.275635 1660.000000
2085.516846 1789.000000
2086.757568 1655.000000
2087.997314 1636.000000
2089.235840 1660.000000
2090.473877 1664.000000
2091.711182 1615.000000
2092.948242 1663.000000
2094.183838 1551.000000
2095.418701 1715.000000
2096.653320 1603.000000
2097.886963 1586.000000
2099.119629 1586.000000
2100.351563 1626.000000
2101.583008 1627.000000
2102.813477 1577.000000
2104.043213 1575.000000
2105.272705 1648.000000
2106.500244 1580.000000
2107.728027 1598.000000
2108.955078 1614.000000
2110.181152 1478.000000
2111.405762 1508.000000
2112.630615 1488.000000
2113.854248 1548.000000
2115.077393 1464.000000
2116.299316 1569.000000
2117.520996 1549.000000
2118.741699 1424.000000
2119.961670 1625.000000
2121.181152 1563.000000
2122.399170 1521.000000
2123.617188 1526.000000
2124.834229 1624.000000
2126.050781 1398.000000
2127.265625 1565.000000
2128.480713 1482.000000
2129.694824 1532.000000
2130.908203 1505.000000
2132.120850 1569.000000
2133.332031 1505.000000
2134.543457 1584.000000
2135.753662 1317.000000
2136.963379 1583.000000
2138.171631 1598.000000
2139.379883 1405.000000
2140.587402 1453.000000
2141.793701 1410.000000
2142.999268 1489.000000
2144.204590 1595.000000
2145.408936 1430.000000
2146.612549 1510.000000
2147.815674 1484.000000
2149.017334 1366.000000
2150.218750 1521.000000
2151.419434 1349.000000
2152.619385 1573.000000
2153.818115 1519.000000
2155.016602 1525.000000
2156.214600 1507.000000
2157.411621 1386.000000
2158.607910 1387.000000
2159.802979 1451.000000
2160.997803 1399.000000
2162.191895 1338.000000
2163.385010 1408.000000
2164.577148 1345.000000
2165.769043 1339.000000
2166.960205 1313.000000
2168.150391 1393.000000
2169.339844 1320.000000
2170.528809 1318.000000
2171.716797 1363.000000
2172.904541 1347.000000
2174.090820 1311.000000
2175.276367 1301.000000
2176.461670 1207.000000
2177.646484 1277.000000
2178.830078 1197.000000
2180.012939 1298.000000
2181.194824 1262.000000
2182.376465 1266.000000
2183.557617 1197.000000
2184.737549 1249.000000
2185.916504 1247.000000
2187.094971 1195.000000
2188.273193 1264.000000
2189.450195 1194.000000
2190.626221 1198.000000
2191.802002 1298.000000
2192.977295 1314.000000
2194.151123 1205.000000
2195.324463 1167.000000
2196.497559 1251.000000
2197.669434 1236.000000
2198.840820 1333.000000
2200.011719 1159.000000
2201.180908 1359.000000
2202.350098 1326.000000
2203.518799 1228.000000
2204.686523 1186.000000
2205.853271 1185.000000
2207.019287 1193.000000
2208.184814 1255.000000
2209.350098 1259.000000
2210.513916 1233.000000
2211.677246 1143.000000
2212.839355 1170.000000
2214.001709 1178.000000
2215.162842 1126.000000
2216.322998 1229.000000
2217.482666 1194.000000
2218.642090 1144.000000
2219.800293 1261.000000
2220.957520 1124.000000
2222.114502 1122.000000
2223.270752 1176.000000
2224.426270 1213.000000
2225.581055 1197.000000
2226.734863 1128.000000
2227.887695 1168.000000
2229.041016 1160.000000
2230.192383 1171.000000
2231.343506 1202.000000
2232.493896 1096.000000
2233.643799 1097.000000
2234.792725 1103.000000
2235.941162 1175.000000
2237.088135 1108.000000
2238.235352 1144.000000
2239.381348 1158.000000
2240.527100 1093.000000
2241.671143 1130.000000
2242.815430 1048.000000
2243.958740 1021.000000
2245.101318 1123.000000
2246.242920 1130.000000
2247.384277 1101.000000
2248.524658 1016.000000
2249.664307 1002.000000
2250.803467 991.000000
2251.941406 1060.000000
2253.079346 971.000000
2254.216309 1064.000000
2255.352539 1020.000000
2256.487793 907.000000
2257.622314 1036.000000
2258.756592 1009.000000
2259.890381 1061.000000
2261.022705 1032.000000
2262.154541 1074.000000
2263.285889 988.000000
2264.416260 969.000000
2265.546387 846.000000
2266.675293 968.000000
2267.803711 947.000000
2268.931641 971.000000
2270.058594 950.000000
2271.184814 945.000000
2272.310059 984.000000
2273.435303 971.000000
2274.559814 929.000000
2275.683105 983.000000
2276.805664 965.000000
2277.927734 983.000000
2279.049316 886.000000
2280.170166 1015.000000
2281.289795 990.000000
2282.408936 974.000000
2283.527832 969.000000
2284.645996 955.000000
2285.763184 942.000000
2286.879395 964.000000
2287.995361 936.000000
2289.110596 910.000000
2290.225098 910.000000
2291.338379 960.000000
2292.451660 961.000000
2293.564209 1032.000000
2294.676025 924.000000
2295.787109 904.000000
2296.896973 905.000000
2298.006348 922.000000
2299.115479 851.000000
2300.223633 1003.000000
2301.330811 941.000000
2302.437744 810.000000
2303.543945 908.000000
2304.649658 950.000000
2305.753906 913.000000
2306.857910 894.000000
2307.961426 967.000000
2309.064453 921.000000
2310.166260 904.000000
2311.267334 918.000000
2312.367920 868.000000
2313.468018 946.000000
2314.567383 842.000000
2315.665283 872.000000
2316.763672 856.000000
2317.860596 884.000000
2318.957275 824.000000
2320.053467 885.000000
2321.147949 888.000000
2322.242432 848.000000
2323.336182 1011.000000
2324.429688 953.000000
2325.521484 898.000000
2326.613281 916.000000
2327.704346 912.000000
2328.794678 973.000000
2329.884033 918.000000
2330.973389 1032.000000
2332.061523 993.000000
2333.149170 895.000000
2334.236572 930.000000
2335.322266 832.000000
2336.407715 852.000000
2337.492920 774.000000
2338.577148 846.000000
2339.660400 852.000000
2340.743408 756.000000
2341.825439 880.000000
2342.907227 816.000000
2343.988281 852.000000
2345.068115 832.000000
2346.147461 836.000000
2347.226318 817.000000
2348.304688 812.000000
2349.381592 816.000000
2350.458252 812.000000
2351.534668 753.000000
2352.610107 730.000000
2353.684570 864.000000
2354.758789 763.000000
2355.832275 791.000000
2356.905273 694.000000
2357.977051 681.000000
2359.048584 792.000000
2360.119141 715.000000
2361.189453 679.000000
2362.258789 708.000000
2363.327148 669.000000
2364.395264 811.000000
2365.462646 726.000000
2366.529541 793.000000
2367.595703 779.000000
2368.660645 810.000000
2369.725586 613.000000
2370.789795 651.000000
2371.853271 674.000000
2372.915527 817.000000
2373.977783 664.000000
2375.039063 750.000000
2376.100098 703.000000
2377.159912 712.000000
2378.218994 711.000000
2379.278076 701.000000
2380.336182 708.000000
2381.393555 834.000000
2382.449951 712.000000
2383.506104 662.000000
2384.561768 653.000000
2385.616699 708.000000
2386.670166 817.000000
2387.723877 696.000000
2388.776611 660.000000
2389.828857 766.000000
2390.880371 737.000000
2391.930908 690.000000
2392.981201 641.000000
2394.030518 624.000000
2395.079834 708.000000
2396.127686 546.000000
2397.175049 621.000000
2398.222168 742.000000
2399.268311 693.000000
2400.313721 651.000000
2401.358398 744.000000
2402.403076 690.000000
2403.446289 651.000000
2404.489502 641.000000
2405.531250 687.000000
2406.573242 633.000000
2407.614502 577.000000
2408.654785 733.000000
2409.694336 691.000000
2410.732910 698.000000
2411.771729 677.000000
2412.809326 618.000000
2413.846680 682.000000
2414.882813 641.000000
2415.918701 664.000000
2416.953857 699.000000
2417.988525 605.000000
2419.021729 755.000000
2420.055176 653.000000
2421.087646 647.000000
2422.119873 671.000000
2423.150635 762.000000
2424.181396 607.000000
2425.211670 634.000000
2426.240723 639.000000
2427.269775 529.000000
2428.297119 548.000000
2429.324951 694.000000
2430.351563 584.000000
2431.377930 723.000000
2432.402832 629.000000
2433.427979 593.000000
2434.452148 740.000000
2435.476074 588.000000
2436.498779 545.000000
2437.520752 715.000000
2438.542480 570.000000
2439.563477 535.000000
2440.583984 576.000000
2441.603271 654.000000
2442.622559 506.000000
2443.640869 623.000000
2444.658936 565.000000
2445.675537 569.000000
2446.692139 604.000000
2447.708008 660.000000
2448.723877 589.000000
2449.738281 599.000000
2450.751953 546.000000
2451.765137 568.000000
2452.778076 596.000000
2453.790283 590.000000
2454.801514 522.000000
2455.812500 564.000000
2456.822754 667.000000
2457.832520 571.000000
2458.841309 531.000000
2459.849365 569.000000
2460.857422 573.000000
2461.864258 598.000000
2462.870850 534.000000
2463.876221 505.000000
2464.881348 457.000000
2465.886230 534.000000
2466.889893 583.000000
2467.893311 501.000000
2468.895752 575.000000
2469.897949 594.000000
2470.899658 464.000000
2471.900391 567.000000
2472.900146 670.000000
2473.899902 621.000000
2474.898682 544.000000
2475.896973 660.000000
2476.894287 531.000000
2477.891357 516.000000
2478.888428 506.000000
2479.884033 421.000000
2480.879639 448.000000
2481.873535 535.000000
2482.867432 472.000000
2483.860840 571.000000
2484.853760 494.000000
2485.845703 607.000000
2486.836914 521.000000
2487.827881 528.000000
2488.818359 478.000000
2489.807861 556.000000
2490.796631 474.000000
2491.785400 585.000000
2492.773193 525.000000
2493.759766 447.000000
2494.746338 459.000000
2495.732422 477.000000
2496.717773 502.000000
2497.702148 439.000000
2498.686279 494.000000
2499.670410 526.000000
2500.653076 463.000000
2501.635254 467.000000
2502.616943 510.000000
2503.597900 559.000000
2504.578369 476.000000
2505.558594 502.000000
2506.537354 482.000000
2507.515869 456.000000
2508.493896 477.000000
2509.471436 380.000000
2510.447998 483.000000
2511.424316 568.000000
2512.399902 516.000000
2513.375000 433.000000
2514.349609 436.000000
2515.322998 442.000000
2516.296143 444.000000
2517.269043 473.000000
2518.240967 541.000000
2519.212158 475.000000
2520.182861 484.000000
2521.153320 437.000000
2522.123047 530.000000
2523.091797 370.000000
2524.059814 489.000000
2525.027832 523.000000
2525.994873 439.000000
2526.961670 531.000000
2527.927246 320.000000
2528.892822 493.000000
2529.857666 445.000000
2530.822021 434.000000
2531.785156 425.000000
2532.748535 416.000000
2533.710938 426.000000
2534.673096 446.000000
2535.634033 452.000000
2536.594238 474.000000
2537.554688 419.000000
2538.514160 384.000000
2539.472900 408.000000
2540.430664 491.000000
2541.388672 409.000000
2542.345947 295.000000
2543.302246 456.000000
2544.258301 369.000000
2545.213135 518.000000
2546.168213 438.000000
2547.122559 365.000000
2548.076172 1039.000000
2549.028809 423.000000
2549.981201 408.000000
2550.933105 392.000000
2551.884277 359.000000
2552.834717 491.000000
2553.784668 457.000000
2554.734375 395.000000
2555.683350 388.000000
2556.631836 389.000000
2557.579102 377.000000
2558.526367 398.000000
2559.472900 333.000000
2560.418945 357.000000
2561.364014 371.000000
2562.308838 473.000000
2563.253174 367.000000
2564.197021 478.000000
2565.140381 426.000000
2566.082275 390.000000
2567.024414 354.000000
2567.965820 333.000000
2568.906494 280.000000
2569.846436 464.000000
2570.786377 316.000000
2571.725342 469.000000
2572.664063 423.000000
2573.601807 304.000000
2574.539307 453.000000
2575.476074 384.000000
2576.412109 433.000000
2577.347656 346.000000
2578.282471 303.000000
2579.217285 347.000000
2580.151123 405.000000
2581.084473 378.000000
2582.017090 419.000000
2582.949463 266.000000
2583.881104 391.000000
2584.812256 294.000000
2585.742920 285.000000
2586.672363 334.000000
2587.601807 300.000000
2588.530762 341.000000
2589.459473 388.000000
2590.386475 446.000000
2591.313721 364.000000
2592.240479 296.000000
2593.166504 386.000000
2594.092285 368.000000
2595.016846 283.000000
2595.941162 371.000000
2596.864990 388.000000
2597.788330 400.000000
2598.710693 339.000000
2599.632813 271.000000
2600.554443 310.000000
2601.475342 324.000000
2602.395508 384.000000
2603.315430 323.000000
2604.234863 394.000000
2605.154053 379.000000
2606.072266 391.000000
2606.989258 429.000000
2607.906494 407.000000
2608.823486 344.000000
2609.739502 221.000000
2610.654297 343.000000
2611.569580 351.000000
2612.484131 373.000000
2613.397705 263.000000
2614.311279 307.000000
2615.223633 311.000000
2616.135986 319.000000
2617.047363 371.000000
2617.958496 302.000000
2618.868896 350.000000
2619.779053 357.000000
2620.688477 350.000000
2621.597412 351.000000
2622.505371 400.000000
2623.413574 324.000000
2624.320801 395.000000
2625.227539 368.000000
2626.133545 403.000000
2627.039307 309.000000
2627.944336 245.000000
2628.849121 370.000000
2629.753174 324.000000
2630.656250 446.000000
2631.559326 410.000000
2632.461426 337.000000
2633.363525 365.000000
2634.265381 385.000000
2635.165527 236.000000
2636.065918 384.000000
2636.965576 294.000000
2637.864990 351.000000
2638.762939 353.000000
2639.661377 325.000000
2640.559326 195.000000
2641.456543 309.000000
2642.352539 314.000000
2643.248535 265.000000
2644.144287 314.000000
2645.039307 246.000000
2645.934082 277.000000
2646.827393 305.000000
2647.720703 254.000000
2648.613770 332.000000
2649.506592 312.000000
2650.397705 325.000000
2651.289063 274.000000
2652.179932 264.000000
2653.070068 343.000000
2653.959961 328.000000
2654.848633 345.000000
2655.737549 244.000000
2656.625977 241.000000
2657.513428 285.000000
2658.399902 260.000000
2659.286865 295.000000
2660.173096 280.000000
2661.058838 253.000000
2661.943359 226.000000
2662.827881 301.000000
2663.712158 350.000000
2664.595703 332.000000
2665.478760 210.000000
2666.361084 264.000000
2667.242920 206.000000
2668.124023 301.000000
2669.005371 335.000000
2669.885254 312.000000
2670.765381 303.000000
2671.644775 367.000000
2672.524170 241.000000
2673.402832 257.000000
2674.279785 323.000000
2675.157471 246.000000
2676.034424 225.000000
2676.910645 410.000000
2677.786377 262.000000
2678.661377 214.000000
2679.536621 215.000000
2680.410889 274.000000
2681.284668 387.000000
2682.157715 245.000000
2683.030518 225.000000
2683.903076 185.000000
2684.774902 284.000000
2685.645996 145.000000
2686.516846 171.000000
2687.387207 374.000000
2688.257324 187.000000
2689.125732 283.000000
2689.994873 221.000000
2690.863281 278.000000
2691.731445 271.000000
2692.598877 246.000000
2693.465088 271.000000
2694.331787 350.000000
2695.197510 211.000000
2696.063232 190.000000
2696.927490 332.000000
2697.792480 350.000000
2698.656006 244.000000
2699.519775 214.000000
2700.382080 208.000000
2701.244873 193.000000
2702.106689 212.000000
2702.968018 141.000000
2703.829346 160.000000
2704.689453 321.000000
2705.549561 282.000000
2706.409180 232.000000
2707.268555 322.000000
2708.126221 263.000000
2708.984131 290.000000
2709.842529 239.000000
2710.699707 188.000000
2711.556152 169.000000
2712.412109 207.000000
2713.268066 227.000000
2714.123291 227.000000
2714.977783 220.000000
2715.831787 221.000000
2716.685791 242.000000
2717.538818 190.000000
2718.392090 253.000000
2719.243652 228.000000
2720.095703 150.000000
2720.947510 237.000000
2721.798096 240.000000
2722.648682 451.000000
2723.498779 201.000000
2724.348145 229.000000
2725.197510 239.000000
2726.045654 248.000000
2726.893311 185.000000
2727.741455 223.000000
2728.588379 166.000000
2729.435791 170.000000
2730.281738 207.000000
2731.126953 99.000000
2731.972656 242.000000
2732.817383 188.000000
2733.662109 192.000000
2734.505615 193.000000
2735.349365 245.000000
2736.192383 212.000000
2737.034912 240.000000
2737.876465 249.000000
2738.718506 198.000000
2739.559570 241.000000
2740.400391 187.000000
2741.240967 268.000000
2742.080322 166.000000
2742.919678 95.000000
2743.759033 213.000000
2744.597168 197.000000
2745.434814 232.000000
2746.272461 112.000000
2747.109619 237.000000
2747.946533 307.000000
2748.782959 177.000000
2749.618164 189.000000
2750.453613 285.000000
2751.288574 278.000000
2752.122803 250.000000
2752.956787 243.000000
2753.790283 130.000000
2754.623779 178.000000
2755.456299 220.000000
2756.288330 281.000000
2757.119873 234.000000
2757.951416 188.000000
2758.781982 236.000000
2759.612793 320.000000
2760.442383 223.000000
2761.271973 275.000000
2762.101318 216.000000
2762.929932 167.000000
2763.758057 188.000000
2764.585693 237.000000
2765.413330 318.000000
2766.240479 208.000000
2767.066895 167.000000
2767.892822 207.000000
2768.718262 197.000000
2769.543457 184.000000
2770.368652 144.000000
2771.192627 154.000000
2772.016602 198.000000
2772.840576 198.000000
2773.663330 99.000000
2774.486328 176.000000
2775.308105 136.000000
2776.129883 105.000000
2776.951660 237.000000
2777.772461 186.000000
2778.592529 163.000000
2779.412842 197.000000
2780.232666 198.000000
2781.052490 138.000000
2781.870361 128.000000
2782.689453 174.000000
2783.507324 115.000000
2784.324951 192.000000
2785.142090 187.000000
2785.958740 149.000000
2786.775146 128.000000
2787.591064 206.000000
2788.406738 116.000000
2789.221436 261.000000
2790.036621 126.000000
2790.851074 224.000000
2791.665039 257.000000
2792.478760 152.000000
2793.291260 150.000000
2794.104004 184.000000
2794.916260 116.000000
2795.728027 158.000000
2796.539063 207.000000
2797.350830 211.000000
2798.161377 144.000000
2798.971924 144.000000
2799.781006 204.000000
2800.590820 46.000000
2801.399902 310.000000
2802.208740 144.000000
2803.017090 164.000000
2803.824463 135.000000
2804.632324 276.000000
2805.439453 181.000000
2806.246338 212.000000
2807.052002 216.000000
2807.858154 109.000000
2808.663574 212.000000
2809.468994 107.000000
2810.273682 95.000000
2811.077393 108.000000
2811.881592 150.000000
2812.685303 173.000000
2813.488770 186.000000
2814.290771 182.000000
2815.093506 103.000000
2815.895508 88.000000
2816.697266 107.000000
2817.498535 68.000000
2818.299316 164.000000
2819.099609 87.000000
2819.900146 112.000000
2820.699707 82.000000
2821.498779 239.000000
2822.297852 140.000000
2823.096680 126.000000
2823.895020 184.000000
2824.692383 156.000000
2825.489990 131.000000
2826.286865 100.000000
2827.083984 164.000000
2827.880371 12.000000
2828.676025 76.000000
2829.471680 93.000000
2830.267090 185.000000
2831.062012 164.000000
2831.856201 171.000000
2832.650391 288.000000
2833.444336 102.000000
2834.237793 171.000000
2835.030518 115.000000
2835.822998 114.000000
2836.615479 184.000000
2837.407715 147.000000
2838.199463 22.000000
2838.990234 227.000000
2839.781006 9.000000
2840.572021 288.000000
2841.362061 158.000000
2842.151611 199.000000
2842.941406 110.000000
2843.730225 198.000000
2844.519043 63.000000
2845.307861 37.000000
2846.095703 254.000000
2846.883057 257.000000
2847.670654 51.000000
2848.457764 146.000000
2849.244141 58.000000
2850.030518 148.000000
2850.816650 138.000000
2851.602295 43.000000
2852.386963 72.000000
2853.172119 8.000000
2853.957031 176.000000
2854.741211 169.000000
2855.525391 102.000000
2856.308350 64.000000
2857.091553 100.000000
2857.874512 188.000000
2858.656982 171.000000
2859.439209 31.000000
2860.220947 68.000000
2861.002441 175.000000
2861.784180 172.000000
2862.565186 46.000000
2863.345459 143.000000
2864.125488 179.000000
2864.905518 255.000000
2865.685303 229.000000
2866.464111 76.000000
2867.243164 110.000000
2868.021729 157.000000
2868.800049 154.000000
2869.577881 142.000000
2870.355469 163.000000
2871.132813 201.000000
2871.909912 94.000000
2872.686523 223.000000
2873.462646 133.000000
2874.238770 181.000000
2875.014404 187.000000
2875.789795 189.000000
2876.564697 199.000000
2877.339355 135.000000
2878.114014 94.000000
2878.888428 162.000000
2879.662109 203.000000
2880.435059 189.000000
2881.208740 150.000000
2881.981445 253.000000
2882.754150 168.000000
2883.526123 291.000000
2884.297852 170.000000
2885.070068 267.000000
2885.841064 193.000000
2886.611572 184.000000
2887.382568 170.000000
2888.153564 239.000000
2888.923828 202.000000
2889.693115 205.000000
2890.462646 140.000000
2891.232178 220.000000
2892.001221 166.000000
2892.769775 55.000000
2893.538330 193.000000
2894.305908 173.000000
2895.073975 92.000000
2895.841553 200.000000
2896.609131 190.000000
2897.375488 146.000000
2898.142822 106.000000
2898.908936 169.000000
2899.675293 113.000000
2900.440186 120.000000
2901.205566 184.000000
2901.971436 107.000000
2902.735840 141.000000
2903.500244 166.000000
2904.264893 40.000000
2905.028564 172.000000
2905.792969 118.000000
2906.556641 194.000000
2907.319580 99.000000
2908.082275 200.000000
2908.845459 163.000000
2909.608154 65.000000
2910.369629 192.000000
2911.131592 192.000000
spectrumdark 2048
-97.099220 6218.000000
-94.472351 6218.000000
-91.847359 6060.000000
-89.224258 6392.000000
-86.603027 5758.000000
-83.983696 6229.000000
-81.366226 6076.000000
-78.750633 6432.000000
-76.136917 6193.000000
-73.525078 5872.000000
-70.915100 6099.000000
-68.307007 5952.000000
-65.700760 5921.000000
-63.096386 5987.000000
-60.493877 6157.000000
-57.893223 5610.000000
-55.294430 6169.000000
-52.697495 6843.000000
-50.102413 6466.000000
-47.509186 6494.000000
-44.917809 6252.000000
-42.328278 6734.000000
-39.740589 5939.000000
-37.154751 6045.000000
-34.570755 6504.000000
-31.988598 5640.000000
-29.408285 6348.000000
-26.829800 5739.000000
-24.253157 6151.000000
-21.678339 6237.000000
-19.105362 6489.000000
-16.534204 6476.000000
-13.964880 6806.000000
-11.397382 7743.000000
-8.831702 6287.000000
-6.267848 6414.000000
-3.705808 5984.000000
-1.145592 5865.000000
1.412816 6134.000000
3.969403 6874.000000
6.524185 6636.000000
9.077150 6004.000000
11.628315 6678.000000
14.177667 6457.000000
16.725222 6685.000000
19.270966 6005.000000
21.814917 5664.000000
24.357063 6657.000000
26.897413 6803.000000
29.435978 6895.000000
31.972746 6202.000000
34.507713 5788.000000
37.040901 7187.000000
39.572308 6322.000000
42.101921 7082.000000
44.629738 6461.000000
47.155796 7753.000000
49.680065 5615.000000
52.202564 6185.000000
54.723267 6729.000000
57.242214 6262.000000
59.759388 6390.000000
62.274784 6711.000000
64.788399 5579.000000
67.300262 5659.000000
69.810379 6540.000000
72.318703 6568.000000
74.825272 5958.000000
77.330093 6326.000000
79.833160 6326.000000
82.334450 6220.000000
84.834000 6101.000000
87.331795 6344.000000
89.827858 5696.000000
92.322144 7237.000000
94.814690 5817.000000
97.305519 6843.000000
99.794579 7181.000000
102.281891 6352.000000
104.767479 6190.000000
107.251328 6327.000000
109.733429 5662.000000
112.213806 6542.000000
114.692459 6161.000000
117.169388 6412.000000
119.644562 7227.000000
122.118027 6776.000000
124.589760 5844.000000
127.059784 6751.000000
129.528061 6228.000000
131.994659 6255.000000
134.459503 5768.000000
136.922653 6197.000000
139.384064 7294.000000
141.843781 6881.000000
144.301773 6310.000000
146.758072 5916.000000
149.212662 5842.000000
151.665527 6829.000000
154.116714 6406.000000
156.566208 6604.000000
159.013977 6085.000000
161.460037 6512.000000
163.904419 8659.000000
166.347122 6368.000000
168.788132 6724.000000
171.227432 6218.000000
173.665024 7245.000000
176.100983 6554.000000
178.535202 6881.000000
180.967743 7145.000000
183.398636 6685.000000
185.827805 7062.000000
188.255325 6709.000000
190.681168 6370.000000
193.105331 6698.000000
195.527832 7130.000000
197.948639 7324.000000
200.367783 6483.000000
202.785263 5976.000000
205.201050 7561.000000
207.615189 7056.000000
210.027695 6369.000000
212.438522 5999.000000
214.847672 6233.000000
217.255188 7322.000000
219.660995 6145.000000
222.065216 6482.000000
224.467728 6686.000000
226.868622 6966.000000
229.267868 6389.000000
231.665451 6807.000000
234.061371 7220.000000
236.455673 6392.000000
238.848312 5837.000000
241.239334 6762.000000
243.628693 6510.000000
246.016434 6332.000000
248.402527 6924.000000
250.786987 6067.000000
253.169800 7853.000000
255.551041 6569.000000
257.930573 6636.000000
260.308533 6425.000000
262.684814 7494.000000
265.059540 7510.000000
267.432617 7786.000000
269.804047 6200.000000
272.173828 6394.000000
274.542053 5796.000000
276.908630 6261.000000
279.273621 6724.000000
281.636993 5981.000000
283.998718 6192.000000
286.358856 7105.000000
288.717377 5927.000000
291.074310 6500.000000
293.429626 6342.000000
295.783356 5920.000000
298.135437 5902.000000
300.485962 6323.000000
302.834900 6361.000000
305.182190 6737.000000
307.527954 6408.000000
309.872040 6409.000000
312.214600 7375.000000
314.555542 7566.000000
316.894867 7150.000000
319.232635 6901.000000
321.568848 8087.000000
323.903412 6263.000000
326.236420 6376.000000
328.567871 5988.000000
330.897736 6602.000000
333.226013 6351.000000
335.552673 7210.000000
337.877838 6333.000000
340.201385 6225.000000
342.523376 5937.000000
344.843811 7463.000000
347.162628 7677.000000
349.479889 6010.000000
351.795624 5770.000000
354.109772 6942.000000
356.422333 6271.000000
358.733337 6410.000000
361.042816 7128.000000
363.350769 6377.000000
365.657104 5661.000000
367.961853 6402.000000
370.265137 6405.000000
372.566803 6268.000000
374.866974 6311.000000
377.165588 6227.000000
379.462646 5736.000000
381.758148 6103.000000
384.052124 5872.000000
386.344513 5219.000000
388.635406 5550.000000
390.924774 6184.000000
393.212555 6254.000000
395.498810 6468.000000
397.783569 6998.000000
400.066711 6060.000000
402.348419 6420.000000
404.628601 6108.000000
406.907196 7273.000000
409.184265 6365.000000
411.459808 6729.000000
413.733826 6509.000000
416.006409 6392.000000
418.277374 6266.000000
420.546844 6371.000000
422.814819 7062.000000
425.081238 7191.000000
427.346161 6241.000000
429.609619 6273.000000
431.871490 6499.000000
434.131897 6005.000000
436.390747 6658.000000
438.648132 6095.000000
440.904022 5614.000000
443.158417 5746.000000
445.411285 5406.000000
447.662598 6873.000000
449.912506 6099.000000
452.160828 6297.000000
454.407715 5616.000000
456.653137 6452.000000
458.897003 6478.000000
461.139374 6775.000000
463.380249 5590.000000
465.619720 6652.000000
467.857605 5397.000000
470.094055 5800.000000
472.328979 6003.000000
474.562439 7172.000000
476.794464 6668.000000
479.024963 5646.000000
481.253967 6432.000000
483.481506 6346.000000
485.707550 5944.000000
487.932159 6496.000000
490.155304 5848.000000
492.376984 6301.000000
494.597107 6652.000000
496.815826 5649.000000
499.033051 6240.000000
501.248901 5581.000000
503.463135 6127.000000
505.676056 6368.000000
507.887390 6439.000000
510.097290 6912.000000
512.305725 6463.000000
514.512817 6522.000000
516.718323 6436.000000
518.922424 6590.000000
521.125000 6165.000000
523.326172 6538.000000
525.526001 6621.000000
527.724304 6869.000000
529.921082 5269.000000
532.116516 5794.000000
534.310425 5484.000000
536.502991 7510.000000
538.694031 6591.000000
540.883667 5979.000000
543.071899 6965.000000
545.258606 7112.000000
547.443848 6717.000000
549.627808 6210.000000
551.810181 6386.000000
553.991211 6210.000000
556.170715 5992.000000
558.348938 5854.000000
560.525635 5969.000000
562.700928 6352.000000
564.874817 6377.000000
567.047241 5861.000000
569.218262 6025.000000
571.387817 6286.000000
573.556091 5224.000000
575.722839 6403.000000
577.888123 6275.000000
580.052002 6166.000000
582.214600 5693.000000
584.375671 5941.000000
586.535339 5539.000000
588.693665 5798.000000
590.850464 6044.000000
593.005920 6559.000000
595.159973 5722.000000
597.312683 6142.000000
599.463867 7144.000000
601.613708 6784.000000
603.762207 6659.000000
605.909119 5949.000000
608.054810 6493.000000
610.199097 6396.000000
612.341919 6680.000000
614.483276 6155.000000
616.623413 6435.000000
618.762024 7662.000000
620.899353 5745.000000
623.035217 6537.000000
625.169678 6811.000000
627.302673 7194.000000
629.434509 6617.000000
631.564880 6515.000000
633.693848 6823.000000
635.821350 6515.000000
637.947571 6165.000000
640.072266 7335.000000
642.195740 6418.000000
644.317871 6810.000000
646.438538 7015.000000
648.557861 6615.000000
650.675781 5595.000000
652.792358 5620.000000
654.907532 6424.000000
657.021362 6455.000000
659.133728 5778.000000
661.244873 6058.000000
663.354614 5348.000000
665.462891 5997.000000
667.570007 6326.000000
669.675659 6756.000000
671.779846 5868.000000
673.882813 5724.000000
675.984375 6982.000000
678.084595 5332.000000
680.183411 6701.000000
682.280884 6228.000000
684.377075 7048.000000
686.471802 6245.000000
688.565308 6960.000000
690.657471 6646.000000
692.748108 7893.000000
694.837524 6581.000000
696.925659 6427.000000
699.012329 6025.000000
701.097778 6641.000000
703.181702 5087.000000
705.264404 5934.000000
707.345825 5842.000000
709.425781 7515.000000
711.504517 6067.000000
713.581787 5515.000000
715.657776 6532.000000
717.732483 6069.000000
719.805908 6966.000000
721.877808 6287.000000
723.948547 7302.000000
726.017944 5781.000000
728.085938 6510.000000
730.152588 6309.000000
732.218018 7007.000000
734.282104 5777.000000
736.344849 6154.000000
738.406250 6445.000000
740.466370 6618.000000
742.525085 5999.000000
744.582581 6619.000000
746.638794 6512.000000
748.693604 6723.000000
750.747131 6381.000000
752.799255 7514.000000
754.850159 5779.000000
756.899841 6644.000000
758.948059 6303.000000
760.995056 6099.000000
763.040771 6992.000000
765.085083 5343.000000
767.128113 5740.000000
769.169922 15018.000000
771.210388 6918.000000
773.249451 6392.000000
775.287354 6087.000000
777.323914 5948.000000
779.359253 5349.000000
781.393250 5789.000000
783.425842 6892.000000
785.457275 5495.000000
787.487305 11724.000000
789.516052 5978.000000
791.543640 6258.000000
793.569885 6320.000000
795.594727 5754.000000
797.618469 5525.000000
799.640808 6388.000000
801.661926 5860.000000
803.681702 6656.000000
805.700195 4824.000000
807.717468 6703.000000
809.733337 6780.000000
811.748047 5700.000000
813.761414 6428.000000
815.773560 6232.000000
817.784485 6127.000000
819.794067 6549.000000
821.802429 5265.000000
823.809387 5660.000000
825.815125 6021.000000
827.819641 5694.000000
829.822876 5650.000000
831.824829 6499.000000
833.825500 6113.000000
835.824951 5966.000000
837.823059 6312.000000
839.820068 6964.000000
841.815674 6231.000000
843.810120 5947.000000
845.803223 6149.000000
847.795105 6789.000000
849.785645 5632.000000
851.774902 6750.000000
853.763123 5998.000000
855.749939 5787.000000
857.735535 6410.000000
859.719849 7253.000000
861.703064 6272.000000
863.684875 6397.000000
865.665466 5822.000000
867.644775 7684.000000
869.622925 7131.000000
871.599731 6228.000000
873.575256 5971.000000
875.549744 6149.000000
877.522766 6005.000000
879.494751 5434.000000
881.465393 6445.000000
883.434875 6063.000000
885.403015 5483.000000
887.369995 5258.000000
889.335632 6108.000000
891.300110 5787.000000
893.263367 5978.000000
895.225403 6482.000000
897.186157 5829.000000
899.145691 6341.000000
901.103943 6647.000000
903.061096 6280.000000
905.017090 5981.000000
906.971680 6874.000000
908.925049 6438.000000
910.877258 6414.000000
912.828247 6312.000000
914.777954 7091.000000
916.726501 6269.000000
918.673828 6252.000000
920.619873 6084.000000
922.564636 6061.000000
924.508362 6298.000000
926.450928 5918.000000
928.392212 5488.000000
930.332153 6428.000000
932.270996 5690.000000
934.208557 5536.000000
936.144897 5925.000000
938.080078 5777.000000
940.013977 6036.000000
941.946777 5828.000000
943.878357 6760.000000
945.808777 5170.000000
947.737976 6526.000000
949.665833 6956.000000
951.592651 6641.000000
953.518188 5976.000000
955.442444 5333.000000
957.365601 5992.000000
959.287598 6673.000000
961.208313 7274.000000
963.127869 6512.000000
965.046265 5275.000000
966.963623 6365.000000
968.879517 6411.000000
970.794312 6101.000000
972.707886 5932.000000
974.620300 6426.000000
976.531494 6486.000000
978.441528 5491.000000
980.350281 6243.000000
982.257996 6113.000000
984.164490 6409.000000
986.069763 5681.000000
987.973938 6802.000000
989.876892 6138.000000
991.778625 6782.000000
993.679199 6539.000000
995.578613 6551.000000
997.476807 5225.000000
999.373840 6561.000000
1001.269653 6484.000000
1003.164307 7659.000000
1005.057861 5526.000000
1006.950134 7062.000000
1008.841492 6070.000000
1010.731506 5293.000000
1012.620300 6630.000000
1014.507935 6504.000000
1016.394409 6869.000000
1018.279724 6676.000000
1020.163879 5947.000000
1022.046814 5908.000000
1023.928711 6249.000000
1025.809326 5155.000000
1027.688843 5844.000000
1029.567383 6051.000000
1031.444580 5397.000000
1033.320435 6190.000000
1035.195313 5902.000000
1037.069214 6564.000000
1038.941650 6911.000000
1040.813110 6670.000000
1042.683228 5428.000000
1044.552368 5461.000000
1046.420288 5740.000000
1048.287109 7059.000000
1050.152832 6709.000000
1052.017334 6385.000000
1053.880737 6462.000000
1055.742798 6448.000000
1057.603882 5843.000000
1059.463867 6467.000000
1061.322510 6571.000000
1063.180054 5773.000000
1065.036499 6776.000000
1066.891846 5851.000000
1068.745972 5790.000000
1070.599243 6290.000000
1072.451050 6295.000000
1074.301880 6145.000000
1076.151489 6146.000000
1077.999878 5765.000000
1079.847412 7976.000000
1081.693604 5571.000000
1083.538574 6130.000000
1085.382690 5368.000000
1087.225464 5494.000000
1089.067017 6485.000000
1090.907837 5446.000000
1092.747070 5797.000000
1094.585571 6037.000000
1096.422729 6024.000000
1098.258667 6759.000000
1100.093628 6552.000000
1101.927368 5383.000000
1103.760132 5679.000000
1105.591553 6120.000000
1107.422119 7271.000000
1109.251343 6553.000000
1111.079590 6419.000000
1112.906616 7079.000000
1114.732666 5356.000000
1116.557495 6338.000000
1118.381226 7087.000000
1120.203735 6070.000000
1122.025146 5883.000000
1123.845703 5861.000000
1125.664795 6541.000000
1127.483032 6959.000000
1129.299927 6792.000000
1131.115967 6622.000000
1132.930786 6466.000000
1134.744507 5562.000000
1136.557129 5807.000000
1138.368530 5612.000000
1140.178955 6144.000000
1141.988281 6664.000000
1143.796265 6912.000000
1145.603516 5975.000000
1147.409302 5928.000000
1149.214233 5408.000000
1151.018066 5356.000000
1152.820679 6136.000000
1154.622437 6098.000000
1156.422729 6028.000000
1158.222046 6132.000000
1160.020386 5841.000000
1161.817383 5429.000000
1163.613647 5932.000000
1165.408569 6040.000000
1167.202393 6369.000000
1168.995361 7694.000000
1170.786987 5714.000000
1172.577637 6469.000000
1174.367310 6013.000000
1176.155518 5851.000000
1177.942871 7456.000000
1179.729126 6884.000000
1181.514282 5687.000000
1183.298340 5947.000000
1185.081299 7687.000000
1186.863281 5864.000000
1188.644043 5888.000000
1190.423828 6239.000000
1192.202515 6795.000000
1193.980225 6619.000000
1195.756714 7140.000000
1197.532104 6532.000000
1199.306396 6530.000000
1201.079590 6663.000000
1202.851929 6395.000000
1204.622925 6724.000000
1206.393066 5613.000000
1208.161987 6088.000000
1209.929810 6283.000000
1211.696777 5859.000000
1213.462402 5825.000000
1215.227051 6982.000000
1216.990601 6581.000000
1218.753052 5939.000000
1220.514648 6650.000000
1222.275024 5874.000000
1224.034302 6324.000000
1225.792725 5990.000000
1227.549927 7102.000000
1229.306030 6380.000000
1231.061035 5521.000000
1232.815186 5977.000000
1234.567993 5800.000000
1236.319824 5997.000000
1238.070801 5953.000000
1239.820435 4907.000000
1241.569214 7026.000000
1243.316650 6416.000000
1245.063354 6571.000000
1246.808838 6434.000000
1248.553467 6367.000000
1250.296753 6753.000000
1252.039063 6657.000000
1253.780273 5351.000000
1255.520630 5033.000000
1257.259888 5787.000000
1258.997925 6522.000000
1260.735107 7051.000000
1262.471069 6051.000000
1264.206055 6455.000000
1265.940063 7286.000000
1267.673096 5932.000000
1269.404907 6210.000000
1271.135742 6419.000000
1272.865356 7215.000000
1274.594116 5924.000000
1276.321777 5689.000000
1278.048340 5508.000000
1279.774048 5494.000000
1281.498413 6403.000000
1283.221924 5192.000000
1284.944458 6903.000000
1286.666016 6608.000000
1288.386353 6156.000000
1290.105713 6586.000000
1291.823975 7204.000000
1293.541260 6442.000000
1295.257568 5708.000000
1296.972656 6336.000000
1298.686768 6132.000000
1300.399902 5688.000000
1302.112183 6425.000000
1303.823242 8280.000000
1305.533325 5192.000000
1307.242310 6353.000000
1308.950073 6617.000000
1310.657227 6983.000000
1312.362915 5788.000000
1314.067871 6849.000000
1315.771851 6199.000000
1317.474609 5975.000000
1319.176392 6531.000000
1320.877319 6024.000000
1322.576904 10090.000000
1324.275635 31395.000000
1325.973633 5579.000000
1327.670288 6530.000000
1329.365845 7016.000000
1331.060547 6844.000000
1332.754028 5707.000000
1334.446655 5379.000000
1336.138428 7249.000000
1337.828857 6300.000000
1339.518555 6560.000000
1341.207153 6102.000000
1342.894653 7611.000000
1344.581177 5618.000000
1346.266602 6789.000000
1347.951050 5952.000000
1349.634644 7220.000000
1351.317017 6347.000000
1352.998413 5948.000000
1354.678955 6487.000000
1356.358276 6665.000000
1358.036987 5904.000000
1359.714355 6567.000000
1361.390625 5733.000000
1363.065918 5543.000000
1364.740479 6530.000000
1366.413818 6429.000000
1368.086182 6819.000000
1369.757568 5171.000000
1371.427979 6682.000000
1373.097290 6136.000000
1374.765625 5651.000000
1376.433105 5838.000000
1378.099487 6490.000000
1379.764893 6096.000000
1381.429321 5873.000000
1383.092529 5867.000000
1384.755127 5692.000000
1386.416382 6352.000000
1388.076782 6513.000000
1389.736084 6387.000000
1391.394409 6423.000000
1393.052002 6825.000000
1394.708374 6488.000000
1396.363892 6939.000000
1398.018188 6271.000000
1399.671631 5743.000000
1401.323975 6063.000000
1402.975586 6469.000000
1404.625977 7143.000000
1406.275269 6186.000000
1407.923828 7487.000000
1409.571289 7911.000000
1411.217773 6074.000000
1412.863403 6214.000000
1414.508057 5924.000000
1416.151489 6986.000000
1417.794067 7127.000000
1419.435547 6841.000000
1421.076172 6421.000000
1422.715820 6489.000000
1424.354370 5993.000000
1425.992065 6582.000000
1427.628662 6278.000000
1429.264282 6011.000000
1430.899170 6350.000000
1432.532959 5886.000000
1434.165649 6101.000000
1435.797363 5665.000000
1437.428223 6110.000000
1439.057983 6057.000000
1440.686646 7805.000000
1442.314697 5970.000000
1443.941650 6139.000000
1445.567383 6185.000000
1447.192505 6151.000000
1448.816528 6479.000000
1450.439575 5941.000000
1452.061646 6030.000000
1453.682617 7382.000000
1455.302612 6290.000000
1456.921875 6875.000000
1458.539795 5638.000000
1460.157104 17208.000000
1461.773438 5581.000000
1463.388550 7220.000000
1465.002808 6190.000000
1466.616211 5152.000000
1468.228516 5573.000000
1469.839966 6218.000000
1471.450562 6317.000000
1473.059937 5876.000000
1474.668335 5908.000000
1476.275879 6167.000000
1477.882446 6653.000000
1479.488281 5250.000000
1481.092896 6217.000000
1482.696655 5472.000000
1484.299194 6710.000000
1485.901123 5555.000000
1487.501831 5472.000000
1489.101807 5562.000000
1490.700684 6241.000000
1492.298706 6417.000000
1493.895630 6655.000000
1495.491699 6316.000000
1497.086792 6001.000000
1498.680908 5458.000000
1500.274292 6555.000000
1501.866577 5527.000000
1503.457642 6113.000000
1505.048218 6734.000000
1506.637451 6428.000000
1508.226074 6167.000000
1509.813599 6535.000000
1511.400024 6846.000000
1512.985718 6216.000000
1514.570313 6564.000000
1516.154053 6214.000000
1517.736694 6162.000000
1519.318604 6545.000000
1520.899414 6676.000000
1522.479492 6009.000000
1524.058350 6196.000000
1525.636353 6404.000000
1527.213623 6218.000000
1528.789673 5669.000000
1530.364990 5902.000000
1531.939209 6264.000000
1533.512695 5437.000000
1535.084961 6001.000000
1536.656494 6366.000000
1538.227051 6428.000000
1539.796753 6257.000000
1541.365234 5414.000000
1542.932983 6586.000000
1544.499878 5656.000000
1546.065552 6793.000000
1547.630493 5890.000000
1549.194336 5096.000000
1550.757568 7432.000000
1552.319458 6313.000000
1553.880737 5987.000000
1555.440918 5701.000000
1557.000366 5728.000000
1558.558716 5881.000000
1560.116333 6266.000000
1561.672852 7010.000000
1563.228149 5866.000000
1564.782837 6281.000000
1566.336792 5611.000000
1567.889771 6348.000000
1569.441406 5652.000000
1570.992310 5828.000000
1572.542480 6226.000000
1574.091675 6318.000000
1575.639526 5741.000000
1577.186890 5461.000000
1578.733276 5672.000000
1580.278809 5052.000000
1581.823364 6672.000000
1583.366699 6319.000000
1584.909424 6574.000000
1586.451294 6385.000000
1587.992065 6708.000000
1589.531860 5833.000000
1591.070923 6603.000000
1592.608887 5944.000000
1594.146362 6099.000000
1595.682495 5896.000000
1597.217529 6610.000000
1598.752075 6266.000000
1600.285645 5949.000000
1601.818359 5951.000000
1603.349487 6316.000000
1604.880371 6257.000000
1606.410400 5684.000000
1607.939209 6135.000000
1609.466919 6118.000000
1610.994019 6009.000000
1612.520386 5886.000000
1614.045776 6188.000000
1615.570313 5787.000000
1617.093506 5761.000000
1618.615967 5607.000000
1620.137695 6552.000000
1621.658569 6949.000000
1623.177979 15518.000000
1624.696899 6230.000000
1626.215088 6026.000000
1627.732422 5912.000000
1629.248657 6342.000000
1630.763550 6981.000000
1632.277954 6816.000000
1633.791626 5753.000000
1635.304199 6688.000000
1636.815552 5905.000000
1638.326538 6319.000000
1639.836426 6248.000000
1641.345459 6198.000000
1642.853149 5601.000000
1644.360474 6083.000000
1645.866943 7142.000000
1647.372437 6244.000000
1648.877075 6841.000000
1650.380249 6083.000000
1651.882813 6523.000000
1653.385010 6249.000000
1654.885864 6629.000000
1656.385620 7603.000000
1657.884521 5958.000000
1659.383057 6463.000000
1660.880371 6210.000000
1662.376953 5919.000000
1663.871948 6474.000000
1665.366699 6321.000000
1666.860596 5206.000000
1668.353516 5544.000000
1669.845093 20562.000000
1671.336182 6412.000000
1672.826660 5991.000000
1674.316040 5908.000000
1675.803955 6912.000000
1677.291626 6824.000000
1678.778320 6005.000000
1680.264160 5330.000000
1681.749146 6012.000000
1683.232666 6196.000000
1684.715942 6173.000000
1686.198364 5842.000000
1687.679688 6212.000000
1689.159546 6189.000000
1690.639160 5564.000000
1692.118042 6542.000000
1693.595947 6049.000000
1695.072876 6057.000000
1696.548584 5726.000000
1698.023926 6008.000000
1699.498047 6305.000000
1700.971558 5391.000000
1702.443604 5550.000000
1703.915405 6880.000000
1705.386230 6368.000000
1706.856201 7035.000000
1708.324829 5111.000000
1709.792969 5764.000000
1711.260376 6352.000000
1712.726685 5416.000000
1714.192383 5707.000000
1715.656372 6178.000000
1717.120239 5965.000000
1718.583252 6936.000000
1720.045288 6333.000000
1721.506104 6575.000000
1722.966309 5437.000000
1724.425781 6370.000000
1725.884399 6049.000000
1727.342041 5974.000000
1728.798340 6291.000000
1730.254395 5991.000000
1731.709473 6376.000000
1733.163574 5986.000000
1734.616455 6868.000000
1736.069092 5914.000000
1737.520630 6750.000000
1738.971436 5913.000000
1740.421265 6581.000000
1741.869751 5961.000000
1743.317871 7309.000000
1744.765137 6485.000000
1746.211670 6582.000000
1747.656616 6658.000000
1749.101318 6154.000000
1750.545166 5842.000000
1751.988159 5503.000000
1753.429688 6524.000000
1754.870972 6301.000000
1756.311401 19397.000000
1757.750854 6288.000000
1759.189331 5263.000000
1760.626831 6108.000000
1762.063843 7526.000000
1763.499878 5858.000000
1764.935059 7124.000000
1766.368774 6146.000000
1767.802368 6441.000000
1769.234985 6629.000000
1770.666748 5753.000000
1772.097656 5680.000000
1773.527344 6348.000000
1774.956299 6107.000000
1776.384766 6258.000000
1777.812256 6686.000000
1779.238403 6233.000000
1780.664307 5560.000000
1782.089111 6839.000000
1783.513306 5512.000000
1784.936035 6557.000000
1786.358276 6514.000000
1787.779785 6840.000000
1789.200562 5890.000000
1790.620361 5928.000000
1792.038818 6150.000000
1793.456787 6865.000000
1794.874146 5488.000000
1796.290649 6057.000000
1797.705688 6540.000000
1799.120361 5877.000000
1800.534424 6558.000000
1801.947266 5977.000000
1803.359497 6983.000000
1804.770386 7168.000000
1806.180786 7787.000000
1807.590454 6452.000000
1808.999146 5923.000000
1810.406738 5395.000000
1811.813843 6461.000000
1813.220093 6398.000000
1814.625366 6697.000000
1816.029541 5930.000000
1817.433350 5958.000000
1818.836182 6162.000000
1820.238159 6016.000000
1821.639526 5883.000000
1823.039429 6301.000000
1824.438721 6525.000000
1825.837524 6560.000000
1827.235474 7488.000000
1828.632080 5707.000000
1830.028076 6735.000000
1831.423340 5870.000000
1832.817993 8136.000000
1834.211670 5965.000000
1835.604004 6811.000000
1836.995850 6362.000000
1838.387085 5877.000000
1839.777344 7072.000000
1841.166382 6042.000000
1842.555054 5974.000000
1843.942749 5944.000000
1845.329712 5794.000000
1846.715332 6844.000000
1848.100708 5809.000000
1849.485229 6336.000000
1850.869019 6313.000000
1852.251709 6308.000000
1853.633179 5405.000000
1855.014160 6490.000000
1856.394653 6288.000000
1857.774170 5707.000000
1859.152222 6004.000000
1860.530151 6259.000000
1861.907104 7792.000000
1863.283325 6088.000000
1864.658691 6095.000000
1866.032593 5673.000000
1867.406372 5687.000000
1868.779297 6201.000000
1870.151123 5949.000000
1871.521973 6886.000000
1872.892456 5419.000000
1874.261841 6034.000000
1875.630737 6047.000000
1876.998047 7158.000000
1878.365234 6029.000000
1879.731445 5950.000000
1881.096924 6797.000000
1882.461670 7447.000000
1883.824829 6821.000000
1885.187866 6891.000000
1886.550049 6332.000000
1887.911377 6443.000000
1889.271362 5590.000000
1890.630981 5739.000000
1891.989990 6127.000000
1893.348022 6629.000000
1894.705200 7223.000000
1896.061157 5964.000000
1897.416870 7586.000000
1898.771606 5803.000000
1900.125488 5482.000000
1901.478271 5802.000000
1902.830566 5861.000000
1904.182129 5912.000000
1905.532837 6863.000000
1906.882324 6501.000000
1908.231323 6693.000000
1909.579468 5751.000000
1910.927002 6128.000000
1912.273804 6279.000000
1913.619019 6762.000000
1914.963989 6038.000000
1916.308228 5411.000000
1917.651611 6432.000000
1918.993652 6042.000000
1920.335449 6720.000000
1921.676392 6976.000000
1923.016602 6127.000000
1924.355835 6268.000000
1925.694092 6248.000000
1927.031738 6481.000000
1928.368652 6996.000000
1929.704712 6699.000000
1931.039551 5580.000000
1932.374023 6660.000000
1933.707764 7234.000000
1935.040649 6225.000000
1936.372070 5710.000000
1937.703613 6301.000000
1939.033813 6669.000000
1940.363525 5788.000000
1941.692383 6063.000000
1943.020020 5821.000000
1944.347168 4967.000000
1945.673584 5835.000000
1946.999268 6344.000000
1948.323608 5774.000000
1949.647705 6675.000000
1950.970947 6355.000000
1952.293457 6327.000000
1953.614868 5816.000000
1954.935303 7412.000000
1956.255127 6067.000000
1957.574585 5543.000000
1958.893066 6759.000000
1960.210205 5853.000000
1961.526978 5820.000000
1962.843018 6415.000000
1964.158325 6506.000000
1965.472168 6243.000000
1966.785767 5634.000000
1968.098633 6184.000000
1969.410645 5978.000000
1970.722046 6012.000000
1972.032104 6254.000000
1973.341675 5797.000000
1974.650513 6160.000000
1975.958740 6568.000000
1977.265625 6057.000000
1978.571899 7260.000000
1979.877808 5527.000000
1981.182495 6340.000000
1982.486694 5936.000000
1983.789673 5679.000000
1985.092285 7516.000000
1986.393921 6103.000000
1987.694946 6812.000000
1988.994385 6024.000000
1990.293945 6539.000000
1991.592407 5244.000000
1992.890381 6062.000000
1994.186768 6068.000000
1995.483154 5776.000000
1996.778564 5563.000000
1998.073242 6536.000000
1999.367065 5701.000000
2000.659668 6548.000000
2001.951782 5753.000000
2003.243408 7134.000000
2004.534302 6357.000000
2005.823608 6299.000000
2007.112671 6805.000000
2008.401001 5914.000000
2009.688599 6045.000000
2010.975342 6630.000000
2012.260986 5614.000000
2013.546265 6350.000000
2014.830566 5973.000000
2016.114258 5578.000000
2017.396606 6025.000000
2018.678589 6405.000000
2019.960083 6777.000000
2021.240601 5810.000000
2022.520386 6077.000000
2023.799072 6702.000000
2025.077026 5835.000000
2026.354492 5886.000000
2027.631348 6325.000000
2028.906494 5747.000000
2030.181763 6545.000000
2031.456055 6067.000000
2032.729370 5936.000000
2034.001831 5935.000000
2035.273926 6134.000000
2036.544922 6938.000000
2037.815674 6575.000000
2039.085083 6016.000000
2040.353394 6903.000000
2041.621704 6621.000000
2042.889038 5965.000000
2044.155640 6010.000000
2045.421021 5728.000000
2046.685791 5887.000000
2047.950317 5355.000000
2049.213623 5854.000000
2050.476563 6333.000000
2051.737549 6133.000000
2052.999023 6091.000000
2054.259277 5859.000000
2055.518799 6432.000000
2056.777588 6275.000000
2058.035400 6882.000000
2059.292725 6178.000000
2060.549316 6031.000000
2061.804443 6460.000000
2063.059570 5574.000000
2064.313721 5592.000000
2065.567139 5608.000000
2066.819824 6867.000000
2068.071289 6197.000000
2069.322510 6264.000000
2070.572998 5576.000000
2071.822754 5381.000000
2073.071045 6450.000000
2074.319336 6474.000000
2075.566650 7420.000000
2076.813232 5557.000000
2078.059082 6042.000000
2079.303711 6924.000000
2080.547852 7592.000000
2081.791504 5452.000000
2083.034180 6022.000000
2084.275635 6968.000000
2085.516846 5884.000000
2086.757568 6349.000000
2087.997314 6732.000000
2089.235840 7021.000000
2090.473877 6140.000000
2091.711182 5764.000000
2092.948242 6626.000000
2094.183838 6081.000000
2095.418701 6131.000000
2096.653320 6013.000000
2097.886963 5617.000000
2099.119629 6101.000000
2100.351563 6826.000000
2101.583008 6370.000000
2102.813477 6763.000000
2104.043213 6043.000000
2105.272705 5983.000000
2106.500244 5984.000000
2107.728027 5949.000000
2108.955078 6218.000000
2110.181152 5503.000000
2111.405762 6382.000000
2112.630615 6945.000000
2113.854248 7042.000000
2115.077393 6221.000000
2116.299316 7522.000000
2117.520996 6004.000000
2118.741699 6858.000000
2119.961670 6000.000000
2121.181152 6167.000000
2122.399170 6565.000000
2123.617188 7029.000000
2124.834229 5713.000000
2126.050781 5849.000000
2127.265625 6499.000000
2128.480713 6335.000000
2129.694824 6931.000000
2130.908203 5666.000000
2132.120850 6018.000000
2133.332031 5767.000000
2134.543457 6554.000000
2135.753662 6766.000000
2136.963379 5896.000000
2138.171631 6088.000000
2139.379883 5683.000000
2140.587402 5908.000000
2141.793701 7725.000000
2142.999268 5865.000000
2144.204590 5589.000000
2145.408936 5527.000000
2146.612549 6224.000000
2147.815674 6222.000000
2149.017334 6534.000000
2150.218750 5251.000000
2151.419434 6298.000000
2152.619385 5944.000000
2153.818115 5969.000000
2155.016602 6876.000000
2156.214600 6122.000000
2157.411621 5957.000000
2158.607910 5196.000000
2159.802979 5214.000000
2160.997803 6108.000000
2162.191895 5605.000000
2163.385010 6038.000000
2164.577148 6861.000000
2165.769043 5884.000000
2166.960205 6289.000000
2168.150391 6282.000000
2169.339844 6492.000000
2170.528809 6830.000000
2171.716797 5972.000000
2172.904541 5762.000000
2174.090820 5896.000000
2175.276367 6552.000000
2176.461670 6017.000000
2177.646484 5853.000000
2178.830078 6421.000000
2180.012939 7449.000000
2181.194824 6300.000000
2182.376465 5894.000000
2183.557617 6611.000000
2184.737549 5659.000000
2185.916504 5539.000000
2187.094971 6317.000000
2188.273193 6872.000000
2189.450195 7226.000000
2190.626221 6766.000000
2191.802002 6066.000000
2192.977295 5575.000000
2194.151123 6640.000000
2195.324463 6169.000000
2196.497559 6137.000000
2197.669434 6425.000000
2198.840820 6986.000000
2200.011719 6356.000000
2201.180908 6786.000000
2202.350098 7539.000000
2203.518799 6315.000000
2204.686523 5941.000000
2205.853271 5649.000000
2207.019287 7169.000000
2208.184814 6623.000000
2209.350098 5975.000000
2210.513916 6698.000000
2211.677246 5470.000000
2212.839355 6227.000000
2214.001709 6174.000000
2215.162842 6674.000000
2216.322998 6653.000000
2217.482666 6309.000000
2218.642090 6591.000000
2219.800293 6356.000000
2220.957520 6272.000000
2222.114502 6795.000000
2223.270752 6619.000000
2224.426270 6726.000000
2225.581055 6213.000000
2226.734863 6425.000000
2227.887695 6007.000000
2229.041016 6878.000000
2230.192383 6164.000000
2231.343506 6147.000000
2232.493896 6514.000000
2233.643799 7678.000000
2234.792725 6309.000000
2235.941162 5156.000000
2237.088135 6790.000000
2238.235352 7037.000000
2239.381348 5997.000000
2240.527100 7191.000000
2241.671143 7257.000000
2242.815430 6748.000000
2243.958740 6182.000000
2245.101318 5923.000000
2246.242920 5702.000000
2247.384277 5770.000000
2248.524658 6420.000000
2249.664307 6425.000000
2250.803467 5806.000000
2251.941406 5828.000000
2253.079346 6196.000000
2254.216309 5284.000000
2255.352539 6330.000000
2256.487793 6136.000000
2257.622314 7189.000000
2258.756592 6389.000000
2259.890381 5388.000000
2261.022705 6104.000000
2262.154541 6792.000000
2263.285889 6238.000000
2264.416260 6463.000000
2265.546387 8117.000000
2266.675293 6648.000000
2267.803711 6041.000000
2268.931641 5497.000000
2270.058594 6134.000000
2271.184814 5966.000000
2272.310059 6728.000000
2273.435303 6470.000000
2274.559814 6403.000000
2275.683105 5897.000000
2276.805664 6417.000000
2277.927734 5901.000000
2279.049316 7400.000000
2280.170166 6350.000000
2281.289795 6382.000000
2282.408936 7083.000000
2283.527832 7663.000000
2284.645996 7229.000000
2285.763184 5913.000000
2286.879395 6429.000000
2287.995361 6958.000000
2289.110596 6894.000000
2290.225098 7350.000000
2291.338379 5743.000000
2292.451660 6318.000000
2293.564209 5904.000000
2294.676025 5384.000000
2295.787109 6752.000000
2296.896973 6414.000000
2298.006348 6181.000000
2299.115479 6697.000000
2300.223633 6293.000000
2301.330811 6728.000000
2302.437744 5945.000000
2303.543945 6211.000000
2304.649658 6610.000000
2305.753906 6523.000000
2306.857910 5452.000000
2307.961426 5707.000000
2309.064453 6506.000000
2310.166260 7376.000000
2311.267334 7287.000000
2312.367920 6608.000000
2313.468018 5498.000000
2314.567383 6353.000000
2315.665283 6465.000000
2316.763672 7031.000000
2317.860596 8220.000000
2318.957275 6937.000000
2320.053467 5770.000000
2321.147949 6847.000000
2322.242432 7618.000000
2323.336182 5749.000000
2324.429688 6006.000000
2325.521484 6424.000000
2326.613281 6859.000000
2327.704346 6084.000000
2328.794678 6267.000000
2329.884033 6945.000000
2330.973389 6004.000000
2332.061523 6246.000000
2333.149170 6833.000000
2334.236572 6487.000000
2335.322266 6706.000000
2336.407715 7716.000000
2337.492920 6332.000000
2338.577148 6678.000000
2339.660400 5883.000000
2340.743408 6457.000000
2341.825439 7056.000000
2342.907227 5965.000000
2343.988281 7389.000000
2345.068115 6627.000000
2346.147461 5663.000000
2347.226318 6744.000000
2348.304688 6507.000000
2349.381592 6262.000000
2350.458252 6906.000000
2351.534668 6022.000000
2352.610107 6397.000000
2353.684570 5874.000000
2354.758789 6293.000000
2355.832275 6705.000000
2356.905273 6232.000000
2357.977051 7010.000000
2359.048584 6272.000000
2360.119141 6818.000000
2361.189453 7498.000000
2362.258789 7565.000000
2363.327148 6837.000000
2364.395264 6649.000000
2365.462646 7100.000000
2366.529541 7053.000000
2367.595703 6007.000000
2368.660645 6843.000000
2369.725586 6975.000000
2370.789795 6341.000000
2371.853271 6923.000000
2372.915527 5695.000000
2373.977783 6326.000000
2375.039063 6327.000000
2376.100098 5894.000000
2377.159912 6283.000000
2378.218994 7902.000000
2379.278076 6460.000000
2380.336182 7554.000000
2381.393555 6800.000000
2382.449951 8066.000000
2383.506104 7749.000000
2384.561768 6249.000000
2385.616699 7025.000000
2386.670166 6740.000000
2387.723877 6516.000000
2388.776611 6267.000000
2389.828857 6734.000000
2390.880371 6090.000000
2391.930908 6612.000000
2392.981201 6500.000000
2394.030518 6254.000000
2395.079834 6164.000000
2396.127686 6964.000000
2397.175049 7012.000000
2398.222168 6244.000000
2399.268311 6688.000000
2400.313721 6153.000000
2401.358398 6692.000000
2402.403076 7645.000000
2403.446289 7461.000000
2404.489502 6557.000000
2405.531250 5706.000000
2406.573242 6636.000000
2407.614502 7138.000000
2408.654785 6071.000000
2409.694336 6378.000000
2410.732910 6280.000000
2411.771729 5933.000000
2412.809326 6529.000000
2413.846680 6871.000000
2414.882813 7381.000000
2415.918701 6180.000000
2416.953857 6242.000000
2417.988525 6906.000000
2419.021729 7179.000000
2420.055176 6467.000000
2421.087646 6665.000000
2422.119873 6768.000000
2423.150635 7060.000000
2424.181396 6378.000000
2425.211670 6847.000000
2426.240723 6870.000000
2427.269775 6713.000000
2428.297119 7397.000000
2429.324951 6680.000000
2430.351563 7271.000000
2431.377930 6884.000000
2432.402832 7743.000000
2433.427979 6602.000000
2434.452148 7032.000000
2435.476074 6706.000000
2436.498779 5825.000000
2437.520752 6330.000000
2438.542480 6636.000000
2439.563477 6681.000000
2440.583984 5996.000000
2441.603271 6455.000000
2442.622559 6604.000000
2443.640869 8389.000000
2444.658936 6235.000000
2445.675537 6468.000000
2446.692139 6527.000000
2447.708008 5900.000000
2448.723877 7015.000000
2449.738281 6818.000000
2450.751953 5548.000000
2451.765137 7258.000000
2452.778076 5948.000000
2453.790283 7166.000000
2454.801514 6725.000000
2455.812500 7668.000000
2456.822754 6277.000000
2457.832520 7569.000000
2458.841309 5897.000000
2459.849365 5934.000000
2460.857422 6284.000000
2461.864258 7335.000000
2462.870850 5451.000000
2463.876221 7399.000000
2464.881348 6961.000000
2465.886230 5832.000000
2466.889893 6439.000000
2467.893311 6386.000000
2468.895752 7582.000000
2469.897949 7307.000000
2470.899658 6857.000000
2471.900391 6538.000000
2472.900146 6772.000000
2473.899902 6645.000000
2474.898682 5615.000000
2475.896973 6535.000000
2476.894287 7024.000000
2477.891357 6084.000000
2478.888428 6922.000000
2479.884033 5786.000000
2480.879639 7139.000000
2481.873535 6732.000000
2482.867432 8100.000000
2483.860840 6813.000000
2484.853760 6757.000000
2485.845703 7403.000000
2486.836914 7149.000000
2487.827881 6721.000000
2488.818359 5835.000000
2489.807861 6519.000000
2490.796631 6498.000000
2491.785400 5635.000000
2492.773193 6814.000000
2493.759766 6571.000000
2494.746338 8019.000000
2495.732422 6720.000000
2496.717773 7058.000000
2497.702148 8012.000000
2498.686279 6006.000000
2499.670410 6826.000000
2500.653076 5808.000000
2501.635254 7005.000000
2502.616943 6801.000000
2503.597900 7201.000000
2504.578369 6492.000000
2505.558594 5697.000000
2506.537354 6354.000000
2507.515869 7639.000000
2508.493896 6699.000000
2509.471436 7092.000000
2510.447998 6075.000000
2511.424316 5889.000000
2512.399902 6406.000000
2513.375000 6211.000000
2514.349609 6485.000000
2515.322998 7603.000000
2516.296143 6791.000000
2517.269043 6904.000000
2518.240967 6019.000000
2519.212158 6799.000000
2520.182861 6915.000000
2521.153320 7814.000000
2522.123047 7984.000000
2523.091797 6102.000000
2524.059814 6067.000000
2525.027832 7759.000000
2525.994873 6320.000000
2526.961670 5465.000000
2527.927246 7305.000000
2528.892822 7011.000000
2529.857666 7679.000000
2530.822021 6332.000000
2531.785156 6339.000000
2532.748535 5847.000000
2533.710938 5971.000000
2534.673096 6659.000000
2535.634033 6337.000000
2536.594238 6094.000000
2537.554688 6111.000000
2538.514160 6755.000000
2539.472900 6850.000000
2540.430664 6611.000000
2541.388672 6196.000000
2542.345947 6810.000000
2543.302246 6059.000000
2544.258301 7084.000000
2545.213135 6151.000000
2546.168213 7636.000000
2547.122559 7001.000000
2548.076172 6359.000000
2549.028809 7236.000000
2549.981201 6710.000000
2550.933105 6949.000000
2551.884277 6402.000000
2552.834717 7574.000000
2553.784668 7221.000000
2554.734375 7345.000000
2555.683350 6658.000000
2556.631836 6249.000000
2557.579102 7081.000000
2558.526367 6226.000000
2559.472900 6511.000000
2560.418945 6784.000000
2561.364014 7406.000000
2562.308838 6703.000000
2563.253174 7169.000000
2564.197021 6774.000000
2565.140381 6596.000000
2566.082275 6596.000000
2567.024414 6530.000000
2567.965820 6183.000000
2568.906494 7180.000000
2569.846436 7197.000000
2570.786377 5681.000000
2571.725342 6092.000000
2572.664063 7482.000000
2573.601807 7236.000000
2574.539307 5370.000000
2575.476074 6955.000000
2576.412109 6717.000000
2577.347656 7500.000000
2578.282471 6429.000000
2579.217285 5976.000000
2580.151123 7046.000000
2581.084473 7167.000000
2582.017090 5813.000000
2582.949463 6994.000000
2583.881104 5404.000000
2584.812256 7084.000000
2585.742920 7014.000000
2586.672363 6890.000000
2587.601807 7293.000000
2588.530762 6421.000000
2589.459473 7437.000000
2590.386475 7216.000000
2591.313721 5881.000000
2592.240479 6826.000000
2593.166504 6278.000000
2594.092285 5611.000000
2595.016846 7649.000000
2595.941162 7575.000000
2596.864990 5336.000000
2597.788330 7200.000000
2598.710693 6243.000000
2599.632813 6854.000000
2600.554443 8319.000000
2601.475342 6397.000000
2602.395508 5757.000000
2603.315430 6326.000000
2604.234863 6405.000000
2605.154053 6423.000000
2606.072266 5827.000000
2606.989258 5982.000000
2607.906494 7208.000000
2608.823486 5862.000000
2609.739502 7623.000000
2610.654297 6594.000000
2611.569580 6564.000000
2612.484131 6529.000000
2613.397705 6549.000000
2614.311279 6134.000000
2615.223633 7620.000000
2616.135986 7028.000000
2617.047363 6782.000000
2617.958496 5746.000000
2618.868896 7184.000000
2619.779053 6589.000000
2620.688477 6101.000000
2621.597412 6580.000000
2622.505371 6180.000000
2623.413574 6793.000000
2624.320801 6570.000000
2625.227539 6986.000000
2626.133545 5928.000000
2627.039307 6608.000000
2627.944336 6530.000000
2628.849121 7792.000000
2629.753174 6457.000000
2630.656250 6321.000000
2631.559326 6333.000000
2632.461426 5641.000000
2633.363525 6696.000000
2634.265381 6938.000000
2635.165527 6703.000000
2636.065918 6354.000000
2636.965576 6407.000000
2637.864990 5988.000000
2638.762939 6857.000000
2639.661377 6714.000000
2640.559326 6429.000000
2641.456543 6094.000000
2642.352539 6092.000000
2643.248535 6903.000000
2644.144287 6025.000000
2645.039307 6491.000000
2645.934082 6617.000000
2646.827393 7092.000000
2647.720703 6322.000000
2648.613770 6738.000000
2649.506592 6435.000000
2650.397705 7407.000000
2651.289063 6369.000000
2652.179932 7637.000000
2653.070068 7257.000000
2653.959961 6559.000000
2654.848633 7263.000000
2655.737549 6674.000000
2656.625977 6590.000000
2657.513428 7323.000000
2658.399902 6471.000000
2659.286865 7010.000000
2660.173096 6836.000000
2661.058838 6801.000000
2661.943359 6503.000000
2662.827881 6322.000000
2663.712158 6176.000000
2664.595703 6976.000000
2665.478760 7826.000000
2666.361084 7242.000000
2667.242920 6248.000000
2668.124023 6548.000000
2669.005371 6017.000000
2669.885254 6585.000000
2670.765381 7337.000000
2671.644775 7145.000000
2672.524170 6341.000000
2673.402832 6091.000000
2674.279785 6379.000000
2675.157471 6775.000000
2676.034424 6295.000000
2676.910645 8055.000000
2677.786377 7130.000000
2678.661377 6262.000000
2679.536621 7751.000000
2680.410889 6954.000000
2681.284668 7315.000000
2682.157715 7020.000000
2683.030518 6180.000000
2683.903076 6099.000000
2684.774902 6917.000000
2685.645996 6591.000000
2686.516846 6916.000000
2687.387207 6992.000000
2688.257324 6674.000000
2689.125732 6255.000000
2689.994873 7367.000000
2690.863281 7032.000000
2691.731445 6689.000000
2692.598877 6913.000000
2693.465088 5834.000000
2694.331787 7071.000000
2695.197510 7389.000000
2696.063232 7194.000000
2696.927490 7887.000000
2697.792480 6541.000000
2698.656006 7250.000000
2699.519775 5886.000000
2700.382080 7456.000000
2701.244873 6798.000000
2702.106689 5923.000000
2702.968018 6924.000000
2703.829346 6753.000000
2704.689453 7408.000000
2705.549561 7300.000000
2706.409180 6571.000000
2707.268555 6792.000000
2708.126221 7127.000000
2708.984131 6820.000000
2709.842529 7305.000000
2710.699707 6747.000000
2711.556152 5964.000000
2712.412109 6886.000000
2713.268066 6125.000000
2714.123291 6938.000000
2714.977783 6115.000000
2715.831787 6813.000000
2716.685791 7228.000000
2717.538818 6334.000000
2718.392090 6609.000000
2719.243652 7714.000000
2720.095703 6755.000000
2720.947510 6284.000000
2721.798096 6489.000000
2722.648682 6442.000000
2723.498779 7108.000000
2724.348145 6974.000000
2725.197510 6904.000000
2726.045654 6619.000000
2726.893311 6565.000000
2727.741455 6952.000000
2728.588379 6852.000000
2729.435791 5553.000000
2730.281738 7483.000000
2731.126953 7018.000000
2731.972656 6393.000000
2732.817383 7004.000000
2733.662109 7391.000000
2734.505615 6891.000000
2735.349365 7729.000000
2736.192383 7099.000000
2737.034912 6033.000000
2737.876465 6246.000000
2738.718506 6786.000000
2739.559570 6875.000000
2740.400391 5839.000000
2741.240967 5862.000000
2742.080322 7744.000000
2742.919678 6869.000000
2743.759033 6883.000000
2744.597168 6779.000000
2745.434814 7852.000000
2746.272461 6400.000000
2747.109619 7075.000000
2747.946533 6130.000000
2748.782959 5967.000000
2749.618164 6592.000000
2750.453613 6264.000000
2751.288574 6279.000000
2752.122803 6185.000000
2752.956787 6822.000000
2753.790283 6860.000000
2754.623779 8001.000000
2755.456299 6790.000000
2756.288330 7202.000000
2757.119873 6809.000000
2757.951416 7060.000000
2758.781982 7179.000000
2759.612793 7172.000000
2760.442383 7204.000000
2761.271973 6635.000000
2762.101318 7245.000000
2762.929932 6875.000000
2763.758057 6773.000000
2764.585693 6905.000000
2765.413330 6583.000000
2766.240479 7870.000000
2767.066895 5762.000000
2767.892822 7507.000000
2768.718262 6835.000000
2769.543457 7806.000000
2770.368652 7060.000000
2771.192627 6772.000000
2772.016602 6502.000000
2772.840576 7654.000000
2773.663330 6649.000000
2774.486328 6929.000000
2775.308105 6904.000000
2776.129883 6936.000000
2776.951660 6480.000000
2777.772461 7942.000000
2778.592529 6543.000000
2779.412842 7024.000000
2780.232666 7249.000000
2781.052490 6452.000000
2781.870361 5944.000000
2782.689453 8031.000000
2783.507324 6512.000000
2784.324951 6722.000000
2785.142090 7105.000000
2785.958740 7212.000000
2786.775146 7191.000000
2787.591064 6260.000000
2788.406738 5968.000000
2789.221436 6299.000000
2790.036621 6965.000000
2790.851074 7119.000000
2791.665039 6528.000000
2792.478760 7444.000000
2793.291260 8758.000000
2794.104004 6922.000000
2794.916260 7466.000000
2795.728027 7189.000000
2796.539063 7341.000000
2797.350830 6505.000000
2798.161377 7204.000000
2798.971924 7045.000000
2799.781006 7374.000000
2800.590820 8222.000000
2801.399902 7718.000000
2802.208740 6649.000000
2803.017090 7146.000000
2803.824463 6165.000000
2804.632324 6412.000000
2805.439453 6880.000000
2806.246338 6938.000000
2807.052002 7020.000000
2807.858154 6651.000000
2808.663574 6437.000000
2809.468994 7340.000000
2810.273682 6209.000000
2811.077393 7653.000000
2811.881592 7471.000000
2812.685303 6326.000000
2813.488770 6076.000000
2814.290771 6250.000000
2815.093506 7363.000000
2815.895508 7838.000000
2816.697266 6184.000000
2817.498535 6553.000000
2818.299316 7233.000000
2819.099609 6542.000000
2819.900146 6712.000000
2820.699707 8012.000000
2821.498779 7083.000000
2822.297852 6458.000000
2823.096680 6841.000000
2823.895020 6321.000000
2824.692383 7017.000000
2825.489990 7358.000000
2826.286865 6696.000000
2827.083984 7358.000000
2827.880371 7906.000000
2828.676025 6998.000000
2829.471680 7409.000000
2830.267090 7512.000000
2831.062012 7460.000000
2831.856201 6629.000000
2832.650391 6729.000000
2833.444336 5663.000000
2834.237793 6872.000000
2835.030518 7193.000000
2835.822998 8134.000000
2836.615479 7611.000000
2837.407715 7491.000000
2838.199463 6484.000000
2838.990234 6762.000000
2839.781006 8972.000000
2840.572021 7367.000000
2841.362061 6222.000000
2842.151611 7589.000000
2842.941406 7189.000000
2843.730225 7320.000000
2844.519043 7831.000000
2845.307861 7720.000000
2846.095703 7455.000000
2846.883057 7146.000000
2847.670654 7537.000000
2848.457764 7262.000000
2849.244141 6640.000000
2850.030518 7434.000000
2850.816650 7161.000000
2851.602295 7510.000000
2852.386963 7176.000000
2853.172119 6981.000000
2853.957031 7425.000000
2854.741211 7062.000000
2855.525391 6980.000000
2856.308350 8297.000000
2857.091553 6834.000000
2857.874512 6759.000000
2858.656982 7780.000000
2859.439209 6269.000000
2860.220947 6675.000000
2861.002441 7545.000000
2861.784180 7423.000000
2862.565186 7629.000000
2863.345459 6586.000000
2864.125488 6699.000000
2864.905518 8106.000000
2865.685303 7434.000000
2866.464111 8142.000000
2867.243164 7696.000000
2868.021729 6767.000000
2868.800049 7013.000000
2869.577881 7221.000000
2870.355469 6901.000000
2871.132813 7436.000000
2871.909912 7034.000000
2872.686523 6395.000000
2873.462646 7470.000000
2874.238770 7107.000000
2875.014404 8276.000000
2875.789795 7196.000000
2876.564697 6618.000000
2877.339355 8064.000000
2878.114014 6607.000000
2878.888428 7872.000000
2879.662109 6716.000000
2880.435059 7145.000000
2881.208740 6712.000000
2881.981445 7546.000000
2882.754150 7844.000000
2883.526123 8188.000000
2884.297852 6215.000000
2885.070068 6705.000000
2885.841064 6865.000000
2886.611572 6132.000000
2887.382568 8341.000000
2888.153564 7291.000000
2888.923828 7954.000000
2889.693115 7583.000000
2890.462646 6964.000000
2891.232178 7171.000000
2892.001221 7327.000000
2892.769775 7925.000000
2893.538330 7643.000000
2894.305908 6932.000000
2895.073975 6614.000000
2895.841553 7390.000000
2896.609131 8347.000000
2897.375488 7346.000000
2898.142822 6469.000000
2898.908936 7168.000000
2899.675293 6980.000000
2900.440186 8306.000000
2901.205566 7001.000000
2901.971436 6507.000000
2902.735840 7745.000000
2903.500244 7705.000000
2904.264893 8473.000000
2905.028564 6611.000000
2905.792969 8470.000000
2906.556641 6643.000000
2907.319580 8447.000000
2908.082275 6483.000000
2908.845459 8995.000000
2909.608154 7028.000000
2910.369629 6771.000000
2911.131592 6771.000000
