scanname Analyse019
timestamp 2017-02-10 20:17:50
ccdbias 905.618652
ccdgain 3.473401
sigmaread 8.960639
laserwavenum -0.623530
wavenumcorrection -0.100566
scancount 1
totalexposurems 10000
singleexposurems 10000
measurementstate Unknown
scanmode Manual
snr 335.597992 9.856223 8.254501
replacelist 4
672 53816.000000 30933.000000
754 53758.000000 14430.000000
889 53791.000000 20433.000000
948 53818.000000 19514.000000
peaks 103
278.642273 0.726282 0.000000 1.448964 0.000187
284.871765 0.726262 0.000000 0.905127 0.000066
330.438171 0.746426 0.000000 0.835490 0.000142
341.870819 0.749501 0.000000 0.825505 0.000036
350.338928 0.752701 0.000000 0.596524 0.000023
360.492676 0.757026 0.000000 0.857570 0.000070
386.045868 0.756203 0.000000 1.286347 0.000290
463.156189 0.773163 0.000000 0.310309 0.000032
484.537689 0.785138 0.000000 0.770994 0.000103
534.782349 0.788222 0.000000 0.645858 0.000148
559.565247 0.828457 0.000000 1.304192 0.000230
566.262451 0.833783 0.000000 1.235207 0.000108
571.754639 0.837261 0.000000 0.763285 0.000172
581.581360 0.829683 0.000000 0.761393 0.000081
660.694580 0.863637 0.000000 0.950667 0.000142
673.388245 0.859949 0.000000 1.420216 0.000275
715.824280 0.881216 0.000000 5.597053 0.001181
724.759949 0.863178 0.000000 1.255293 0.000054
742.763611 0.887570 0.000000 1.096431 0.000119
757.254883 0.913766 0.000000 6.036138 0.000695
779.305603 0.914999 0.000000 8.415905 0.001321
825.936462 0.921733 0.000000 1.075178 0.000054
832.243713 0.914430 0.000000 0.423630 0.000167
855.185120 0.947340 0.000000 0.976183 0.000268
868.592896 0.941983 0.000000 0.712070 0.000151
937.834534 1.019593 0.000000 0.675698 0.000399
954.335999 0.996846 0.000000 3.178137 0.000997
1013.721497 1.044032 0.000000 2.105376 0.000805
1019.979187 1.045542 0.000000 1.090176 0.000164
1026.912720 1.056593 0.000000 0.620641 0.000260
1044.255005 1.054358 0.000000 4.245123 0.001393
1104.446899 1.076803 0.000000 2.350433 0.000649
1117.636841 1.116977 0.000000 2.399595 0.000687
1134.729614 1.094194 0.000000 2.104330 0.000916
1150.250488 1.078241 0.000000 2.638245 0.001057
1174.688110 1.110267 0.000000 1.466405 0.000499
1187.441528 1.115962 0.000000 0.906064 0.000074
1210.832886 1.191577 0.000000 0.919712 0.000274
1222.564697 1.204938 0.000000 1.554333 0.000583
1260.100098 1.225417 0.000000 2.987665 0.001417
1281.301636 1.168339 0.000000 0.334992 0.000464
1312.788574 1.232746 0.000000 1.703565 0.000680
1330.427490 1.298308 0.000000 3.053661 0.001612
1347.636597 1.303043 0.000000 1.445206 0.000453
1389.633667 1.291469 0.000000 0.798283 0.000312
1415.707520 1.368530 0.000000 1.736069 0.000821
1434.244385 1.432014 0.000000 1.659194 0.000840
1447.180176 1.424807 0.000000 1.377830 0.000515
1460.040527 1.424471 0.000000 2.219736 0.001547
1489.914795 1.500988 0.000000 3.891025 0.002475
1518.829834 1.446820 0.000000 0.145798 0.000135
1533.756104 1.537434 0.000000 1.074763 0.000723
1548.105225 1.562647 0.000000 0.467847 0.000321
1558.396240 1.587503 0.000000 1.351651 0.000888
1578.166870 1.581582 0.000000 1.494076 0.001453
1598.560425 1.570774 0.000000 0.253829 0.000268
1617.277100 1.624130 0.000000 12.119853 0.008008
1635.621704 1.640838 0.000000 5.001964 0.001393
1652.753052 1.651157 0.000000 0.347349 0.000118
1670.076416 1.767488 0.000000 1.651657 0.001850
1686.517822 1.794008 0.000000 0.709344 0.000761
1700.404663 1.809095 0.000000 0.965034 0.001453
1711.778564 1.790332 0.000000 1.083260 0.000986
1753.551025 1.858887 0.000000 0.139629 0.000145
1762.653320 1.856034 0.000000 0.770960 0.000589
1778.947144 1.992928 0.000000 5.557187 0.005592
1794.415039 1.997170 0.000000 0.926143 0.001071
1809.977173 2.013338 0.000000 1.685222 0.001613
1856.589111 2.079926 0.000000 2.082359 0.002018
1873.045776 2.162178 0.000000 1.263075 0.001013
1890.381958 2.229938 0.000000 1.687665 0.002879
1902.240112 2.235336 0.000000 1.602751 0.001878
1913.032104 2.213599 0.000000 0.539716 0.000664
1943.616699 2.265290 0.000000 0.883665 0.000636
1978.974731 2.395652 0.000000 0.648570 0.000421
1992.755615 2.504585 0.000000 1.238030 0.002921
2014.399292 2.577049 0.000000 1.087651 0.001259
2025.003296 2.589719 0.000000 1.624568 0.002448
2047.099609 2.575507 0.000000 0.567714 0.002235
2065.428467 2.639788 0.000000 0.459322 0.000841
2095.224365 2.758717 0.000000 0.517560 0.001473
2109.257080 2.859696 0.000000 1.507757 0.004256
2132.392578 2.857189 0.000000 2.201918 0.005563
2143.459473 2.856863 0.000000 0.288750 0.000828
2161.452148 2.977056 0.000000 1.843486 0.005240
2175.616455 3.123706 0.000000 2.379990 0.004599
2193.843262 3.120097 0.000000 0.860275 0.003828
2212.108154 3.101717 0.000000 0.977447 0.004118
2246.602783 3.289941 0.000000 1.633989 0.006117
2253.071045 3.338264 0.000000 1.302639 0.005489
2270.544678 3.392721 0.000000 2.943427 0.006822
2286.722412 3.377308 0.000000 3.207923 0.010913
2293.846436 3.325363 0.000000 1.475005 0.004190
2305.357666 3.229096 0.000000 0.731583 0.002752
2327.301025 3.172490 0.000000 0.501693 0.001101
2339.577881 3.151578 0.000000 0.592041 0.004440
2354.295166 3.178207 0.000000 0.494832 0.001188
2375.693604 3.170482 0.000000 1.324278 0.003216
2390.339600 3.105199 0.000000 0.521942 0.001303
2449.901855 2.975830 0.000000 0.400020 0.002967
2464.746826 2.938119 0.000000 0.605922 0.002408
2476.955322 2.913977 0.000000 0.512371 0.001570
2491.223145 2.891839 0.000000 0.675584 0.002663
finalresult GLS_NoMatch 0
spectrum 2048
-96.977928 47640.000000
-94.351059 47640.000000
-91.726067 47819.000000
-89.102966 47408.000000
-86.481735 47887.000000
-83.862404 47565.000000
-81.244934 47725.000000
-78.629341 47358.000000
-76.015625 47564.000000
-73.403786 47830.000000
-70.793808 47706.000000
-68.185715 47873.000000
-65.579468 47860.000000
-62.975094 47741.000000
-60.372585 47664.000000
-57.771931 48175.000000
-55.173138 47707.000000
-52.576202 46913.000000
-49.981121 47415.000000
-47.387894 47324.000000
-44.796516 47543.000000
-42.206985 47141.000000
-39.619297 47849.000000
-37.033459 47703.000000
-34.449463 47297.000000
-31.867306 48146.000000
-29.286993 47493.000000
-26.708508 48134.000000
-24.131865 47662.000000
-21.557047 47614.000000
-18.984070 47323.000000
-16.412912 47365.000000
-13.843588 46988.000000
-11.276090 46075.000000
-8.710410 47531.000000
-6.146556 47306.000000
-3.584516 47906.000000
-1.024300 47935.000000
1.534108 47503.000000
4.090695 46898.000000
6.645477 47180.000000
9.198442 47804.000000
11.749607 47123.000000
14.298959 47411.000000
16.846514 47144.000000
19.392258 47784.000000
21.936209 48100.000000
24.478355 47137.000000
27.018705 47127.000000
29.557270 47031.000000
32.094040 47645.000000
34.629005 48028.000000
37.162193 46541.000000
39.693600 47417.000000
42.223213 46670.000000
44.751030 47406.000000
47.277088 45992.000000
49.801357 48158.000000
52.323856 47545.000000
54.844559 47155.000000
57.363506 47504.000000
59.880680 47423.000000
62.396076 47132.000000
64.909691 48257.000000
67.421555 48049.000000
69.931671 47296.000000
72.439995 47269.000000
74.946564 47900.000000
77.451385 47487.000000
79.954453 47369.000000
82.455742 47480.000000
84.955292 47613.000000
87.453087 47512.000000
89.949150 48093.000000
92.443436 46546.000000
94.935982 47981.000000
97.426811 46883.000000
99.915871 46627.000000
102.403183 47462.000000
104.888771 47555.000000
107.372620 47365.000000
109.854721 47958.000000
112.335098 47119.000000
114.813751 47612.000000
117.290680 47227.000000
119.765854 46549.000000
122.239319 47067.000000
124.711052 47907.000000
127.181076 47092.000000
129.649353 47462.000000
132.115952 47595.000000
134.580795 48073.000000
137.043945 47630.000000
139.505356 46592.000000
141.965073 46876.000000
144.423065 47442.000000
146.879364 47857.000000
149.333954 47996.000000
151.786819 47023.000000
154.238007 47491.000000
156.687500 47265.000000
159.135269 47706.000000
161.581329 47108.000000
164.025711 45133.000000
166.468414 47387.000000
168.909424 47053.000000
171.348724 47673.000000
173.786316 46572.000000
176.222275 47229.000000
178.656494 46798.000000
181.089035 46597.000000
183.519928 47162.000000
185.949097 46613.000000
188.376617 47009.000000
190.802460 47464.000000
193.226624 47098.000000
195.649124 46568.000000
198.069931 46414.000000
200.489075 47282.000000
202.906555 47832.000000
205.322342 46164.000000
207.736481 46747.000000
210.148987 47436.000000
212.559814 47693.000000
214.968964 47488.000000
217.376480 46373.000000
219.782288 47581.000000
222.186508 47260.000000
224.589020 47030.000000
226.989914 46888.000000
229.389160 47309.000000
231.786743 46897.000000
234.182663 46480.000000
236.576965 47272.000000
238.969604 47711.000000
241.360626 46899.000000
243.749985 47226.000000
246.137726 47396.000000
248.523819 46824.000000
250.908279 47718.000000
253.291092 45886.000000
255.672333 47184.000000
258.051849 47124.000000
260.429810 47256.000000
262.806091 46292.000000
265.180817 46224.000000
267.553894 45953.000000
269.925323 47588.000000
272.295105 47381.000000
274.663330 47889.000000
277.029907 47407.000000
279.394897 47266.000000
281.758270 47829.000000
284.119995 47627.000000
286.480133 46714.000000
288.838654 47774.000000
291.195587 47368.000000
293.550903 47402.000000
295.904633 47858.000000
298.256714 47785.000000
300.607239 47415.000000
302.956177 47412.000000
305.303467 46951.000000
307.649231 47357.000000
309.993317 47354.000000
312.335876 46423.000000
314.676819 46227.000000
317.016144 46546.000000
319.353912 46877.000000
321.690125 45681.000000
324.024689 47538.000000
326.357697 47310.000000
328.689148 47755.000000
331.019012 47215.000000
333.347290 47381.000000
335.673950 46616.000000
337.999115 47439.000000
340.322662 47638.000000
342.644653 47807.000000
344.965088 46257.000000
347.283905 46040.000000
349.601166 47717.000000
351.916901 47945.000000
354.231049 46890.000000
356.543610 47446.000000
358.854614 47548.000000
361.164093 46862.000000
363.472046 47411.000000
365.778381 48159.000000
368.083130 47240.000000
370.386414 47364.000000
372.688080 47464.000000
374.988251 47430.000000
377.286865 47497.000000
379.583923 48061.000000
381.879425 47768.000000
384.173401 47861.000000
386.465790 48552.000000
388.756683 48217.000000
391.046051 47558.000000
393.333832 47524.000000
395.620087 47278.000000
397.904846 46792.000000
400.187988 47765.000000
402.469696 47391.000000
404.749878 47624.000000
407.028473 46504.000000
409.305542 47296.000000
411.581085 47090.000000
413.855103 47322.000000
416.127686 47372.000000
418.398651 47536.000000
420.668121 47371.000000
422.936096 46659.000000
425.202515 46424.000000
427.467438 47495.000000
429.730896 47451.000000
431.992767 47206.000000
434.253174 47750.000000
436.512024 47256.000000
438.769409 47694.000000
441.025299 48091.000000
443.279694 47932.000000
445.532562 48303.000000
447.783875 46931.000000
450.033783 47652.000000
452.282104 47485.000000
454.528992 48211.000000
456.774414 47279.000000
459.018280 47262.000000
461.260651 47331.000000
463.501526 48095.000000
465.740997 47062.000000
467.978882 48291.000000
470.215332 47839.000000
472.450256 47658.000000
474.683716 46577.000000
476.915741 47100.000000
479.146240 48127.000000
481.375244 47317.000000
483.602783 47491.000000
485.828827 47822.000000
488.053436 47213.000000
490.276581 47881.000000
492.498260 47354.000000
494.718384 47051.000000
496.937103 48196.000000
499.154327 47482.000000
501.370178 48286.000000
503.584412 47677.000000
505.797333 47318.000000
508.008667 47385.000000
510.218567 46960.000000
512.427063 47267.000000
514.634155 47123.000000
516.839661 47373.000000
519.043762 47154.000000
521.246338 47575.000000
523.447510 47178.000000
525.647339 47055.000000
527.845642 46863.000000
530.042419 48479.000000
532.237854 47903.000000
534.431763 48180.000000
536.624329 46190.000000
538.815369 47046.000000
541.005005 47670.000000
543.193237 46811.000000
545.379944 46665.000000
547.565186 46972.000000
549.749146 47564.000000
551.931519 47391.000000
554.112549 47570.000000
556.292053 47662.000000
558.470276 47872.000000
560.646973 47780.000000
562.822266 47313.000000
564.996155 47300.000000
567.168579 47851.000000
569.339600 47752.000000
571.509155 47477.000000
573.677429 48527.000000
575.844177 47421.000000
578.009460 47435.000000
580.173340 47616.000000
582.335938 48062.000000
584.497009 47770.000000
586.656677 48171.000000
588.815002 48010.000000
590.971802 47688.000000
593.127258 47123.000000
595.281311 48024.000000
597.434021 47761.000000
599.585205 46572.000000
601.735046 46888.000000
603.883545 47073.000000
606.030457 47777.000000
608.176147 47170.000000
610.320435 47289.000000
612.463257 46799.000000
614.604614 47606.000000
616.744751 47354.000000
618.883362 46087.000000
621.020691 48055.000000
623.156555 47126.000000
625.291016 46924.000000
627.424011 46552.000000
629.555847 47115.000000
631.686218 47209.000000
633.815186 47020.000000
635.942688 47329.000000
638.068909 47549.000000
640.193604 46407.000000
642.317078 47395.000000
644.439209 47035.000000
646.559875 47026.000000
648.679199 47249.000000
650.797119 48162.000000
652.913696 48090.000000
655.028870 47341.000000
657.142700 47331.000000
659.255066 47931.000000
661.366211 47757.000000
663.475952 48380.000000
665.584229 47754.000000
667.691345 47453.000000
669.796997 47022.000000
671.901184 47835.000000
674.004150 48040.000000
676.105713 46800.000000
678.205933 48473.000000
680.304749 47040.000000
682.402222 47479.000000
684.498413 46756.000000
686.593140 47412.000000
688.686646 46742.000000
690.778809 47073.000000
692.869446 45885.000000
694.958862 47117.000000
697.046997 47340.000000
699.133667 47773.000000
701.219116 47158.000000
703.303040 48646.000000
705.385742 48015.000000
707.467163 47873.000000
709.547119 46219.000000
711.625854 47504.000000
713.703125 48248.000000
715.779114 47177.000000
717.853821 47750.000000
719.927246 46777.000000
721.999146 47487.000000
724.069885 46387.000000
726.139282 47923.000000
728.207275 47311.000000
730.273926 47486.000000
732.339355 46645.000000
734.403442 47998.000000
736.466187 47562.000000
738.527588 47235.000000
740.587708 47168.000000
742.646423 47819.000000
744.703918 47160.000000
746.760132 47207.000000
748.814941 47045.000000
750.868469 47423.000000
752.920593 46423.000000
754.971497 48057.000000
757.021179 47138.000000
759.069397 47438.000000
761.116394 47602.000000
763.162109 46830.000000
765.206421 48482.000000
767.249451 48135.000000
769.291260 38788.000000
771.331726 46551.000000
773.370789 47456.000000
775.408691 47711.000000
777.445251 47754.000000
779.480591 48435.000000
781.514587 48025.000000
783.547180 46869.000000
785.578613 48323.000000
787.608643 42151.000000
789.637390 47730.000000
791.664978 47517.000000
793.691223 47342.000000
795.716064 47986.000000
797.739807 48258.000000
799.762146 47437.000000
801.783264 47979.000000
803.803040 47133.000000
805.821533 48900.000000
807.838806 47151.000000
809.854675 46979.000000
811.869385 48054.000000
813.882751 47355.000000
815.894897 47529.000000
817.905823 47713.000000
819.915405 47255.000000
821.923767 48504.000000
823.930725 48065.000000
825.936462 47710.000000
827.940979 48050.000000
829.944214 48150.000000
831.946167 47329.000000
833.946838 47595.000000
835.946289 47849.000000
837.944397 47496.000000
839.941406 46825.000000
841.937012 47526.000000
843.931458 47854.000000
845.924561 47561.000000
847.916443 46948.000000
849.906982 48151.000000
851.896240 46860.000000
853.884460 47807.000000
855.871277 48027.000000
857.856873 47421.000000
859.841187 46566.000000
861.824402 47449.000000
863.806213 47346.000000
865.786804 47929.000000
867.766113 46058.000000
869.744263 46729.000000
871.721069 47587.000000
873.696594 47677.000000
875.671082 47621.000000
877.644104 47717.000000
879.616089 48363.000000
881.586731 47406.000000
883.556213 47630.000000
885.524353 48270.000000
887.491333 48538.000000
889.456970 47639.000000
891.421448 47876.000000
893.384705 47824.000000
895.346741 47276.000000
897.307495 47928.000000
899.267029 47407.000000
901.225281 47128.000000
903.182434 47415.000000
905.138428 47720.000000
907.093018 46905.000000
909.046387 47283.000000
910.998596 47369.000000
912.949585 47395.000000
914.899292 46604.000000
916.847839 47433.000000
918.795166 47638.000000
920.741211 47677.000000
922.685974 47786.000000
924.629700 47487.000000
926.572266 47762.000000
928.513550 48119.000000
930.453491 47279.000000
932.392334 48052.000000
934.329895 48249.000000
936.266235 47749.000000
938.201416 47977.000000
940.135315 47699.000000
942.068115 47917.000000
943.999695 46983.000000
945.930115 48579.000000
947.859314 47358.000000
949.787170 46703.000000
951.713989 47122.000000
953.639526 47810.000000
955.563782 48338.000000
957.486938 47695.000000
959.408936 47027.000000
961.329651 46653.000000
963.249207 47297.000000
965.167603 48428.000000
967.084961 47295.000000
969.000854 47346.000000
970.915649 47630.000000
972.829224 47858.000000
974.741638 47328.000000
976.652832 47201.000000
978.562866 48303.000000
980.471619 47588.000000
982.379333 47620.000000
984.285828 47436.000000
986.191101 48083.000000
988.095276 46955.000000
989.998230 47619.000000
991.899963 46940.000000
993.800537 47192.000000
995.699951 47161.000000
997.598145 48583.000000
999.495178 47198.000000
1001.390991 47275.000000
1003.285645 46065.000000
1005.179199 48215.000000
1007.071472 46574.000000
1008.962830 47692.000000
1010.852844 48438.000000
1012.741638 47194.000000
1014.629272 47443.000000
1016.515747 46836.000000
1018.401062 47064.000000
1020.285217 47851.000000
1022.168152 47856.000000
1024.050049 47525.000000
1025.930664 48576.000000
1027.810181 47916.000000
1029.688721 47697.000000
1031.565918 48332.000000
1033.441772 47587.000000
1035.316650 47940.000000
1037.190552 47209.000000
1039.062988 46743.000000
1040.934448 47132.000000
1042.804565 48290.000000
1044.673706 48320.000000
1046.541626 48034.000000
1048.408447 46643.000000
1050.274170 47085.000000
1052.138672 47397.000000
1054.002075 47283.000000
1055.864136 47325.000000
1057.725220 47899.000000
1059.585205 47301.000000
1061.443848 47070.000000
1063.301392 48061.000000
1065.157837 47109.000000
1067.013184 47805.000000
1068.867310 47935.000000
1070.720581 47628.000000
1072.572388 47445.000000
1074.423218 47707.000000
1076.272827 47649.000000
1078.121216 48023.000000
1079.968750 45848.000000
1081.814941 48187.000000
1083.659912 47570.000000
1085.504028 48343.000000
1087.346802 48245.000000
1089.188354 47348.000000
1091.029175 48375.000000
1092.868408 48015.000000
1094.706909 47721.000000
1096.544067 47750.000000
1098.380005 47036.000000
1100.214966 47218.000000
1102.048706 48375.000000
1103.881470 48117.000000
1105.712891 47655.000000
1107.543457 46501.000000
1109.372681 47236.000000
1111.200928 47346.000000
1113.027954 46706.000000
1114.854004 48383.000000
1116.678833 47458.000000
1118.502563 46569.000000
1120.325073 47696.000000
1122.146484 47847.000000
1123.967041 47926.000000
1125.786133 47260.000000
1127.604370 46694.000000
1129.421265 46712.000000
1131.237305 47071.000000
1133.052124 47273.000000
1134.865845 48168.000000
1136.678467 48000.000000
1138.489868 48128.000000
1140.300293 47639.000000
1142.109619 47050.000000
1143.917603 46800.000000
1145.724854 47873.000000
1147.530640 47885.000000
1149.335571 48413.000000
1151.139404 48404.000000
1152.942017 47736.000000
1154.743774 47593.000000
1156.544067 47670.000000
1158.343384 47694.000000
1160.141724 47960.000000
1161.938721 48280.000000
1163.734985 47829.000000
1165.529907 47704.000000
1167.323730 47365.000000
1169.116699 46003.000000
1170.908325 48128.000000
1172.698975 47269.000000
1174.488647 47703.000000
1176.276855 47977.000000
1178.064209 46294.000000
1179.850464 46953.000000
1181.635620 47961.000000
1183.419678 47822.000000
1185.202637 46042.000000
1186.984619 47879.000000
1188.765381 47858.000000
1190.545166 47475.000000
1192.323853 46764.000000
1194.101563 47095.000000
1195.878052 46621.000000
1197.653442 47204.000000
1199.427734 47278.000000
1201.200928 47173.000000
1202.973267 47206.000000
1204.744263 47062.000000
1206.514404 48043.000000
1208.283325 47655.000000
1210.051147 47502.000000
1211.818115 47968.000000
1213.583740 47760.000000
1215.348389 46762.000000
1217.111938 47235.000000
1218.874390 47907.000000
1220.635986 47041.000000
1222.396362 47887.000000
1224.155640 47420.000000
1225.914063 47746.000000
1227.671265 46501.000000
1229.427368 47410.000000
1231.182373 48243.000000
1232.936523 47827.000000
1234.689331 47987.000000
1236.441162 47809.000000
1238.192139 47744.000000
1239.941772 48814.000000
1241.690552 46827.000000
1243.437988 47294.000000
1245.184692 47315.000000
1246.930176 47321.000000
1248.674805 47332.000000
1250.418091 47058.000000
1252.160400 47144.000000
1253.901611 48402.000000
1255.641968 48682.000000
1257.381226 47996.000000
1259.119263 47172.000000
1260.856445 46629.000000
1262.592407 47605.000000
1264.327393 47393.000000
1266.061401 46492.000000
1267.794434 47811.000000
1269.526245 47533.000000
1271.257080 47355.000000
1272.986694 46511.000000
1274.715454 47836.000000
1276.443115 48102.000000
1278.169678 48242.000000
1279.895386 48215.000000
1281.619751 47270.000000
1283.343262 48536.000000
1285.065796 46840.000000
1286.787354 47140.000000
1288.507690 47397.000000
1290.227051 47145.000000
1291.945313 46496.000000
1293.662598 47369.000000
1295.378906 48003.000000
1297.093994 47390.000000
1298.808105 47683.000000
1300.521240 47957.000000
1302.233521 47370.000000
1303.944580 45418.000000
1305.654663 48492.000000
1307.363647 47473.000000
1309.071411 47026.000000
1310.778564 46675.000000
1312.484253 47936.000000
1314.189209 46839.000000
1315.893188 47534.000000
1317.595947 47780.000000
1319.297729 47211.000000
1320.998657 47732.000000
1322.698242 44521.000000
1324.396973 46384.500000
1326.094971 48248.000000
1327.791626 47281.000000
1329.487183 46681.000000
1331.181885 46887.000000
1332.875366 47998.000000
1334.567993 48393.000000
1336.259766 46378.000000
1337.950195 47467.000000
1339.639893 47309.000000
1341.328491 47769.000000
1343.015991 46146.000000
1344.702515 48065.000000
1346.387939 46919.000000
1348.072388 47838.000000
1349.755981 46570.000000
1351.438354 47447.000000
1353.119751 47801.000000
1354.800293 47246.000000
1356.479614 47052.000000
1358.158325 47869.000000
1359.835693 47198.000000
1361.511963 47943.000000
1363.187256 48145.000000
1364.861816 47103.000000
1366.535156 47282.000000
1368.207520 46935.000000
1369.878906 48618.000000
1371.549316 46925.000000
1373.218628 47642.000000
1374.886963 48080.000000
1376.554443 47806.000000
1378.220825 47324.000000
1379.886230 47661.000000
1381.550659 47897.000000
1383.213867 47875.000000
1384.876465 48075.000000
1386.537720 47488.000000
1388.198120 47178.000000
1389.857422 47401.000000
1391.515747 47274.000000
1393.173340 46919.000000
1394.829712 47256.000000
1396.485229 46724.000000
1398.139526 47399.000000
1399.792969 47893.000000
1401.445313 47638.000000
1403.096924 47320.000000
1404.747314 46624.000000
1406.396606 47553.000000
1408.045166 46298.000000
1409.692627 45859.000000
1411.339111 47559.000000
1412.984741 47497.000000
1414.629395 47755.000000
1416.272827 46753.000000
1417.915405 46669.000000
1419.556885 46917.000000
1421.197510 47318.000000
1422.837158 47322.000000
1424.475708 47714.000000
1426.113403 47255.000000
1427.750000 47430.000000
1429.385620 47772.000000
1431.020508 47408.000000
1432.654297 47940.000000
1434.286987 47685.000000
1435.918701 48100.000000
1437.549561 47664.000000
1439.179321 47712.000000
1440.807983 45967.000000
1442.436035 47718.000000
1444.062988 47612.000000
1445.688721 47643.000000
1447.313843 47583.000000
1448.937866 47210.000000
1450.560913 47792.000000
1452.182983 47812.000000
1453.803955 46491.000000
1455.423950 47555.000000
1457.043213 46997.000000
1458.661133 48096.000000
1460.278442 48194.500000
1461.894775 48293.000000
1463.509888 46566.000000
1465.124146 47434.000000
1466.737549 48588.000000
1468.349854 48168.000000
1469.961304 47458.000000
1471.571899 47468.000000
1473.181274 47752.000000
1474.789673 47815.000000
1476.397217 47568.000000
1478.003784 47076.000000
1479.609619 48465.000000
1481.214233 47505.000000
1482.817993 48246.000000
1484.420532 47179.000000
1486.022461 48308.000000
1487.623169 48299.000000
1489.223145 48133.000000
1490.822021 47472.000000
1492.420044 47263.000000
1494.016968 47132.000000
1495.613037 47425.000000
1497.208130 47750.000000
1498.802246 48284.000000
1500.395630 47255.000000
1501.987915 48307.000000
1503.578979 47614.000000
1505.169556 47039.000000
1506.758789 47305.000000
1508.347412 47630.000000
1509.934937 47221.000000
1511.521362 46897.000000
1513.107056 47598.000000
1514.691650 47226.000000
1516.275391 47395.000000
1517.858032 47642.000000
1519.439941 47155.000000
1521.020752 47172.000000
1522.600830 47820.000000
1524.179688 47578.000000
1525.757690 47400.000000
1527.334961 47535.000000
1528.911011 48121.000000
1530.486328 47884.000000
1532.060547 47516.000000
1533.634033 48335.000000
1535.206299 47831.000000
1536.777832 47462.000000
1538.348389 47415.000000
1539.918091 47472.000000
1541.486572 48405.000000
1543.054321 47181.000000
1544.621216 48199.000000
1546.186890 47054.000000
1547.751831 47845.000000
1549.315674 48702.000000
1550.878906 46365.000000
1552.440796 47531.000000
1554.002075 47840.000000
1555.562256 48074.000000
1557.121704 48007.000000
1558.680054 47919.000000
1560.237671 47462.000000
1561.794189 46759.000000
1563.349487 48007.000000
1564.904175 47406.000000
1566.458130 48182.000000
1568.011108 47504.000000
1569.562744 48162.000000
1571.113647 47966.000000
1572.663818 47597.000000
1574.213013 47501.000000
1575.760864 48064.000000
1577.308228 48272.000000
1578.854614 48193.000000
1580.400146 48691.000000
1581.944702 47227.000000
1583.488037 47504.000000
1585.030762 47215.000000
1586.572632 47322.000000
1588.113403 47042.000000
1589.653198 48002.000000
1591.192261 47121.000000
1592.730225 47890.000000
1594.267700 47628.000000
1595.803833 47860.000000
1597.338867 47091.000000
1598.873413 47558.000000
1600.406982 47889.000000
1601.939697 47632.000000
1603.470825 47488.000000
1605.001709 47501.000000
1606.531738 48088.000000
1608.060547 47646.000000
1609.588257 47681.000000
1611.115356 47791.000000
1612.641724 47907.000000
1614.167114 47655.000000
1615.691650 47997.000000
1617.214844 48042.000000
1618.737305 48254.000000
1620.259033 47222.000000
1621.779907 46834.000000
1623.299316 38683.000000
1624.818237 47612.000000
1626.336426 47836.000000
1627.853760 47797.000000
1629.369995 47393.000000
1630.884888 46738.000000
1632.399292 46981.000000
1633.912964 48019.000000
1635.425537 46887.000000
1636.936890 47893.000000
1638.447876 47336.000000
1639.957764 47587.000000
1641.466797 47629.000000
1642.974487 48267.000000
1644.481812 47749.000000
1645.988281 46663.000000
1647.493774 47542.000000
1648.998413 47006.000000
1650.501587 47674.000000
1652.004150 47245.000000
1653.506348 47391.000000
1655.007202 47144.000000
1656.506958 46125.000000
1658.005859 47717.000000
1659.504395 47274.000000
1661.001709 47550.000000
1662.498291 47885.000000
1663.993286 47306.000000
1665.488037 47443.000000
1666.981934 48568.000000
1668.474854 48204.000000
1669.966431 47763.500000
1671.457520 47323.000000
1672.947998 47673.000000
1674.437378 47799.000000
1675.925293 46817.000000
1677.412964 46852.000000
1678.899658 47742.000000
1680.385498 48314.000000
1681.870483 47743.000000
1683.354004 47565.000000
1684.837280 47480.000000
1686.319702 47929.000000
1687.801025 47601.000000
1689.280884 47597.000000
1690.760498 48218.000000
1692.239380 47251.000000
1693.717285 47766.000000
1695.194214 47707.000000
1696.669922 48021.000000
1698.145264 47724.000000
1699.619385 47438.000000
1701.092896 48215.000000
1702.564941 48241.000000
1704.036743 46886.000000
1705.507568 47377.000000
1706.977539 46667.000000
1708.446167 48717.000000
1709.914307 47958.000000
1711.381714 47456.000000
1712.848022 48270.000000
1714.313721 48030.000000
1715.777710 47562.000000
1717.241577 47756.000000
1718.704590 46753.000000
1720.166626 47423.000000
1721.627441 47220.000000
1723.087646 48328.000000
1724.547119 47460.000000
1726.005737 47679.000000
1727.463379 47826.000000
1728.919678 47573.000000
1730.375732 47635.000000
1731.830811 47357.000000
1733.284912 47766.000000
1734.737793 46957.000000
1736.190430 47843.000000
1737.641968 47015.000000
1739.092773 47786.000000
1740.542603 47237.000000
1741.991089 47790.000000
1743.439209 46203.000000
1744.886475 47222.000000
1746.333008 47076.000000
1747.777954 47127.000000
1749.222656 47620.000000
1750.666504 47934.000000
1752.109497 48197.000000
1753.551025 47216.000000
1754.992310 47477.000000
1756.432739 47546.500000
1757.872192 47616.000000
1759.310669 48437.000000
1760.748169 47648.000000
1762.185181 46131.000000
1763.621216 47871.000000
1765.056396 46653.000000
1766.490112 47654.000000
1767.923706 47328.000000
1769.356323 47165.000000
1770.788086 47965.000000
1772.218994 47949.000000
1773.648682 47440.000000
1775.077637 47661.000000
1776.506104 47550.000000
1777.933594 47006.000000
1779.359741 47546.000000
1780.785645 48120.000000
1782.210449 46858.000000
1783.634644 48205.000000
1785.057373 47084.000000
1786.479614 47216.000000
1787.901123 46908.000000
1789.321899 47884.000000
1790.741699 47687.000000
1792.160156 47612.000000
1793.578125 46952.000000
1794.995483 48276.000000
1796.411987 47732.000000
1797.827026 47245.000000
1799.241699 47913.000000
1800.655762 47247.000000
1802.068604 47809.000000
1803.480835 46751.000000
1804.891724 46630.000000
1806.302124 46094.000000
1807.711792 47330.000000
1809.120483 47778.000000
1810.528076 48353.000000
1811.935181 47440.000000
1813.341431 47452.000000
1814.746704 47131.000000
1816.150879 47852.000000
1817.554688 47842.000000
1818.957520 47560.000000
1820.359497 47740.000000
1821.760864 48006.000000
1823.160767 47436.000000
1824.560059 47212.000000
1825.958862 47195.000000
1827.356812 46376.000000
1828.753418 48056.000000
1830.149414 47021.000000
1831.544678 47944.000000
1832.939331 45639.000000
1834.333008 47732.000000
1835.725342 47005.000000
1837.117188 47318.000000
1838.508423 47899.000000
1839.898682 46707.000000
1841.287720 47772.000000
1842.676392 47701.000000
1844.064087 47771.000000
1845.451050 47983.000000
1846.836670 46887.000000
1848.222046 47891.000000
1849.606567 47402.000000
1850.990356 47549.000000
1852.373047 47457.000000
1853.754517 48354.000000
1855.135498 47259.000000
1856.515991 47485.000000
1857.895508 48022.000000
1859.273560 47799.000000
1860.651489 47500.000000
1862.028442 45942.000000
1863.404663 47665.000000
1864.780029 47715.000000
1866.153931 48130.000000
1867.527710 48136.000000
1868.900635 47571.000000
1870.272461 47879.000000
1871.643311 46834.000000
1873.013794 48288.000000
1874.383179 47788.000000
1875.752075 47710.000000
1877.119385 46617.000000
1878.486572 47775.000000
1879.852783 47789.000000
1881.218262 47004.000000
1882.583008 46320.000000
1883.946167 46997.000000
1885.309204 46811.000000
1886.671387 47397.000000
1888.032715 47283.000000
1889.392700 48156.000000
1890.752319 47966.000000
1892.111328 47635.000000
1893.469360 47095.000000
1894.826538 46474.000000
1896.182495 47847.000000
1897.538208 46116.000000
1898.892944 47897.000000
1900.246826 48273.000000
1901.599609 47816.000000
1902.951904 47834.000000
1904.303467 47820.000000
1905.654175 46882.000000
1907.003662 47270.000000
1908.352661 47136.000000
1909.700806 47976.000000
1911.048340 47543.000000
1912.395142 47485.000000
1913.740356 46935.000000
1915.085327 47721.000000
1916.429565 48281.000000
1917.772949 47258.000000
1919.114990 47766.000000
1920.456787 47110.000000
1921.797729 46713.000000
1923.137939 47598.000000
1924.477173 47380.000000
1925.815430 47424.000000
1927.153076 47281.000000
1928.489990 46646.000000
1929.826050 46977.000000
1931.160889 48171.000000
1932.495361 47135.000000
1933.829102 46606.000000
1935.161987 47487.000000
1936.493408 48065.000000
1937.824951 47366.000000
1939.155151 47063.000000
1940.484863 47923.000000
1941.813721 47678.000000
1943.141357 47901.000000
1944.468506 48728.000000
1945.794922 47857.000000
1947.120605 47198.000000
1948.444946 47969.000000
1949.769043 47046.000000
1951.092285 47364.000000
1952.414795 47299.000000
1953.736206 47880.000000
1955.056641 46289.000000
1956.376465 47649.000000
1957.695923 48196.000000
1959.014404 46891.000000
1960.331543 47792.000000
1961.648315 47942.000000
1962.964355 47074.000000
1964.279663 47147.000000
1965.593506 47441.000000
1966.907104 48032.000000
1968.219971 47420.000000
1969.531982 47760.000000
1970.843384 47626.000000
1972.153442 47391.000000
1973.463013 47835.000000
1974.771851 47516.000000
1976.080078 47072.000000
1977.386963 47583.000000
1978.693237 46345.000000
1979.999146 48090.000000
1981.303833 47236.000000
1982.608032 47737.000000
1983.911011 47978.000000
1985.213623 46077.000000
1986.515259 47553.000000
1987.816284 46897.000000
1989.115723 47590.000000
1990.415283 47085.000000
1991.713745 48302.000000
1993.011719 47602.000000
1994.308105 47475.000000
1995.604492 47828.000000
1996.899902 48075.000000
1998.194580 47096.000000
1999.488403 47880.000000
2000.781006 47059.000000
2002.073120 47844.000000
2003.364746 46414.000000
2004.655640 47136.000000
2005.944946 47333.000000
2007.234009 46738.000000
2008.522339 47664.000000
2009.809937 47552.000000
2011.096680 46995.000000
2012.382324 47898.000000
2013.667603 47256.000000
2014.951904 47596.000000
2016.235596 47940.000000
2017.517944 47537.000000
2018.799927 47071.000000
2020.081421 46771.000000
2021.361938 47721.000000
2022.641724 47500.000000
2023.920410 46913.000000
2025.198364 47733.000000
2026.475830 47657.000000
2027.752686 47213.000000
2029.027832 47668.000000
2030.303101 46959.000000
2031.577393 47551.000000
2032.850708 47661.000000
2034.123169 47561.000000
2035.395264 47441.000000
2036.666260 46589.000000
2037.937012 46950.000000
2039.206421 47551.000000
2040.474731 46747.000000
2041.743042 46918.000000
2043.010376 47574.000000
2044.276978 47529.000000
2045.542358 47878.000000
2046.807129 47678.000000
2048.071533 48111.000000
2049.334961 47607.000000
2050.597900 47089.000000
2051.858887 47304.000000
2053.120361 47408.000000
2054.380615 47631.000000
2055.640137 46869.000000
2056.898926 47175.000000
2058.156738 46552.000000
2059.414063 47620.000000
2060.670654 47465.000000
2061.925781 46989.000000
2063.180908 47871.000000
2064.435059 47896.000000
2065.688477 47888.000000
2066.941162 46586.000000
2068.192627 47269.000000
2069.443848 47026.000000
2070.694336 47833.000000
2071.944092 48036.000000
2073.192383 47252.000000
2074.440674 46913.000000
2075.687988 46059.000000
2076.934570 47790.000000
2078.180420 47403.000000
2079.425049 46340.000000
2080.669189 45759.000000
2081.912842 47882.000000
2083.155518 47312.000000
2084.396973 46441.000000
2085.638184 47301.000000
2086.878906 46977.000000
2088.118652 46532.000000
2089.357178 46211.000000
2090.595215 47101.000000
2091.832520 47531.000000
2093.069580 46714.000000
2094.305176 47144.000000
2095.540039 47039.000000
2096.774658 47122.000000
2098.008301 47614.000000
2099.240967 47180.000000
2100.472900 46376.000000
2101.704346 46777.000000
2102.934814 46420.000000
2104.164551 47296.000000
2105.394043 47232.000000
2106.621582 47159.000000
2107.849365 47218.000000
2109.076416 46783.000000
2110.302490 47723.000000
2111.527100 46699.000000
2112.751953 46169.000000
2113.975586 46095.000000
2115.198730 46938.000000
2116.420654 45638.000000
2117.642334 47206.000000
2118.863037 46318.000000
2120.083008 47115.000000
2121.302490 47015.000000
2122.520508 46583.000000
2123.738525 46069.000000
2124.955566 47321.000000
2126.172119 47390.000000
2127.386963 46591.000000
2128.602051 46737.000000
2129.816162 46078.000000
2131.029541 47445.000000
2132.242188 46992.000000
2133.453369 47250.000000
2134.664795 46593.000000
2135.875000 46452.000000
2137.084717 47173.000000
2138.292969 46701.000000
2139.501221 47411.000000
2140.708740 47118.000000
2141.915039 45292.000000
2143.120605 47066.000000
2144.325928 47325.000000
2145.530273 47378.000000
2146.733887 46616.000000
2147.937012 46699.000000
2149.138672 46480.000000
2150.340088 47593.000000
2151.540771 46536.000000
2152.740723 46607.000000
2153.939453 46854.000000
2155.137939 45801.000000
2156.335938 46547.000000
2157.532959 46675.000000
2158.729248 47554.000000
2159.924316 47373.000000
2161.119141 46558.000000
2162.313232 47130.000000
2163.506348 46523.000000
2164.698486 45647.000000
2165.890381 46662.000000
2167.081543 46252.000000
2168.271729 46192.000000
2169.461182 45939.000000
2170.650146 45778.000000
2171.838135 46428.000000
2173.025879 46661.000000
2174.212158 46473.000000
2175.397705 45822.000000
2176.583008 46319.000000
2177.767822 46548.000000
2178.951416 45934.000000
2180.134277 44754.000000
2181.316162 46072.000000
2182.497803 46383.000000
2183.678955 45744.000000
2184.858887 46599.000000
2186.037842 46728.000000
2187.216309 45893.000000
2188.394531 45411.000000
2189.571533 45097.000000
2190.747559 45543.000000
2191.923340 46255.000000
2193.098633 46654.000000
2194.272461 45638.000000
2195.445801 46107.000000
2196.618896 46210.000000
2197.790771 45762.000000
2198.962158 45180.000000
2200.133057 45928.000000
2201.302246 45358.000000
2202.471436 44601.000000
2203.640137 45917.000000
2204.807861 46356.000000
2205.974609 46452.000000
2207.140625 44975.000000
2208.306152 45470.000000
2209.471436 46202.000000
2210.635254 45373.000000
2211.798584 46633.000000
2212.960693 45902.000000
2214.123047 45856.000000
2215.284180 45329.000000
2216.444336 45239.000000
2217.604004 45609.000000
2218.763428 45264.000000
2219.921631 45468.000000
2221.078857 45510.000000
2222.235840 45030.000000
2223.392090 45138.000000
2224.547607 44917.000000
2225.702393 45444.000000
2226.856201 45280.000000
2228.009033 45593.000000
2229.162354 44708.000000
2230.313721 45354.000000
2231.464844 45280.000000
2232.615234 44919.000000
2233.765137 43774.000000
2234.914063 45000.000000
2236.062500 46072.000000
2237.209473 44408.000000
2238.356689 44002.000000
2239.502686 45041.000000
2240.648438 43785.000000
2241.792480 43612.000000
2242.936768 44159.000000
2244.080078 44628.000000
2245.222656 44723.000000
2246.364258 44826.000000
2247.505615 44644.000000
2248.645996 44019.000000
2249.785645 43972.000000
2250.924805 44566.000000
2252.062744 44391.000000
2253.200684 44017.000000
2254.337646 44862.000000
2255.473877 43829.000000
2256.609131 43992.000000
2257.743652 42750.000000
2258.877930 43645.000000
2260.011719 44476.000000
2261.144043 43717.000000
2262.275879 42967.000000
2263.407227 43472.000000
2264.537598 43037.000000
2265.667725 41379.000000
2266.796631 42834.000000
2267.925049 43318.000000
2269.052979 43800.000000
2270.179932 43130.000000
2271.306152 43483.000000
2272.431396 42664.000000
2273.556641 42887.000000
2274.681152 42909.000000
2275.804443 43384.000000
2276.927002 42902.000000
2278.049072 43237.000000
2279.170654 41778.000000
2280.291504 42759.000000
2281.411133 42700.000000
2282.530273 41976.000000
2283.649170 41274.000000
2284.767334 41716.000000
2285.884521 43006.000000
2287.000732 42423.000000
2288.116699 41880.000000
2289.231934 41955.000000
2290.346436 41532.000000
2291.459717 42972.000000
2292.572998 42438.000000
2293.685547 42807.000000
2294.797363 43402.000000
2295.908447 41956.000000
2297.018311 42341.000000
2298.127686 42476.000000
2299.236816 41885.000000
2300.344971 42127.000000
2301.452148 41529.000000
2302.559082 42322.000000
2303.665283 41769.000000
2304.770996 41317.000000
2305.875244 41065.000000
2306.979248 42121.000000
2308.082764 41704.000000
2309.185791 40809.000000
2310.287598 39881.000000
2311.388672 39830.000000
2312.489258 40361.000000
2313.589355 41291.000000
2314.688721 40311.000000
2315.786621 39969.000000
2316.885010 39528.000000
2317.981934 38103.000000
2319.078613 39331.000000
2320.174805 40262.000000
2321.269287 38922.000000
2322.363770 38133.000000
2323.457520 39670.000000
2324.551025 39341.000000
2325.642822 38875.000000
2326.734619 38405.000000
2327.825684 39110.000000
2328.916016 38760.000000
2330.005371 38033.000000
2331.094727 38951.000000
2332.182861 38439.000000
2333.270508 37844.000000
2334.357910 38132.000000
2335.443604 37773.000000
2336.529053 36549.000000
2337.614258 37871.000000
2338.698486 37217.000000
2339.781738 37984.000000
2340.864746 37306.000000
2341.946777 36626.000000
2343.028564 37629.000000
2344.109619 35966.000000
2345.189453 36665.000000
2346.268799 37516.000000
2347.347656 36256.000000
2348.426025 36497.000000
2349.502930 36495.000000
2350.579590 35770.000000
2351.656006 36556.000000
2352.731445 36016.000000
2353.805908 36423.000000
2354.880127 35934.000000
2355.953613 35420.000000
2357.026611 36052.000000
2358.098389 35157.000000
2359.169922 35817.000000
2360.240479 35304.000000
2361.310791 34651.000000
2362.380127 34296.000000
2363.448486 34871.000000
2364.516602 34766.000000
2365.583984 34261.000000
2366.650879 34019.000000
2367.717041 34796.000000
2368.781982 33995.000000
2369.846924 33736.000000
2370.911133 34334.000000
2371.974609 33634.000000
2373.036865 34652.000000
2374.099121 34190.000000
2375.160400 34139.000000
2376.221436 34571.000000
2377.281250 34552.000000
2378.340332 33115.000000
2379.399414 34267.000000
2380.457520 33139.000000
2381.514893 33705.000000
2382.571289 32521.000000
2383.627441 32481.000000
2384.683105 33778.000000
2385.738037 32782.000000
2386.791504 33043.000000
2387.845215 33111.000000
2388.897949 33270.000000
2389.950195 33080.000000
2391.001709 33643.000000
2392.052246 33101.000000
2393.102539 33271.000000
2394.151855 33359.000000
2395.201172 33468.000000
2396.249023 32813.000000
2397.296387 32579.000000
2398.343506 33210.000000
2399.389648 32685.000000
2400.435059 33245.000000
2401.479736 32687.000000
2402.524414 31826.000000
2403.567627 31829.000000
2404.610840 32614.000000
2405.652588 33153.000000
2406.694580 32418.000000
2407.735840 31977.000000
2408.776123 32846.000000
2409.815674 32531.000000
2410.854248 32569.000000
2411.893066 32724.000000
2412.930664 32326.000000
2413.968018 32048.000000
2415.004150 31418.000000
2416.040039 32450.000000
2417.075195 32273.000000
2418.109863 31693.000000
2419.143066 31379.000000
2420.176514 31912.000000
2421.208984 31615.000000
2422.241211 31498.000000
2423.271973 31121.000000
2424.302734 31595.000000
2425.333008 31127.000000
2426.362061 30990.000000
2427.391113 30968.000000
2428.418457 30153.000000
2429.446289 30689.000000
2430.472900 29906.000000
2431.499268 30112.000000
2432.524170 29155.000000
2433.549316 30021.000000
2434.573486 29190.000000
2435.597412 29380.000000
2436.620117 30032.000000
2437.642090 29426.000000
2438.663818 29150.000000
2439.684814 28936.000000
2440.705322 29424.000000
2441.724609 28868.000000
2442.743896 28791.000000
2443.762207 26917.000000
2444.780273 28927.000000
2445.796875 28409.000000
2446.813477 28244.000000
2447.829346 28833.000000
2448.845215 27730.000000
2449.859619 27877.000000
2450.873291 28974.000000
2451.886475 27336.000000
2452.899414 28581.000000
2453.911621 27467.000000
2454.922852 27909.000000
2455.933838 26837.000000
2456.944092 27911.000000
2457.953857 26466.000000
2458.962646 27702.000000
2459.970703 27551.000000
2460.978760 27378.000000
2461.985596 26226.000000
2462.992188 27807.000000
2463.997559 26040.000000
2465.002686 26338.000000
2466.007568 27255.000000
2467.011230 26812.000000
2468.014648 27101.000000
2469.017090 26156.000000
2470.019287 26333.000000
2471.020996 26430.000000
2472.021729 26388.000000
2473.021484 25830.000000
2474.021240 25796.000000
2475.020020 26621.000000
2476.018311 26028.000000
2477.015625 25748.000000
2478.012695 26424.000000
2479.009766 25797.000000
2480.005371 26745.000000
2481.000977 25729.000000
2481.994873 26380.000000
2482.988770 25143.000000
2483.982178 26009.000000
2484.975098 26077.000000
2485.967041 25353.000000
2486.958252 25577.000000
2487.949219 25730.000000
2488.939697 26335.000000
2489.929199 25839.000000
2490.917969 25953.000000
2491.906738 26661.000000
2492.894531 25896.000000
2493.881104 26215.000000
2494.867676 24950.000000
2495.853760 26054.000000
2496.839111 25679.000000
2497.823486 24648.000000
2498.807617 26050.000000
2499.791748 25232.000000
2500.774414 26028.000000
2501.756592 25214.000000
2502.738281 25260.000000
2503.719238 24799.000000
2504.699707 25071.000000
2505.679932 25435.000000
2506.658691 25317.000000
2507.637207 24480.000000
2508.615234 24882.000000
2509.592773 24406.000000
2510.569336 24925.000000
2511.545654 24995.000000
2512.521240 24648.000000
2513.496338 24800.000000
2514.470947 24832.000000
2515.444336 23895.000000
2516.417480 24167.000000
2517.390381 23944.000000
2518.362305 24372.000000
2519.333496 23923.000000
2520.304199 23882.000000
2521.274658 23439.000000
2522.244385 23187.000000
2523.213135 23436.000000
2524.181152 23677.000000
2525.149170 23037.000000
2526.116211 23342.000000
2527.083008 23639.000000
2528.048584 23088.000000
2529.014160 23235.000000
2529.979004 22786.000000
2530.943359 22851.000000
2531.906494 22679.000000
2532.869873 22916.000000
2533.832275 22879.000000
2534.794434 22580.000000
2535.755371 22873.000000
2536.715576 22785.000000
2537.676025 22772.000000
2538.635498 22993.000000
2539.594238 22860.000000
2540.552002 22387.000000
2541.510010 22191.000000
2542.467285 21852.000000
2543.423584 21954.000000
2544.379639 21639.000000
2545.334473 21765.000000
2546.289551 21215.000000
2547.243896 21373.000000
2548.197510 21492.000000
2549.150146 21086.000000
2550.102539 21177.000000
2551.054443 21183.000000
2552.005615 21330.000000
2552.956055 21004.000000
2553.906006 20815.000000
2554.855713 20951.000000
2555.804688 20861.000000
2556.753174 20933.000000
2557.700439 20676.000000
2558.647705 20783.000000
2559.594238 20726.000000
2560.540283 20705.000000
2561.485352 20367.000000
2562.430176 20433.000000
2563.374512 20167.000000
2564.318359 20184.000000
2565.261719 20254.000000
2566.203613 20069.000000
2567.145752 19962.000000
2568.087158 20097.000000
2569.027832 20080.000000
2569.967773 19947.000000
2570.907715 20250.000000
2571.846680 20072.000000
2572.785400 19753.000000
2573.723145 19817.000000
2574.660645 19951.000000
2575.597412 19929.000000
2576.533447 19975.000000
2577.468994 19822.000000
2578.403809 19934.000000
2579.338623 19918.000000
2580.272461 19813.000000
2581.205811 19514.000000
2582.138428 19861.000000
2583.070801 19481.000000
2584.002441 19719.000000
2584.933594 19578.000000
2585.864258 19584.000000
2586.793701 19642.000000
2587.723145 19354.000000
2588.652100 19642.000000
2589.580811 19469.000000
2590.507813 19428.000000
2591.435059 19463.000000
2592.361816 19297.000000
2593.287842 19377.000000
2594.213623 19519.000000
2595.138184 19289.000000
2596.062500 19254.000000
2596.986328 19374.000000
2597.909668 19054.000000
2598.832031 19305.000000
2599.754150 19297.000000
2600.675781 18876.000000
2601.596680 18859.000000
2602.516846 19075.000000
2603.436768 18859.000000
2604.356201 18933.000000
2605.275391 18856.000000
2606.193604 18706.000000
2607.110596 18690.000000
2608.027832 18514.000000
2608.944824 18426.000000
2609.860840 18136.000000
2610.775635 18376.000000
2611.690918 18112.000000
2612.605469 17955.000000
2613.519043 17936.000000
2614.432617 18039.000000
2615.344971 17924.000000
2616.257324 17845.000000
2617.168701 17734.000000
2618.079834 17795.000000
2618.990234 17569.000000
2619.900391 17480.000000
2620.809814 17533.000000
2621.718750 17448.000000
2622.626709 17451.000000
2623.534912 17355.000000
2624.442139 17319.000000
2625.348877 17150.000000
2626.254883 17092.000000
2627.160645 17094.000000
2628.065674 17230.000000
2628.970459 17042.000000
2629.874512 16884.000000
2630.777588 16888.000000
2631.680664 16788.000000
2632.582764 16812.000000
2633.484863 16820.000000
2634.386719 16784.000000
2635.286865 16641.000000
2636.187256 16468.000000
2637.086914 16455.000000
2637.986328 16423.000000
2638.884277 16373.000000
2639.782715 16295.000000
2640.680664 16244.000000
2641.577881 16210.000000
2642.473877 16293.000000
2643.369873 16057.000000
2644.265625 16062.000000
2645.160645 16020.000000
2646.055420 15900.000000
2646.948730 15707.000000
2647.842041 15694.000000
2648.735107 15732.000000
2649.627930 15613.000000
2650.519043 15480.000000
2651.410400 15842.000000
2652.301270 15425.000000
2653.191406 15244.000000
2654.081299 15318.000000
2654.969971 15167.000000
2655.858887 15280.000000
2656.747314 15286.000000
2657.634766 15184.000000
2658.521240 15060.000000
2659.408203 14935.000000
2660.294434 14917.000000
2661.180176 14911.000000
2662.064697 15048.000000
2662.949219 15165.000000
2663.833496 15159.000000
2664.717041 15161.000000
2665.600098 15014.000000
2666.482422 15107.000000
2667.364258 15103.000000
2668.245361 15110.000000
2669.126709 15262.000000
2670.006592 15229.000000
2670.886719 15058.000000
2671.766113 15181.000000
2672.645508 14969.000000
2673.524170 15040.000000
2674.401123 14986.000000
2675.278809 14939.000000
2676.155762 14738.000000
2677.031982 14631.000000
2677.907715 14841.000000
2678.782715 14756.000000
2679.657959 14621.000000
2680.532227 14535.000000
2681.406006 14423.000000
2682.279053 14418.000000
2683.151855 14320.000000
2684.024414 14579.000000
2684.896240 14329.000000
2685.767334 14283.000000
2686.638184 14232.000000
2687.508545 14033.000000
2688.378662 14090.000000
2689.247070 14165.000000
2690.116211 13959.000000
2690.984619 13808.000000
2691.852783 13918.000000
2692.720215 13783.000000
2693.586426 13769.000000
2694.453125 13777.000000
2695.318848 13727.000000
2696.184570 13725.000000
2697.048828 13522.000000
2697.913818 13559.000000
2698.777344 13542.000000
2699.641113 13447.000000
2700.503418 13267.000000
2701.366211 13423.000000
2702.228027 13386.000000
2703.089355 13456.000000
2703.950684 13339.000000
2704.810791 13182.000000
2705.670898 13043.000000
2706.530518 13040.000000
2707.389893 13187.000000
2708.247559 12817.000000
2709.105469 12875.000000
2709.963867 12767.000000
2710.821045 12888.000000
2711.677490 12914.000000
2712.533447 13003.000000
2713.389404 12894.000000
2714.244629 12723.000000
2715.099121 12860.000000
2715.953125 12625.000000
2716.807129 12514.000000
2717.660156 12527.000000
2718.513428 12499.000000
2719.364990 12415.000000
2720.217041 12269.000000
2721.068848 12360.000000
2721.919434 12274.000000
2722.770020 12478.000000
2723.620117 12190.000000
2724.469482 12074.000000
2725.318848 12197.000000
2726.166992 12104.000000
2727.014648 12079.000000
2727.862793 12143.000000
2728.709717 11979.000000
2729.557129 12110.000000
2730.403076 12004.000000
2731.248291 11958.000000
2732.093994 12018.000000
2732.938721 11758.000000
2733.783447 11883.000000
2734.626953 11860.000000
2735.470703 11879.000000
2736.313721 11853.000000
2737.156250 11759.000000
2737.997803 11783.000000
2738.839844 11796.000000
2739.680908 11914.000000
2740.521729 11786.000000
2741.362305 11819.000000
2742.201660 11770.000000
2743.041016 11744.000000
2743.880371 11669.000000
2744.718506 11732.000000
2745.556152 11594.000000
2746.393799 11772.000000
2747.230957 11652.000000
2748.067871 11587.000000
2748.904297 11651.000000
2749.739502 11547.000000
2750.574951 11581.000000
2751.409912 11603.000000
2752.244141 11551.000000
2753.078125 11531.000000
2753.911621 11279.000000
2754.745117 11302.000000
2755.577637 11341.000000
2756.409668 11206.000000
2757.241211 11313.000000
2758.072754 11166.000000
2758.903320 11135.000000
2759.734131 11047.000000
2760.563721 11072.000000
2761.393311 11127.000000
2762.222656 10980.000000
2763.051270 10822.000000
2763.879395 10875.000000
2764.707031 10729.000000
2765.534668 10986.000000
2766.361816 10947.000000
2767.188232 10821.000000
2768.014160 10734.000000
2768.839600 10770.000000
2769.664795 10604.000000
2770.489990 10569.000000
2771.313965 10597.000000
2772.137939 10413.000000
2772.961914 10444.000000
2773.784668 10396.000000
2774.607666 10450.000000
2775.429443 10278.000000
2776.251221 10259.000000
2777.072998 10180.000000
2777.893799 10043.000000
2778.713867 10185.000000
2779.534180 10085.000000
2780.354004 9862.000000
2781.173828 10083.000000
2781.991699 10002.000000
2782.810791 10142.000000
2783.628662 10101.000000
2784.446289 10293.000000
2785.263428 10037.000000
2786.080078 9875.000000
2786.896484 9756.000000
2787.712402 9594.000000
2788.528076 9637.000000
2789.342773 9714.000000
2790.157959 9482.000000
2790.972412 9528.000000
2791.786377 9527.000000
2792.600098 9511.000000
2793.412598 9580.000000
2794.225342 9573.000000
2795.037598 9405.000000
2795.849365 9534.000000
2796.660400 9554.000000
2797.472168 9431.000000
2798.282715 9395.000000
2799.093262 9411.000000
2799.902344 9432.000000
2800.712158 9367.000000
2801.521240 9306.000000
2802.330078 9294.000000
2803.138428 9355.000000
2803.945801 9333.000000
2804.753662 9233.000000
2805.560791 9288.000000
2806.367676 9108.000000
2807.173340 9167.000000
2807.979492 9102.000000
2808.784912 9083.000000
2809.590332 9057.000000
2810.395020 9052.000000
2811.198730 9003.000000
2812.002930 8852.000000
2812.806641 9163.000000
2813.610107 9029.000000
2814.412109 9075.000000
2815.214844 8910.000000
2816.016846 8929.000000
2816.818604 8993.000000
2817.619873 8953.000000
2818.420654 8714.000000
2819.220947 8868.000000
2820.021484 8855.000000
2820.821045 8781.000000
2821.620117 8774.000000
2822.419189 8759.000000
2823.218018 8564.000000
2824.016357 8663.000000
2824.813721 8646.000000
2825.611328 8696.000000
2826.408203 8601.000000
2827.205322 8513.000000
2828.001709 8398.000000
2828.797363 8388.000000
2829.593018 8428.000000
2830.388428 8466.000000
2831.183350 8409.000000
2831.977539 8440.000000
2832.771729 8461.000000
2833.565674 8512.000000
2834.359131 8297.000000
2835.151855 8355.000000
2835.944336 8297.000000
2836.736816 8290.000000
2837.529053 8288.000000
2838.320801 8411.000000
2839.111572 8226.000000
2839.902344 8029.000000
2840.693359 8188.000000
2841.483398 8128.000000
2842.272949 8006.000000
2843.062744 7996.000000
2843.851563 7823.000000
2844.640381 7888.000000
2845.429199 7872.000000
2846.217041 7872.000000
2847.004395 7765.000000
2847.791992 7850.000000
2848.579102 7872.000000
2849.365479 7829.000000
2850.151855 7808.000000
2850.937988 7977.000000
2851.723633 7723.000000
2852.508301 7721.000000
2853.293457 7841.000000
2854.078369 7736.000000
2854.862549 7822.000000
2855.646729 7702.000000
2856.429688 7666.000000
2857.212891 7458.000000
2857.995850 7775.000000
2858.778320 7572.000000
2859.560547 7581.000000
2860.342285 7593.000000
2861.123779 7484.000000
2861.905518 7443.000000
2862.686523 7581.000000
2863.466797 7507.000000
2864.246826 7439.000000
2865.026855 7413.000000
2865.806641 7533.000000
2866.585449 7482.000000
2867.364502 7507.000000
2868.143066 7573.000000
2868.921387 7623.000000
2869.699219 7447.000000
2870.476807 7664.000000
2871.254150 7582.000000
2872.031250 7754.000000
2872.807861 7745.000000
2873.583984 7822.000000
2874.360107 7704.000000
2875.135742 7733.000000
2875.911133 7584.000000
2876.686035 7962.000000
2877.460693 7592.000000
2878.235352 7764.000000
2879.009766 7609.000000
2879.783447 7563.000000
2880.556396 7544.000000
2881.330078 7556.000000
2882.102783 7480.000000
2882.875488 7347.000000
2883.647461 7301.000000
2884.419189 7299.000000
2885.191406 7436.000000
2885.962402 7391.000000
2886.732910 7414.000000
2887.503906 7191.000000
2888.274902 7330.000000
2889.045166 7295.000000
2889.814453 7283.000000
2890.583984 7288.000000
2891.353516 7321.000000
2892.122559 7148.000000
2892.891113 7266.000000
2893.659668 7213.000000
2894.427246 7187.000000
2895.195313 7082.000000
2895.962891 7133.000000
2896.730469 7009.000000
2897.496826 6946.000000
2898.264160 6946.000000
2899.030273 6864.000000
2899.796631 6738.000000
2900.561523 6654.000000
2901.326904 6864.000000
2902.092773 6777.000000
2902.857178 6671.000000
2903.621582 6667.000000
2904.386230 6567.000000
2905.149902 6784.000000
2905.914307 6631.000000
2906.677979 6526.000000
2907.440918 6498.000000
2908.203613 6410.000000
2908.966797 6399.000000
2909.729492 6474.000000
2910.490967 6553.000000
2911.252930 6553.000000
spectrumdark 2048
-96.977928 6164.000000
-94.351059 6164.000000
-91.726067 6010.000000
-89.102966 6427.000000
-86.481735 5949.000000
-83.862404 6269.000000
-81.244934 6068.000000
-78.629341 6433.000000
-76.015625 6239.000000
-73.403786 5975.000000
-70.793808 6119.000000
-68.185715 5981.000000
-65.579468 5967.000000
-62.975094 6034.000000
-60.372585 6147.000000
-57.771931 5659.000000
-55.173138 6142.000000
-52.576202 6894.000000
-49.981121 6424.000000
-47.387894 6503.000000
-44.796516 6258.000000
-42.206985 6673.000000
-39.619297 5929.000000
-37.033459 6100.000000
-34.449463 6514.000000
-31.867306 5680.000000
-29.286993 6303.000000
-26.708508 5691.000000
-24.131865 6176.000000
-21.557047 6241.000000
-18.984070 6517.000000
-16.412912 6451.000000
-13.843588 6803.000000
-11.276090 7773.000000
-8.710410 6299.000000
-6.146556 6523.000000
-3.584516 5927.000000
-1.024300 5891.000000
1.534108 6266.000000
4.090695 6915.000000
6.645477 6655.000000
9.198442 6019.000000
11.749607 6694.000000
14.298959 6432.000000
16.846514 6703.000000
19.392258 6027.000000
21.936209 5718.000000
24.478355 6689.000000
27.018705 6744.000000
29.557270 6843.000000
32.094040 6178.000000
34.629005 5784.000000
37.162193 7271.000000
39.693600 6341.000000
42.223213 7134.000000
44.751030 6461.000000
47.277088 7841.000000
49.801357 5670.000000
52.323856 6267.000000
54.844559 6709.000000
57.363506 6330.000000
59.880680 6371.000000
62.396076 6653.000000
64.909691 5559.000000
67.421555 5763.000000
69.931671 6497.000000
72.439995 6535.000000
74.946564 5930.000000
77.451385 6318.000000
79.954453 6411.000000
82.455742 6322.000000
84.955292 6175.000000
87.453087 6325.000000
89.949150 5709.000000
92.443436 7239.000000
94.935982 5800.000000
97.426811 6946.000000
99.915871 7163.000000
102.403183 6326.000000
104.888771 6235.000000
107.372620 6433.000000
109.854721 5824.000000
112.335098 6706.000000
114.813751 6213.000000
117.290680 6550.000000
119.765854 7263.000000
122.239319 6761.000000
124.711052 5912.000000
127.181076 6727.000000
129.649353 6345.000000
132.115952 6210.000000
134.580795 5735.000000
137.043945 6212.000000
139.505356 7227.000000
141.965073 6919.000000
144.423065 6385.000000
146.879364 6011.000000
149.333954 5805.000000
151.786819 6763.000000
154.238007 6343.000000
156.687500 6586.000000
159.135269 6106.000000
161.581329 6699.000000
164.025711 8675.000000
166.468414 6414.000000
168.909424 6749.000000
171.348724 6168.000000
173.786316 7283.000000
176.222275 6567.000000
178.656494 6981.000000
181.089035 7191.000000
183.519928 6669.000000
185.949097 7186.000000
188.376617 6791.000000
190.802460 6355.000000
193.226624 6707.000000
195.649124 7223.000000
198.069931 7396.000000
200.489075 6539.000000
202.906555 5955.000000
205.322342 7670.000000
207.736481 7071.000000
210.148987 6345.000000
212.559814 6086.000000
214.968964 6283.000000
217.376480 7416.000000
219.782288 6211.000000
222.186508 6543.000000
224.589020 6748.000000
226.989914 6906.000000
229.389160 6445.000000
231.786743 6879.000000
234.182663 7306.000000
236.576965 6505.000000
238.969604 6097.000000
241.360626 6894.000000
243.749985 6567.000000
246.137726 6372.000000
248.523819 6954.000000
250.908279 6087.000000
253.291092 7904.000000
255.672333 6626.000000
258.051849 6668.000000
260.429810 6544.000000
262.806091 7530.000000
265.180817 7617.000000
267.553894 7840.000000
269.925323 6208.000000
272.295105 6464.000000
274.663330 5952.000000
277.029907 6403.000000
279.394897 6536.000000
281.758270 6032.000000
284.119995 6212.000000
286.480133 7113.000000
288.838654 6026.000000
291.195587 6476.000000
293.550903 6436.000000
295.904633 5984.000000
298.256714 5982.000000
300.607239 6401.000000
302.956177 6396.000000
305.303467 6837.000000
307.649231 6432.000000
309.993317 6452.000000
312.335876 7406.000000
314.676819 7605.000000
317.016144 7279.000000
319.353912 6937.000000
321.690125 8120.000000
324.024689 6261.000000
326.357697 6542.000000
328.689148 6043.000000
331.019012 6602.000000
333.347290 6409.000000
335.673950 7251.000000
337.999115 6377.000000
340.322662 6170.000000
342.644653 6012.000000
344.965088 7559.000000
347.283905 7783.000000
349.601166 6107.000000
351.916901 5840.000000
354.231049 6948.000000
356.543610 6378.000000
358.854614 6270.000000
361.164093 6959.000000
363.472046 6420.000000
365.778381 5661.000000
368.083130 6568.000000
370.386414 6405.000000
372.688080 6331.000000
374.988251 6400.000000
377.286865 6323.000000
379.583923 5736.000000
381.879425 6038.000000
384.173401 5910.000000
386.465790 5240.000000
388.756683 5567.000000
391.046051 6260.000000
393.333832 6300.000000
395.620087 6533.000000
397.904846 6993.000000
400.187988 6019.000000
402.469696 6397.000000
404.749878 6169.000000
407.028473 7291.000000
409.305542 6494.000000
411.581085 6714.000000
413.855103 6474.000000
416.127686 6423.000000
418.398651 6266.000000
420.668121 6393.000000
422.936096 7161.000000
425.202515 7365.000000
427.467438 6287.000000
429.730896 6329.000000
431.992767 6562.000000
434.253174 6019.000000
436.512024 6534.000000
438.769409 6103.000000
441.025299 5666.000000
443.279694 5821.000000
445.532562 5527.000000
447.783875 6897.000000
450.033783 6170.000000
452.282104 6321.000000
454.528992 5611.000000
456.774414 6514.000000
459.018280 6563.000000
461.260651 6505.000000
463.501526 5694.000000
465.740997 6714.000000
467.978882 5492.000000
470.215332 5939.000000
472.450256 6102.000000
474.683716 7221.000000
476.915741 6745.000000
479.146240 5708.000000
481.375244 6447.000000
483.602783 6273.000000
485.828827 5994.000000
488.053436 6614.000000
490.276581 5921.000000
492.498260 6447.000000
494.718384 6754.000000
496.937103 5600.000000
499.154327 6313.000000
501.370178 5530.000000
503.584412 6134.000000
505.797333 6472.000000
508.008667 6420.000000
510.218567 6854.000000
512.427063 6533.000000
514.634155 6668.000000
516.839661 6448.000000
519.043762 6628.000000
521.246338 6221.000000
523.447510 6627.000000
525.647339 6736.000000
527.845642 6920.000000
530.042419 5349.000000
532.237854 5866.000000
534.431763 5583.000000
536.624329 7589.000000
538.815369 6736.000000
541.005005 6114.000000
543.193237 7004.000000
545.379944 7146.000000
547.565186 6810.000000
549.749146 6221.000000
551.931519 6401.000000
554.112549 6224.000000
556.292053 6120.000000
558.470276 5924.000000
560.646973 6035.000000
562.822266 6447.000000
564.996155 6481.000000
567.168579 5953.000000
569.339600 6060.000000
571.509155 6326.000000
573.677429 5282.000000
575.844177 6378.000000
578.009460 6362.000000
580.173340 6193.000000
582.335938 5777.000000
584.497009 6032.000000
586.656677 5636.000000
588.815002 5813.000000
590.971802 6150.000000
593.127258 6691.000000
595.281311 5796.000000
597.434021 6089.000000
599.585205 7258.000000
601.735046 6889.000000
603.883545 6719.000000
606.030457 6008.000000
608.176147 6654.000000
610.320435 6508.000000
612.463257 6999.000000
614.604614 6194.000000
616.744751 6440.000000
618.883362 7717.000000
621.020691 5764.000000
623.156555 6659.000000
625.291016 6880.000000
627.424011 7225.000000
629.555847 6662.000000
631.686218 6569.000000
633.815186 6767.000000
635.942688 6468.000000
638.068909 6218.000000
640.193604 7400.000000
642.317078 6398.000000
644.439209 6751.000000
646.559875 6768.000000
648.679199 6569.000000
650.797119 5641.000000
652.913696 5709.000000
655.028870 6459.000000
657.142700 6445.000000
659.255066 5858.000000
661.366211 6066.000000
663.475952 5414.000000
665.584229 6030.000000
667.691345 6367.000000
669.796997 6797.000000
671.901184 5944.000000
674.004150 5748.000000
676.105713 6993.000000
678.205933 5343.000000
680.304749 6778.000000
682.402222 6296.000000
684.498413 6997.000000
686.593140 6330.000000
688.686646 7007.000000
690.778809 6692.000000
692.869446 7921.000000
694.958862 6666.000000
697.046997 6456.000000
699.133667 6022.000000
701.219116 6664.000000
703.303040 5178.000000
705.385742 5792.000000
707.467163 5960.000000
709.547119 7628.000000
711.625854 6317.000000
713.703125 5573.000000
715.779114 6645.000000
717.853821 6108.000000
719.927246 7033.000000
721.999146 6319.000000
724.069885 7443.000000
726.139282 5862.000000
728.207275 6521.000000
730.273926 6335.000000
732.339355 7147.000000
734.403442 5798.000000
736.466187 6201.000000
738.527588 6574.000000
740.587708 6646.000000
742.646423 6002.000000
744.703918 6672.000000
746.760132 6595.000000
748.814941 6729.000000
750.868469 6389.000000
752.920593 7388.000000
754.971497 5760.000000
757.021179 6690.000000
759.069397 6391.000000
761.116394 6199.000000
763.162109 7012.000000
765.206421 5337.000000
767.249451 5705.000000
769.291260 15023.000000
771.331726 7291.000000
773.370789 6357.000000
775.408691 6071.000000
777.445251 6062.000000
779.480591 5375.000000
781.514587 5811.000000
783.547180 6966.000000
785.578613 5506.000000
787.608643 11637.000000
789.637390 6091.000000
791.664978 6299.000000
793.691223 6440.000000
795.716064 5836.000000
797.739807 5527.000000
799.762146 6398.000000
801.783264 5854.000000
803.803040 6664.000000
805.821533 4913.000000
807.838806 6671.000000
809.854675 6816.000000
811.869385 5761.000000
813.882751 6472.000000
815.894897 6286.000000
817.905823 6151.000000
819.915405 6572.000000
821.923767 5298.000000
823.930725 5769.000000
825.936462 6084.000000
827.940979 5759.000000
829.944214 5669.000000
831.946167 6460.000000
833.946838 6178.000000
835.946289 5904.000000
837.944397 6314.000000
839.941406 6990.000000
841.937012 6268.000000
843.931458 5957.000000
845.924561 6205.000000
847.916443 6852.000000
849.906982 5600.000000
851.896240 6944.000000
853.884460 5975.000000
855.871277 5786.000000
857.856873 6396.000000
859.841187 7260.000000
861.824402 6364.000000
863.806213 6435.000000
865.786804 5861.000000
867.766113 7768.000000
869.744263 7088.000000
871.721069 6208.000000
873.696594 6158.000000
875.671082 6203.000000
877.644104 6112.000000
879.616089 5444.000000
881.586731 6400.000000
883.556213 6157.000000
885.524353 5547.000000
887.491333 5241.000000
889.456970 6168.000000
891.421448 5912.000000
893.384705 5987.000000
895.346741 6502.000000
897.307495 5843.000000
899.267029 6392.000000
901.225281 6689.000000
903.182434 6351.000000
905.138428 6069.000000
907.093018 6902.000000
909.046387 6536.000000
910.998596 6470.000000
912.949585 6386.000000
914.899292 7186.000000
916.847839 6361.000000
918.795166 6177.000000
920.741211 6141.000000
922.685974 6028.000000
924.629700 6333.000000
926.572266 6078.000000
928.513550 5663.000000
930.453491 6494.000000
932.392334 5756.000000
934.329895 5555.000000
936.266235 6032.000000
938.201416 5855.000000
940.135315 6104.000000
942.068115 5884.000000
943.999695 6798.000000
945.930115 5208.000000
947.859314 6411.000000
949.787170 7060.000000
951.713989 6668.000000
953.639526 5941.000000
955.563782 5433.000000
957.486938 6059.000000
959.408936 6764.000000
961.329651 7176.000000
963.249207 6494.000000
965.167603 5358.000000
967.084961 6478.000000
969.000854 6432.000000
970.915649 6141.000000
972.829224 5912.000000
974.741638 6409.000000
976.652832 6537.000000
978.562866 5489.000000
980.471619 6194.000000
982.379333 6145.000000
984.285828 6354.000000
986.191101 5694.000000
988.095276 6842.000000
989.998230 6173.000000
991.899963 6871.000000
993.800537 6597.000000
995.699951 6633.000000
997.598145 5256.000000
999.495178 6558.000000
1001.390991 6527.000000
1003.285645 7714.000000
1005.179199 5578.000000
1007.071472 7224.000000
1008.962830 6081.000000
1010.852844 5351.000000
1012.741638 6625.000000
1014.629272 6344.000000
1016.515747 6956.000000
1018.401062 6763.000000
1020.285217 5967.000000
1022.168152 5938.000000
1024.050049 6269.000000
1025.930664 5209.000000
1027.810181 5867.000000
1029.688721 6111.000000
1031.565918 5488.000000
1033.441772 6210.000000
1035.316650 5894.000000
1037.190552 6598.000000
1039.062988 7066.000000
1040.934448 6696.000000
1042.804565 5552.000000
1044.673706 5517.000000
1046.541626 5785.000000
1048.408447 7176.000000
1050.274170 6752.000000
1052.138672 6460.000000
1054.002075 6519.000000
1055.864136 6486.000000
1057.725220 5880.000000
1059.585205 6485.000000
1061.443848 6721.000000
1063.301392 5787.000000
1065.157837 6701.000000
1067.013184 5981.000000
1068.867310 5838.000000
1070.720581 6219.000000
1072.572388 6343.000000
1074.423218 6106.000000
1076.272827 6147.000000
1078.121216 5788.000000
1079.968750 7959.000000
1081.814941 5638.000000
1083.659912 6233.000000
1085.504028 5438.000000
1087.346802 5553.000000
1089.188354 6502.000000
1091.029175 5448.000000
1092.868408 5811.000000
1094.706909 6097.000000
1096.544067 6031.000000
1098.380005 6772.000000
1100.214966 6585.000000
1102.048706 5418.000000
1103.881470 5695.000000
1105.712891 6135.000000
1107.543457 7324.000000
1109.372681 6575.000000
1111.200928 6453.000000
1113.027954 7134.000000
1114.854004 5402.000000
1116.678833 6353.000000
1118.502563 7206.000000
1120.325073 6123.000000
1122.146484 5957.000000
1123.967041 5873.000000
1125.786133 6551.000000
1127.604370 7120.000000
1129.421265 7131.000000
1131.237305 6718.000000
1133.052124 6510.000000
1134.865845 5614.000000
1136.678467 5789.000000
1138.489868 5658.000000
1140.300293 6120.000000
1142.109619 6761.000000
1143.917603 6977.000000
1145.724854 5918.000000
1147.530640 5916.000000
1149.335571 5397.000000
1151.139404 5382.000000
1152.942017 6051.000000
1154.743774 6173.000000
1156.544067 6120.000000
1158.343384 6130.000000
1160.141724 5864.000000
1161.938721 5498.000000
1163.734985 5947.000000
1165.529907 6060.000000
1167.323730 6400.000000
1169.116699 7777.000000
1170.908325 5688.000000
1172.698975 6527.000000
1174.488647 6101.000000
1176.276855 5833.000000
1178.064209 7538.000000
1179.850464 6852.000000
1181.635620 5811.000000
1183.419678 5967.000000
1185.202637 7755.000000
1186.984619 5885.000000
1188.765381 5921.000000
1190.545166 6294.000000
1192.323853 6982.000000
1194.101563 6711.000000
1195.878052 7175.000000
1197.653442 6574.000000
1199.427734 6529.000000
1201.200928 6616.000000
1202.973267 6587.000000
1204.744263 6738.000000
1206.514404 5753.000000
1208.283325 6147.000000
1210.051147 6285.000000
1211.818115 5826.000000
1213.583740 5969.000000
1215.348389 7030.000000
1217.111938 6574.000000
1218.874390 5943.000000
1220.635986 6784.000000
1222.396362 5915.000000
1224.155640 6400.000000
1225.914063 6080.000000
1227.671265 7299.000000
1229.427368 6436.000000
1231.182373 5606.000000
1232.936523 6021.000000
1234.689331 5857.000000
1236.441162 6023.000000
1238.192139 6041.000000
1239.941772 4989.000000
1241.690552 6994.000000
1243.437988 6503.000000
1245.184692 6478.000000
1246.930176 6522.000000
1248.674805 6442.000000
1250.418091 6748.000000
1252.160400 6682.000000
1253.901611 5400.000000
1255.641968 5149.000000
1257.381226 5836.000000
1259.119263 6649.000000
1260.856445 7148.000000
1262.592407 6196.000000
1264.327393 6426.000000
1266.061401 7320.000000
1267.794434 5979.000000
1269.526245 6253.000000
1271.257080 6460.000000
1272.986694 7328.000000
1274.715454 5948.000000
1276.443115 5670.000000
1278.169678 5566.000000
1279.895386 5596.000000
1281.619751 6508.000000
1283.343262 5280.000000
1285.065796 6957.000000
1286.787354 6672.000000
1288.507690 6401.000000
1290.227051 6684.000000
1291.945313 7313.000000
1293.662598 6454.000000
1295.378906 5797.000000
1297.093994 6458.000000
1298.808105 6124.000000
1300.521240 5822.000000
1302.233521 6432.000000
1303.944580 8367.000000
1305.654663 5285.000000
1307.363647 6313.000000
1309.071411 6744.000000
1310.778564 7073.000000
1312.484253 5851.000000
1314.189209 6931.000000
1315.893188 6226.000000
1317.595947 5988.000000
1319.297729 6570.000000
1320.998657 6087.000000
1322.698242 9263.000000
1324.396973 7407.500000
1326.094971 5552.000000
1327.791626 6493.000000
1329.487183 7134.000000
1331.181885 6890.000000
1332.875366 5766.000000
1334.567993 5400.000000
1336.259766 7451.000000
1337.950195 6344.000000
1339.639893 6473.000000
1341.328491 6020.000000
1343.015991 7633.000000
1344.702515 5686.000000
1346.387939 6876.000000
1348.072388 5931.000000
1349.755981 7236.000000
1351.438354 6367.000000
1353.119751 5997.000000
1354.800293 6552.000000
1356.479614 6727.000000
1358.158325 5944.000000
1359.835693 6559.000000
1361.511963 5810.000000
1363.187256 5656.000000
1364.861816 6651.000000
1366.535156 6484.000000
1368.207520 6811.000000
1369.878906 5165.000000
1371.549316 6853.000000
1373.218628 6102.000000
1374.886963 5716.000000
1376.554443 5966.000000
1378.220825 6470.000000
1379.886230 6131.000000
1381.550659 5872.000000
1383.213867 5913.000000
1384.876465 5737.000000
1386.537720 6337.000000
1388.198120 6626.000000
1389.857422 6405.000000
1391.515747 6546.000000
1393.173340 6886.000000
1394.829712 6551.000000
1396.485229 7065.000000
1398.139526 6362.000000
1399.792969 5912.000000
1401.445313 6169.000000
1403.096924 6475.000000
1404.747314 7183.000000
1406.396606 6281.000000
1408.045166 7480.000000
1409.692627 7923.000000
1411.339111 6247.000000
1412.984741 6278.000000
1414.629395 6058.000000
1416.272827 7088.000000
1417.915405 7159.000000
1419.556885 6915.000000
1421.197510 6504.000000
1422.837158 6496.000000
1424.475708 6097.000000
1426.113403 6574.000000
1427.750000 6358.000000
1429.385620 6056.000000
1431.020508 6416.000000
1432.654297 5867.000000
1434.286987 6133.000000
1435.918701 5664.000000
1437.549561 6133.000000
1439.179321 6096.000000
1440.807983 7847.000000
1442.436035 6075.000000
1444.062988 6224.000000
1445.688721 6199.000000
1447.313843 6225.000000
1448.937866 6583.000000
1450.560913 6051.000000
1452.182983 6017.000000
1453.803955 7318.000000
1455.423950 6274.000000
1457.043213 6818.000000
1458.661133 5678.000000
1460.278442 5607.500000
1461.894775 5537.000000
1463.509888 7257.000000
1465.124146 6392.000000
1466.737549 5216.000000
1468.349854 5644.000000
1469.961304 6331.000000
1471.571899 6327.000000
1473.181274 6060.000000
1474.789673 6001.000000
1476.397217 6240.000000
1478.003784 6758.000000
1479.609619 5326.000000
1481.214233 6276.000000
1482.817993 5562.000000
1484.420532 6645.000000
1486.022461 5500.000000
1487.623169 5504.000000
1489.223145 5657.000000
1490.822021 6348.000000
1492.420044 6558.000000
1494.016968 6700.000000
1495.613037 6385.000000
1497.208130 6055.000000
1498.802246 5545.000000
1500.395630 6560.000000
1501.987915 5521.000000
1503.578979 6167.000000
1505.169556 6759.000000
1506.758789 6502.000000
1508.347412 6228.000000
1509.934937 6587.000000
1511.521362 6918.000000
1513.107056 6239.000000
1514.691650 6637.000000
1516.275391 6429.000000
1517.858032 6198.000000
1519.439941 6672.000000
1521.020752 6678.000000
1522.600830 6035.000000
1524.179688 6262.000000
1525.757690 6437.000000
1527.334961 6304.000000
1528.911011 5680.000000
1530.486328 5914.000000
1532.060547 6309.000000
1533.634033 5503.000000
1535.206299 5960.000000
1536.777832 6413.000000
1538.348389 6457.000000
1539.918091 6335.000000
1541.486572 5447.000000
1543.054321 6649.000000
1544.621216 5627.000000
1546.186890 6782.000000
1547.751831 5978.000000
1549.315674 5099.000000
1550.878906 7511.000000
1552.440796 6282.000000
1554.002075 5997.000000
1555.562256 5733.000000
1557.121704 5827.000000
1558.680054 5898.000000
1560.237671 6352.000000
1561.794189 7075.000000
1563.349487 5859.000000
1564.904175 6430.000000
1566.458130 5652.000000
1568.011108 6324.000000
1569.562744 5687.000000
1571.113647 5890.000000
1572.663818 6256.000000
1574.213013 6368.000000
1575.760864 5792.000000
1577.308228 5586.000000
1578.854614 5684.000000
1580.400146 5140.000000
1581.944702 6628.000000
1583.488037 6356.000000
1585.030762 6621.000000
1586.572632 6485.000000
1588.113403 6796.000000
1589.653198 5841.000000
1591.192261 6752.000000
1592.730225 5930.000000
1594.267700 6183.000000
1595.803833 5936.000000
1597.338867 6763.000000
1598.873413 6256.000000
1600.406982 5972.000000
1601.939697 6211.000000
1603.470825 6321.000000
1605.001709 6299.000000
1606.531738 5776.000000
1608.060547 6173.000000
1609.588257 6130.000000
1611.115356 6031.000000
1612.641724 5934.000000
1614.167114 6213.000000
1615.691650 5850.000000
1617.214844 5785.000000
1618.737305 5570.000000
1620.259033 6617.000000
1621.779907 7014.000000
1623.299316 15164.000000
1624.818237 6235.000000
1626.336426 6033.000000
1627.853760 5998.000000
1629.369995 6444.000000
1630.884888 7084.000000
1632.399292 6846.000000
1633.912964 5807.000000
1635.425537 6892.000000
1636.936890 5937.000000
1638.447876 6464.000000
1639.957764 6248.000000
1641.466797 6195.000000
1642.974487 5564.000000
1644.481812 6103.000000
1645.988281 7177.000000
1647.493774 6293.000000
1648.998413 6851.000000
1650.501587 6148.000000
1652.004150 6575.000000
1653.506348 6418.000000
1655.007202 6646.000000
1656.506958 7666.000000
1658.005859 6092.000000
1659.504395 6543.000000
1661.001709 6241.000000
1662.498291 5944.000000
1663.993286 6509.000000
1665.488037 6400.000000
1666.981934 5275.000000
1668.474854 5610.000000
1669.966431 6062.500000
1671.457520 6515.000000
1672.947998 6149.000000
1674.437378 6023.000000
1675.925293 6972.000000
1677.412964 6966.000000
1678.899658 6071.000000
1680.385498 5499.000000
1681.870483 6086.000000
1683.354004 6273.000000
1684.837280 6349.000000
1686.319702 5862.000000
1687.801025 6222.000000
1689.280884 6237.000000
1690.760498 5567.000000
1692.239380 6583.000000
1693.717285 6036.000000
1695.194214 6120.000000
1696.669922 5807.000000
1698.145264 6066.000000
1699.619385 6351.000000
1701.092896 5549.000000
1702.564941 5545.000000
1704.036743 6883.000000
1705.507568 6436.000000
1706.977539 7163.000000
1708.446167 5107.000000
1709.914307 5854.000000
1711.381714 6331.000000
1712.848022 5500.000000
1714.313721 5803.000000
1715.777710 6211.000000
1717.241577 6024.000000
1718.704590 7078.000000
1720.166626 6385.000000
1721.627441 6618.000000
1723.087646 5487.000000
1724.547119 6328.000000
1726.005737 6136.000000
1727.463379 6003.000000
1728.919678 6232.000000
1730.375732 6159.000000
1731.830811 6448.000000
1733.284912 6084.000000
1734.737793 6890.000000
1736.190430 5976.000000
1737.641968 6794.000000
1739.092773 6000.000000
1740.542603 6616.000000
1741.991089 6005.000000
1743.439209 7620.000000
1744.886475 6580.000000
1746.333008 6744.000000
1747.777954 6716.000000
1749.222656 6183.000000
1750.666504 5840.000000
1752.109497 5612.000000
1753.551025 6616.000000
1754.992310 6365.000000
1756.432739 6305.000000
1757.872192 6245.000000
1759.310669 5401.000000
1760.748169 6169.000000
1762.185181 7670.000000
1763.621216 5933.000000
1765.056396 7186.000000
1766.490112 6170.000000
1767.923706 6502.000000
1769.356323 6665.000000
1770.788086 5823.000000
1772.218994 5865.000000
1773.648682 6388.000000
1775.077637 6168.000000
1776.506104 6262.000000
1777.933594 6818.000000
1779.359741 6251.000000
1780.785645 5657.000000
1782.210449 6961.000000
1783.634644 5636.000000
1785.057373 6697.000000
1786.479614 6562.000000
1787.901123 6907.000000
1789.321899 5914.000000
1790.741699 6112.000000
1792.160156 6214.000000
1793.578125 6864.000000
1794.995483 5530.000000
1796.411987 6080.000000
1797.827026 6569.000000
1799.241699 5892.000000
1800.655762 6585.000000
1802.068604 5984.000000
1803.480835 7041.000000
1804.891724 7159.000000
1806.302124 7740.000000
1807.711792 6503.000000
1809.120483 6004.000000
1810.528076 5415.000000
1811.935181 6406.000000
1813.341431 6397.000000
1814.746704 6691.000000
1816.150879 5960.000000
1817.554688 5947.000000
1818.957520 6244.000000
1820.359497 6038.000000
1821.760864 5802.000000
1823.160767 6356.000000
1824.560059 6583.000000
1825.958862 6641.000000
1827.356812 7453.000000
1828.753418 5788.000000
1830.149414 6800.000000
1831.544678 5846.000000
1832.939331 8178.000000
1834.333008 6059.000000
1835.725342 6808.000000
1837.117188 6477.000000
1838.508423 5917.000000
1839.898682 7096.000000
1841.287720 6046.000000
1842.676392 6129.000000
1844.064087 6011.000000
1845.451050 5826.000000
1846.836670 6920.000000
1848.222046 5885.000000
1849.606567 6422.000000
1850.990356 6287.000000
1852.373047 6381.000000
1853.754517 5437.000000
1855.135498 6554.000000
1856.515991 6324.000000
1857.895508 5786.000000
1859.273560 6002.000000
1860.651489 6266.000000
1862.028442 7864.000000
1863.404663 6149.000000
1864.780029 6117.000000
1866.153931 5653.000000
1867.527710 5708.000000
1868.900635 6229.000000
1870.272461 5930.000000
1871.643311 6946.000000
1873.013794 5507.000000
1874.383179 6037.000000
1875.752075 6127.000000
1877.119385 7209.000000
1878.486572 6053.000000
1879.852783 6034.000000
1881.218262 6778.000000
1882.583008 7503.000000
1883.946167 6831.000000
1885.309204 6966.000000
1886.671387 6405.000000
1888.032715 6545.000000
1889.392700 5663.000000
1890.752319 5830.000000
1892.111328 6172.000000
1893.469360 6662.000000
1894.826538 7331.000000
1896.182495 5935.000000
1897.538208 7660.000000
1898.892944 5877.000000
1900.246826 5525.000000
1901.599609 6011.000000
1902.951904 5963.000000
1904.303467 5956.000000
1905.654175 6918.000000
1907.003662 6583.000000
1908.352661 6634.000000
1909.700806 5822.000000
1911.048340 6249.000000
1912.395142 6292.000000
1913.740356 6863.000000
1915.085327 6092.000000
1916.429565 5496.000000
1917.772949 6559.000000
1919.114990 6017.000000
1920.456787 6658.000000
1921.797729 7057.000000
1923.137939 6165.000000
1924.477173 6419.000000
1925.815430 6342.000000
1927.153076 6484.000000
1928.489990 7091.000000
1929.826050 6754.000000
1931.160889 5587.000000
1932.495361 6617.000000
1933.829102 7196.000000
1935.161987 6295.000000
1936.493408 5713.000000
1937.824951 6403.000000
1939.155151 6726.000000
1940.484863 5829.000000
1941.813721 6090.000000
1943.141357 5867.000000
1944.468506 5047.000000
1945.794922 5885.000000
1947.120605 6543.000000
1948.444946 5740.000000
1949.769043 6674.000000
1951.092285 6387.000000
1952.414795 6462.000000
1953.736206 5879.000000
1955.056641 7433.000000
1956.376465 6068.000000
1957.695923 5547.000000
1959.014404 6832.000000
1960.331543 5951.000000
1961.648315 5791.000000
1962.964355 6621.000000
1964.279663 6599.000000
1965.593506 6301.000000
1966.907104 5678.000000
1968.219971 6283.000000
1969.531982 5951.000000
1970.843384 6070.000000
1972.153442 6310.000000
1973.463013 5869.000000
1974.771851 6207.000000
1976.080078 6638.000000
1977.386963 6117.000000
1978.693237 7333.000000
1979.999146 5606.000000
1981.303833 6446.000000
1982.608032 5948.000000
1983.911011 5722.000000
1985.213623 7579.000000
1986.515259 6124.000000
1987.816284 6780.000000
1989.115723 6072.000000
1990.415283 6552.000000
1991.713745 5387.000000
1993.011719 6064.000000
1994.308105 6156.000000
1995.604492 5821.000000
1996.899902 5552.000000
1998.194580 6530.000000
1999.488403 5740.000000
2000.781006 6532.000000
2002.073120 5754.000000
2003.364746 7189.000000
2004.655640 6473.000000
2005.944946 6280.000000
2007.234009 6853.000000
2008.522339 5936.000000
2009.809937 6070.000000
2011.096680 6599.000000
2012.382324 5701.000000
2013.667603 6343.000000
2014.951904 6004.000000
2016.235596 5640.000000
2017.517944 6083.000000
2018.799927 6535.000000
2020.081421 6835.000000
2021.361938 5916.000000
2022.641724 6116.000000
2023.920410 6719.000000
2025.198364 5875.000000
2026.475830 5931.000000
2027.752686 6381.000000
2029.027832 5896.000000
2030.303101 6594.000000
2031.577393 6026.000000
2032.850708 5959.000000
2034.123169 6007.000000
2035.395264 6128.000000
2036.666260 6981.000000
2037.937012 6604.000000
2039.206421 6038.000000
2040.474731 6846.000000
2041.743042 6645.000000
2043.010376 5966.000000
2044.276978 6036.000000
2045.542358 5669.000000
2046.807129 5885.000000
2048.071533 5415.000000
2049.334961 5913.000000
2050.597900 6413.000000
2051.858887 6239.000000
2053.120361 6110.000000
2054.380615 5886.000000
2055.640137 6671.000000
2056.898926 6294.000000
2058.156738 6954.000000
2059.414063 5909.000000
2060.670654 6041.000000
2061.925781 6523.000000
2063.180908 5632.000000
2064.435059 5565.000000
2065.688477 5607.000000
2066.941162 6875.000000
2068.192627 6207.000000
2069.443848 6436.000000
2070.694336 5622.000000
2071.944092 5414.000000
2073.192383 6190.000000
2074.440674 6503.000000
2075.687988 7361.000000
2076.934570 5648.000000
2078.180420 6033.000000
2079.425049 7069.000000
2080.669189 7626.000000
2081.912842 5515.000000
2083.155518 6085.000000
2084.396973 6931.000000
2085.638184 6054.000000
2086.878906 6389.000000
2088.118652 6814.000000
2089.357178 7123.000000
2090.595215 6199.000000
2091.832520 5784.000000
2093.069580 6595.000000
2094.305176 6176.000000
2095.540039 6262.000000
2096.774658 6151.000000
2098.008301 5676.000000
2099.240967 6098.000000
2100.472900 6908.000000
2101.704346 6481.000000
2102.934814 6803.000000
2104.164551 6013.000000
2105.394043 5973.000000
2106.621582 6053.000000
2107.849365 6018.000000
2109.076416 6423.000000
2110.302490 5491.000000
2111.527100 6483.000000
2112.751953 7023.000000
2113.975586 7077.000000
2115.198730 6267.000000
2116.420654 7574.000000
2117.642334 5971.000000
2118.863037 6862.000000
2120.083008 6042.000000
2121.302490 6159.000000
2122.520508 6617.000000
2123.738525 7102.000000
2124.955566 5808.000000
2126.172119 5772.000000
2127.386963 6558.000000
2128.602051 6387.000000
2129.816162 7057.000000
2131.029541 5669.000000
2132.242188 6121.000000
2133.453369 5845.000000
2134.664795 6487.000000
2135.875000 6607.000000
2137.084717 5887.000000
2138.292969 6354.000000
2139.501221 5639.000000
2140.708740 5903.000000
2141.915039 7702.000000
2143.120605 5899.000000
2144.325928 5649.000000
2145.530273 5570.000000
2146.733887 6318.000000
2147.937012 6253.000000
2149.138672 6415.000000
2150.340088 5275.000000
2151.540771 6301.000000
2152.740723 6197.000000
2153.939453 5954.000000
2155.137939 6998.000000
2156.335938 6210.000000
2157.532959 6071.000000
2158.729248 5154.000000
2159.924316 5296.000000
2161.119141 6089.000000
2162.313232 5492.000000
2163.506348 6082.000000
2164.698486 6925.000000
2165.890381 5920.000000
2167.081543 6318.000000
2168.271729 6312.000000
2169.461182 6544.000000
2170.650146 6726.000000
2171.838135 6033.000000
2173.025879 5760.000000
2174.212158 5936.000000
2175.397705 6580.000000
2176.583008 6053.000000
2177.767822 5802.000000
2178.951416 6404.000000
2180.134277 7605.000000
2181.316162 6292.000000
2182.497803 5994.000000
2183.678955 6588.000000
2184.858887 5725.000000
2186.037842 5587.000000
2187.216309 6428.000000
2188.394531 6912.000000
2189.571533 7212.000000
2190.747559 6766.000000
2191.923340 6075.000000
2193.098633 5673.000000
2194.272461 6700.000000
2195.445801 6188.000000
2196.618896 6116.000000
2197.790771 6567.000000
2198.962158 7155.000000
2200.133057 6365.000000
2201.302246 6937.000000
2202.471436 7660.000000
2203.640137 6318.000000
2204.807861 5898.000000
2205.974609 5702.000000
2207.140625 7203.000000
2208.306152 6713.000000
2209.471436 5976.000000
2210.635254 6736.000000
2211.798584 5428.000000
2212.960693 6155.000000
2214.123047 6218.000000
2215.284180 6708.000000
2216.444336 6764.000000
2217.604004 6325.000000
2218.763428 6627.000000
2219.921631 6421.000000
2221.078857 6353.000000
2222.235840 6797.000000
2223.392090 6646.000000
2224.547607 6818.000000
2225.702393 6294.000000
2226.856201 6406.000000
2228.009033 6054.000000
2229.162354 6904.000000
2230.313721 6176.000000
2231.464844 6193.000000
2232.615234 6557.000000
2233.765137 7645.000000
2234.914063 6340.000000
2236.062500 5225.000000
2237.209473 6823.000000
2238.356689 7179.000000
2239.502686 6074.000000
2240.648438 7240.000000
2241.792480 7347.000000
2242.936768 6743.000000
2244.080078 6175.000000
2245.222656 5976.000000
2246.364258 5797.000000
2247.505615 5895.000000
2248.645996 6474.000000
2249.785645 6431.000000
2250.924805 5829.000000
2252.062744 5903.000000
2253.200684 6246.000000
2254.337646 5340.000000
2255.473877 6314.000000
2256.609131 6159.000000
2257.743652 7339.000000
2258.877930 6389.000000
2260.011719 5465.000000
2261.144043 6145.000000
2262.275879 6823.000000
2263.407227 6266.000000
2264.537598 6543.000000
2265.667725 8187.000000
2266.796631 6694.000000
2267.925049 6130.000000
2269.052979 5584.000000
2270.179932 6238.000000
2271.306152 5918.000000
2272.431396 6720.000000
2273.556641 6465.000000
2274.681152 6436.000000
2275.804443 5944.000000
2276.927002 6360.000000
2278.049072 6000.000000
2279.170654 7430.000000
2280.291504 6420.000000
2281.411133 6429.000000
2282.530273 7113.000000
2283.649170 7757.000000
2284.767334 7253.000000
2285.884521 5885.000000
2287.000732 6463.000000
2288.116699 7007.000000
2289.231934 6951.000000
2290.346436 7371.000000
2291.459717 5878.000000
2292.572998 6379.000000
2293.685547 5987.000000
2294.797363 5363.000000
2295.908447 6750.000000
2297.018311 6376.000000
2298.127686 6174.000000
2299.236816 6679.000000
2300.344971 6351.000000
2301.452148 6812.000000
2302.559082 5856.000000
2303.665283 6252.000000
2304.770996 6607.000000
2305.875244 6699.000000
2306.979248 5465.000000
2308.082764 5784.000000
2309.185791 6605.000000
2310.287598 7451.000000
2311.388672 7354.000000
2312.489258 6675.000000
2313.589355 5525.000000
2314.688721 6386.000000
2315.786621 6623.000000
2316.885010 6981.000000
2317.981934 8286.000000
2319.078613 6890.000000
2320.174805 5769.000000
2321.269287 6894.000000
2322.363770 7566.000000
2323.457520 5884.000000
2324.551025 6061.000000
2325.642822 6487.000000
2326.734619 6904.000000
2327.825684 6085.000000
2328.916016 6304.000000
2330.005371 6947.000000
2331.094727 5958.000000
2332.182861 6372.000000
2333.270508 6867.000000
2334.357910 6444.000000
2335.443604 6671.000000
2336.529053 7797.000000
2337.614258 6320.000000
2338.698486 6778.000000
2339.781738 5893.000000
2340.864746 6470.000000
2341.946777 7063.000000
2343.028564 5961.000000
2344.109619 7464.000000
2345.189453 6690.000000
2346.268799 5652.000000
2347.347656 6794.000000
2348.426025 6523.000000
2349.502930 6365.000000
2350.579590 6973.000000
2351.656006 6053.000000
2352.731445 6457.000000
2353.805908 5982.000000
2354.880127 6355.000000
2355.953613 6874.000000
2357.026611 6182.000000
2358.098389 7022.000000
2359.169922 6305.000000
2360.240479 6806.000000
2361.310791 7453.000000
2362.380127 7621.000000
2363.448486 6808.000000
2364.516602 6738.000000
2365.583984 7080.000000
2366.650879 7158.000000
2367.717041 6119.000000
2368.781982 6864.000000
2369.846924 6992.000000
2370.911133 6268.000000
2371.974609 6949.000000
2373.036865 5815.000000
2374.099121 6269.000000
2375.160400 6357.000000
2376.221436 5953.000000
2377.281250 6215.000000
2378.340332 7863.000000
2379.399414 6535.000000
2380.457520 7594.000000
2381.514893 6931.000000
2382.571289 8046.000000
2383.627441 7807.000000
2384.683105 6230.000000
2385.738037 7100.000000
2386.791504 6786.000000
2387.845215 6580.000000
2388.897949 6370.000000
2389.950195 6729.000000
2391.001709 6153.000000
2392.052246 6661.000000
2393.102539 6464.000000
2394.151855 6325.000000
2395.201172 6206.000000
2396.249023 6891.000000
2397.296387 7010.000000
2398.343506 6284.000000
2399.389648 6755.000000
2400.435059 6168.000000
2401.479736 6750.000000
2402.524414 7689.000000
2403.567627 7552.000000
2404.610840 6586.000000
2405.652588 5937.000000
2406.694580 6753.000000
2407.735840 7206.000000
2408.776123 6168.000000
2409.815674 6437.000000
2410.854248 6375.000000
2411.893066 6107.000000
2412.930664 6560.000000
2413.968018 6864.000000
2415.004150 7422.000000
2416.040039 6270.000000
2417.075195 6278.000000
2418.109863 6928.000000
2419.143066 7205.000000
2420.176514 6536.000000
2421.208984 6705.000000
2422.241211 6777.000000
2423.271973 7049.000000
2424.302734 6454.000000
2425.333008 6825.000000
2426.362061 6826.000000
2427.391113 6695.000000
2428.418457 7411.000000
2429.446289 6717.000000
2430.472900 7330.000000
2431.499268 6973.000000
2432.524170 7747.000000
2433.549316 6595.000000
2434.573486 7146.000000
2435.597412 6741.000000
2436.620117 5827.000000
2437.642090 6350.000000
2438.663818 6642.000000
2439.684814 6692.000000
2440.705322 6031.000000
2441.724609 6563.000000
2442.743896 6589.000000
2443.762207 8484.000000
2444.780273 6221.000000
2445.796875 6470.000000
2446.813477 6622.000000
2447.829346 5971.000000
2448.845215 7064.000000
2449.859619 6867.000000
2450.873291 5565.000000
2451.886475 7289.000000
2452.899414 6043.000000
2453.911621 7161.000000
2454.922852 6691.000000
2455.933838 7714.000000
2456.944092 6399.000000
2457.953857 7643.000000
2458.962646 5946.000000
2459.970703 5970.000000
2460.978760 6265.000000
2461.985596 7418.000000
2462.992188 5451.000000
2463.997559 7380.000000
2465.002686 6973.000000
2466.007568 5855.000000
2467.011230 6500.000000
2468.014648 6423.000000
2469.017090 7600.000000
2470.019287 7370.000000
2471.020996 6910.000000
2472.021729 6633.000000
2473.021484 7010.000000
2474.021240 6777.000000
2475.020020 5665.000000
2476.018311 6580.000000
2477.015625 7011.000000
2478.012695 6141.000000
2479.009766 6958.000000
2480.005371 5823.000000
2481.000977 7188.000000
2481.994873 6678.000000
2482.988770 8103.000000
2483.982178 6929.000000
2484.975098 6727.000000
2485.967041 7513.000000
2486.958252 7204.000000
2487.949219 6767.000000
2488.939697 5798.000000
2489.929199 6606.000000
2490.917969 6567.000000
2491.906738 5693.000000
2492.894531 6794.000000
2493.881104 6532.000000
2494.867676 8068.000000
2495.853760 6723.000000
2496.839111 7110.000000
2497.823486 8289.000000
2498.807617 5993.000000
2499.791748 6912.000000
2500.774414 5762.000000
2501.756592 6957.000000
2502.738281 6874.000000
2503.719238 7299.000000
2504.699707 6589.000000
2505.679932 5753.000000
2506.658691 6366.000000
2507.637207 7617.000000
2508.615234 6807.000000
2509.592773 7054.000000
2510.569336 6111.000000
2511.545654 6004.000000
2512.521240 6454.000000
2513.496338 6266.000000
2514.470947 6485.000000
2515.444336 7662.000000
2516.417480 6880.000000
2517.390381 6916.000000
2518.362305 6133.000000
2519.333496 6827.000000
2520.304199 6920.000000
2521.274658 7828.000000
2522.244385 8033.000000
2523.213135 6226.000000
2524.181152 6159.000000
2525.149170 7708.000000
2526.116211 6312.000000
2527.083008 5494.000000
2528.048584 7280.000000
2529.014160 7002.000000
2529.979004 7708.000000
2530.943359 6281.000000
2531.906494 6272.000000
2532.869873 5876.000000
2533.832275 5932.000000
2534.794434 6736.000000
2535.755371 6423.000000
2536.715576 6109.000000
2537.676025 6093.000000
2538.635498 6725.000000
2539.594238 6816.000000
2540.552002 6678.000000
2541.510010 6230.000000
2542.467285 6842.000000
2543.423584 6114.000000
2544.379639 7113.000000
2545.334473 6281.000000
2546.289551 7720.000000
2547.243896 7040.000000
2548.197510 6365.000000
2549.150146 7263.000000
2550.102539 6787.000000
2551.054443 6972.000000
2552.005615 6388.000000
2552.956055 7666.000000
2553.906006 7171.000000
2554.855713 7354.000000
2555.804688 6673.000000
2556.753174 6284.000000
2557.700439 7189.000000
2558.647705 6270.000000
2559.594238 6532.000000
2560.540283 6779.000000
2561.485352 7468.000000
2562.430176 6718.000000
2563.374512 7208.000000
2564.318359 6813.000000
2565.261719 6611.000000
2566.203613 6653.000000
2567.145752 6592.000000
2568.087158 6213.000000
2569.027832 7147.000000
2569.967773 7291.000000
2570.907715 5654.000000
2571.846680 6161.000000
2572.785400 7491.000000
2573.723145 7174.000000
2574.660645 5478.000000
2575.597412 7024.000000
2576.533447 6811.000000
2577.468994 7522.000000
2578.403809 6453.000000
2579.338623 6057.000000
2580.272461 7049.000000
2581.205811 7247.000000
2582.138428 5840.000000
2583.070801 6898.000000
2584.002441 5443.000000
2584.933594 7019.000000
2585.864258 6947.000000
2586.793701 6888.000000
2587.723145 7289.000000
2588.652100 6467.000000
2589.580811 7594.000000
2590.507813 7282.000000
2591.435059 5897.000000
2592.361816 6806.000000
2593.287842 6338.000000
2594.213623 5596.000000
2595.138184 7620.000000
2596.062500 7606.000000
2596.986328 5349.000000
2597.909668 7421.000000
2598.832031 6273.000000
2599.754150 6893.000000
2600.675781 8336.000000
2601.596680 6459.000000
2602.516846 5831.000000
2603.436768 6386.000000
2604.356201 6435.000000
2605.275391 6452.000000
2606.193604 5855.000000
2607.110596 5971.000000
2608.027832 7276.000000
2608.944824 5863.000000
2609.860840 7616.000000
2610.775635 6634.000000
2611.690918 6643.000000
2612.605469 6597.000000
2613.519043 6539.000000
2614.432617 6173.000000
2615.344971 7648.000000
2616.257324 7158.000000
2617.168701 6822.000000
2618.079834 5739.000000
2618.990234 7219.000000
2619.900391 6708.000000
2620.809814 6169.000000
2621.718750 6649.000000
2622.626709 6254.000000
2623.534912 6942.000000
2624.442139 6713.000000
2625.348877 7102.000000
2626.254883 6087.000000
2627.160645 6653.000000
2628.065674 6393.000000
2628.970459 7787.000000
2629.874512 6465.000000
2630.777588 6398.000000
2631.680664 6487.000000
2632.582764 5634.000000
2633.484863 6679.000000
2634.386719 6939.000000
2635.286865 6776.000000
2636.187256 6483.000000
2637.086914 6461.000000
2637.986328 6031.000000
2638.884277 6858.000000
2639.782715 6808.000000
2640.680664 6407.000000
2641.577881 6170.000000
2642.473877 6143.000000
2643.369873 6821.000000
2644.265625 6080.000000
2645.160645 6418.000000
2646.055420 6684.000000
2646.948730 7298.000000
2647.842041 6291.000000
2648.735107 6732.000000
2649.627930 6452.000000
2650.519043 7485.000000
2651.410400 6412.000000
2652.301270 7638.000000
2653.191406 7284.000000
2654.081299 6568.000000
2654.969971 7303.000000
2655.858887 6676.000000
2656.747314 6608.000000
2657.634766 7332.000000
2658.521240 6468.000000
2659.408203 7150.000000
2660.294434 6908.000000
2661.180176 6837.000000
2662.064697 6521.000000
2662.949219 6432.000000
2663.833496 6188.000000
2664.717041 7081.000000
2665.600098 7810.000000
2666.482422 7307.000000
2667.364258 6180.000000
2668.245361 6633.000000
2669.126709 6058.000000
2670.006592 6544.000000
2670.886719 7386.000000
2671.766113 7181.000000
2672.645508 6366.000000
2673.524170 6129.000000
2674.401123 6496.000000
2675.278809 6785.000000
2676.155762 6418.000000
2677.031982 8164.000000
2677.907715 7142.000000
2678.782715 6293.000000
2679.657959 7791.000000
2680.532227 7065.000000
2681.406006 7336.000000
2682.279053 6984.000000
2683.151855 6259.000000
2684.024414 6098.000000
2684.896240 6947.000000
2685.767334 6516.000000
2686.638184 6844.000000
2687.508545 7182.000000
2688.378662 6720.000000
2689.247070 6295.000000
2690.116211 7444.000000
2690.984619 7109.000000
2691.852783 6768.000000
2692.720215 6937.000000
2693.586426 5875.000000
2694.453125 7165.000000
2695.318848 7459.000000
2696.184570 7168.000000
2697.048828 7919.000000
2697.913818 6626.000000
2698.777344 7275.000000
2699.641113 5834.000000
2700.503418 7492.000000
2701.366211 6803.000000
2702.228027 5960.000000
2703.089355 6891.000000
2703.950684 6800.000000
2704.810791 7436.000000
2705.670898 7382.000000
2706.530518 6696.000000
2707.389893 6851.000000
2708.247559 7209.000000
2709.105469 6873.000000
2709.963867 7340.000000
2710.821045 6805.000000
2711.677490 6010.000000
2712.533447 6810.000000
2713.389404 6142.000000
2714.244629 6984.000000
2715.099121 6150.000000
2715.953125 6828.000000
2716.807129 7320.000000
2717.660156 6349.000000
2718.513428 6612.000000
2719.364990 7757.000000
2720.217041 6745.000000
2721.068848 6305.000000
2721.919434 6490.000000
2722.770020 6405.000000
2723.620117 7206.000000
2724.469482 7138.000000
2725.318848 6982.000000
2726.166992 6697.000000
2727.014648 6587.000000
2727.862793 7001.000000
2728.709717 6873.000000
2729.557129 5609.000000
2730.403076 7459.000000
2731.248291 6974.000000
2732.093994 6395.000000
2732.938721 7174.000000
2733.783447 7371.000000
2734.626953 6918.000000
2735.470703 7861.000000
2736.313721 7126.000000
2737.156250 6093.000000
2737.997803 6258.000000
2738.839844 6736.000000
2739.680908 6898.000000
2740.521729 5824.000000
2741.362305 5974.000000
2742.201660 7716.000000
2743.041016 6841.000000
2743.880371 6972.000000
2744.718506 6821.000000
2745.556152 7960.000000
2746.393799 6425.000000
2747.230957 7119.000000
2748.067871 6224.000000
2748.904297 5999.000000
2749.739502 6641.000000
2750.574951 6278.000000
2751.409912 6359.000000
2752.244141 6248.000000
2753.078125 6882.000000
2753.911621 6866.000000
2754.745117 7996.000000
2755.577637 6815.000000
2756.409668 7316.000000
2757.241211 6757.000000
2758.072754 7181.000000
2758.903320 7105.000000
2759.734131 7298.000000
2760.563721 7264.000000
2761.393311 6682.000000
2762.222656 7231.000000
2763.051270 6847.000000
2763.879395 6748.000000
2764.707031 6992.000000
2765.534668 6609.000000
2766.361816 7879.000000
2767.188232 5766.000000
2768.014160 7457.000000
2768.839600 6848.000000
2769.664795 7770.000000
2770.489990 7067.000000
2771.313965 6745.000000
2772.137939 6530.000000
2772.961914 7696.000000
2773.784668 6664.000000
2774.607666 6783.000000
2775.429443 6911.000000
2776.251221 7024.000000
2777.072998 6512.000000
2777.893799 8037.000000
2778.713867 6570.000000
2779.534180 6966.000000
2780.354004 7312.000000
2781.173828 6485.000000
2781.991699 6023.000000
2782.810791 8052.000000
2783.628662 6517.000000
2784.446289 6716.000000
2785.263428 7223.000000
2786.080078 7267.000000
2786.896484 7212.000000
2787.712402 6350.000000
2788.528076 5973.000000
2789.342773 6407.000000
2790.157959 7059.000000
2790.972412 7189.000000
2791.786377 6621.000000
2792.600098 7426.000000
2793.412598 8762.000000
2794.225342 6942.000000
2795.037598 7514.000000
2795.849365 7190.000000
2796.660400 7393.000000
2797.472168 6561.000000
2798.282715 7236.000000
2799.093262 7036.000000
2799.902344 7376.000000
2800.712158 8151.000000
2801.521240 7894.000000
2802.330078 6624.000000
2803.138428 7236.000000
2803.945801 6140.000000
2804.753662 6499.000000
2805.560791 6892.000000
2806.367676 7068.000000
2807.173340 7296.000000
2807.979492 6689.000000
2808.784912 6498.000000
2809.590332 7320.000000
2810.395020 6193.000000
2811.198730 7640.000000
2812.002930 7594.000000
2812.806641 6360.000000
2813.610107 6173.000000
2814.412109 6583.000000
2815.214844 7361.000000
2816.016846 7800.000000
2816.818604 6137.000000
2817.619873 6579.000000
2818.420654 7343.000000
2819.220947 6522.000000
2820.021484 6620.000000
2820.821045 8075.000000
2821.620117 7179.000000
2822.419189 6503.000000
2823.218018 6896.000000
2824.016357 6368.000000
2824.813721 6991.000000
2825.611328 7071.000000
2826.408203 6699.000000
2827.205322 7440.000000
2828.001709 8085.000000
2828.797363 7062.000000
2829.593018 7351.000000
2830.388428 7595.000000
2831.183350 7481.000000
2831.977539 6670.000000
2832.771729 6880.000000
2833.565674 5643.000000
2834.359131 6918.000000
2835.151855 7118.000000
2835.944336 8168.000000
2836.736816 7652.000000
2837.529053 7466.000000
2838.320801 6400.000000
2839.111572 6737.000000
2839.902344 8869.000000
2840.693359 7464.000000
2841.483398 6273.000000
2842.272949 7713.000000
2843.062744 7183.000000
2843.851563 7426.000000
2844.640381 7793.000000
2845.429199 7771.000000
2846.217041 7478.000000
2847.004395 7254.000000
2847.791992 7489.000000
2848.579102 7359.000000
2849.365479 6662.000000
2850.151855 7489.000000
2850.937988 7097.000000
2851.723633 7563.000000
2852.508301 7186.000000
2853.293457 6937.000000
2854.078369 7506.000000
2854.862549 7127.000000
2855.646729 6982.000000
2856.429688 8245.000000
2857.212891 6874.000000
2857.995850 6737.000000
2858.778320 7819.000000
2859.560547 6260.000000
2860.342285 6734.000000
2861.123779 7573.000000
2861.905518 7498.000000
2862.686523 7634.000000
2863.466797 6604.000000
2864.246826 6764.000000
2865.026855 8214.000000
2865.806641 7425.000000
2866.585449 8169.000000
2867.364502 7676.000000
2868.143066 6817.000000
2868.921387 7040.000000
2869.699219 7314.000000
2870.476807 6959.000000
2871.254150 7520.000000
2872.031250 6967.000000
2872.807861 6449.000000
2873.583984 7481.000000
2874.360107 7171.000000
2875.135742 8320.000000
2875.911133 7247.000000
2876.686035 6622.000000
2877.460693 8062.000000
2878.235352 6691.000000
2879.009766 7881.000000
2879.783447 6811.000000
2880.556396 7233.000000
2881.330078 6784.000000
2882.102783 7682.000000
2882.875488 7910.000000
2883.647461 8263.000000
2884.419189 6255.000000
2885.191406 6764.000000
2885.962402 6841.000000
2886.732910 6144.000000
2887.503906 8346.000000
2888.274902 7342.000000
2889.045166 7953.000000
2889.814453 7602.000000
2890.583984 6913.000000
2891.353516 7193.000000
2892.122559 7436.000000
2892.891113 7883.000000
2893.659668 7677.000000
2894.427246 6963.000000
2895.195313 6619.000000
2895.962891 7412.000000
2896.730469 8406.000000
2897.496826 7387.000000
2898.264160 6506.000000
2899.030273 7154.000000
2899.796631 7033.000000
2900.561523 8349.000000
2901.326904 6927.000000
2902.092773 6464.000000
2902.857178 7781.000000
2903.621582 7715.000000
2904.386230 8463.000000
2905.149902 6663.000000
2905.914307 8512.000000
2906.677979 6758.000000
2907.440918 8426.000000
2908.203613 6570.000000
2908.966797 9107.000000
2909.729492 6924.000000
2910.490967 6760.000000
2911.252930 6760.000000
