scanname Analyse119
timestamp 2017-02-10 23:08:56
ccdbias 952.994629
ccdgain 3.473401
sigmaread 8.960639
laserwavenum -0.552331
wavenumcorrection -0.029367
scancount 1
totalexposurems 10000
singleexposurems 10000
measurementstate Unknown
scanmode Manual
snr 45.203930 0.344391 0.156343
replacelist 0
peaks 5
393.388824 0.108119 0.000000 0.057599 0.000006
809.087219 0.100567 0.000000 0.273648 0.000047
877.867371 0.096588 0.000000 0.168338 0.000012
1316.711060 0.086691 0.000000 1.782609 0.000402
2332.273193 0.032674 0.000000 0.109866 0.000132
finalresult GLS_Multiple 82
A2703	Acetaldehyde dimethyl acetal	4.541029e-001
A12082	Dipotassium tris(1,2-benzenediolato-O,O')germanate	4.537202e-001
A2072	Valeronitrile	4.399912e-001
A3222	Potassium nitrite	4.360778e-001
A1676	Trifluoroacetic acid	4.346160e-001
A7119	2-Deoxy-D-ribose	4.336430e-001
A2017	Isopropylamine	4.324577e-001
A0251	Ethylamine	4.314743e-001
A4025	2,4-Dimethylpentane	4.302929e-001
A12040	Ethanol w/ sweetener	4.302361e-001
A14007	1,2-Dichlorotetramethyldisilane	4.296250e-001
A8849	2-Ethoxytetrahydrofuran	4.294686e-001
A13507	Poly(methyl methacrylate-co-ethyl acrylate)	4.294118e-001
A5377	4-Methyl-2-nitroanisole	4.290000e-001
A8461	Ethanol	4.289861e-001
A15808	Ethylamine (70 wt% in water)	4.287164e-001
A11885	Poly(methyl methacrylate-co-butyl methacrylate)	4.286169e-001
A0969	Diethylene glycol monopropyl ether	4.283336e-001
A2782	Acetamide	4.282624e-001
A11925	Butyl (S)-(-)-2-pyrrolidone-5-carboxylate	4.281067e-001
A12955	2-Chloro-1,3,2-dioxaphospholane	4.265638e-001
A11872	Poly(methyl methacrylate)	4.263941e-001
A12733	Tri-tert-butyl borate	4.258994e-001
A11101	Hydrogen peroxide, 70%	4.257301e-001
A0113	Hydrogen peroxide	4.248692e-001
A4807	2-(2-Nitroethoxy)tetrahydropyran	4.246718e-001
A10944	Glyphosate-isopropyl-ammonium salt	4.245170e-001
A9546	4-Methoxy-alpha-methylbenzyl alcohol	4.240801e-001
A0273	Denatured Solvent Alcohol	4.240801e-001
A12448	Tribromofluoromethane	4.239956e-001
A4269	2,4-Dibromoanisole	4.234748e-001
A10301	2-Methoxytetrahydropyran	4.233481e-001
A11100	Hydrogen peroxide, 50%	4.232776e-001
A0825	D-Sorbitol	4.229403e-001
A2211	2-(Isopropylamino)ethanol	4.219429e-001
A0098	Roundup (weed and grass killer)	4.216905e-001
A11482	Methyl 5-methoxysalicylate	4.211434e-001
A14021	Ethyl 4,4,4-trifluorobutyrate	4.196035e-001
A4972	Boric acid	4.195337e-001
A7515	Methyl 3-hydroxy-2-methylenebutyrate	4.194634e-001
A3132	4-Methyl-3-nitrobenzoic acid	4.180393e-001
A6700	4'-Methoxypropiophenone	4.179416e-001
A7633	2-Nitro-p-cymene	4.178162e-001
A9919	Sodium hydrogentartrate	4.176908e-001
A0292	Hydrazine	4.169246e-001
A14031	Methyl (S)-(+)-2-pyrrolidone-5-carboxylate	4.159231e-001
A10296	Tri(ethylene glycol) divinyl ether	4.159090e-001
A5385	Diisopropyloctylsilane	4.159090e-001
A12726	Triisopropylsilane	4.158396e-001
A1550	Nitroethane	4.157702e-001
A3640	(+/-)-1,2,4-Butanetriol	4.157562e-001
A2435	Sodium percarbonate	4.156864e-001
A11658	2-(2-Nitrovinyl)furan	4.154229e-001
A5310	4-Methyl-3-nitroanisole	4.154229e-001
A3285	4,N,N-Trimethylaniline	4.152005e-001
A1511	Methyl chloroacetate	4.146869e-001
A16018	L (lewisite blister agent, lot D)	4.145761e-001
A13320	Titanium tetrachloride	4.144374e-001
A16025	HL (distilled mustard / lewisite mixture)	4.142293e-001
A2611	2-Nitroethanol	4.141462e-001
A0419	Sodium chlorite	4.141324e-001
A0199	Isobutyric acid	4.136336e-001
A9290	2,5-Dihydro-2,5-dimethoxyfurfuryl alcohol	4.135505e-001
A1351	Sodium propionate	4.134536e-001
A3184	Selenourea	4.132047e-001
A12917	Tripropyl orthoformate	4.129555e-001
A1920	Sodium phosphate monobasic	4.128447e-001
A4543	1,4-Butanediol divinyl ether	4.125131e-001
A3180	1,2-Diethylhydrazine dihydrochloride	4.123887e-001
A10529	1-Formylpiperazine	4.123195e-001
A5315	Dimethyl suberate	4.122503e-001
A3938	Lead(II) acetylacetonate	4.121676e-001
A2943	Potassium binoxalate	4.117258e-001
A3419	Lewisite (blister agent)	4.115325e-001
A14612	Ammonium hydrogenoxalate hydrate	4.102777e-001
A4645	1-Bromo-4-(trifluoromethoxy)benzene	4.101543e-001
A3227	Selenium oxychloride	4.098650e-001
A0007	Cyclohexane	4.098237e-001
A1201	1,1,2,2-Tetrachloro-1,2-dimethyldisilane	4.091912e-001
A8415	2-Chloro-6-methoxy-3-nitropyridine	4.089987e-001
A9321	Methyl 2-hydroxyisobutyrate	4.088339e-001
A3976	2-Aminopyrimidine	4.088201e-001
spectrum 2048
-97.049126 44638.000000
-94.422256 44638.000000
-91.797264 45404.000000
-89.174164 45460.000000
-86.552933 46384.000000
-83.933601 46156.000000
-81.316132 46521.000000
-78.700539 46243.000000
-76.086823 46580.000000
-73.474983 46968.000000
-70.865005 46852.000000
-68.256912 47066.000000
-65.650665 47046.000000
-63.046295 47076.000000
-60.443787 46997.000000
-57.843132 47467.000000
-55.244339 46884.000000
-52.647404 46169.000000
-50.052322 46620.000000
-47.459095 46518.000000
-44.867718 46777.000000
-42.278187 46377.000000
-39.690498 47054.000000
-37.104660 47071.000000
-34.520664 46597.000000
-31.938503 47310.000000
-29.358191 46599.000000
-26.779705 47281.000000
-24.203062 46838.000000
-21.628244 46723.000000
-19.055267 46449.000000
-16.484110 46413.000000
-13.914786 46130.000000
-11.347288 44937.000000
-8.781609 46447.000000
-6.217755 46154.000000
-3.655715 46519.000000
-1.095498 46573.000000
1.462910 46070.000000
4.019496 45042.000000
6.574279 44704.000000
9.127244 44594.000000
11.678409 42939.000000
14.227760 41820.000000
16.775316 40092.000000
19.321060 39700.000000
21.865011 38645.000000
24.407158 36054.000000
26.947508 33641.000000
29.486073 31044.000000
32.022839 26068.000000
34.557804 16962.000000
37.090992 10273.000000
39.622398 6806.000000
42.152012 6189.000000
44.679829 6104.000000
47.205887 5427.000000
49.730156 4681.000000
52.252655 4229.000000
54.773357 3870.000000
57.292305 4087.000000
59.809479 4814.000000
62.324875 5705.000000
64.838493 6677.000000
67.350357 6780.000000
69.860474 5019.000000
72.368797 3193.000000
74.875366 2555.000000
77.380188 2239.000000
79.883255 1815.000000
82.384544 1577.000000
84.884094 1574.000000
87.381889 1587.000000
89.877953 1642.000000
92.372238 1954.000000
94.864784 2173.000000
97.355614 2156.000000
99.844673 1975.000000
102.331985 1487.000000
104.817574 1299.000000
107.301422 1171.000000
109.783524 1056.000000
112.263901 930.000000
114.742554 970.000000
117.219482 830.000000
119.694656 825.000000
122.168121 748.000000
124.639854 849.000000
127.109879 844.000000
129.578156 848.000000
132.044754 818.000000
134.509598 845.000000
136.972748 827.000000
139.434158 849.000000
141.893875 984.000000
144.351868 1168.000000
146.808167 1183.000000
149.262756 1373.000000
151.715622 1638.000000
154.166809 1721.000000
156.616302 2076.000000
159.064072 2314.000000
161.510132 2730.000000
163.954514 2983.000000
166.397217 3187.000000
168.838226 3497.000000
171.277527 3727.000000
173.715118 3809.000000
176.151077 3939.000000
178.585297 3915.000000
181.017838 4026.000000
183.448730 3971.000000
185.877899 4038.000000
188.305420 3886.000000
190.731262 3947.000000
193.155426 3992.000000
195.577927 3897.000000
197.998734 4092.000000
200.417877 4109.000000
202.835358 4399.000000
205.251144 4412.000000
207.665283 4626.000000
210.077789 4756.000000
212.488617 5018.000000
214.897766 5319.000000
217.305283 5752.000000
219.711090 6092.000000
222.115311 6289.000000
224.517822 6613.000000
226.918716 6851.000000
229.317963 6920.000000
231.715546 6928.000000
234.111465 7226.000000
236.505768 7199.000000
238.898407 7241.000000
241.289429 7260.000000
243.678787 7280.000000
246.066528 7303.000000
248.452621 7222.000000
250.837082 7231.000000
253.219894 7379.000000
255.601135 7339.000000
257.980652 7395.000000
260.358612 7276.000000
262.734894 7298.000000
265.109619 7229.000000
267.482697 7110.000000
269.854126 7170.000000
272.223907 7221.000000
274.592133 7175.000000
276.958710 7102.000000
279.323700 7185.000000
281.687073 7232.000000
284.048798 7057.000000
286.408936 7118.000000
288.767456 7148.000000
291.124390 7151.000000
293.479706 7116.000000
295.833435 7281.000000
298.185516 7036.000000
300.536041 7160.000000
302.884979 7025.000000
305.232269 7113.000000
307.578033 7114.000000
309.922119 7012.000000
312.264679 7052.000000
314.605621 7043.000000
316.944946 6981.000000
319.282715 7012.000000
321.618927 6947.000000
323.953491 6960.000000
326.286499 6818.000000
328.617950 6845.000000
330.947815 6833.000000
333.276093 6847.000000
335.602753 6869.000000
337.927917 6828.000000
340.251465 6821.000000
342.573456 6806.000000
344.893890 6866.000000
347.212708 6831.000000
349.529968 6799.000000
351.845703 6666.000000
354.159851 6736.000000
356.472412 6769.000000
358.783417 6622.000000
361.092896 6587.000000
363.400848 6792.000000
365.707184 6800.000000
368.011932 6653.000000
370.315216 6668.000000
372.616882 6743.000000
374.917053 6648.000000
377.215668 6704.000000
379.512726 6762.000000
381.808228 6880.000000
384.102203 6786.000000
386.394592 6789.000000
388.685486 6789.000000
390.974854 6861.000000
393.262634 7056.000000
395.548889 6885.000000
397.833649 7002.000000
400.116791 7246.000000
402.398499 7035.000000
404.678680 7035.000000
406.957275 6959.000000
409.234344 6937.000000
411.509888 6745.000000
413.783905 6906.000000
416.056488 6897.000000
418.327454 6858.000000
420.596924 6854.000000
422.864899 6869.000000
425.131317 6819.000000
427.396240 6734.000000
429.659698 6784.000000
431.921570 6675.000000
434.181976 6854.000000
436.440826 6814.000000
438.698212 6683.000000
440.954102 6736.000000
443.208496 6635.000000
445.461365 6520.000000
447.712677 6489.000000
449.962585 6627.000000
452.210907 6651.000000
454.457794 6545.000000
456.703217 6551.000000
458.947083 6458.000000
461.189453 6462.000000
463.430328 6506.000000
465.669800 6445.000000
467.907684 6443.000000
470.144135 6572.000000
472.379059 6472.000000
474.612518 6409.000000
476.844543 6326.000000
479.075043 6441.000000
481.304047 6388.000000
483.531586 6432.000000
485.757629 6311.000000
487.982239 6301.000000
490.205383 6362.000000
492.427063 6357.000000
494.647186 6352.000000
496.865906 6470.000000
499.083130 6486.000000
501.298981 6376.000000
503.513214 6319.000000
505.726135 6369.000000
507.937469 6367.000000
510.147369 6400.000000
512.355835 6468.000000
514.562927 6419.000000
516.768433 6318.000000
518.972534 6346.000000
521.175110 6440.000000
523.376282 6395.000000
525.576111 6442.000000
527.774414 6452.000000
529.971191 6376.000000
532.166626 6340.000000
534.360535 6391.000000
536.553101 6384.000000
538.744141 6348.000000
540.933777 6316.000000
543.122009 6345.000000
545.308716 6250.000000
547.493958 6145.000000
549.677917 6115.000000
551.860291 6068.000000
554.041321 5999.000000
556.220825 5971.000000
558.399048 6031.000000
560.575745 5966.000000
562.751038 5960.000000
564.924927 5965.000000
567.097351 5902.000000
569.268372 5931.000000
571.437927 5949.000000
573.606201 5940.000000
575.772949 5905.000000
577.938232 5956.000000
580.102112 6006.000000
582.264709 5871.000000
584.425781 6088.000000
586.585449 5962.000000
588.743774 5992.000000
590.900574 6036.000000
593.056030 5966.000000
595.210083 6012.000000
597.362793 6085.000000
599.513977 6028.000000
601.663818 6041.000000
603.812317 5976.000000
605.959229 6068.000000
608.104919 6046.000000
610.249207 6009.000000
612.392029 5667.000000
614.533386 6040.000000
616.673523 6033.000000
618.812134 6016.000000
620.949463 6058.000000
623.085327 6042.000000
625.219788 6035.000000
627.352783 5946.000000
629.484619 5931.000000
631.614990 5897.000000
633.743958 5944.000000
635.871460 5882.000000
637.997681 5701.000000
640.122375 5726.000000
642.245850 5718.000000
644.367981 5761.000000
646.488647 5768.000000
648.607971 5698.000000
650.725891 5712.000000
652.842468 5592.000000
654.957642 5621.000000
657.071472 5644.000000
659.183838 5520.000000
661.294983 5495.000000
663.404724 5547.000000
665.513000 5583.000000
667.620117 5563.000000
669.725769 5548.000000
671.829956 5621.000000
673.932922 5559.000000
676.034485 5622.000000
678.134705 5598.000000
680.233521 5629.000000
682.330994 5787.000000
684.427185 5775.000000
686.521912 5665.000000
688.615417 5587.000000
690.707581 5522.000000
692.798218 5643.000000
694.887634 5827.000000
696.975769 5707.000000
699.062439 5735.000000
701.147888 5747.000000
703.231812 5707.000000
705.314514 5743.000000
707.395935 5634.000000
709.475891 5601.000000
711.554626 5463.000000
713.631897 5357.000000
715.707886 5358.000000
717.782593 5344.000000
719.856018 5454.000000
721.927917 5622.000000
723.998657 5593.000000
726.068054 5449.000000
728.136047 5400.000000
730.202698 5287.000000
732.268127 5240.000000
734.332214 5415.000000
736.394958 5334.000000
738.456360 5245.000000
740.516479 5262.000000
742.575195 5272.000000
744.632690 5146.000000
746.688904 5243.000000
748.743713 5209.000000
750.797241 5189.000000
752.849365 5164.000000
754.900269 5160.000000
756.949951 5126.000000
758.998169 5138.000000
761.045166 5227.000000
763.090881 5037.000000
765.135193 5047.000000
767.178223 5173.000000
769.220032 5005.000000
771.260498 5173.000000
773.299561 5177.000000
775.337463 5162.000000
777.374023 5154.000000
779.409363 5121.000000
781.443359 5271.000000
783.475952 5258.000000
785.507385 5284.000000
787.537415 5287.000000
789.566162 5125.000000
791.593750 5186.000000
793.619995 5341.000000
795.644836 5251.000000
797.668579 5261.000000
799.690918 5294.000000
801.712036 5344.000000
803.731812 5521.000000
805.750305 5474.000000
807.767578 5558.000000
809.783447 5507.000000
811.798157 5561.000000
813.811523 5501.000000
815.823669 5324.000000
817.834595 5220.000000
819.844177 5218.000000
821.852539 5101.000000
823.859497 5049.000000
825.865234 5040.000000
827.869751 5217.000000
829.872986 5056.000000
831.874939 5047.000000
833.875610 4945.000000
835.875061 4988.000000
837.873169 5034.000000
839.870178 5112.000000
841.865784 5062.000000
843.860229 5193.000000
845.853333 4911.000000
847.845215 4841.000000
849.835754 4841.000000
851.825012 4849.000000
853.813232 4822.000000
855.800049 4787.000000
857.785645 4721.000000
859.769958 4731.000000
861.753174 4730.000000
863.734985 4684.000000
865.715576 4803.000000
867.694885 4758.000000
869.673035 4762.000000
871.649841 4840.000000
873.625366 4879.000000
875.599854 4858.000000
877.572876 4963.000000
879.544861 5115.000000
881.515503 5019.000000
883.484985 5094.000000
885.453125 5017.000000
887.420105 5007.000000
889.385742 4858.000000
891.350220 4901.000000
893.313477 5112.000000
895.275513 4773.000000
897.236267 4818.000000
899.195801 4819.000000
901.154053 4814.000000
903.111206 4800.000000
905.067200 4778.000000
907.021790 4801.000000
908.975159 4659.000000
910.927368 4648.000000
912.878357 4733.000000
914.828064 4600.000000
916.776611 4670.000000
918.723938 4593.000000
920.669983 4404.000000
922.614746 4455.000000
924.558472 4349.000000
926.501038 4381.000000
928.442322 4326.000000
930.382263 4356.000000
932.321106 4119.000000
934.258667 4253.000000
936.195007 4241.000000
938.130188 4313.000000
940.064087 4296.000000
941.996887 4275.000000
943.928467 4222.000000
945.858887 4318.000000
947.788086 4222.000000
949.715942 4288.000000
951.642761 4242.000000
953.568298 4256.000000
955.492554 4309.000000
957.415710 4311.000000
959.337708 4360.000000
961.258423 4368.000000
963.177979 4327.000000
965.096375 4366.000000
967.013733 4453.000000
968.929626 4333.000000
970.844421 4425.000000
972.757996 4366.000000
974.670410 4412.000000
976.581604 4421.000000
978.491638 4366.000000
980.400391 4375.000000
982.308105 4368.000000
984.214600 4327.000000
986.119873 4366.000000
988.024048 4268.000000
989.927002 4178.000000
991.828735 4220.000000
993.729309 4330.000000
995.628723 4308.000000
997.526917 4252.000000
999.423950 4240.000000
1001.319763 4104.000000
1003.214417 4031.000000
1005.107971 3979.000000
1007.000244 4028.000000
1008.891602 4039.000000
1010.781616 3964.000000
1012.670410 3938.000000
1014.558044 3918.000000
1016.444519 3981.000000
1018.329834 3829.000000
1020.213989 3948.000000
1022.096924 3877.000000
1023.978821 3964.000000
1025.859497 3866.000000
1027.739014 3930.000000
1029.617554 3912.000000
1031.494751 4063.000000
1033.370605 3872.000000
1035.245483 3876.000000
1037.119385 3899.000000
1038.991821 3868.000000
1040.863281 3894.000000
1042.733398 3935.000000
1044.602539 3940.000000
1046.470459 3862.000000
1048.337280 4079.000000
1050.203003 4055.000000
1052.067505 3935.000000
1053.930908 3861.000000
1055.792969 4028.000000
1057.654053 4007.000000
1059.514038 4001.000000
1061.372681 3882.000000
1063.230225 3826.000000
1065.086670 4036.000000
1066.942017 3934.000000
1068.796143 3943.000000
1070.649414 3888.000000
1072.501221 3880.000000
1074.352051 4053.000000
1076.201660 3904.000000
1078.050049 3843.000000
1079.897583 3973.000000
1081.743774 3852.000000
1083.588745 3854.000000
1085.432861 3939.000000
1087.275635 3894.000000
1089.117188 3847.000000
1090.958008 3799.000000
1092.797241 3744.000000
1094.635742 3818.000000
1096.472900 3784.000000
1098.308838 3755.000000
1100.143799 3597.000000
1101.977539 3560.000000
1103.810303 3672.000000
1105.641724 3708.000000
1107.472290 3766.000000
1109.301514 3538.000000
1111.129761 3476.000000
1112.956787 3496.000000
1114.782837 3501.000000
1116.607666 3484.000000
1118.431396 3452.000000
1120.253906 3396.000000
1122.075317 3460.000000
1123.895874 3513.000000
1125.714966 3389.000000
1127.533203 3532.000000
1129.350098 3437.000000
1131.166138 3640.000000
1132.980957 3534.000000
1134.794678 3510.000000
1136.607300 3645.000000
1138.418701 3626.000000
1140.229126 3612.000000
1142.038452 3561.000000
1143.846436 3595.000000
1145.653687 3739.000000
1147.459473 3725.000000
1149.264404 3739.000000
1151.068237 3579.000000
1152.870850 3819.000000
1154.672607 3793.000000
1156.472900 3651.000000
1158.272217 3725.000000
1160.070557 3642.000000
1161.867554 3599.000000
1163.663818 3643.000000
1165.458740 3578.000000
1167.252563 3587.000000
1169.045532 3404.000000
1170.837158 3201.000000
1172.627808 3483.000000
1174.417480 3499.000000
1176.205688 3399.000000
1177.993042 3335.000000
1179.779297 3369.000000
1181.564453 3310.000000
1183.348511 3339.000000
1185.131470 3387.000000
1186.913452 3315.000000
1188.694214 3414.000000
1190.473999 3300.000000
1192.252686 3254.000000
1194.030396 3295.000000
1195.806885 3259.000000
1197.582275 3265.000000
1199.356567 3208.000000
1201.129761 3184.000000
1202.902100 3114.000000
1204.673096 3050.000000
1206.443237 3243.000000
1208.212158 3191.000000
1209.979980 3220.000000
1211.746948 3020.000000
1213.512573 3061.000000
1215.277222 3079.000000
1217.040771 3155.000000
1218.803223 3236.000000
1220.564819 3160.000000
1222.325195 3162.000000
1224.084473 3079.000000
1225.842896 2994.000000
1227.600098 3079.000000
1229.356201 3064.000000
1231.111206 3229.000000
1232.865356 3207.000000
1234.618164 3160.000000
1236.369995 3203.000000
1238.120972 3204.000000
1239.870605 3227.000000
1241.619385 3222.000000
1243.366821 3268.000000
1245.113525 3283.000000
1246.859009 3244.000000
1248.603638 3190.000000
1250.346924 3124.000000
1252.089233 3129.000000
1253.830444 3130.000000
1255.570801 3144.000000
1257.310059 3060.000000
1259.048096 3085.000000
1260.785278 2999.000000
1262.521240 2944.000000
1264.256226 3025.000000
1265.990234 3119.000000
1267.723267 3137.000000
1269.455078 3195.000000
1271.185913 3312.000000
1272.915527 3185.000000
1274.644287 3282.000000
1276.371948 3347.000000
1278.098511 3241.000000
1279.824219 3269.000000
1281.548584 3215.000000
1283.272095 3044.000000
1284.994629 3267.000000
1286.716187 3197.000000
1288.436523 3225.000000
1290.155884 3205.000000
1291.874146 3161.000000
1293.591431 3161.000000
1295.307739 3114.000000
1297.022827 3251.000000
1298.736938 3153.000000
1300.450073 3102.000000
1302.162354 3126.000000
1303.873413 3124.000000
1305.583496 3138.000000
1307.292480 3095.000000
1309.000244 3029.000000
1310.707397 3103.000000
1312.413086 3040.000000
1314.118042 2969.000000
1315.822021 3070.000000
1317.524780 3098.000000
1319.226563 3146.000000
1320.927490 3047.000000
1322.627075 4827.000000
1324.325806 989.000000
1326.023804 3053.000000
1327.720459 3028.000000
1329.416016 2978.000000
1331.110718 3050.000000
1332.804199 2957.000000
1334.496826 2993.000000
1336.188599 2773.000000
1337.879028 2905.000000
1339.568726 2916.000000
1341.257324 2822.000000
1342.944824 2889.000000
1344.631348 2918.000000
1346.316772 2986.000000
1348.001221 2803.000000
1349.684814 2947.000000
1351.367188 3019.000000
1353.048584 2808.000000
1354.729126 3011.000000
1356.408447 3054.000000
1358.087158 3010.000000
1359.764526 3137.000000
1361.440796 3148.000000
1363.116089 3085.000000
1364.790649 2988.000000
1366.463989 3057.000000
1368.136353 2970.000000
1369.807739 3028.000000
1371.478149 2985.000000
1373.147461 3068.000000
1374.815796 3023.000000
1376.483276 3012.000000
1378.149658 2957.000000
1379.815063 2930.000000
1381.479492 3060.000000
1383.142700 2861.000000
1384.805298 2891.000000
1386.466553 2862.000000
1388.126953 2771.000000
1389.786255 2832.000000
1391.444580 2829.000000
1393.102173 2854.000000
1394.758545 2860.000000
1396.414063 2766.000000
1398.068359 2816.000000
1399.721802 2882.000000
1401.374146 2771.000000
1403.025757 2836.000000
1404.676147 2723.000000
1406.325439 2681.000000
1407.973999 2603.000000
1409.621460 2519.000000
1411.267944 2559.000000
1412.913574 2650.000000
1414.558228 2491.000000
1416.201660 2534.000000
1417.844238 2630.000000
1419.485718 2654.000000
1421.126343 2520.000000
1422.765991 2638.000000
1424.404541 2531.000000
1426.042236 2501.000000
1427.678833 2592.000000
1429.314453 2528.000000
1430.949341 2557.000000
1432.583130 2459.000000
1434.215820 2422.000000
1435.847534 2505.000000
1437.478394 2569.000000
1439.108154 2526.000000
1440.736816 2523.000000
1442.364868 2560.000000
1443.991821 2566.000000
1445.617554 2566.000000
1447.242676 2527.000000
1448.866699 2623.000000
1450.489746 2571.000000
1452.111816 2680.000000
1453.732788 2745.000000
1455.352783 2702.000000
1456.972046 2690.000000
1458.589966 2735.000000
1460.207275 2452.000000
1461.823608 2614.000000
1463.438721 2667.000000
1465.052979 2593.000000
1466.666382 2619.000000
1468.278687 2625.000000
1469.890137 2573.000000
1471.500732 2470.000000
1473.110107 2562.000000
1474.718506 2557.000000
1476.326050 2559.000000
1477.932617 2683.000000
1479.538452 2551.000000
1481.143066 2516.000000
1482.746826 2545.000000
1484.349365 2363.000000
1485.951294 2294.000000
1487.552002 2350.000000
1489.151978 2320.000000
1490.750854 2307.000000
1492.348877 2274.000000
1493.945801 2233.000000
1495.541870 2215.000000
1497.136963 2512.000000
1498.731079 2450.000000
1500.324463 2393.000000
1501.916748 2418.000000
1503.507813 2417.000000
1505.098389 2384.000000
1506.687622 2271.000000
1508.276245 2430.000000
1509.863770 2333.000000
1511.450195 2237.000000
1513.035889 2256.000000
1514.620483 2254.000000
1516.204224 2296.000000
1517.786865 2281.000000
1519.368774 2223.000000
1520.949585 2288.000000
1522.529663 2212.000000
1524.108521 2220.000000
1525.686523 2142.000000
1527.263794 2142.000000
1528.839844 2144.000000
1530.415161 2041.000000
1531.989380 2192.000000
1533.562866 2117.000000
1535.135132 2236.000000
1536.706665 2088.000000
1538.277222 2127.000000
1539.846924 2099.000000
1541.415405 2174.000000
1542.983154 2084.000000
1544.550049 2215.000000
1546.115723 2137.000000
1547.680664 2006.000000
1549.244507 2048.000000
1550.807739 2052.000000
1552.369629 2174.000000
1553.930908 2170.000000
1555.491089 2128.000000
1557.050537 2249.000000
1558.608887 2193.000000
1560.166504 2096.000000
1561.723022 2109.000000
1563.278320 2065.000000
1564.833008 2026.000000
1566.386963 2071.000000
1567.939941 1989.000000
1569.491577 2015.000000
1571.042480 2067.000000
1572.592651 1976.000000
1574.141846 1961.000000
1575.689697 1985.000000
1577.237061 2083.000000
1578.783447 2018.000000
1580.328979 2107.000000
1581.873535 2117.000000
1583.416870 1977.000000
1584.959595 2142.000000
1586.501465 1999.000000
1588.042236 1987.000000
1589.582031 2022.000000
1591.121094 1943.000000
1592.659058 2089.000000
1594.196533 1950.000000
1595.732666 1998.000000
1597.267700 1996.000000
1598.802246 1870.000000
1600.335815 1931.000000
1601.868530 1993.000000
1603.399658 1980.000000
1604.930542 2036.000000
1606.460571 2020.000000
1607.989380 1949.000000
1609.517090 2023.000000
1611.044189 1960.000000
1612.570557 1864.000000
1614.095947 1964.000000
1615.620483 1967.000000
1617.143677 1954.000000
1618.666138 1933.000000
1620.187866 1940.000000
1621.708740 1991.000000
1623.228149 1915.000000
1624.747070 1957.000000
1626.265259 2010.000000
1627.782593 1965.000000
1629.298828 1842.000000
1630.813721 1877.000000
1632.328125 1885.000000
1633.841797 1828.000000
1635.354370 1949.000000
1636.865723 1949.000000
1638.376709 1943.000000
1639.886597 1950.000000
1641.395630 1851.000000
1642.903320 1911.000000
1644.410645 1862.000000
1645.917114 1822.000000
1647.422607 1852.000000
1648.927246 1846.000000
1650.430420 1746.000000
1651.932983 1816.000000
1653.435181 1791.000000
1654.936035 1828.000000
1656.435791 1743.000000
1657.934692 1757.000000
1659.433228 1771.000000
1660.930542 1690.000000
1662.427124 1712.000000
1663.922119 1695.000000
1665.416870 1685.000000
1666.910767 1658.000000
1668.403687 1740.000000
1669.895264 1352.000000
1671.386353 1650.000000
1672.876831 1679.000000
1674.366211 1681.000000
1675.854126 1669.000000
1677.341797 1599.000000
1678.828491 1636.000000
1680.314331 1694.000000
1681.799316 1719.000000
1683.282837 1650.000000
1684.766113 1658.000000
1686.248535 1591.000000
1687.729858 1568.000000
1689.209717 1606.000000
1690.689331 1604.000000
1692.168213 1520.000000
1693.646118 1931.000000
1695.123047 1693.000000
1696.598755 1593.000000
1698.074097 1607.000000
1699.548218 1593.000000
1701.021729 1610.000000
1702.493774 1578.000000
1703.965576 1615.000000
1705.436401 1554.000000
1706.906372 1570.000000
1708.375000 1681.000000
1709.843140 1551.000000
1711.310547 1631.000000
1712.776855 1576.000000
1714.242554 1528.000000
1715.706543 1569.000000
1717.170410 1566.000000
1718.633423 1603.000000
1720.095459 1633.000000
1721.556274 1596.000000
1723.016479 1558.000000
1724.475952 1615.000000
1725.934570 1502.000000
1727.392212 1574.000000
1728.848511 1581.000000
1730.304565 1623.000000
1731.759644 1565.000000
1733.213745 1592.000000
1734.666626 1512.000000
1736.119263 1558.000000
1737.570801 1546.000000
1739.021606 1574.000000
1740.471436 1611.000000
1741.919922 1676.000000
1743.368042 1524.000000
1744.815308 1488.000000
1746.261841 1573.000000
1747.706787 1523.000000
1749.151489 1432.000000
1750.595337 1485.000000
1752.038330 1572.000000
1753.479858 1402.000000
1754.921143 1530.000000
1756.361572 1459.000000
1757.801025 1510.000000
1759.239502 1440.000000
1760.677002 1440.000000
1762.114014 1476.000000
1763.550049 1302.000000
1764.985229 1589.000000
1766.418945 1411.000000
1767.852539 1503.000000
1769.285156 1497.000000
1770.716919 1455.000000
1772.147827 1475.000000
1773.577515 1435.000000
1775.006470 1505.000000
1776.434937 1338.000000
1777.862427 1301.000000
1779.288574 1189.000000
1780.714478 1298.000000
1782.139282 1398.000000
1783.563477 1412.000000
1784.986206 1286.000000
1786.408447 1333.000000
1787.829956 1212.000000
1789.250732 1440.000000
1790.670532 1367.000000
1792.088989 1319.000000
1793.506958 1274.000000
1794.924316 1233.000000
1796.340820 1327.000000
1797.755859 1414.000000
1799.170532 1331.000000
1800.584595 1296.000000
1801.997437 1315.000000
1803.409668 1414.000000
1804.820557 1379.000000
1806.230957 1354.000000
1807.640625 1271.000000
1809.049316 1270.000000
1810.456909 1265.000000
1811.864014 1347.000000
1813.270264 1253.000000
1814.675537 1274.000000
1816.079712 1225.000000
1817.483521 1249.000000
1818.886353 1270.000000
1820.288330 1357.000000
1821.689697 1356.000000
1823.089600 1350.000000
1824.488892 1277.000000
1825.887695 1231.000000
1827.285645 1401.000000
1828.682251 1273.000000
1830.078247 1216.000000
1831.473511 1318.000000
1832.868164 1249.000000
1834.261841 1257.000000
1835.654175 1278.000000
1837.046021 1236.000000
1838.437256 1169.000000
1839.827515 1231.000000
1841.216553 1242.000000
1842.605225 1216.000000
1843.992920 1187.000000
1845.379883 1231.000000
1846.765503 1105.000000
1848.150879 1260.000000
1849.535400 1215.000000
1850.919189 1210.000000
1852.301880 1207.000000
1853.683350 1181.000000
1855.064331 1253.000000
1856.444824 1135.000000
1857.824341 1203.000000
1859.202393 1154.000000
1860.580322 1166.000000
1861.957275 1194.000000
1863.333496 1061.000000
1864.708862 1254.000000
1866.082764 1056.000000
1867.456543 1104.000000
1868.829468 1163.000000
1870.201294 1158.000000
1871.572144 1004.000000
1872.942627 1080.000000
1874.312012 1059.000000
1875.680908 986.000000
1877.048218 1036.000000
1878.415405 1152.000000
1879.781616 1115.000000
1881.147095 1081.000000
1882.511841 1148.000000
1883.875000 1068.000000
1885.238037 1077.000000
1886.600220 1193.000000
1887.961548 1069.000000
1889.321533 1052.000000
1890.681152 1128.000000
1892.040161 946.000000
1893.398193 1122.000000
1894.755371 1098.000000
1896.111328 996.000000
1897.467041 1009.000000
1898.821777 1024.000000
1900.175659 992.000000
1901.528442 1073.000000
1902.880737 1047.000000
1904.232300 1098.000000
1905.583008 1127.000000
1906.932495 1065.000000
1908.281494 1027.000000
1909.629639 1051.000000
1910.977173 1149.000000
1912.323975 1051.000000
1913.669189 1098.000000
1915.014160 1018.000000
1916.358398 1001.000000
1917.701782 1058.000000
1919.043823 1085.000000
1920.385620 1020.000000
1921.726563 1013.000000
1923.066772 1053.000000
1924.406006 1076.000000
1925.744263 1087.000000
1927.081909 1033.000000
1928.418823 1054.000000
1929.754883 1027.000000
1931.089722 1048.000000
1932.424194 974.000000
1933.757935 1043.000000
1935.090820 1053.000000
1936.422241 983.000000
1937.753784 1015.000000
1939.083984 1000.000000
1940.413696 1002.000000
1941.742554 982.000000
1943.070190 989.000000
1944.397339 967.000000
1945.723755 959.000000
1947.049438 969.000000
1948.373779 791.000000
1949.697876 974.000000
1951.021118 905.000000
1952.343628 1006.000000
1953.665039 930.000000
1954.985474 966.000000
1956.305298 891.000000
1957.624756 942.000000
1958.943237 915.000000
1960.260376 924.000000
1961.577148 1000.000000
1962.893188 1070.000000
1964.208496 964.000000
1965.522339 898.000000
1966.835938 1007.000000
1968.148804 999.000000
1969.460815 935.000000
1970.772217 1008.000000
1972.082275 965.000000
1973.391846 885.000000
1974.700684 846.000000
1976.008911 882.000000
1977.315796 868.000000
1978.622070 843.000000
1979.927979 925.000000
1981.232666 937.000000
1982.536865 869.000000
1983.839844 880.000000
1985.142456 915.000000
1986.444092 795.000000
1987.745117 874.000000
1989.044556 818.000000
1990.344116 867.000000
1991.642578 875.000000
1992.940552 766.000000
1994.236938 743.000000
1995.533325 803.000000
1996.828735 806.000000
1998.123413 891.000000
1999.417236 744.000000
2000.709839 755.000000
2002.001953 710.000000
2003.293579 720.000000
2004.584473 922.000000
2005.873779 781.000000
2007.162842 858.000000
2008.451172 776.000000
2009.738770 855.000000
2011.025513 803.000000
2012.311157 767.000000
2013.596436 808.000000
2014.880737 824.000000
2016.164429 819.000000
2017.446777 837.000000
2018.728760 817.000000
2020.010254 783.000000
2021.290771 785.000000
2022.570557 758.000000
2023.849243 754.000000
2025.127197 839.000000
2026.404663 733.000000
2027.681519 743.000000
2028.956665 739.000000
2030.231934 740.000000
2031.506226 739.000000
2032.779541 726.000000
2034.052002 722.000000
2035.324097 799.000000
2036.595093 708.000000
2037.865845 791.000000
2039.135254 755.000000
2040.403564 732.000000
2041.671875 814.000000
2042.939209 836.000000
2044.205811 767.000000
2045.471191 830.000000
2046.735962 748.000000
2048.000488 652.000000
2049.263672 715.000000
2050.526611 855.000000
2051.787598 715.000000
2053.049072 728.000000
2054.309326 693.000000
2055.568848 667.000000
2056.827637 725.000000
2058.085449 746.000000
2059.342773 728.000000
2060.599365 670.000000
2061.854492 722.000000
2063.109619 683.000000
2064.363770 600.000000
2065.617188 724.000000
2066.869873 664.000000
2068.121338 732.000000
2069.372559 675.000000
2070.623047 703.000000
2071.872803 628.000000
2073.121094 1019.000000
2074.369385 671.000000
2075.616699 639.000000
2076.863281 741.000000
2078.109131 689.000000
2079.353760 759.000000
2080.597900 678.000000
2081.841553 698.000000
2083.084229 742.000000
2084.325684 670.000000
2085.566895 687.000000
2086.807617 651.000000
2088.047363 685.000000
2089.285889 595.000000
2090.523926 619.000000
2091.761230 579.000000
2092.998291 673.000000
2094.233887 734.000000
2095.468750 757.000000
2096.703369 589.000000
2097.937012 626.000000
2099.169678 701.000000
2100.401611 684.000000
2101.633057 771.000000
2102.863525 605.000000
2104.093262 677.000000
2105.322754 582.000000
2106.550293 660.000000
2107.778076 650.000000
2109.005127 589.000000
2110.231201 653.000000
2111.455811 580.000000
2112.680664 687.000000
2113.904297 589.000000
2115.127441 590.000000
2116.349365 694.000000
2117.571045 692.000000
2118.791748 651.000000
2120.011719 431.000000
2121.231201 585.000000
2122.449219 572.000000
2123.667236 532.000000
2124.884277 685.000000
2126.100830 657.000000
2127.315674 563.000000
2128.530762 649.000000
2129.744873 660.000000
2130.958252 545.000000
2132.170898 634.000000
2133.382080 517.000000
2134.593506 586.000000
2135.803711 420.000000
2137.013428 555.000000
2138.221680 596.000000
2139.429932 571.000000
2140.637451 604.000000
2141.843750 824.000000
2143.049316 594.000000
2144.254639 559.000000
2145.458984 622.000000
2146.662598 508.000000
2147.865723 553.000000
2149.067383 635.000000
2150.268799 523.000000
2151.469482 580.000000
2152.669434 655.000000
2153.868164 581.000000
2155.066650 625.000000
2156.264648 566.000000
2157.461670 512.000000
2158.657959 530.000000
2159.853027 570.000000
2161.047852 543.000000
2162.241943 532.000000
2163.435059 487.000000
2164.627197 471.000000
2165.819092 544.000000
2167.010254 518.000000
2168.200439 519.000000
2169.389893 559.000000
2170.578857 470.000000
2171.766846 557.000000
2172.954590 523.000000
2174.140869 533.000000
2175.326416 497.000000
2176.511719 503.000000
2177.696533 542.000000
2178.880127 434.000000
2180.062988 526.000000
2181.244873 502.000000
2182.426514 473.000000
2183.607666 449.000000
2184.787598 529.000000
2185.966553 503.000000
2187.145020 427.000000
2188.323242 485.000000
2189.500244 529.000000
2190.676270 462.000000
2191.852051 507.000000
2193.027344 538.000000
2194.201172 543.000000
2195.374512 475.000000
2196.547607 440.000000
2197.719482 486.000000
2198.890869 448.000000
2200.061768 506.000000
2201.230957 401.000000
2202.400146 447.000000
2203.568848 417.000000
2204.736572 516.000000
2205.903320 520.000000
2207.069336 345.000000
2208.234863 514.000000
2209.400146 490.000000
2210.563965 573.000000
2211.727295 519.000000
2212.889404 529.000000
2214.051758 484.000000
2215.212891 436.000000
2216.373047 490.000000
2217.532715 505.000000
2218.692139 513.000000
2219.850342 432.000000
2221.007568 492.000000
2222.164551 459.000000
2223.320801 573.000000
2224.476318 421.000000
2225.631104 417.000000
2226.784912 441.000000
2227.937744 509.000000
2229.091064 429.000000
2230.242432 542.000000
2231.393555 382.000000
2232.543945 474.000000
2233.693848 402.000000
2234.842773 414.000000
2235.991211 509.000000
2237.138184 388.000000
2238.285400 508.000000
2239.431396 416.000000
2240.577148 389.000000
2241.721191 403.000000
2242.865479 448.000000
2244.008789 357.000000
2245.151367 417.000000
2246.292969 421.000000
2247.434326 506.000000
2248.574707 399.000000
2249.714355 375.000000
2250.853516 439.000000
2251.991455 330.000000
2253.129395 336.000000
2254.266357 402.000000
2255.402588 403.000000
2256.537842 351.000000
2257.672363 423.000000
2258.806641 399.000000
2259.940430 301.000000
2261.072754 287.000000
2262.204590 403.000000
2263.335938 339.000000
2264.466309 366.000000
2265.596436 405.000000
2266.725342 357.000000
2267.853760 326.000000
2268.981689 346.000000
2270.108643 412.000000
2271.234863 370.000000
2272.360107 405.000000
2273.485352 319.000000
2274.609863 263.000000
2275.733154 333.000000
2276.855713 372.000000
2277.977783 378.000000
2279.099365 326.000000
2280.220215 278.000000
2281.339844 326.000000
2282.458984 420.000000
2283.577881 389.000000
2284.696045 353.000000
2285.813232 391.000000
2286.929443 408.000000
2288.045410 380.000000
2289.160645 334.000000
2290.275146 409.000000
2291.388428 459.000000
2292.501709 396.000000
2293.614258 364.000000
2294.726074 404.000000
2295.837158 322.000000
2296.947021 342.000000
2298.056396 376.000000
2299.165527 268.000000
2300.273682 277.000000
2301.380859 423.000000
2302.487793 453.000000
2303.593994 256.000000
2304.699707 387.000000
2305.803955 329.000000
2306.907959 330.000000
2308.011475 281.000000
2309.114502 259.000000
2310.216309 230.000000
2311.317383 290.000000
2312.417969 272.000000
2313.518066 305.000000
2314.617432 246.000000
2315.715332 320.000000
2316.813721 353.000000
2317.910645 323.000000
2319.007324 297.000000
2320.103516 323.000000
2321.197998 295.000000
2322.292480 115.000000
2323.386230 327.000000
2324.479736 327.000000
2325.571533 399.000000
2326.663330 321.000000
2327.754395 410.000000
2328.844727 410.000000
2329.934082 370.000000
2331.023438 438.000000
2332.111572 395.000000
2333.199219 353.000000
2334.286621 416.000000
2335.372314 344.000000
2336.457764 332.000000
2337.542969 326.000000
2338.627197 290.000000
2339.710449 272.000000
2340.793457 303.000000
2341.875488 300.000000
2342.957275 344.000000
2344.038330 292.000000
2345.118164 307.000000
2346.197510 267.000000
2347.276367 233.000000
2348.354736 344.000000
2349.431641 300.000000
2350.508301 334.000000
2351.584717 303.000000
2352.660156 283.000000
2353.734619 291.000000
2354.808838 233.000000
2355.882324 259.000000
2356.955322 223.000000
2358.027100 319.000000
2359.098633 366.000000
2360.169189 342.000000
2361.239502 359.000000
2362.308838 238.000000
2363.377197 278.000000
2364.445313 309.000000
2365.512695 252.000000
2366.579590 278.000000
2367.645752 232.000000
2368.710693 172.000000
2369.775635 298.000000
2370.839844 208.000000
2371.903320 191.000000
2372.965576 229.000000
2374.027832 273.000000
2375.089111 199.000000
2376.150146 217.000000
2377.209961 259.000000
2378.269043 282.000000
2379.328125 250.000000
2380.386230 290.000000
2381.443604 249.000000
2382.500000 265.000000
2383.556152 255.000000
2384.611816 268.000000
2385.666748 265.000000
2386.720215 285.000000
2387.773926 229.000000
2388.826660 247.000000
2389.878906 425.000000
2390.930420 270.000000
2391.980957 227.000000
2393.031250 237.000000
2394.080566 206.000000
2395.129883 335.000000
2396.177734 319.000000
2397.225098 290.000000
2398.272217 242.000000
2399.318359 292.000000
2400.363770 275.000000
2401.408447 175.000000
2402.453125 223.000000
2403.496338 232.000000
2404.539551 339.000000
2405.581299 269.000000
2406.623291 218.000000
2407.664551 294.000000
2408.704834 280.000000
2409.744385 227.000000
2410.782959 286.000000
2411.821777 237.000000
2412.859375 248.000000
2413.896729 277.000000
2414.932861 270.000000
2415.968750 247.000000
2417.003906 149.000000
2418.038574 285.000000
2419.071777 234.000000
2420.105225 319.000000
2421.137695 186.000000
2422.169922 229.000000
2423.200684 225.000000
2424.231445 220.000000
2425.261719 187.000000
2426.290771 272.000000
2427.319824 297.000000
2428.347168 166.000000
2429.375000 132.000000
2430.401611 206.000000
2431.427979 185.000000
2432.452881 162.000000
2433.478027 228.000000
2434.502197 317.000000
2435.526123 233.000000
2436.548828 210.000000
2437.570801 276.000000
2438.592529 183.000000
2439.613525 161.000000
2440.634033 134.000000
2441.653320 216.000000
2442.672607 144.000000
2443.690918 151.000000
2444.708984 138.000000
2445.725586 239.000000
2446.742188 189.000000
2447.758057 119.000000
2448.773926 162.000000
2449.788330 151.000000
2450.802002 166.000000
2451.815186 98.000000
2452.828125 222.000000
2453.840332 140.000000
2454.851563 222.000000
2455.862549 220.000000
2456.872803 213.000000
2457.882568 168.000000
2458.891357 248.000000
2459.899414 140.000000
2460.907471 161.000000
2461.914307 262.000000
2462.920898 216.000000
2463.926270 204.000000
2464.931396 189.000000
2465.936279 138.000000
2466.939941 204.000000
2467.943359 141.000000
2468.945801 169.000000
2469.947998 178.000000
2470.949707 252.000000
2471.950439 200.000000
2472.950195 215.000000
2473.949951 278.000000
2474.948730 199.000000
2475.947021 119.000000
2476.944336 120.000000
2477.941406 153.000000
2478.938477 195.000000
2479.934082 206.000000
2480.929688 145.000000
2481.923584 160.000000
2482.917480 62.000000
2483.910889 185.000000
2484.903809 176.000000
2485.895752 155.000000
2486.886963 189.000000
2487.877930 176.000000
2488.868408 209.000000
2489.857910 196.000000
2490.846680 138.000000
2491.835449 151.000000
2492.823242 181.000000
2493.809814 185.000000
2494.796387 147.000000
2495.782471 151.000000
2496.767822 201.000000
2497.752197 158.000000
2498.736328 167.000000
2499.720459 202.000000
2500.703125 199.000000
2501.685303 167.000000
2502.666992 215.000000
2503.647949 194.000000
2504.628418 169.000000
2505.608643 170.000000
2506.587402 174.000000
2507.565918 171.000000
2508.543945 127.000000
2509.521484 134.000000
2510.498047 172.000000
2511.474365 140.000000
2512.449951 126.000000
2513.425049 177.000000
2514.399658 152.000000
2515.373047 148.000000
2516.346191 132.000000
2517.319092 103.000000
2518.291016 127.000000
2519.262207 133.000000
2520.232910 284.000000
2521.203369 188.000000
2522.173096 201.000000
2523.141846 163.000000
2524.109863 162.000000
2525.077881 192.000000
2526.044922 192.000000
2527.011719 179.000000
2527.977295 154.000000
2528.942871 277.000000
2529.907715 165.000000
2530.872070 176.000000
2531.835205 202.000000
2532.798584 196.000000
2533.760986 118.000000
2534.723145 142.000000
2535.684082 220.000000
2536.644287 224.000000
2537.604736 187.000000
2538.564209 52.000000
2539.522949 272.000000
2540.480713 137.000000
2541.438721 105.000000
2542.395996 267.000000
2543.352295 124.000000
2544.308350 65.000000
2545.263184 169.000000
2546.218262 97.000000
2547.172607 106.000000
2548.126221 249.000000
2549.078857 119.000000
2550.031250 114.000000
2550.983154 162.000000
2551.934326 161.000000
2552.884766 55.000000
2553.834717 159.000000
2554.784424 169.000000
2555.733398 137.000000
2556.681885 193.000000
2557.629150 177.000000
2558.576416 151.000000
2559.522949 221.000000
2560.468994 107.000000
2561.414063 178.000000
2562.358887 131.000000
2563.303223 123.000000
2564.247070 157.000000
2565.190430 130.000000
2566.132324 172.000000
2567.074463 149.000000
2568.015869 139.000000
2568.956543 177.000000
2569.896484 76.000000
2570.836426 241.000000
2571.775391 150.000000
2572.714111 191.000000
2573.651855 91.000000
2574.589355 144.000000
2575.526123 130.000000
2576.462158 148.000000
2577.397705 89.000000
2578.332520 231.000000
2579.267334 169.000000
2580.201172 200.000000
2581.134521 -76.000000
2582.067139 110.000000
2582.999512 281.000000
2583.931152 197.000000
2584.862305 168.000000
2585.792969 60.000000
2586.722412 140.000000
2587.651855 99.000000
2588.580811 78.000000
2589.509521 188.000000
2590.436523 104.000000
2591.363770 103.000000
2592.290527 131.000000
2593.216553 132.000000
2594.142334 144.000000
2595.066895 139.000000
2595.991211 53.000000
2596.915039 89.000000
2597.838379 113.000000
2598.760742 143.000000
2599.682861 205.000000
2600.604492 34.000000
2601.525391 134.000000
2602.445557 134.000000
2603.365479 134.000000
2604.284912 142.000000
2605.204102 136.000000
2606.122314 157.000000
2607.039307 151.000000
2607.956543 140.000000
2608.873535 67.000000
2609.789551 133.000000
2610.704346 139.000000
2611.619629 103.000000
2612.534180 15.000000
2613.447754 29.000000
2614.361328 86.000000
2615.273682 102.000000
2616.186035 187.000000
2617.097412 102.000000
2618.008545 131.000000
2618.918945 124.000000
2619.829102 55.000000
2620.738525 134.000000
2621.647461 169.000000
2622.555420 118.000000
2623.463623 92.000000
2624.370850 209.000000
2625.277588 136.000000
2626.183594 98.000000
2627.089355 87.000000
2627.994385 88.000000
2628.899170 191.000000
2629.803223 132.000000
2630.706299 96.000000
2631.609375 66.000000
2632.511475 113.000000
2633.413574 103.000000
2634.315430 35.000000
2635.215576 96.000000
2636.115967 100.000000
2637.015625 103.000000
2637.915039 154.000000
2638.812988 105.000000
2639.711426 69.000000
2640.609375 129.000000
2641.506592 131.000000
2642.402588 92.000000
2643.298584 311.000000
2644.194336 150.000000
2645.089355 90.000000
2645.984131 33.000000
2646.877441 71.000000
2647.770752 110.000000
2648.663818 159.000000
2649.556641 64.000000
2650.447754 106.000000
2651.339111 70.000000
2652.229980 120.000000
2653.120117 126.000000
2654.010010 160.000000
2654.898682 185.000000
2655.787598 133.000000
2656.676025 67.000000
2657.563477 75.000000
2658.449951 51.000000
2659.336914 118.000000
2660.223145 57.000000
2661.108887 66.000000
2661.993408 157.000000
2662.877930 62.000000
2663.762207 53.000000
2664.645752 47.000000
2665.528809 47.000000
2666.411133 43.000000
2667.292969 107.000000
2668.174072 142.000000
2669.055420 58.000000
2669.935303 101.000000
2670.815430 81.000000
2671.694824 46.000000
2672.574219 143.000000
2673.452881 109.000000
2674.329834 130.000000
2675.207520 149.000000
2676.084473 77.000000
2676.960693 61.000000
2677.836426 170.000000
2678.711426 84.000000
2679.586670 78.000000
2680.460938 83.000000
2681.334717 54.000000
2682.207764 71.000000
2683.080566 93.000000
2683.953125 87.000000
2684.824951 99.000000
2685.696045 76.000000
2686.566895 2.000000
2687.437256 58.000000
2688.307373 87.000000
2689.175781 43.000000
2690.044922 24.000000
2690.913330 43.000000
2691.781494 80.000000
2692.648926 143.000000
2693.515137 55.000000
2694.381836 69.000000
2695.247559 86.000000
2696.113281 11.000000
2696.977539 118.000000
2697.842529 67.000000
2698.706055 54.000000
2699.569824 44.000000
2700.432129 61.000000
2701.294922 76.000000
2702.156738 123.000000
2703.018066 35.000000
2703.879395 163.000000
2704.739502 98.000000
2705.599609 84.000000
2706.459229 -22.000000
2707.318604 58.000000
2708.176270 106.000000
2709.034180 112.000000
2709.892578 149.000000
2710.749756 35.000000
2711.606201 68.000000
2712.462158 28.000000
2713.318115 93.000000
2714.173340 1.000000
2715.027832 5.000000
2715.881836 64.000000
2716.735840 99.000000
2717.588867 38.000000
2718.442139 86.000000
2719.293701 62.000000
2720.145752 92.000000
2720.997559 114.000000
2721.848145 101.000000
2722.698730 80.000000
2723.548828 47.000000
2724.398193 72.000000
2725.247559 59.000000
2726.095703 81.000000
2726.943359 96.000000
2727.791504 15.000000
2728.638428 15.000000
2729.485840 94.000000
2730.331787 95.000000
2731.177002 76.000000
2732.022705 37.000000
2732.867432 17.000000
2733.712158 28.000000
2734.555664 66.000000
2735.399414 -20.000000
2736.242432 49.000000
2737.084961 18.000000
2737.926514 59.000000
2738.768555 35.000000
2739.609619 40.000000
2740.450439 151.000000
2741.291016 -5.000000
2742.130371 2.000000
2742.969727 34.000000
2743.809082 15.000000
2744.647217 67.000000
2745.484863 6.000000
2746.322510 56.000000
2747.159668 100.000000
2747.996582 94.000000
2748.833008 75.000000
2749.668213 45.000000
2750.503662 120.000000
2751.338623 52.000000
2752.172852 19.000000
2753.006836 21.000000
2753.840332 89.000000
2754.673828 19.000000
2755.506348 -47.000000
2756.338379 77.000000
2757.169922 14.000000
2758.001465 -19.000000
2758.832031 -2.000000
2759.662842 85.000000
2760.492432 29.000000
2761.322021 -35.000000
2762.151367 74.000000
2762.979980 -39.000000
2763.808105 19.000000
2764.635742 9.000000
2765.463379 34.000000
2766.290527 95.000000
2767.116943 101.000000
2767.942871 146.000000
2768.768311 85.000000
2769.593506 140.000000
2770.418701 65.000000
2771.242676 -27.000000
2772.066650 44.000000
2772.890625 106.000000
2773.713379 -20.000000
2774.536377 231.000000
2775.358154 57.000000
2776.179932 121.000000
2777.001709 16.000000
2777.822510 83.000000
2778.642578 2.000000
2779.462891 110.000000
2780.282715 78.000000
2781.102539 145.000000
2781.920410 73.000000
2782.739502 -32.000000
2783.557373 24.000000
2784.375000 -104.000000
2785.192139 -75.000000
2786.008789 34.000000
2786.825195 33.000000
2787.641113 12.000000
2788.456787 92.000000
2789.271484 38.000000
2790.086670 -20.000000
2790.901123 123.000000
2791.715088 101.000000
2792.528809 64.000000
2793.341309 41.000000
2794.154053 101.000000
2794.966309 7.000000
2795.778076 30.000000
2796.589111 -28.000000
2797.400879 -15.000000
2798.211426 51.000000
2799.021973 -38.000000
2799.831055 -19.000000
2800.640869 93.000000
2801.449951 -39.000000
2802.258789 82.000000
2803.067139 81.000000
2803.874512 113.000000
2804.682373 -102.000000
2805.489502 66.000000
2806.296387 87.000000
2807.102051 55.000000
2807.908203 118.000000
2808.713623 17.000000
2809.519043 -81.000000
2810.323730 30.000000
2811.127441 -38.000000
2811.931641 44.000000
2812.735352 34.000000
2813.538818 103.000000
2814.340820 39.000000
2815.143555 65.000000
2815.945557 63.000000
2816.747314 -21.000000
2817.548584 2.000000
2818.349365 150.000000
2819.149658 87.000000
2819.950195 13.000000
2820.749756 5.000000
2821.548828 4.000000
2822.347900 57.000000
2823.146729 58.000000
2823.945068 67.000000
2824.742432 87.000000
2825.540039 172.000000
2826.336914 22.000000
2827.134033 -4.000000
2827.930420 126.000000
2828.726074 9.000000
2829.521729 31.000000
2830.317139 -28.000000
2831.112061 55.000000
2831.906250 33.000000
2832.700439 6.000000
2833.494385 38.000000
2834.287842 80.000000
2835.080566 -35.000000
2835.873047 63.000000
2836.665527 -63.000000
2837.457764 81.000000
2838.249512 103.000000
2839.040283 -10.000000
2839.831055 -42.000000
2840.622070 114.000000
2841.412109 22.000000
2842.201660 89.000000
2842.991455 24.000000
2843.780273 83.000000
2844.569092 -8.000000
2845.357910 56.000000
2846.145752 15.000000
2846.933105 16.000000
2847.720703 62.000000
2848.507813 60.000000
2849.294189 53.000000
2850.080566 14.000000
2850.866699 -43.000000
2851.652344 72.000000
2852.437012 32.000000
2853.222168 65.000000
2854.007080 32.000000
2854.791260 17.000000
2855.575439 64.000000
2856.358398 83.000000
2857.141602 114.000000
2857.924561 57.000000
2858.707031 21.000000
2859.489258 28.000000
2860.270996 27.000000
2861.052490 93.000000
2861.834229 105.000000
2862.615234 25.000000
2863.395508 80.000000
2864.175537 43.000000
2864.955566 11.000000
2865.735352 141.000000
2866.514160 109.000000
2867.293213 69.000000
2868.071777 71.000000
2868.850098 162.000000
2869.627930 33.000000
2870.405518 114.000000
2871.182861 34.000000
2871.959961 93.000000
2872.736572 31.000000
2873.512695 -2.000000
2874.288818 0.000000
2875.064453 37.000000
2875.839844 117.000000
2876.614746 130.000000
2877.389404 92.000000
2878.164063 68.000000
2878.938477 134.000000
2879.712158 55.000000
2880.485107 -39.000000
2881.258789 73.000000
2882.031494 56.000000
2882.804199 -69.000000
2883.576172 50.000000
2884.347900 -15.000000
2885.120117 42.000000
2885.891113 71.000000
2886.661621 18.000000
2887.432617 -27.000000
2888.203613 19.000000
2888.973877 37.000000
2889.743164 151.000000
2890.512695 47.000000
2891.282227 22.000000
2892.051270 90.000000
2892.819824 13.000000
2893.588379 -34.000000
2894.355957 -3.000000
2895.124023 16.000000
2895.891602 48.000000
2896.659180 1.000000
2897.425537 64.000000
2898.192871 10.000000
2898.958984 4.000000
2899.725342 25.000000
2900.490234 57.000000
2901.255615 84.000000
2902.021484 96.000000
2902.785889 43.000000
2903.550293 41.000000
2904.314941 -98.000000
2905.078613 -40.000000
2905.843018 -35.000000
2906.606689 9.000000
2907.369629 119.000000
2908.132324 200.000000
2908.895508 -40.000000
2909.658203 6.000000
2910.419678 18.000000
2911.181641 18.000000
spectrumdark 2048
-97.049126 6210.000000
-94.422256 6210.000000
-91.797264 6051.000000
-89.174164 6458.000000
-86.552933 5795.000000
-83.933601 6295.000000
-81.316132 6072.000000
-78.700539 6463.000000
-76.086823 6245.000000
-73.474983 5942.000000
-70.865005 6110.000000
-68.256912 5965.000000
-65.650665 5979.000000
-63.046295 5979.000000
-60.443787 6100.000000
-57.843132 5641.000000
-55.244339 6266.000000
-52.647404 6918.000000
-50.052322 6478.000000
-47.459095 6577.000000
-44.867718 6271.000000
-42.278187 6736.000000
-39.690498 5997.000000
-37.104660 5985.000000
-34.520664 6454.000000
-31.938503 5751.000000
-29.358191 6384.000000
-26.779705 5694.000000
-24.203062 6134.000000
-21.628244 6232.000000
-19.055267 6486.000000
-16.484110 6493.000000
-13.914786 6740.000000
-11.347288 7848.000000
-8.781609 6308.000000
-6.217755 6501.000000
-3.655715 6002.000000
-1.095498 5804.000000
1.462910 6121.000000
4.019496 6861.000000
6.574279 6706.000000
9.127244 6072.000000
11.678409 6732.000000
14.227760 6387.000000
16.775316 6570.000000
19.321060 6060.000000
21.865011 5760.000000
24.407158 6740.000000
26.947508 6810.000000
29.486073 6797.000000
32.022839 6208.000000
34.557804 5801.000000
37.090992 7256.000000
39.622398 6365.000000
42.152012 7078.000000
44.679829 6521.000000
47.205887 7863.000000
49.730156 5717.000000
52.252655 6186.000000
54.773357 6744.000000
57.292305 6331.000000
59.809479 6423.000000
62.324875 6651.000000
64.838493 5629.000000
67.350357 5677.000000
69.860474 6542.000000
72.368797 6582.000000
74.875366 5954.000000
77.380188 6282.000000
79.883255 6415.000000
82.384544 6317.000000
84.884094 6137.000000
87.381889 6316.000000
89.877953 5752.000000
92.372238 7231.000000
94.864784 5799.000000
97.355614 6978.000000
99.844673 7136.000000
102.331985 6365.000000
104.817574 6211.000000
107.301422 6422.000000
109.783524 5749.000000
112.263901 6577.000000
114.742554 6239.000000
117.219482 6462.000000
119.694656 7197.000000
122.168121 6851.000000
124.639854 5922.000000
127.109879 6747.000000
129.578156 6253.000000
132.044754 6227.000000
134.509598 5706.000000
136.972748 6236.000000
139.434158 7342.000000
141.893875 6850.000000
144.351868 6350.000000
146.808167 6028.000000
149.262756 5797.000000
151.715622 6781.000000
154.166809 6412.000000
156.616302 6525.000000
159.064072 6104.000000
161.510132 6543.000000
163.954514 8683.000000
166.397217 6456.000000
168.838226 6730.000000
171.277527 6213.000000
173.715118 7210.000000
176.151077 6586.000000
178.585297 6968.000000
181.017838 7168.000000
183.448730 6694.000000
185.877899 6781.000000
188.305420 6696.000000
190.731262 6384.000000
193.155426 6673.000000
195.577927 7257.000000
197.998734 7315.000000
200.417877 6552.000000
202.835358 5956.000000
205.251144 7610.000000
207.665283 7007.000000
210.077789 6358.000000
212.488617 6052.000000
214.897766 6272.000000
217.305283 7360.000000
219.711090 6127.000000
222.115311 6496.000000
224.517822 6640.000000
226.918716 6868.000000
229.317963 6485.000000
231.715546 6910.000000
234.111465 7229.000000
236.505768 6476.000000
238.898407 5805.000000
241.289429 6782.000000
243.678787 6573.000000
246.066528 6363.000000
248.452621 7009.000000
250.837082 6126.000000
253.219894 7893.000000
255.601135 6607.000000
257.980652 6686.000000
260.358612 6490.000000
262.734894 7536.000000
265.109619 7515.000000
267.482697 7882.000000
269.854126 6217.000000
272.223907 6380.000000
274.592133 5905.000000
276.958710 6358.000000
279.323700 6716.000000
281.687073 6018.000000
284.048798 6297.000000
286.408936 7135.000000
288.767456 5932.000000
291.124390 6552.000000
293.479706 6389.000000
295.833435 5859.000000
298.185516 5994.000000
300.536041 6300.000000
302.884979 6357.000000
305.232269 6674.000000
307.578033 6354.000000
309.922119 6536.000000
312.264679 7272.000000
314.605621 7546.000000
316.944946 7141.000000
319.282715 6985.000000
321.618927 8061.000000
323.953491 6225.000000
326.286499 6560.000000
328.617950 6023.000000
330.947815 6598.000000
333.276093 6410.000000
335.602753 7170.000000
337.927917 6313.000000
340.251465 6223.000000
342.573456 6036.000000
344.893890 7465.000000
347.212708 7656.000000
349.529968 5915.000000
351.845703 5871.000000
354.159851 6912.000000
356.472412 6302.000000
358.783417 6396.000000
361.092896 7030.000000
363.400848 6367.000000
365.707184 5669.000000
368.011932 6429.000000
370.315216 6440.000000
372.616882 6288.000000
374.917053 6415.000000
377.215668 6346.000000
379.512726 5702.000000
381.808228 6065.000000
384.102203 5857.000000
386.394592 5218.000000
388.685486 5620.000000
390.974854 6164.000000
393.262634 6191.000000
395.548889 6514.000000
397.833649 6952.000000
400.116791 5940.000000
402.398499 6444.000000
404.678680 6119.000000
406.957275 7204.000000
409.234344 6472.000000
411.509888 6772.000000
413.783905 6469.000000
416.056488 6411.000000
418.327454 6277.000000
420.596924 6393.000000
422.864899 7037.000000
425.131317 7183.000000
427.396240 6278.000000
429.659698 6238.000000
431.921570 6479.000000
434.181976 5983.000000
436.440826 6511.000000
438.698212 6177.000000
440.954102 5637.000000
443.208496 5814.000000
445.461365 5482.000000
447.712677 6918.000000
449.962585 6034.000000
452.210907 6223.000000
454.457794 5617.000000
456.703217 6529.000000
458.947083 6524.000000
461.189453 6781.000000
463.430328 5674.000000
465.669800 6687.000000
467.907684 5446.000000
470.144135 5892.000000
472.379059 6003.000000
474.612518 7208.000000
476.844543 6702.000000
479.075043 5605.000000
481.304047 6444.000000
483.531586 6303.000000
485.757629 5988.000000
487.982239 6524.000000
490.205383 5871.000000
492.427063 6388.000000
494.647186 6654.000000
496.865906 5601.000000
499.083130 6229.000000
501.298981 5535.000000
503.513214 6144.000000
505.726135 6456.000000
507.937469 6443.000000
510.147369 6866.000000
512.355835 6494.000000
514.562927 6564.000000
516.768433 6488.000000
518.972534 6611.000000
521.175110 6192.000000
523.376282 6553.000000
525.576111 6636.000000
527.774414 6904.000000
529.971191 5358.000000
532.166626 5865.000000
534.360535 5562.000000
536.553101 7497.000000
538.744141 6705.000000
540.933777 5997.000000
543.122009 6934.000000
545.308716 7129.000000
547.493958 6810.000000
549.677917 6247.000000
551.860291 6375.000000
554.041321 6168.000000
556.220825 5955.000000
558.399048 5844.000000
560.575745 5955.000000
562.751038 6415.000000
564.924927 6433.000000
567.097351 5954.000000
569.268372 6032.000000
571.437927 6294.000000
573.606201 5258.000000
575.772949 6395.000000
577.938232 6280.000000
580.102112 6177.000000
582.264709 5740.000000
584.425781 6009.000000
586.585449 5631.000000
588.743774 5801.000000
590.900574 6127.000000
593.056030 6597.000000
595.210083 5787.000000
597.362793 6150.000000
599.513977 7235.000000
601.663818 6782.000000
603.812317 6678.000000
605.959229 5995.000000
608.104919 6501.000000
610.249207 6442.000000
612.392029 7060.000000
614.533386 6165.000000
616.673523 6454.000000
618.812134 7550.000000
620.949463 5708.000000
623.085327 6549.000000
625.219788 6847.000000
627.352783 7161.000000
629.484619 6653.000000
631.614990 6604.000000
633.743958 6739.000000
635.871460 6458.000000
637.997681 6246.000000
640.122375 7335.000000
642.245850 6320.000000
644.367981 6814.000000
646.488647 6793.000000
648.607971 6480.000000
650.725891 5715.000000
652.842468 5729.000000
654.957642 6461.000000
657.071472 6418.000000
659.183838 5817.000000
661.294983 6163.000000
663.404724 5411.000000
665.513000 6042.000000
667.620117 6241.000000
669.725769 6758.000000
671.829956 5679.000000
673.932922 5702.000000
676.034485 6916.000000
678.134705 5347.000000
680.233521 6828.000000
682.330994 6178.000000
684.427185 6988.000000
686.521912 6152.000000
688.615417 6995.000000
690.707581 6677.000000
692.798218 7940.000000
694.887634 6580.000000
696.975769 6476.000000
699.062439 6002.000000
701.147888 6663.000000
703.231812 5184.000000
705.314514 5924.000000
707.395935 5953.000000
709.475891 7541.000000
711.554626 6178.000000
713.631897 5577.000000
715.707886 6585.000000
717.782593 6091.000000
719.856018 6843.000000
721.927917 6276.000000
723.998657 7343.000000
726.068054 5818.000000
728.136047 6455.000000
730.202698 6375.000000
732.268127 7085.000000
734.332214 5698.000000
736.394958 6136.000000
738.456360 6362.000000
740.516479 6598.000000
742.575195 6030.000000
744.632690 6633.000000
746.688904 6433.000000
748.743713 6733.000000
750.797241 6380.000000
752.849365 7485.000000
754.900269 5770.000000
756.949951 6695.000000
758.998169 6371.000000
761.045166 6160.000000
763.090881 7074.000000
765.135193 5369.000000
767.178223 5722.000000
769.220032 14882.000000
771.260498 7229.000000
773.299561 6337.000000
775.337463 6050.000000
777.374023 5956.000000
779.409363 5377.000000
781.443359 5682.000000
783.475952 6866.000000
785.507385 5520.000000
787.537415 11477.000000
789.566162 6079.000000
791.593750 6337.000000
793.619995 6340.000000
795.644836 5841.000000
797.668579 5651.000000
799.690918 6366.000000
801.712036 5862.000000
803.731812 6645.000000
805.750305 4915.000000
807.767578 6646.000000
809.783447 6829.000000
811.798157 5676.000000
813.811523 6403.000000
815.823669 6271.000000
817.834595 6149.000000
819.844177 6522.000000
821.852539 5321.000000
823.859497 5719.000000
825.865234 6031.000000
827.869751 5714.000000
829.872986 5673.000000
831.874939 6458.000000
833.875610 6123.000000
835.875061 5930.000000
837.873169 6348.000000
839.870178 6931.000000
841.865784 6212.000000
843.860229 5975.000000
845.853333 6233.000000
847.845215 6752.000000
849.835754 5522.000000
851.825012 6748.000000
853.813232 5990.000000
855.800049 5586.000000
857.785645 6409.000000
859.769958 7312.000000
861.753174 6345.000000
863.734985 6425.000000
865.715576 5800.000000
867.694885 7739.000000
869.673035 7048.000000
871.649841 6130.000000
873.625366 5871.000000
875.599854 6164.000000
877.572876 6043.000000
879.544861 5405.000000
881.515503 6381.000000
883.484985 6067.000000
885.453125 5588.000000
887.420105 5198.000000
889.385742 6163.000000
891.350220 5871.000000
893.313477 6046.000000
895.275513 6541.000000
897.236267 5856.000000
899.195801 6399.000000
901.154053 6690.000000
903.111206 6329.000000
905.067200 6046.000000
907.021790 6880.000000
908.975159 6538.000000
910.927368 6432.000000
912.878357 6366.000000
914.828064 7117.000000
916.776611 6236.000000
918.723938 6117.000000
920.669983 6124.000000
922.614746 6064.000000
924.558472 6310.000000
926.501038 5956.000000
928.442322 5586.000000
930.382263 6424.000000
932.321106 5756.000000
934.258667 5509.000000
936.195007 5929.000000
938.130188 5808.000000
940.064087 6073.000000
941.996887 5880.000000
943.928467 6782.000000
945.858887 5186.000000
947.788086 6368.000000
949.715942 7003.000000
951.642761 6620.000000
953.568298 5933.000000
955.492554 5416.000000
957.415710 5929.000000
959.337708 6678.000000
961.258423 7237.000000
963.177979 6499.000000
965.096375 5321.000000
967.013733 6383.000000
968.929626 6424.000000
970.844421 6110.000000
972.757996 5962.000000
974.670410 6379.000000
976.581604 6451.000000
978.491638 5465.000000
980.400391 6212.000000
982.308105 6065.000000
984.214600 6363.000000
986.119873 5687.000000
988.024048 6795.000000
989.927002 6204.000000
991.828735 6802.000000
993.729309 6586.000000
995.628723 6551.000000
997.526917 5270.000000
999.423950 6685.000000
1001.319763 6517.000000
1003.214417 7705.000000
1005.107971 5571.000000
1007.000244 7088.000000
1008.891602 6103.000000
1010.781616 5335.000000
1012.670410 6618.000000
1014.558044 6255.000000
1016.444519 6868.000000
1018.329834 6735.000000
1020.213989 5958.000000
1022.096924 5852.000000
1023.978821 6183.000000
1025.859497 5192.000000
1027.739014 5799.000000
1029.617554 6105.000000
1031.494751 5360.000000
1033.370605 6187.000000
1035.245483 5913.000000
1037.119385 6599.000000
1038.991821 6978.000000
1040.863281 6652.000000
1042.733398 5479.000000
1044.602539 5503.000000
1046.470459 5810.000000
1048.337280 7021.000000
1050.203003 6705.000000
1052.067505 6458.000000
1053.930908 6494.000000
1055.792969 6437.000000
1057.654053 5890.000000
1059.514038 6447.000000
1061.372681 6641.000000
1063.230225 5797.000000
1065.086670 6699.000000
1066.942017 5956.000000
1068.796143 5826.000000
1070.649414 6239.000000
1072.501221 6419.000000
1074.352051 6118.000000
1076.201660 6173.000000
1078.050049 5768.000000
1079.897583 7942.000000
1081.743774 5595.000000
1083.588745 6252.000000
1085.432861 5411.000000
1087.275635 5520.000000
1089.117188 6516.000000
1090.958008 5487.000000
1092.797241 5793.000000
1094.635742 6034.000000
1096.472900 6037.000000
1098.308838 6760.000000
1100.143799 6671.000000
1101.977539 5467.000000
1103.810303 5469.000000
1105.641724 6063.000000
1107.472290 7161.000000
1109.301514 6539.000000
1111.129761 6411.000000
1112.956787 7058.000000
1114.782837 5390.000000
1116.607666 6283.000000
1118.431396 7114.000000
1120.253906 6131.000000
1122.075317 5889.000000
1123.895874 5905.000000
1125.714966 6586.000000
1127.533203 7013.000000
1129.350098 6842.000000
1131.166138 6538.000000
1132.980957 6486.000000
1134.794678 5605.000000
1136.607300 5718.000000
1138.418701 5656.000000
1140.229126 6152.000000
1142.038452 6720.000000
1143.846436 6935.000000
1145.653687 5952.000000
1147.459473 5912.000000
1149.264404 5377.000000
1151.068237 5512.000000
1152.870850 6070.000000
1154.672607 6069.000000
1156.472900 5816.000000
1158.272217 6075.000000
1160.070557 5864.000000
1161.867554 5516.000000
1163.663818 5882.000000
1165.458740 6072.000000
1167.252563 6290.000000
1169.045532 7784.000000
1170.837158 5825.000000
1172.627808 6488.000000
1174.417480 5965.000000
1176.205688 5772.000000
1177.993042 7453.000000
1179.779297 6847.000000
1181.564453 5761.000000
1183.348511 5974.000000
1185.131470 7684.000000
1186.913452 5866.000000
1188.694214 5898.000000
1190.473999 6367.000000
1192.252686 6909.000000
1194.030396 6640.000000
1195.806885 7176.000000
1197.582275 6552.000000
1199.356567 6502.000000
1201.129761 6607.000000
1202.902100 6520.000000
1204.673096 6785.000000
1206.443237 5660.000000
1208.212158 6121.000000
1209.979980 6266.000000
1211.746948 5969.000000
1213.512573 5946.000000
1215.277222 6972.000000
1217.040771 6502.000000
1218.803223 5920.000000
1220.564819 6727.000000
1222.325195 5872.000000
1224.084473 6316.000000
1225.842896 6113.000000
1227.600098 7137.000000
1229.356201 6507.000000
1231.111206 5532.000000
1232.865356 5932.000000
1234.618164 5883.000000
1236.369995 6006.000000
1238.120972 5895.000000
1239.870605 4916.000000
1241.619385 6969.000000
1243.366821 6450.000000
1245.113525 6500.000000
1246.859009 6458.000000
1248.603638 6380.000000
1250.346924 6819.000000
1252.089233 6676.000000
1253.830444 5357.000000
1255.570801 5053.000000
1257.310059 5797.000000
1259.048096 6554.000000
1260.785278 7068.000000
1262.521240 6174.000000
1264.256226 6402.000000
1265.990234 7231.000000
1267.723267 5993.000000
1269.455078 6156.000000
1271.185913 6353.000000
1272.915527 7253.000000
1274.644287 5843.000000
1276.371948 5622.000000
1278.098511 5517.000000
1279.824219 5490.000000
1281.548584 6466.000000
1283.272095 5278.000000
1284.994629 6848.000000
1286.716187 6567.000000
1288.436523 6153.000000
1290.155884 6645.000000
1291.874146 7204.000000
1293.591431 6445.000000
1295.307739 5794.000000
1297.022827 6402.000000
1298.736938 6171.000000
1300.450073 5788.000000
1302.162354 6399.000000
1303.873413 8272.000000
1305.583496 5557.000000
1307.292480 6258.000000
1309.000244 6668.000000
1310.707397 6923.000000
1312.413086 5793.000000
1314.118042 6918.000000
1315.822021 6109.000000
1317.524780 5957.000000
1319.226563 6523.000000
1320.927490 6055.000000
1322.627075 9736.000000
1324.325806 31182.000000
1326.023804 5558.000000
1327.720459 6407.000000
1329.416016 7174.000000
1331.110718 6748.000000
1332.804199 5757.000000
1334.496826 5337.000000
1336.188599 7190.000000
1337.879028 6220.000000
1339.568726 6508.000000
1341.257324 6114.000000
1342.944824 7595.000000
1344.631348 5588.000000
1346.316772 6701.000000
1348.001221 5993.000000
1349.684814 7213.000000
1351.367188 6330.000000
1353.048584 5961.000000
1354.729126 6523.000000
1356.408447 6663.000000
1358.087158 5827.000000
1359.764526 6433.000000
1361.440796 5731.000000
1363.116089 5555.000000
1364.790649 6594.000000
1366.463989 6382.000000
1368.136353 6714.000000
1369.807739 5142.000000
1371.478149 6779.000000
1373.147461 6149.000000
1374.815796 5692.000000
1376.483276 6001.000000
1378.149658 6344.000000
1379.815063 6047.000000
1381.479492 5802.000000
1383.142700 5933.000000
1384.805298 5679.000000
1386.466553 6337.000000
1388.126953 6647.000000
1389.786255 6397.000000
1391.444580 6487.000000
1393.102173 6826.000000
1394.758545 6395.000000
1396.414063 6975.000000
1398.068359 6278.000000
1399.721802 5795.000000
1401.374146 6101.000000
1403.025757 6438.000000
1404.676147 7143.000000
1406.325439 6236.000000
1407.973999 7471.000000
1409.621460 7950.000000
1411.267944 6113.000000
1412.913574 6207.000000
1414.558228 5992.000000
1416.201660 7006.000000
1417.844238 7085.000000
1419.485718 6791.000000
1421.126343 6458.000000
1422.765991 6428.000000
1424.404541 6005.000000
1426.042236 6610.000000
1427.678833 6310.000000
1429.314453 5957.000000
1430.949341 6364.000000
1432.583130 5894.000000
1434.215820 6148.000000
1435.847534 5644.000000
1437.478394 6082.000000
1439.108154 6001.000000
1440.736816 7688.000000
1442.364868 5948.000000
1443.991821 6212.000000
1445.617554 6176.000000
1447.242676 6195.000000
1448.866699 6436.000000
1450.489746 6009.000000
1452.111816 5993.000000
1453.732788 7248.000000
1455.352783 6282.000000
1456.972046 6848.000000
1458.589966 5666.000000
1460.207275 19102.000000
1461.823608 5549.000000
1463.438721 7209.000000
1465.052979 6272.000000
1466.666382 5224.000000
1468.278687 5604.000000
1469.890137 6262.000000
1471.500732 6367.000000
1473.110107 5929.000000
1474.718506 5961.000000
1476.326050 6156.000000
1477.932617 6668.000000
1479.538452 5247.000000
1481.143066 6251.000000
1482.746826 5499.000000
1484.349365 6892.000000
1485.951294 5520.000000
1487.552002 5471.000000
1489.151978 5571.000000
1490.750854 6242.000000
1492.348877 6437.000000
1493.945801 6708.000000
1495.541870 6367.000000
1497.136963 5970.000000
1498.731079 5445.000000
1500.324463 6514.000000
1501.916748 5464.000000
1503.507813 5991.000000
1505.098389 6701.000000
1506.687622 6507.000000
1508.276245 6040.000000
1509.863770 6512.000000
1511.450195 6831.000000
1513.035889 6166.000000
1514.620483 6646.000000
1516.204224 6188.000000
1517.786865 6237.000000
1519.368774 6590.000000
1520.949585 6616.000000
1522.529663 6025.000000
1524.108521 6165.000000
1525.686523 6383.000000
1527.263794 6321.000000
1528.839844 5665.000000
1530.415161 5918.000000
1531.989380 6251.000000
1533.562866 5466.000000
1535.135132 5874.000000
1536.706665 6362.000000
1538.277222 6440.000000
1539.846924 6323.000000
1541.415405 5389.000000
1542.983154 6552.000000
1544.550049 5569.000000
1546.115723 6793.000000
1547.680664 5995.000000
1549.244507 5074.000000
1550.807739 7465.000000
1552.369629 6250.000000
1553.930908 5955.000000
1555.491089 5642.000000
1557.050537 5688.000000
1558.608887 5842.000000
1560.166504 6225.000000
1561.723022 6978.000000
1563.278320 5832.000000
1564.833008 6321.000000
1566.386963 5648.000000
1567.939941 6294.000000
1569.491577 5664.000000
1571.042480 5840.000000
1572.592651 6243.000000
1574.141846 6325.000000
1575.689697 5777.000000
1577.237061 5444.000000
1578.783447 5721.000000
1580.328979 5051.000000
1581.873535 6631.000000
1583.416870 6283.000000
1584.959595 6553.000000
1586.501465 6431.000000
1588.042236 6702.000000
1589.582031 5831.000000
1591.121094 6698.000000
1592.659058 5862.000000
1594.196533 6158.000000
1595.732666 5869.000000
1597.267700 6647.000000
1598.802246 6276.000000
1600.335815 5996.000000
1601.868530 5824.000000
1603.399658 6222.000000
1604.930542 6379.000000
1606.460571 5737.000000
1607.989380 6161.000000
1609.517090 6120.000000
1611.044189 5961.000000
1612.570557 5935.000000
1614.095947 6206.000000
1615.620483 5802.000000
1617.143677 5765.000000
1618.666138 5634.000000
1620.187866 6554.000000
1621.708740 6893.000000
1623.228149 15512.000000
1624.747070 6094.000000
1626.265259 6008.000000
1627.782593 5848.000000
1629.298828 6411.000000
1630.813721 7057.000000
1632.328125 6677.000000
1633.841797 5757.000000
1635.354370 6717.000000
1636.865723 5882.000000
1638.376709 6422.000000
1639.886597 6226.000000
1641.395630 6175.000000
1642.903320 5538.000000
1644.410645 6148.000000
1645.917114 7089.000000
1647.422607 6193.000000
1648.927246 6766.000000
1650.430420 6165.000000
1651.932983 6548.000000
1653.435181 6355.000000
1654.936035 6623.000000
1656.435791 7557.000000
1657.934692 5950.000000
1659.433228 6489.000000
1660.930542 6222.000000
1662.427124 5887.000000
1663.922119 6462.000000
1665.416870 6293.000000
1666.910767 5203.000000
1668.403687 5688.000000
1669.895264 21575.000000
1671.386353 6417.000000
1672.876831 6086.000000
1674.366211 5934.000000
1675.854126 6952.000000
1677.341797 6855.000000
1678.828491 6018.000000
1680.314331 5345.000000
1681.799316 6036.000000
1683.282837 6116.000000
1684.766113 6123.000000
1686.248535 5865.000000
1687.729858 6246.000000
1689.209717 6164.000000
1690.689331 5525.000000
1692.168213 6570.000000
1693.646118 5602.000000
1695.123047 6060.000000
1696.598755 5776.000000
1698.074097 6215.000000
1699.548218 6252.000000
1701.021729 5457.000000
1702.493774 5561.000000
1703.965576 6864.000000
1705.436401 6386.000000
1706.906372 7109.000000
1708.375000 5102.000000
1709.843140 5819.000000
1711.310547 6388.000000
1712.776855 5533.000000
1714.242554 5727.000000
1715.706543 6217.000000
1717.170410 5967.000000
1718.633423 6912.000000
1720.095459 6346.000000
1721.556274 6563.000000
1723.016479 5450.000000
1724.475952 5643.000000
1725.934570 6176.000000
1727.392212 5920.000000
1728.848511 6206.000000
1730.304565 6045.000000
1731.759644 6391.000000
1733.213745 5973.000000
1734.666626 6885.000000
1736.119263 5992.000000
1737.570801 6723.000000
1739.021606 5939.000000
1740.471436 6555.000000
1741.919922 5854.000000
1743.368042 7321.000000
1744.815308 6550.000000
1746.261841 6618.000000
1747.706787 6650.000000
1749.151489 6184.000000
1750.595337 5790.000000
1752.038330 5504.000000
1753.479858 6528.000000
1754.921143 6313.000000
1756.361572 19313.000000
1757.801025 6268.000000
1759.239502 5280.000000
1760.677002 6041.000000
1762.114014 7419.000000
1763.550049 5923.000000
1764.985229 7048.000000
1766.418945 6193.000000
1767.852539 6415.000000
1769.285156 6610.000000
1770.716919 5859.000000
1772.147827 5724.000000
1773.577515 6306.000000
1775.006470 6115.000000
1776.434937 6256.000000
1777.862427 6747.000000
1779.288574 6289.000000
1780.714478 5601.000000
1782.139282 6834.000000
1783.563477 5580.000000
1784.986206 6614.000000
1786.408447 6475.000000
1787.829956 6911.000000
1789.250732 5825.000000
1790.670532 6041.000000
1792.088989 6169.000000
1793.506958 6850.000000
1794.924316 5550.000000
1796.340820 6047.000000
1797.755859 6458.000000
1799.170532 5822.000000
1800.584595 6580.000000
1801.997437 5976.000000
1803.409668 6838.000000
1804.820557 7049.000000
1806.230957 7684.000000
1807.640625 6465.000000
1809.049316 5920.000000
1810.456909 5396.000000
1811.864014 6338.000000
1813.270264 6396.000000
1814.675537 6666.000000
1816.079712 5972.000000
1817.483521 5949.000000
1818.886353 6181.000000
1820.288330 6005.000000
1821.689697 5829.000000
1823.089600 6261.000000
1824.488892 6363.000000
1825.887695 6591.000000
1827.285645 7335.000000
1828.682251 5738.000000
1830.078247 6742.000000
1831.473511 5843.000000
1832.868164 8091.000000
1834.261841 6011.000000
1835.654175 6768.000000
1837.046021 6384.000000
1838.437256 5866.000000
1839.827515 7122.000000
1841.216553 5963.000000
1842.605225 6036.000000
1843.992920 5981.000000
1845.379883 5808.000000
1846.765503 6937.000000
1848.150879 5806.000000
1849.535400 6345.000000
1850.919189 6318.000000
1852.301880 6372.000000
1853.683350 5379.000000
1855.064331 6464.000000
1856.444824 6302.000000
1857.824341 5697.000000
1859.202393 5992.000000
1860.580322 6298.000000
1861.957275 7789.000000
1863.333496 6149.000000
1864.708862 6035.000000
1866.082764 5701.000000
1867.456543 5725.000000
1868.829468 6171.000000
1870.201294 5998.000000
1871.572144 6946.000000
1872.942627 5462.000000
1874.312012 6055.000000
1875.680908 6126.000000
1877.048218 7077.000000
1878.415405 6013.000000
1879.781616 5993.000000
1881.147095 6803.000000
1882.511841 7392.000000
1883.875000 6755.000000
1885.238037 6902.000000
1886.600220 6263.000000
1887.961548 6415.000000
1889.321533 5629.000000
1890.681152 5762.000000
1892.040161 6209.000000
1893.398193 6610.000000
1894.755371 7255.000000
1896.111328 5947.000000
1897.467041 7640.000000
1898.821777 5859.000000
1900.175659 5565.000000
1901.528442 5890.000000
1902.880737 5939.000000
1904.232300 5900.000000
1905.583008 6795.000000
1906.932495 6534.000000
1908.281494 6672.000000
1909.629639 5782.000000
1910.977173 6080.000000
1912.323975 6290.000000
1913.669189 6776.000000
1915.014160 6116.000000
1916.358398 5421.000000
1917.701782 6484.000000
1919.043823 5937.000000
1920.385620 6705.000000
1921.726563 6996.000000
1923.066772 6099.000000
1924.406006 6252.000000
1925.744263 6178.000000
1927.081909 6478.000000
1928.418823 7004.000000
1929.754883 6710.000000
1931.089722 5561.000000
1932.424194 6716.000000
1933.757935 7244.000000
1935.090820 6256.000000
1936.422241 5756.000000
1937.753784 6307.000000
1939.083984 6576.000000
1940.413696 5777.000000
1941.742554 6044.000000
1943.070190 5821.000000
1944.397339 5010.000000
1945.723755 5813.000000
1947.049438 6542.000000
1948.373779 5957.000000
1949.697876 6631.000000
1951.021118 6281.000000
1952.343628 6383.000000
1953.665039 5797.000000
1954.985474 7430.000000
1956.305298 6007.000000
1957.624756 5514.000000
1958.943237 6815.000000
1960.260376 5894.000000
1961.577148 5769.000000
1962.893188 6482.000000
1964.208496 6560.000000
1965.522339 6278.000000
1966.835938 5621.000000
1968.148804 6211.000000
1969.460815 5985.000000
1970.772217 5989.000000
1972.082275 6232.000000
1973.391846 5883.000000
1974.700684 6202.000000
1976.008911 6546.000000
1977.315796 6110.000000
1978.622070 7268.000000
1979.927979 5551.000000
1981.232666 6360.000000
1982.536865 5876.000000
1983.839844 5669.000000
1985.142456 7528.000000
1986.444092 6146.000000
1987.745117 6772.000000
1989.044556 6056.000000
1990.344116 6539.000000
1991.642578 5256.000000
1992.940552 6125.000000
1994.236938 6157.000000
1995.533325 5793.000000
1996.828735 5558.000000
1998.123413 6456.000000
1999.417236 5751.000000
2000.709839 6538.000000
2002.001953 5766.000000
2003.293579 7173.000000
2004.584473 6361.000000
2005.873779 6274.000000
2007.162842 6720.000000
2008.451172 5904.000000
2009.738770 5967.000000
2011.025513 6615.000000
2012.311157 5684.000000
2013.596436 6292.000000
2014.880737 5952.000000
2016.164429 5570.000000
2017.446777 5991.000000
2018.728760 6461.000000
2020.010254 6753.000000
2021.290771 5916.000000
2022.570557 6069.000000
2023.849243 6774.000000
2025.127197 5778.000000
2026.404663 5883.000000
2027.681519 6324.000000
2028.956665 5779.000000
2030.231934 6588.000000
2031.506226 6024.000000
2032.779541 5942.000000
2034.052002 5917.000000
2035.324097 6154.000000
2036.595093 6944.000000
2037.865845 6560.000000
2039.135254 6009.000000
2040.403564 6683.000000
2041.671875 6584.000000
2042.939209 5877.000000
2044.205811 5980.000000
2045.471191 5667.000000
2046.735962 5798.000000
2048.000488 5461.000000
2049.263672 5875.000000
2050.526611 6360.000000
2051.787598 6159.000000
2053.049072 6068.000000
2054.309326 5874.000000
2055.568848 6462.000000
2056.827637 6281.000000
2058.085449 6926.000000
2059.342773 6157.000000
2060.599365 6049.000000
2061.854492 6525.000000
2063.109619 5626.000000
2064.363770 5660.000000
2065.617188 5627.000000
2066.869873 6883.000000
2068.121338 6267.000000
2069.372559 6336.000000
2070.623047 5561.000000
2071.872803 5451.000000
2073.121094 6179.000000
2074.369385 6523.000000
2075.616699 7484.000000
2076.863281 5563.000000
2078.109131 5982.000000
2079.353760 6934.000000
2080.597900 7587.000000
2081.841553 5469.000000
2083.084229 6066.000000
2084.325684 6940.000000
2085.566895 5936.000000
2086.807617 6347.000000
2088.047363 6754.000000
2089.285889 7101.000000
2090.523926 6209.000000
2091.761230 5820.000000
2092.998291 6595.000000
2094.233887 6040.000000
2095.468750 6175.000000
2096.703369 6091.000000
2097.937012 5592.000000
2099.169678 6019.000000
2100.401611 6784.000000
2101.633057 6330.000000
2102.863525 6763.000000
2104.093262 5960.000000
2105.322754 5946.000000
2106.550293 5984.000000
2107.778076 5976.000000
2109.005127 6251.000000
2110.231201 5465.000000
2111.455811 6424.000000
2112.680664 6905.000000
2113.904297 6980.000000
2115.127441 6203.000000
2116.349365 7446.000000
2117.571045 5944.000000
2118.791748 6798.000000
2120.011719 6232.000000
2121.231201 6166.000000
2122.449219 6573.000000
2123.667236 7072.000000
2124.884277 5709.000000
2126.100830 5793.000000
2127.315674 6604.000000
2128.530762 6294.000000
2129.744873 6725.000000
2130.958252 5679.000000
2132.170898 6103.000000
2133.382080 5817.000000
2134.593506 6512.000000
2135.803711 6854.000000
2137.013428 5930.000000
2138.221680 6139.000000
2139.429932 5630.000000
2140.637451 5836.000000
2141.843750 7448.000000
2143.049316 5868.000000
2144.254639 5659.000000
2145.458984 5520.000000
2146.662598 6353.000000
2147.865723 6220.000000
2149.067383 6545.000000
2150.268799 5342.000000
2151.469482 6249.000000
2152.669434 5987.000000
2153.868164 5929.000000
2155.066650 6911.000000
2156.264648 6153.000000
2157.461670 5978.000000
2158.657959 5198.000000
2159.853027 5255.000000
2161.047852 6118.000000
2162.241943 5562.000000
2163.435059 6109.000000
2164.627197 6917.000000
2165.819092 5855.000000
2167.010254 6304.000000
2168.200439 6277.000000
2169.389893 6450.000000
2170.578857 6803.000000
2171.766846 5954.000000
2172.954590 5737.000000
2174.140869 5895.000000
2175.326416 6585.000000
2176.511719 6011.000000
2177.696533 5816.000000
2178.880127 6399.000000
2180.062988 7394.000000
2181.244873 6310.000000
2182.426514 6043.000000
2183.607666 6568.000000
2184.787598 5666.000000
2185.966553 5561.000000
2187.145020 6405.000000
2188.323242 6859.000000
2189.500244 7157.000000
2190.676270 6688.000000
2191.852051 6082.000000
2193.027344 5583.000000
2194.201172 6670.000000
2195.374512 6186.000000
2196.547607 6136.000000
2197.719482 6376.000000
2198.890869 7063.000000
2200.061768 6328.000000
2201.230957 6901.000000
2202.400146 7569.000000
2203.568848 6324.000000
2204.736572 5847.000000
2205.903320 5653.000000
2207.069336 7115.000000
2208.234863 6647.000000
2209.400146 5956.000000
2210.563965 6650.000000
2211.727295 5403.000000
2212.889404 6143.000000
2214.051758 6119.000000
2215.212891 6669.000000
2216.373047 6637.000000
2217.532715 6247.000000
2218.692139 6511.000000
2219.850342 6358.000000
2221.007568 6298.000000
2222.164551 6787.000000
2223.320801 6539.000000
2224.476318 6763.000000
2225.631104 6276.000000
2226.784912 6428.000000
2227.937744 6015.000000
2229.091064 6887.000000
2230.242432 6138.000000
2231.393555 6177.000000
2232.543945 6480.000000
2233.693848 7666.000000
2234.842773 6331.000000
2235.991211 5160.000000
2237.138184 6746.000000
2238.285400 6924.000000
2239.431396 6037.000000
2240.577148 7258.000000
2241.721191 7300.000000
2242.865479 6721.000000
2244.008789 6200.000000
2245.151367 5978.000000
2246.292969 5761.000000
2247.434326 5756.000000
2248.574707 6399.000000
2249.714355 6408.000000
2250.853516 5744.000000
2251.991455 5907.000000
2253.129395 6212.000000
2254.266357 5295.000000
2255.402588 6304.000000
2256.537842 6168.000000
2257.672363 7219.000000
2258.806641 6357.000000
2259.940430 5446.000000
2261.072754 6200.000000
2262.204590 6820.000000
2263.335938 6278.000000
2264.466309 6479.000000
2265.596436 8053.000000
2266.725342 6721.000000
2267.853760 6101.000000
2268.981689 5552.000000
2270.108643 6102.000000
2271.234863 5959.000000
2272.360107 6707.000000
2273.485352 6491.000000
2274.609863 6433.000000
2275.733154 5916.000000
2276.855713 6263.000000
2277.977783 5906.000000
2279.099365 7431.000000
2280.220215 6439.000000
2281.339844 6405.000000
2282.458984 7059.000000
2283.577881 7604.000000
2284.696045 7182.000000
2285.813232 5871.000000
2286.929443 6386.000000
2288.045410 6987.000000
2289.160645 6840.000000
2290.275146 7329.000000
2291.388428 5738.000000
2292.501709 6308.000000
2293.614258 6007.000000
2294.726074 5368.000000
2295.837158 6762.000000
2296.947021 6412.000000
2298.056396 6153.000000
2299.165527 6690.000000
2300.273682 6388.000000
2301.380859 6741.000000
2302.487793 5872.000000
2303.593994 6271.000000
2304.699707 6585.000000
2305.803955 6601.000000
2306.907959 5435.000000
2308.011475 5797.000000
2309.114502 6611.000000
2310.216309 7423.000000
2311.317383 7310.000000
2312.417969 6642.000000
2313.518066 5571.000000
2314.617432 6395.000000
2315.715332 6610.000000
2316.813721 6968.000000
2317.910645 8237.000000
2319.007324 6879.000000
2320.103516 5795.000000
2321.197998 6897.000000
2322.292480 7600.000000
2323.386230 5810.000000
2324.479736 6042.000000
2325.571533 6398.000000
2326.663330 6931.000000
2327.754395 6089.000000
2328.844727 6284.000000
2329.934082 6968.000000
2331.023438 6057.000000
2332.111572 6310.000000
2333.199219 6842.000000
2334.286621 6437.000000
2335.372314 6676.000000
2336.457764 7730.000000
2337.542969 6305.000000
2338.627197 6757.000000
2339.710449 5887.000000
2340.793457 6421.000000
2341.875488 7053.000000
2342.957275 5954.000000
2344.038330 7382.000000
2345.118164 6623.000000
2346.197510 5742.000000
2347.276367 6774.000000
2348.354736 6529.000000
2349.431641 6345.000000
2350.508301 6975.000000
2351.584717 5992.000000
2352.660156 6420.000000
2353.734619 5939.000000
2354.808838 6334.000000
2355.882324 6767.000000
2356.955322 6236.000000
2358.027100 6988.000000
2359.098633 6186.000000
2360.169189 6749.000000
2361.239502 7458.000000
2362.308838 7517.000000
2363.377197 6816.000000
2364.445313 6744.000000
2365.512695 7131.000000
2366.579590 7152.000000
2367.645752 6082.000000
2368.710693 6901.000000
2369.775635 6929.000000
2370.839844 6363.000000
2371.903320 6933.000000
2372.965576 5788.000000
2374.027832 6338.000000
2375.089111 6399.000000
2376.150146 5938.000000
2377.209961 6306.000000
2378.269043 7880.000000
2379.328125 6345.000000
2380.386230 7562.000000
2381.443604 6909.000000
2382.500000 8009.000000
2383.556152 7781.000000
2384.611816 6226.000000
2385.666748 6988.000000
2386.720215 6735.000000
2387.773926 6639.000000
2388.826660 6318.000000
2389.878906 6632.000000
2390.930420 6108.000000
2391.980957 6634.000000
2393.031250 6467.000000
2394.080566 6165.000000
2395.129883 6156.000000
2396.177734 6873.000000
2397.225098 6945.000000
2398.272217 6258.000000
2399.318359 6654.000000
2400.363770 6148.000000
2401.408447 6778.000000
2402.453125 7719.000000
2403.496338 7465.000000
2404.539551 6541.000000
2405.581299 5701.000000
2406.623291 6680.000000
2407.664551 7067.000000
2408.704834 6103.000000
2409.744385 6438.000000
2410.782959 6326.000000
2411.821777 6044.000000
2412.859375 6506.000000
2413.896729 6870.000000
2414.932861 7373.000000
2415.968750 6201.000000
2417.003906 6293.000000
2418.038574 6628.000000
2419.071777 7201.000000
2420.105225 6419.000000
2421.137695 6715.000000
2422.169922 6803.000000
2423.200684 7085.000000
2424.231445 6370.000000
2425.261719 6886.000000
2426.290771 6834.000000
2427.319824 6603.000000
2428.347168 7398.000000
2429.375000 6796.000000
2430.401611 7205.000000
2431.427979 6892.000000
2432.452881 7771.000000
2433.478027 6581.000000
2434.502197 7084.000000
2435.526123 6662.000000
2436.548828 5816.000000
2437.570801 6275.000000
2438.592529 6611.000000
2439.613525 6681.000000
2440.634033 6093.000000
2441.653320 6509.000000
2442.672607 6599.000000
2443.690918 8470.000000
2444.708984 6303.000000
2445.725586 6467.000000
2446.742188 6582.000000
2447.758057 6011.000000
2448.773926 7017.000000
2449.788330 6895.000000
2450.802002 5590.000000
2451.815186 7292.000000
2452.828125 5975.000000
2453.840332 7215.000000
2454.851563 6703.000000
2455.862549 7661.000000
2456.872803 6348.000000
2457.882568 7623.000000
2458.891357 5851.000000
2459.899414 5995.000000
2460.907471 6290.000000
2461.914307 7292.000000
2462.920898 5427.000000
2463.926270 7358.000000
2464.931396 6922.000000
2465.936279 5881.000000
2466.939941 6536.000000
2467.943359 6366.000000
2468.945801 7632.000000
2469.947998 7348.000000
2470.949707 6878.000000
2471.950439 6589.000000
2472.950195 6984.000000
2473.949951 6712.000000
2474.948730 5653.000000
2475.947021 6633.000000
2476.944336 7095.000000
2477.941406 6121.000000
2478.938477 6929.000000
2479.934082 5779.000000
2480.929688 7135.000000
2481.923584 6746.000000
2482.917480 8127.000000
2483.910889 6831.000000
2484.903809 6738.000000
2485.895752 7510.000000
2486.886963 7184.000000
2487.877930 6734.000000
2488.868408 5859.000000
2489.857910 6589.000000
2490.846680 6484.000000
2491.835449 5668.000000
2492.823242 6792.000000
2493.809814 6555.000000
2494.796387 8087.000000
2495.782471 6781.000000
2496.767822 7097.000000
2497.752197 8388.000000
2498.736328 6030.000000
2499.720459 6807.000000
2500.703125 5766.000000
2501.685303 6974.000000
2502.666992 6837.000000
2503.647949 7264.000000
2504.628418 6518.000000
2505.608643 5737.000000
2506.587402 6309.000000
2507.565918 7598.000000
2508.543945 6805.000000
2509.521484 7096.000000
2510.498047 6059.000000
2511.474365 5974.000000
2512.449951 6473.000000
2513.425049 6191.000000
2514.399658 6452.000000
2515.373047 7522.000000
2516.346191 6784.000000
2517.319092 6859.000000
2518.291016 6090.000000
2519.262207 6832.000000
2520.232910 6749.000000
2521.203369 7724.000000
2522.173096 8003.000000
2523.141846 6120.000000
2524.109863 6144.000000
2525.077881 7726.000000
2526.044922 6297.000000
2527.011719 5522.000000
2527.977295 7305.000000
2528.942871 6956.000000
2529.907715 7716.000000
2530.872070 6327.000000
2531.835205 6345.000000
2532.798584 5862.000000
2533.760986 5984.000000
2534.723145 6697.000000
2535.684082 6343.000000
2536.644287 6098.000000
2537.604736 6093.000000
2538.564209 6864.000000
2539.522949 6739.000000
2540.480713 6734.000000
2541.438721 6248.000000
2542.395996 6678.000000
2543.352295 6053.000000
2544.308350 7070.000000
2545.263184 6237.000000
2546.218262 7757.000000
2547.172607 7057.000000
2548.126221 6378.000000
2549.078857 7192.000000
2550.031250 6739.000000
2550.983154 6975.000000
2551.934326 6402.000000
2552.884766 7688.000000
2553.834717 7284.000000
2554.784424 7342.000000
2555.733398 6610.000000
2556.681885 6225.000000
2557.629150 7069.000000
2558.576416 6324.000000
2559.522949 6565.000000
2560.468994 6744.000000
2561.414063 7418.000000
2562.358887 6746.000000
2563.303223 7156.000000
2564.247070 6815.000000
2565.190430 6661.000000
2566.132324 6577.000000
2567.074463 6573.000000
2568.015869 6160.000000
2568.956543 7067.000000
2569.896484 7319.000000
2570.836426 5646.000000
2571.775391 6150.000000
2572.714111 7480.000000
2573.651855 7206.000000
2574.589355 5430.000000
2575.526123 6933.000000
2576.462158 6801.000000
2577.397705 7517.000000
2578.332520 6284.000000
2579.267334 5916.000000
2580.201172 7003.000000
2581.134521 7262.000000
2582.067139 5887.000000
2582.999512 6781.000000
2583.931152 5413.000000
2584.862305 7058.000000
2585.792969 7012.000000
2586.722412 6850.000000
2587.651855 7202.000000
2588.580811 6494.000000
2589.509521 7456.000000
2590.436523 7332.000000
2591.363770 5981.000000
2592.290527 6740.000000
2593.216553 6284.000000
2594.142334 5620.000000
2595.066895 7581.000000
2595.991211 7639.000000
2596.915039 5353.000000
2597.838379 7292.000000
2598.760742 6305.000000
2599.682861 6863.000000
2600.604492 8350.000000
2601.525391 6370.000000
2602.445557 5960.000000
2603.365479 6330.000000
2604.284912 6407.000000
2605.204102 6424.000000
2606.122314 5840.000000
2607.039307 5973.000000
2607.956543 7225.000000
2608.873535 5931.000000
2609.789551 7592.000000
2610.704346 6632.000000
2611.619629 6598.000000
2612.534180 6635.000000
2613.447754 6595.000000
2614.361328 6136.000000
2615.273682 7604.000000
2616.186035 6972.000000
2617.097412 6799.000000
2618.008545 5646.000000
2618.918945 7148.000000
2619.829102 6657.000000
2620.738525 6133.000000
2621.647461 6602.000000
2622.555420 6253.000000
2623.463623 6844.000000
2624.370850 6595.000000
2625.277588 6990.000000
2626.183594 5985.000000
2627.089355 6611.000000
2627.994385 6493.000000
2628.899170 7762.000000
2629.803223 6461.000000
2630.706299 6415.000000
2631.609375 6386.000000
2632.511475 5638.000000
2633.413574 6692.000000
2634.315430 6995.000000
2635.215576 6726.000000
2636.115967 6404.000000
2637.015625 6588.000000
2637.915039 5965.000000
2638.812988 6863.000000
2639.711426 6604.000000
2640.609375 6288.000000
2641.506592 6104.000000
2642.402588 6166.000000
2643.298584 6666.000000
2644.194336 6057.000000
2645.089355 6472.000000
2645.984131 6677.000000
2646.877441 7089.000000
2647.770752 6277.000000
2648.663818 6711.000000
2649.556641 6501.000000
2650.447754 7431.000000
2651.339111 6406.000000
2652.229980 7587.000000
2653.120117 7231.000000
2654.010010 6527.000000
2654.898682 7234.000000
2655.787598 6584.000000
2656.676025 6575.000000
2657.563477 7347.000000
2658.449951 6467.000000
2659.336914 7096.000000
2660.223145 6881.000000
2661.108887 6763.000000
2661.993408 6487.000000
2662.877930 6426.000000
2663.762207 6216.000000
2664.645752 7090.000000
2665.528809 7831.000000
2666.411133 7282.000000
2667.292969 6129.000000
2668.174072 6561.000000
2669.055420 6084.000000
2669.935303 6559.000000
2670.815430 7361.000000
2671.694824 7238.000000
2672.574219 6207.000000
2673.452881 6112.000000
2674.329834 6398.000000
2675.207520 6723.000000
2676.084473 6372.000000
2676.960693 8115.000000
2677.836426 7140.000000
2678.711426 6260.000000
2679.586670 7763.000000
2680.460938 6972.000000
2681.334717 7359.000000
2682.207764 7021.000000
2683.080566 6252.000000
2683.953125 6107.000000
2684.824951 6908.000000
2685.696045 6519.000000
2686.566895 6934.000000
2687.437256 7136.000000
2688.307373 6718.000000
2689.175781 6388.000000
2690.044922 7390.000000
2690.913330 7105.000000
2691.781494 6652.000000
2692.648926 6864.000000
2693.515137 5876.000000
2694.381836 7144.000000
2695.247559 7419.000000
2696.113281 7225.000000
2696.977539 7916.000000
2697.842529 6636.000000
2698.706055 7301.000000
2699.569824 5835.000000
2700.432129 7451.000000
2701.294922 6777.000000
2702.156738 5880.000000
2703.018066 6915.000000
2703.879395 6655.000000
2704.739502 7443.000000
2705.599609 7287.000000
2706.459229 6628.000000
2707.318604 6843.000000
2708.176270 7142.000000
2709.034180 6835.000000
2709.892578 7314.000000
2710.749756 6753.000000
2711.606201 6002.000000
2712.462158 6892.000000
2713.318115 6086.000000
2714.173340 6945.000000
2715.027832 6167.000000
2715.881836 6801.000000
2716.735840 7281.000000
2717.588867 6297.000000
2718.442139 6522.000000
2719.293701 7706.000000
2720.145752 6799.000000
2720.997559 6222.000000
2721.848145 6442.000000
2722.698730 6457.000000
2723.548828 7169.000000
2724.398193 7026.000000
2725.247559 6973.000000
2726.095703 6653.000000
2726.943359 6550.000000
2727.791504 7010.000000
2728.638428 6897.000000
2729.485840 5547.000000
2730.331787 7418.000000
2731.177002 6972.000000
2732.022705 6413.000000
2732.867432 7023.000000
2733.712158 7339.000000
2734.555664 6864.000000
2735.399414 7857.000000
2736.242432 7175.000000
2737.084961 6058.000000
2737.926514 6263.000000
2738.768555 6797.000000
2739.609619 6907.000000
2740.450439 5722.000000
2741.291016 5969.000000
2742.130371 7818.000000
2742.969727 6839.000000
2743.809082 6903.000000
2744.647217 6772.000000
2745.484863 7790.000000
2746.322510 6337.000000
2747.159668 7086.000000
2747.996582 6183.000000
2748.833008 5992.000000
2749.668213 6636.000000
2750.503662 6295.000000
2751.338623 6337.000000
2752.172852 6259.000000
2753.006836 6917.000000
2753.840332 6797.000000
2754.673828 8003.000000
2755.506348 6862.000000
2756.338379 7303.000000
2757.169922 6831.000000
2758.001465 7155.000000
2758.832031 7259.000000
2759.662842 7213.000000
2760.492432 7343.000000
2761.322021 6762.000000
2762.151367 7295.000000
2762.979980 6898.000000
2763.808105 6806.000000
2764.635742 6887.000000
2765.463379 6677.000000
2766.290527 7879.000000
2767.116943 5777.000000
2767.942871 7460.000000
2768.768311 6903.000000
2769.593506 7750.000000
2770.418701 7059.000000
2771.242676 6847.000000
2772.066650 6544.000000
2772.890625 7623.000000
2773.713379 6457.000000
2774.536377 6742.000000
2775.358154 6947.000000
2776.179932 6896.000000
2777.001709 6494.000000
2777.822510 7959.000000
2778.642578 6544.000000
2779.462891 6978.000000
2780.282715 7285.000000
2781.102539 6400.000000
2781.920410 5955.000000
2782.739502 8053.000000
2783.557373 6509.000000
2784.375000 6798.000000
2785.192139 7213.000000
2786.008789 7295.000000
2786.825195 7230.000000
2787.641113 6327.000000
2788.456787 5940.000000
2789.271484 6414.000000
2790.086670 7054.000000
2790.901123 7140.000000
2791.715088 6594.000000
2792.528809 7373.000000
2793.341309 8760.000000
2794.154053 6932.000000
2794.966309 7440.000000
2795.778076 7152.000000
2796.589111 7375.000000
2797.400879 6541.000000
2798.211426 7188.000000
2799.021973 7112.000000
2799.831055 7428.000000
2800.640869 8230.000000
2801.449951 7843.000000
2802.258789 6576.000000
2803.067139 7168.000000
2803.874512 6161.000000
2804.682373 6569.000000
2805.489502 6726.000000
2806.296387 6761.000000
2807.102051 7136.000000
2807.908203 6630.000000
2808.713623 6462.000000
2809.519043 7329.000000
2810.323730 6195.000000
2811.127441 7693.000000
2811.931641 7476.000000
2812.735352 6313.000000
2813.538818 6130.000000
2814.340820 6315.000000
2815.143555 7354.000000
2815.945557 7825.000000
2816.747314 6227.000000
2817.548584 6544.000000
2818.349365 7226.000000
2819.149658 6484.000000
2819.950195 6623.000000
2820.749756 8043.000000
2821.548828 7200.000000
2822.347900 6508.000000
2823.146729 6980.000000
2823.945068 6326.000000
2824.742432 7010.000000
2825.540039 6933.000000
2826.336914 6696.000000
2827.134033 7405.000000
2827.930420 7908.000000
2828.726074 6977.000000
2829.521729 7367.000000
2830.317139 7552.000000
2831.112061 7419.000000
2831.906250 6628.000000
2832.700439 6874.000000
2833.494385 5774.000000
2834.287842 6832.000000
2835.080566 7199.000000
2835.873047 8152.000000
2836.665527 7732.000000
2837.457764 7484.000000
2838.249512 6413.000000
2839.040283 6835.000000
2839.831055 8900.000000
2840.622070 7425.000000
2841.412109 6240.000000
2842.201660 7631.000000
2842.991455 7178.000000
2843.780273 7321.000000
2844.569092 7794.000000
2845.357910 7680.000000
2846.145752 7518.000000
2846.933105 7248.000000
2847.720703 7483.000000
2848.507813 7276.000000
2849.294189 6676.000000
2850.080566 7472.000000
2850.866699 7280.000000
2851.652344 7487.000000
2852.437012 7169.000000
2853.222168 6881.000000
2854.007080 7432.000000
2854.791260 7161.000000
2855.575439 6942.000000
2856.358398 8211.000000
2857.141602 6746.000000
2857.924561 6772.000000
2858.707031 7819.000000
2859.489258 6285.000000
2860.270996 6662.000000
2861.052490 7596.000000
2861.834229 7429.000000
2862.615234 7655.000000
2863.395508 6578.000000
2864.175537 6812.000000
2864.955566 8232.000000
2865.735352 7407.000000
2866.514160 8083.000000
2867.293213 7672.000000
2868.071777 6784.000000
2868.850098 6936.000000
2869.627930 7247.000000
2870.405518 6887.000000
2871.182861 7512.000000
2871.959961 6925.000000
2872.736572 6445.000000
2873.512695 7527.000000
2874.288818 7191.000000
2875.064453 8268.000000
2875.839844 7115.000000
2876.614746 6586.000000
2877.389404 7975.000000
2878.164063 6631.000000
2878.938477 7724.000000
2879.712158 6738.000000
2880.485107 7188.000000
2881.258789 6698.000000
2882.031494 7590.000000
2882.804199 7865.000000
2883.576172 8197.000000
2884.347900 6269.000000
2885.120117 6789.000000
2885.891113 6889.000000
2886.661621 6118.000000
2887.432617 8378.000000
2888.203613 7358.000000
2888.973877 7970.000000
2889.743164 7594.000000
2890.512695 6953.000000
2891.282227 7292.000000
2892.051270 7368.000000
2892.819824 7861.000000
2893.588379 7904.000000
2894.355957 7039.000000
2895.124023 6629.000000
2895.891602 7397.000000
2896.659180 8363.000000
2897.425537 7361.000000
2898.192871 6590.000000
2898.958984 7214.000000
2899.725342 7018.000000
2900.490234 8327.000000
2901.255615 6995.000000
2902.021484 6392.000000
2902.785889 7657.000000
2903.550293 7725.000000
2904.314941 8462.000000
2905.078613 6671.000000
2905.843018 8508.000000
2906.606689 6747.000000
2907.369629 8358.000000
2908.132324 6429.000000
2908.895508 9002.000000
2909.658203 7028.000000
2910.419678 6846.000000
2911.181641 6846.000000
