scanname Analyse016
timestamp 2017-02-10 20:12:49
ccdbias 905.375000
ccdgain 3.473401
sigmaread 8.960639
laserwavenum -0.707349
wavenumcorrection -0.184385
scancount 1
totalexposurems 10000
singleexposurems 10000
measurementstate Unknown
scanmode Manual
snr 224.730682 6.580017 5.481948
replacelist 3
374 42030.000000 14980.000000
383 41993.000000 12227.000000
672 37266.000000 31388.000000
peaks 40
277.528168 0.650397 0.000000 1.681390 0.000198
288.664368 0.647557 0.000000 0.578569 0.000026
297.148956 0.646174 0.000000 0.269598 0.000025
329.364868 0.651439 0.000000 0.719957 0.000124
350.735474 0.655781 0.000000 0.321358 0.000016
387.347260 0.670865 0.000000 1.590678 0.000313
442.776947 0.655549 0.000000 0.392442 0.000045
456.590576 0.658551 0.000000 0.239886 0.000015
494.166412 0.663879 0.000000 0.292722 0.000043
532.415771 0.653863 0.000000 0.661932 0.000139
559.121643 0.669186 0.000000 0.982121 0.000178
569.811951 0.674931 0.000000 1.291264 0.000057
576.210754 0.675713 0.000000 0.258338 0.000045
584.080994 0.673648 0.000000 0.683532 0.000100
661.654419 0.664285 0.000000 0.768554 0.000057
674.514465 0.667450 0.000000 1.155822 0.000218
715.892517 0.662725 0.000000 4.407149 0.000868
740.357361 0.652235 0.000000 0.886714 0.000068
766.555298 0.675253 0.000000 2.387089 0.000582
782.010925 0.664854 0.000000 1.406125 0.000184
831.697449 0.650310 0.000000 0.633832 0.000081
840.272339 0.650013 0.000000 0.248633 0.000022
875.120056 0.724568 0.000000 2.150694 0.000604
938.701965 0.639711 0.000000 1.064917 0.000179
955.152893 0.635112 0.000000 3.320694 0.000865
977.127869 0.617840 0.000000 0.125908 0.000051
1032.063965 0.640951 0.000000 0.625651 0.000143
1045.098999 0.664192 0.000000 3.979041 0.001104
1083.812866 0.637361 0.000000 0.887088 0.000126
1105.123901 0.622293 0.000000 1.084869 0.000311
1123.033203 0.623455 0.000000 1.031879 0.000312
1136.372681 0.616930 0.000000 1.564284 0.000608
1150.378296 0.609272 0.000000 1.511136 0.000586
1272.927734 0.592608 0.000000 0.377519 0.000040
1281.002075 0.593572 0.000000 0.563595 0.000169
1321.091431 0.683614 0.000000 9.833293 0.003308
1381.569946 0.583227 0.000000 0.237771 0.000066
1454.936157 0.660436 0.000000 10.314936 0.004152
1612.376953 0.537652 0.000000 0.711661 0.000205
1664.870850 0.548768 0.000000 5.262279 0.003005
finalresult GLS_NoMatch 0
spectrum 2048
-96.894104 45592.000000
-94.267235 45592.000000
-91.642242 46120.000000
-89.019142 46094.000000
-86.397911 46985.000000
-83.778580 46808.000000
-81.161110 47005.000000
-78.545517 46801.000000
-75.931801 47060.000000
-73.319962 47294.000000
-70.709984 47348.000000
-68.101891 47494.000000
-65.495644 47509.000000
-62.891277 47552.000000
-60.288769 47380.000000
-57.688114 47889.000000
-55.089321 47331.000000
-52.492386 46674.000000
-49.897305 47072.000000
-47.304077 47016.000000
-44.712700 47285.000000
-42.123169 46778.000000
-39.535480 47624.000000
-36.949642 47480.000000
-34.365646 46991.000000
-31.783485 47782.000000
-29.203173 47096.000000
-26.624687 47687.000000
-24.048044 47252.000000
-21.473227 47117.000000
-18.900249 46923.000000
-16.329092 46813.000000
-13.759768 46526.000000
-11.192270 45479.000000
-8.626591 46893.000000
-6.062737 46678.000000
-3.500697 47083.000000
-0.940481 47212.000000
1.617927 46582.000000
4.174514 45831.000000
6.729297 45937.000000
9.282262 46239.000000
11.833426 45069.000000
14.382778 44775.000000
16.930334 43945.000000
19.476078 44090.000000
22.020029 43557.000000
24.562176 41109.000000
27.102526 39026.000000
29.641090 36074.000000
32.177856 31855.000000
34.712822 21402.000000
37.246010 12325.000000
39.777416 8583.000000
42.307030 8171.000000
44.834846 7446.000000
47.360905 6668.000000
49.885174 5895.000000
52.407673 5297.000000
54.928375 4807.000000
57.447323 5023.000000
59.964497 6040.000000
62.479893 7655.000000
64.993515 7915.000000
67.505379 7873.000000
70.015495 6114.000000
72.523819 4248.000000
75.030388 3314.000000
77.535210 2837.000000
80.038277 2413.000000
82.539566 2236.000000
85.039116 2136.000000
87.536911 2060.000000
90.032974 2362.000000
92.527260 2930.000000
95.019806 3099.000000
97.510635 2828.000000
99.999695 2523.000000
102.487007 1964.000000
104.972595 1743.000000
107.456444 1557.000000
109.938545 1436.000000
112.418922 1474.000000
114.897575 1332.000000
117.374504 1317.000000
119.849678 1315.000000
122.323143 1344.000000
124.794876 1364.000000
127.264900 1488.000000
129.733170 1623.000000
132.199768 1766.000000
134.664612 2012.000000
137.127762 2199.000000
139.589172 2717.000000
142.048889 3249.000000
144.506882 3995.000000
146.963181 5101.000000
149.417770 6469.000000
151.870636 7821.000000
154.321823 9619.000000
156.771317 11858.000000
159.219086 13969.000000
161.665146 16714.000000
164.109528 18842.000000
166.552231 22442.000000
168.993240 24365.000000
171.432541 26230.000000
173.870132 26144.000000
176.306091 27341.000000
178.740311 27545.000000
181.172852 27765.000000
183.603745 28791.000000
186.032913 28983.000000
188.460434 30325.000000
190.886276 32082.000000
193.310440 33651.000000
195.732941 34457.000000
198.153748 35195.000000
200.572891 36958.000000
202.990372 38268.000000
205.406158 37474.000000
207.820297 38779.000000
210.232803 40365.000000
212.643631 41505.000000
215.052780 42172.000000
217.460297 41531.000000
219.866104 43078.000000
222.270325 43014.000000
224.672836 43009.000000
227.073730 42816.000000
229.472977 43357.000000
231.870560 42921.000000
234.266479 42616.000000
236.660782 43362.000000
239.053421 43692.000000
241.444443 43013.000000
243.833801 43167.000000
246.221542 43231.000000
248.607635 42620.000000
250.992096 43379.000000
253.374908 41618.000000
255.756149 42789.000000
258.135681 42670.000000
260.513641 42816.000000
262.889923 41697.000000
265.264648 41584.000000
267.637726 41149.000000
270.009155 42872.000000
272.378937 42449.000000
274.747162 42973.000000
277.113739 42483.000000
279.478729 42285.000000
281.842102 42645.000000
284.203827 42426.000000
286.563965 41455.000000
288.922485 42626.000000
291.279419 42027.000000
293.634735 42139.000000
295.988464 42528.000000
298.340546 42407.000000
300.691071 42104.000000
303.040009 41955.000000
305.387299 41558.000000
307.733063 41912.000000
310.077148 41734.000000
312.419708 40848.000000
314.760651 40691.000000
317.099976 40916.000000
319.437744 41096.000000
321.773956 39860.000000
324.108521 41612.000000
326.441528 41395.000000
328.772980 41808.000000
331.102844 41093.000000
333.431122 41348.000000
335.757782 40537.000000
338.082947 41434.000000
340.406494 41487.000000
342.728485 41691.000000
345.048920 40175.000000
347.367737 40015.000000
349.684998 41724.000000
352.000732 41802.000000
354.314880 40707.000000
356.627441 41447.000000
358.938446 41350.000000
361.247925 40740.000000
363.555878 41367.000000
365.862213 42158.000000
368.166962 41290.000000
370.470245 41507.000000
372.771912 41719.000000
375.072083 41590.000000
377.370697 41713.000000
379.667755 42369.000000
381.963257 42026.000000
384.257233 42414.000000
386.549622 43091.000000
388.840515 42793.000000
391.129883 42326.000000
393.417664 42256.000000
395.703918 42089.000000
397.988678 41555.000000
400.271820 42569.000000
402.553528 42140.000000
404.833710 42412.000000
407.112305 41333.000000
409.389374 41998.000000
411.664917 41671.000000
413.938934 41800.000000
416.211517 41792.000000
418.482483 41711.000000
420.751953 41773.000000
423.019928 41082.000000
425.286346 40855.000000
427.551270 41748.000000
429.814728 41551.000000
432.076599 41327.000000
434.337006 41663.000000
436.595856 40902.000000
438.853241 41339.000000
441.109131 41693.000000
443.363525 41373.000000
445.616394 41666.000000
447.867706 40077.000000
450.117615 40859.000000
452.365936 40571.000000
454.612823 41186.000000
456.858246 40240.000000
459.102112 40285.000000
461.344482 40254.000000
463.585358 41143.000000
465.824829 39947.000000
468.062714 41289.000000
470.299164 40769.000000
472.534088 40623.000000
474.767548 39294.000000
476.999573 40042.000000
479.230072 40867.000000
481.459076 40105.000000
483.686615 40318.000000
485.912659 40668.000000
488.137268 40016.000000
490.360413 40761.000000
492.582092 40226.000000
494.802216 39885.000000
497.020935 41000.000000
499.238159 40371.000000
501.454010 40999.000000
503.668243 40405.000000
505.881165 40102.000000
508.092499 40108.000000
510.302399 39687.000000
512.510864 39950.000000
514.717957 39881.000000
516.923462 39913.000000
519.127563 39693.000000
521.330139 39974.000000
523.531311 39484.000000
525.731140 39310.000000
527.929443 38965.000000
530.126221 40398.000000
532.321655 39820.000000
534.515564 39980.000000
536.708130 38055.000000
538.899170 38798.000000
541.088806 39288.000000
543.277039 38329.000000
545.463745 37983.000000
547.648987 38090.000000
549.832947 38576.000000
552.015320 38383.000000
554.196350 38471.000000
556.375854 38595.000000
558.554077 38672.000000
560.730774 38571.000000
562.906067 38179.000000
565.079956 38149.000000
567.252380 38637.000000
569.423401 38592.000000
571.592957 38314.000000
573.761230 39438.000000
575.927979 38182.000000
578.093262 38486.000000
580.257141 38576.000000
582.419739 39037.000000
584.580811 38728.000000
586.740479 39140.000000
588.898804 39063.000000
591.055603 38705.000000
593.211060 38290.000000
595.365112 39029.000000
597.517822 38752.000000
599.669006 37693.000000
601.818848 38065.000000
603.967346 38132.000000
606.114258 38690.000000
608.259949 38236.000000
610.404236 38259.000000
612.547058 37586.000000
614.688416 38345.000000
616.828552 37992.000000
618.967163 36685.000000
621.104492 38598.000000
623.240356 37556.000000
625.374817 37213.000000
627.507813 36796.000000
629.639648 37306.000000
631.770020 37165.000000
633.898987 36904.000000
636.026489 37055.000000
638.152710 37267.000000
640.277405 36008.000000
642.400879 36946.000000
644.523010 36388.000000
646.643677 36286.000000
648.763000 36413.000000
650.880920 37232.000000
652.997498 37135.000000
655.112671 36468.000000
657.226501 36420.000000
659.338867 37025.000000
661.450012 36624.000000
663.559753 37485.000000
665.668030 36925.000000
667.775146 36751.000000
669.880798 36197.000000
671.984985 37176.000000
674.087952 37411.000000
676.189514 36127.000000
678.289734 37925.000000
680.388550 36503.000000
682.486023 37225.000000
684.582214 36450.000000
686.676941 36927.000000
688.770447 36210.000000
690.862610 36623.000000
692.953247 35343.000000
695.042664 36540.000000
697.130798 36613.000000
699.217468 36945.000000
701.302917 36083.000000
703.386841 37503.000000
705.469543 36536.000000
707.550964 36471.000000
709.630920 34737.000000
711.709656 35871.000000
713.786926 36305.000000
715.862915 35388.000000
717.937622 36014.000000
720.011047 35054.000000
722.082947 35817.000000
724.153687 34738.000000
726.223083 36081.000000
728.291077 35176.000000
730.357727 35223.000000
732.423157 34362.000000
734.487244 35595.000000
736.549988 35059.000000
738.611389 34705.000000
740.671509 34665.000000
742.730225 35172.000000
744.787720 34578.000000
746.843933 34635.000000
748.898743 34465.000000
750.952271 34779.000000
753.004395 33652.000000
755.055298 35228.000000
757.104980 34413.000000
759.153198 34899.000000
761.200195 35111.000000
763.245911 34336.000000
765.290222 36208.000000
767.333252 35963.000000
769.375061 35230.500000
771.415527 34498.000000
773.454590 34596.000000
775.492493 34848.000000
777.529053 35113.000000
779.564392 35908.000000
781.598389 35709.000000
783.630981 34767.000000
785.662415 36351.000000
787.692444 36027.500000
789.721191 35704.000000
791.748779 35030.000000
793.775024 34970.000000
795.799866 35534.000000
797.823608 35949.000000
799.845947 35155.000000
801.867065 35635.000000
803.886841 34797.000000
805.905334 36541.000000
807.922607 34690.000000
809.938477 34526.000000
811.953186 35374.000000
813.966553 34482.000000
815.978699 34458.000000
817.989624 34453.000000
819.999207 33724.000000
822.007568 34876.000000
824.014526 34307.000000
826.020264 33968.000000
828.024780 34201.000000
830.028015 34223.000000
832.029968 33563.000000
834.030640 33878.000000
836.030090 34032.000000
838.028198 33669.000000
840.025208 32950.000000
842.020813 33686.000000
844.015259 33651.000000
846.008362 33408.000000
848.000244 32755.000000
849.990784 33908.000000
851.980042 32783.000000
853.968262 33638.000000
855.955078 34065.000000
857.940674 33849.000000
859.924988 33384.000000
861.908203 34559.000000
863.890015 34861.000000
865.870605 35798.000000
867.849915 34286.000000
869.828064 35213.000000
871.804871 36306.000000
873.780396 36489.000000
875.754883 36687.000000
877.727905 36929.000000
879.699890 37430.000000
881.670532 36204.000000
883.640015 36027.000000
885.608154 35966.000000
887.575134 35765.000000
889.540771 34407.000000
891.505249 34312.000000
893.468506 33922.000000
895.430542 33163.000000
897.391296 33671.000000
899.350830 33026.000000
901.309082 32712.000000
903.266235 32909.000000
905.222229 33079.000000
907.176819 32085.000000
909.130188 32421.000000
911.082397 32248.000000
913.033386 32026.000000
914.983093 31053.000000
916.931641 31506.000000
918.878967 31333.000000
920.825012 31085.000000
922.769775 30851.000000
924.713501 30318.000000
926.656067 30464.000000
928.597351 30621.000000
930.537292 29654.000000
932.476135 30239.000000
934.413696 30343.000000
936.350037 29979.000000
938.285217 30158.000000
940.219116 29931.000000
942.151917 30089.000000
944.083496 29331.000000
946.013916 30806.000000
947.943115 29667.000000
949.870972 29319.000000
951.797791 29673.000000
953.723328 30282.000000
955.647583 30892.000000
957.570740 30514.000000
959.492737 30022.000000
961.413452 29514.000000
963.333008 30377.000000
965.251404 31380.000000
967.168762 30323.000000
969.084656 30456.000000
970.999451 30633.000000
972.913025 30821.000000
974.825439 30436.000000
976.736633 30286.000000
978.646667 31199.000000
980.555420 30439.000000
982.463135 30487.000000
984.369629 30268.000000
986.274902 30875.000000
988.179077 29802.000000
990.082031 30301.000000
991.983765 29642.000000
993.884338 29732.000000
995.783752 29430.000000
997.681946 30515.000000
999.578979 29221.000000
1001.474792 29012.000000
1003.369446 27717.000000
1005.263000 29529.000000
1007.155273 27674.000000
1009.046631 28663.000000
1010.936646 29192.000000
1012.825439 27970.000000
1014.713074 28274.000000
1016.599548 27712.000000
1018.484863 27845.000000
1020.369019 28473.000000
1022.251953 28584.000000
1024.133789 28237.000000
1026.014404 29360.000000
1027.893921 28831.000000
1029.772461 28790.000000
1031.649658 29576.000000
1033.525513 29054.000000
1035.400391 29612.000000
1037.274292 29179.000000
1039.146729 28784.000000
1041.018188 29176.000000
1042.888306 30329.000000
1044.757446 30431.000000
1046.625366 30411.000000
1048.492188 29419.000000
1050.357910 29744.000000
1052.222412 29810.000000
1054.085815 29701.000000
1055.947876 29601.000000
1057.808960 30026.000000
1059.668945 29429.000000
1061.527588 29273.000000
1063.385132 30114.000000
1065.241577 29242.000000
1067.096924 30132.000000
1068.951050 30202.000000
1070.804321 29893.000000
1072.656128 29948.000000
1074.506958 30201.000000
1076.356567 30163.000000
1078.204956 30536.000000
1080.052490 28429.000000
1081.898682 30537.000000
1083.743652 29607.000000
1085.587769 30377.000000
1087.430542 29979.000000
1089.272095 28886.000000
1091.112915 29642.000000
1092.952148 29130.000000
1094.790649 28661.000000
1096.627808 28494.000000
1098.463745 27508.000000
1100.298706 27428.000000
1102.132446 28173.000000
1103.965210 27826.000000
1105.796631 27445.000000
1107.627197 26480.000000
1109.456421 26940.000000
1111.284668 26577.000000
1113.111694 25772.000000
1114.937744 27242.000000
1116.762573 26424.000000
1118.586304 25820.000000
1120.408813 26793.000000
1122.230225 26947.000000
1124.050781 27020.000000
1125.869873 26628.000000
1127.688110 26244.000000
1129.505005 26165.000000
1131.321045 26449.000000
1133.135864 26473.000000
1134.949585 27111.000000
1136.762207 27103.000000
1138.573608 27501.000000
1140.384033 27082.000000
1142.193359 26655.000000
1144.001343 26395.000000
1145.808594 27178.000000
1147.614380 26958.000000
1149.419312 27407.000000
1151.223145 27359.000000
1153.025757 26910.000000
1154.827515 26957.000000
1156.627808 26764.000000
1158.427124 26562.000000
1160.225464 26597.000000
1162.022461 26820.000000
1163.818726 26426.000000
1165.613647 26284.000000
1167.407471 26041.000000
1169.200439 24658.000000
1170.992065 26024.000000
1172.782715 25111.000000
1174.572388 25519.000000
1176.360596 25781.000000
1178.147949 24528.000000
1179.934204 25096.000000
1181.719360 25594.000000
1183.503418 25507.000000
1185.286377 24198.000000
1187.068359 25161.000000
1188.849121 25184.000000
1190.628906 25020.000000
1192.407593 24471.000000
1194.185303 24687.000000
1195.961792 24103.000000
1197.737183 24241.000000
1199.511475 24044.000000
1201.284668 23729.000000
1203.057007 23667.000000
1204.828003 23419.000000
1206.598145 23823.000000
1208.367065 23551.000000
1210.134888 23403.000000
1211.901855 23526.000000
1213.667480 23617.000000
1215.432129 23295.000000
1217.195679 23329.000000
1218.958130 23574.000000
1220.719727 23096.000000
1222.480103 23467.000000
1224.239380 23158.000000
1225.997803 23478.000000
1227.755005 23024.000000
1229.511108 23248.000000
1231.266113 23777.000000
1233.020264 23432.000000
1234.773071 23604.000000
1236.524902 23784.000000
1238.275879 23843.000000
1240.025513 24623.000000
1241.774292 23735.000000
1243.521729 24205.000000
1245.268433 24008.000000
1247.013916 24262.000000
1248.758545 24282.000000
1250.501831 24001.000000
1252.244141 23791.000000
1253.985352 23925.000000
1255.725708 23851.000000
1257.464966 23316.000000
1259.203003 22746.000000
1260.940186 22510.000000
1262.676147 22986.000000
1264.411133 23318.000000
1266.145142 23017.000000
1267.878174 24084.000000
1269.609985 24192.000000
1271.340820 24349.000000
1273.070435 23808.000000
1274.799194 24405.000000
1276.526855 24477.000000
1278.253418 24756.000000
1279.979126 24683.000000
1281.703491 23988.000000
1283.427002 24745.000000
1285.149536 23778.000000
1286.871094 23979.000000
1288.591431 23987.000000
1290.310791 23704.000000
1292.029053 23277.000000
1293.746338 23524.000000
1295.462646 23899.000000
1297.177734 23526.000000
1298.891846 23665.000000
1300.604980 23637.000000
1302.317261 23344.000000
1304.028320 22155.000000
1305.738403 23025.000000
1307.447388 22554.000000
1309.155151 22594.000000
1310.862305 22211.000000
1312.567993 22642.000000
1314.272949 22323.000000
1315.976929 23289.000000
1317.679688 25091.000000
1319.381470 25890.000000
1321.082397 27695.000000
1322.781982 25274.000000
1324.480713 23716.000000
1326.178711 22158.000000
1327.875366 21860.000000
1329.570923 21539.000000
1331.265625 21493.000000
1332.959106 21640.000000
1334.651733 21728.000000
1336.343506 20999.000000
1338.033936 21539.000000
1339.723633 21226.000000
1341.412231 21596.000000
1343.099731 20964.000000
1344.786255 21350.000000
1346.471680 21149.000000
1348.156128 21411.000000
1349.839722 21088.000000
1351.522095 21295.000000
1353.203491 21680.000000
1354.884033 21606.000000
1356.563354 21790.000000
1358.242065 21993.000000
1359.919434 22127.000000
1361.595703 22308.000000
1363.270996 22316.000000
1364.945557 22159.000000
1366.618896 22038.000000
1368.291260 21874.000000
1369.962646 22303.000000
1371.633057 21973.000000
1373.302368 22073.000000
1374.970703 22251.000000
1376.638184 22275.000000
1378.304565 21850.000000
1379.969971 22106.000000
1381.634399 21937.000000
1383.297607 21674.000000
1384.960205 21730.000000
1386.621460 21601.000000
1388.281860 21353.000000
1389.941162 21249.000000
1391.599487 21011.000000
1393.257080 21024.000000
1394.913452 21121.000000
1396.568970 21051.000000
1398.223267 21142.000000
1399.876709 21242.000000
1401.529053 21480.000000
1403.180664 21434.000000
1404.831055 20978.000000
1406.480347 20803.000000
1408.128906 20128.000000
1409.776367 19916.000000
1411.422852 19880.000000
1413.068481 19979.000000
1414.713135 19735.000000
1416.356567 19683.000000
1417.999146 19672.000000
1419.640625 19557.000000
1421.281250 19507.000000
1422.920898 19725.000000
1424.559448 19681.000000
1426.197144 19405.000000
1427.833740 19282.000000
1429.469360 19426.000000
1431.104248 19138.000000
1432.738037 19167.000000
1434.370728 19302.000000
1436.002441 19129.000000
1437.633301 19236.000000
1439.263062 19412.000000
1440.891724 19049.000000
1442.519775 19464.000000
1444.146729 19646.000000
1445.772461 19647.000000
1447.397583 20067.000000
1449.021606 20334.000000
1450.644653 20569.000000
1452.266724 21011.000000
1453.887695 20813.000000
1455.507690 21406.000000
1457.126953 21732.000000
1458.744873 24701.000000
1460.362183 15499.000000
1461.978516 20487.000000
1463.593628 19804.000000
1465.207886 19900.000000
1466.821289 20002.000000
1468.433594 20110.000000
1470.045044 19926.000000
1471.655640 19616.000000
1473.265015 19747.000000
1474.873413 19572.000000
1476.480957 19763.000000
1478.087524 19515.000000
1479.693359 19816.000000
1481.297974 19578.000000
1482.901733 19383.000000
1484.504272 18826.000000
1486.106201 18421.000000
1487.706909 18512.000000
1489.306885 18188.000000
1490.905762 17774.000000
1492.503784 17999.000000
1494.100708 17839.000000
1495.696777 18480.000000
1497.291870 19091.000000
1498.885986 18880.000000
1500.479370 18733.000000
1502.071655 18598.000000
1503.662720 18708.000000
1505.253296 18503.000000
1506.842529 18280.000000
1508.431152 18150.000000
1510.018677 17905.000000
1511.605103 17892.000000
1513.190796 17833.000000
1514.775391 17873.000000
1516.359131 17947.000000
1517.941772 17778.000000
1519.523682 17709.000000
1521.104492 17825.000000
1522.684570 17685.000000
1524.263428 17301.000000
1525.841431 17228.000000
1527.418701 17249.000000
1528.994751 17083.000000
1530.570068 16954.000000
1532.144287 16818.000000
1533.717773 16868.000000
1535.290039 16814.000000
1536.861572 16749.000000
1538.432129 16896.000000
1540.001831 16647.000000
1541.570313 16785.000000
1543.138062 16724.000000
1544.704956 16606.000000
1546.270630 16563.000000
1547.835571 16538.000000
1549.399414 16321.000000
1550.962646 16183.000000
1552.524536 16223.000000
1554.085815 16418.000000
1555.645996 16256.000000
1557.205444 16297.000000
1558.763794 16257.000000
1560.321411 16029.000000
1561.877930 16140.000000
1563.433228 16120.000000
1564.987915 16145.000000
1566.541870 16341.000000
1568.094849 16139.000000
1569.646484 16245.000000
1571.197388 16355.000000
1572.747559 16151.000000
1574.296753 16335.000000
1575.844604 16394.000000
1577.391968 16293.000000
1578.938354 16302.000000
1580.483887 16307.000000
1582.028442 16405.000000
1583.571777 16320.000000
1585.114502 16310.000000
1586.656372 16195.000000
1588.197144 16241.000000
1589.736938 16387.000000
1591.276001 16288.000000
1592.813965 16145.000000
1594.351440 16187.000000
1595.887573 16285.000000
1597.422607 16322.000000
1598.957153 16012.000000
1600.490723 15989.000000
1602.023438 15954.000000
1603.554565 16223.000000
1605.085449 16304.000000
1606.615479 16275.000000
1608.144287 15818.000000
1609.671997 16107.000000
1611.199097 16210.000000
1612.725464 16217.000000
1614.250854 16221.000000
1615.775391 16065.000000
1617.298584 16053.000000
1618.821045 16168.000000
1620.342773 16066.000000
1621.863647 16957.000000
1623.383057 14382.000000
1624.901978 15963.000000
1626.420166 15844.000000
1627.937500 15941.000000
1629.453735 15919.000000
1630.968628 15705.000000
1632.483032 15554.000000
1633.996704 15736.000000
1635.509277 15705.000000
1637.020630 15570.000000
1638.531616 15379.000000
1640.041504 15629.000000
1641.550537 15563.000000
1643.058228 15363.000000
1644.565552 15316.000000
1646.072021 15185.000000
1647.577515 15174.000000
1649.082153 15106.000000
1650.585327 15214.000000
1652.087891 14997.000000
1653.590088 14983.000000
1655.090942 14977.000000
1656.590698 14671.000000
1658.089600 14743.000000
1659.588135 14618.000000
1661.085449 14833.000000
1662.582031 14694.000000
1664.077026 14426.000000
1665.571777 14374.000000
1667.065674 14323.000000
1668.558594 17189.000000
1670.050171 10832.000000
1671.541260 13965.000000
1673.031738 13988.000000
1674.521118 13882.000000
1676.009033 13826.000000
1677.496704 13837.000000
1678.983398 14001.000000
1680.469238 13985.000000
1681.954224 13775.000000
1683.437744 13404.000000
1684.921021 13497.000000
1686.403442 13517.000000
1687.884766 13510.000000
1689.364624 13570.000000
1690.844238 13528.000000
1692.323120 13405.000000
1693.801025 13263.000000
1695.277954 13437.000000
1696.753662 13465.000000
1698.229004 13332.000000
1699.703125 13261.000000
1701.176636 13205.000000
1702.648682 13390.000000
1704.120483 13318.000000
1705.591309 13216.000000
1707.061279 13234.000000
1708.529907 13367.000000
1709.998047 13328.000000
1711.465454 13216.000000
1712.931763 13157.000000
1714.397461 13249.000000
1715.861450 13271.000000
1717.325317 13168.000000
1718.788330 13252.000000
1720.250366 13235.000000
1721.711182 13377.000000
1723.171387 13343.000000
1724.630859 13291.000000
1726.089478 13221.000000
1727.547119 13105.000000
1729.003418 13146.000000
1730.459473 13154.000000
1731.914551 13062.000000
1733.368652 12967.000000
1734.821533 12986.000000
1736.274170 13089.000000
1737.725708 12852.000000
1739.176514 12844.000000
1740.626343 12843.000000
1742.074829 12712.000000
1743.522949 12662.000000
1744.970215 12672.000000
1746.416748 12592.000000
1747.861694 12474.000000
1749.306396 12569.000000
1750.750244 12555.000000
1752.193237 12535.000000
1753.634766 12349.000000
1755.076050 13681.000000
1756.516479 10430.000000
1757.955933 12174.000000
1759.394409 12362.000000
1760.831909 12215.000000
1762.268921 11865.000000
1763.704956 12039.000000
1765.140137 12141.000000
1766.573853 11983.000000
1768.007446 12375.000000
1769.440063 12006.000000
1770.871826 12215.000000
1772.302734 12118.000000
1773.732422 12094.000000
1775.161377 11781.000000
1776.589844 11545.000000
1778.017334 11142.000000
1779.443481 10827.000000
1780.869385 11593.000000
1782.294189 11478.000000
1783.718384 11491.000000
1785.141113 11228.000000
1786.563354 11303.000000
1787.984863 11346.000000
1789.405640 11277.000000
1790.825439 11182.000000
1792.243896 11096.000000
1793.661865 11141.000000
1795.079224 11096.000000
1796.495728 11051.000000
1797.910767 10920.000000
1799.325439 10975.000000
1800.739502 10858.000000
1802.152344 11019.000000
1803.564575 10882.000000
1804.975464 10832.000000
1806.385864 10754.000000
1807.795532 10904.000000
1809.204224 10778.000000
1810.611816 10881.000000
1812.018921 10943.000000
1813.425171 10852.000000
1814.830444 11028.000000
1816.234619 11040.000000
1817.638428 11022.000000
1819.041260 10929.000000
1820.443237 10880.000000
1821.844604 10969.000000
1823.244507 11013.000000
1824.643799 10939.000000
1826.042603 10851.000000
1827.440552 10821.000000
1828.837158 10870.000000
1830.233154 10815.000000
1831.628418 10746.000000
1833.023071 10730.000000
1834.416748 10738.000000
1835.809082 10804.000000
1837.200928 10701.000000
1838.592163 10588.000000
1839.982422 10680.000000
1841.371460 10709.000000
1842.760132 10612.000000
1844.147827 10602.000000
1845.534790 10656.000000
1846.920410 10477.000000
1848.305786 10558.000000
1849.690308 10512.000000
1851.074097 10443.000000
1852.456787 10492.000000
1853.838257 10351.000000
1855.219238 10277.000000
1856.599731 10237.000000
1857.979248 10242.000000
1859.357300 10224.000000
1860.735229 10186.000000
1862.112183 10011.000000
1863.488403 10086.000000
1864.863770 10013.000000
1866.237671 9941.000000
1867.611450 9872.000000
1868.984375 9745.000000
1870.356201 9977.000000
1871.727051 9823.000000
1873.097534 9837.000000
1874.466919 9677.000000
1875.835815 9614.000000
1877.203125 9571.000000
1878.570313 9473.000000
1879.936523 9494.000000
1881.302002 9514.000000
1882.666748 9335.000000
1884.029907 9446.000000
1885.392944 9397.000000
1886.755127 9431.000000
1888.116455 9391.000000
1889.476440 9334.000000
1890.836060 9268.000000
1892.195068 9329.000000
1893.553101 9238.000000
1894.910278 9154.000000
1896.266235 9196.000000
1897.621948 9148.000000
1898.976685 9233.000000
1900.330566 9287.000000
1901.683350 9256.000000
1903.035645 9152.000000
1904.387207 9204.000000
1905.737915 9227.000000
1907.087402 9301.000000
1908.436401 9239.000000
1909.784546 9289.000000
1911.132080 9284.000000
1912.478882 9106.000000
1913.824097 9215.000000
1915.169067 9254.000000
1916.513306 9349.000000
1917.856689 9263.000000
1919.198730 9305.000000
1920.540527 9190.000000
1921.881470 9208.000000
1923.221680 9245.000000
1924.560913 9250.000000
1925.899170 9089.000000
1927.236816 9159.000000
1928.573730 9156.000000
1929.909790 9131.000000
1931.244629 9141.000000
1932.579102 9069.000000
1933.912842 9026.000000
1935.245728 8929.000000
1936.577148 8997.000000
1937.908691 8914.000000
1939.238892 8786.000000
1940.568604 8944.000000
1941.897461 8993.000000
1943.225098 8935.000000
1944.552246 8964.000000
1945.878662 8847.000000
1947.204346 8856.000000
1948.528687 8782.000000
1949.852783 8770.000000
1951.176025 8743.000000
1952.498535 8747.000000
1953.819946 8776.000000
1955.140381 8599.000000
1956.460205 8660.000000
1957.779663 8670.000000
1959.098145 8542.000000
1960.415283 8601.000000
1961.732056 8474.000000
1963.048096 8301.000000
1964.363403 8468.000000
1965.677246 8609.000000
1966.990845 8521.000000
1968.303711 8401.000000
1969.615723 8406.000000
1970.927124 8447.000000
1972.237183 8355.000000
1973.546753 8346.000000
1974.855591 8082.000000
1976.163818 8252.000000
1977.470703 8146.000000
1978.776978 8061.000000
1980.082886 8156.000000
1981.387573 8304.000000
1982.691772 8131.000000
1983.994751 8131.000000
1985.297363 8139.000000
1986.598999 8095.000000
1987.900024 7916.000000
1989.199463 7873.000000
1990.499023 7839.000000
1991.797485 7846.000000
1993.095459 7794.000000
1994.391846 7779.000000
1995.688232 7747.000000
1996.983643 7618.000000
1998.278320 7632.000000
1999.572144 7624.000000
2000.864746 7561.000000
2002.156860 7486.000000
2003.448486 7545.000000
2004.739380 7568.000000
2006.028687 7552.000000
2007.317749 7559.000000
2008.606079 7636.000000
2009.893677 7554.000000
2011.180420 7516.000000
2012.466064 7456.000000
2013.751343 7478.000000
2015.035645 7421.000000
2016.319336 7389.000000
2017.601685 7447.000000
2018.883667 7336.000000
2020.165161 7429.000000
2021.445679 7326.000000
2022.725464 7337.000000
2024.004150 7243.000000
2025.282104 7340.000000
2026.559570 7270.000000
2027.836426 7388.000000
2029.111572 7302.000000
2030.386841 7410.000000
2031.661133 7508.000000
2032.934448 7471.000000
2034.206909 7420.000000
2035.479004 7411.000000
2036.750000 7453.000000
2038.020752 7572.000000
2039.290161 7478.000000
2040.558472 7431.000000
2041.826782 7402.000000
2043.094116 7382.000000
2044.360718 7377.000000
2045.626099 7512.000000
2046.890869 7459.000000
2048.155518 7276.000000
2049.418701 7275.000000
2050.681641 7297.000000
2051.942627 7253.000000
2053.204102 7241.000000
2054.464355 7060.000000
2055.723877 7178.000000
2056.982666 7135.000000
2058.240479 7150.000000
2059.497803 7142.000000
2060.754395 7105.000000
2062.009521 7116.000000
2063.264648 6994.000000
2064.518799 7128.000000
2065.772217 7060.000000
2067.024902 6983.000000
2068.276367 6995.000000
2069.527588 6932.000000
2070.778076 7031.000000
2072.027832 7064.000000
2073.276123 6654.000000
2074.524414 6885.000000
2075.771729 6873.000000
2077.018311 6846.000000
2078.264160 6820.000000
2079.508789 6753.000000
2080.752930 6815.000000
2081.996582 6767.000000
2083.239258 6712.000000
2084.480713 6644.000000
2085.721924 6591.000000
2086.962646 6706.000000
2088.202393 6609.000000
2089.440918 6617.000000
2090.678955 6596.000000
2091.916260 6526.000000
2093.153320 6639.000000
2094.388916 6566.000000
2095.623779 6462.000000
2096.858398 6603.000000
2098.092041 6607.000000
2099.324707 6409.000000
2100.556641 6439.000000
2101.788086 6436.000000
2103.018555 6477.000000
2104.248291 6495.000000
2105.477783 6365.000000
2106.705322 6314.000000
2107.933105 6327.000000
2109.160156 6159.000000
2110.386230 6241.000000
2111.610840 6146.000000
2112.835693 6132.000000
2114.059326 6189.000000
2115.282471 6182.000000
2116.504395 6263.000000
2117.726074 6123.000000
2118.946777 6215.000000
2120.166748 6238.000000
2121.386230 6243.000000
2122.604248 6271.000000
2123.822266 6201.000000
2125.039307 6295.000000
2126.255859 6293.000000
2127.470703 6286.000000
2128.685791 6234.000000
2129.899902 6330.000000
2131.113281 6217.000000
2132.325928 6026.000000
2133.537109 6061.000000
2134.748535 6144.000000
2135.958740 6257.000000
2137.168457 6097.000000
2138.376709 6029.000000
2139.584961 6074.000000
2140.792480 5996.000000
2141.998779 5993.000000
2143.204346 6074.000000
2144.409668 6101.000000
2145.614014 6011.000000
2146.817627 5917.000000
2148.020752 5922.000000
2149.222412 6136.000000
2150.423828 6095.000000
2151.624512 5913.000000
2152.824463 6087.000000
2154.023193 5940.000000
2155.221680 5972.000000
2156.419678 5946.000000
2157.616699 5770.000000
2158.812988 5938.000000
2160.008057 5748.000000
2161.202881 5733.000000
2162.396973 5652.000000
2163.590088 5719.000000
2164.782227 5431.000000
2165.974121 5647.000000
2167.165283 5638.000000
2168.355469 5536.000000
2169.544922 5621.000000
2170.733887 5462.000000
2171.921875 5347.000000
2173.109619 5435.000000
2174.295898 5343.000000
2175.481445 5294.000000
2176.666748 5336.000000
2177.851563 5233.000000
2179.035156 5298.000000
2180.218018 5289.000000
2181.399902 5360.000000
2182.581543 5183.000000
2183.762695 5227.000000
2184.942627 5264.000000
2186.121582 5261.000000
2187.300049 5195.000000
2188.478271 5142.000000
2189.655273 5219.000000
2190.831299 5152.000000
2192.007080 5174.000000
2193.182373 5234.000000
2194.356201 5381.000000
2195.529541 5221.000000
2196.702637 5172.000000
2197.874512 5251.000000
2199.045898 5196.000000
2200.216797 5370.000000
2201.385986 5210.000000
2202.555176 5231.000000
2203.723877 5151.000000
2204.891602 5260.000000
2206.058350 5237.000000
2207.224365 5264.000000
2208.389893 5178.000000
2209.555176 5202.000000
2210.718994 5160.000000
2211.882324 5163.000000
2213.044434 5119.000000
2214.206787 5072.000000
2215.367920 5048.000000
2216.528076 5084.000000
2217.687744 5042.000000
2218.847168 5105.000000
2220.005371 4928.000000
2221.162598 4972.000000
2222.319580 5041.000000
2223.475830 5067.000000
2224.631348 4963.000000
2225.786133 4871.000000
2226.939941 5012.000000
2228.092773 5003.000000
2229.246094 4831.000000
2230.397461 4886.000000
2231.548584 4958.000000
2232.698975 4860.000000
2233.848877 4778.000000
2234.997803 4845.000000
2236.146240 4840.000000
2237.293213 4456.000000
2238.440430 4785.000000
2239.586426 4656.000000
2240.732178 4743.000000
2241.876221 4660.000000
2243.020508 4696.000000
2244.163818 4565.000000
2245.306396 4556.000000
2246.447998 4666.000000
2247.589355 4548.000000
2248.729736 4496.000000
2249.869385 4534.000000
2251.008545 4473.000000
2252.146484 4479.000000
2253.284424 4365.000000
2254.421387 4404.000000
2255.557617 4363.000000
2256.692871 4478.000000
2257.827393 4361.000000
2258.961670 4435.000000
2260.095459 4700.000000
2261.227783 4521.000000
2262.359619 4359.000000
2263.490967 4367.000000
2264.621338 4171.000000
2265.751465 4271.000000
2266.880371 4206.000000
2268.008789 4187.000000
2269.136719 4154.000000
2270.263672 4178.000000
2271.389893 4175.000000
2272.515137 4257.000000
2273.640381 4186.000000
2274.764893 4279.000000
2275.888184 4269.000000
2277.010742 4226.000000
2278.132813 4225.000000
2279.254395 4112.000000
2280.375244 4169.000000
2281.494873 4150.000000
2282.614014 4164.000000
2283.732910 4078.000000
2284.851074 4008.000000
2285.968262 4003.000000
2287.084473 4081.000000
2288.200439 4040.000000
2289.315674 4096.000000
2290.430176 4052.000000
2291.543457 4123.000000
2292.656738 4037.000000
2293.769287 4129.000000
2294.881104 4109.000000
2295.992188 4088.000000
2297.102051 4141.000000
2298.211426 4205.000000
2299.320557 4077.000000
2300.428711 4118.000000
2301.535889 4143.000000
2302.642822 4082.000000
2303.749023 4185.000000
2304.854736 4169.000000
2305.958984 4083.000000
2307.062988 4025.000000
2308.166504 4020.000000
2309.269531 4015.000000
2310.371338 4059.000000
2311.472412 4010.000000
2312.572998 3965.000000
2313.673096 3968.000000
2314.772461 3963.000000
2315.870361 3941.000000
2316.968750 3820.000000
2318.065674 4013.000000
2319.162354 3872.000000
2320.258545 3915.000000
2321.353027 3942.000000
2322.447510 3835.000000
2323.541260 3785.000000
2324.634766 3789.000000
2325.726563 3878.000000
2326.818359 3752.000000
2327.909424 3853.000000
2328.999756 3789.000000
2330.089111 3910.000000
2331.178467 3844.000000
2332.266602 3796.000000
2333.354248 3789.000000
2334.441650 3769.000000
2335.527344 3740.000000
2336.612793 3636.000000
2337.697998 3760.000000
2338.782227 3630.000000
2339.865479 3551.000000
2340.948486 3612.000000
2342.030518 3529.000000
2343.112305 3580.000000
2344.193359 3580.000000
2345.273193 3478.000000
2346.352539 3516.000000
2347.431396 3563.000000
2348.509766 3496.000000
2349.586670 3411.000000
2350.663330 3408.000000
2351.739746 3405.000000
2352.815186 3473.000000
2353.889648 3384.000000
2354.963867 3386.000000
2356.037354 3380.000000
2357.110352 3446.000000
2358.182129 3426.000000
2359.253662 3384.000000
2360.324219 3209.000000
2361.394531 3293.000000
2362.463867 3320.000000
2363.532227 3331.000000
2364.600342 3267.000000
2365.667725 3202.000000
2366.734619 3246.000000
2367.800781 3233.000000
2368.865723 3207.000000
2369.930664 3022.000000
2370.994873 3189.000000
2372.058350 3331.000000
2373.120605 3218.000000
2374.182861 3274.000000
2375.244141 3119.000000
2376.305176 3153.000000
2377.364990 3134.000000
2378.424072 3176.000000
2379.483154 3176.000000
2380.541260 3094.000000
2381.598633 3170.000000
2382.655029 3104.000000
2383.711182 3176.000000
2384.766846 3116.000000
2385.821777 3028.000000
2386.875244 3099.000000
2387.928955 3091.000000
2388.981689 3072.000000
2390.033936 3212.000000
2391.085449 3108.000000
2392.135986 3102.000000
2393.186279 3134.000000
2394.235596 3077.000000
2395.284912 3117.000000
2396.332764 3036.000000
2397.380127 3148.000000
2398.427246 3152.000000
2399.473389 3082.000000
2400.518799 3110.000000
2401.563477 3077.000000
2402.608154 2929.000000
2403.651367 3000.000000
2404.694580 3055.000000
2405.736328 3081.000000
2406.778320 2982.000000
2407.819580 3053.000000
2408.859863 3077.000000
2409.899414 3082.000000
2410.937988 2987.000000
2411.976807 3013.000000
2413.014404 3017.000000
2414.051758 2954.000000
2415.087891 3009.000000
2416.123779 3005.000000
2417.158936 2982.000000
2418.193604 2927.000000
2419.226807 3013.000000
2420.260254 2945.000000
2421.292725 3030.000000
2422.324951 2927.000000
2423.355713 2953.000000
2424.386475 2930.000000
2425.416748 2983.000000
2426.445801 2911.000000
2427.474854 2797.000000
2428.502197 2842.000000
2429.530029 2877.000000
2430.556641 2894.000000
2431.583008 2867.000000
2432.607910 2889.000000
2433.633057 2883.000000
2434.657227 2802.000000
2435.681152 2795.000000
2436.703857 2734.000000
2437.725830 2831.000000
2438.747559 2698.000000
2439.768555 2600.000000
2440.789063 2638.000000
2441.808350 2771.000000
2442.827637 2598.000000
2443.845947 2685.000000
2444.864014 2644.000000
2445.880615 2621.000000
2446.897217 2695.000000
2447.913086 2581.000000
2448.928955 2614.000000
2449.943359 2455.000000
2450.957031 2670.000000
2451.970215 2607.000000
2452.983154 2542.000000
2453.995361 2544.000000
2455.006592 2482.000000
2456.017578 2516.000000
2457.027832 2607.000000
2458.037598 2535.000000
2459.046387 2539.000000
2460.054443 2561.000000
2461.062500 2452.000000
2462.069336 2447.000000
2463.075928 2494.000000
2464.081299 2490.000000
2465.086426 2503.000000
2466.091309 2404.000000
2467.094971 2417.000000
2468.098389 2395.000000
2469.100830 2517.000000
2470.103027 2439.000000
2471.104736 2516.000000
2472.105469 2386.000000
2473.105225 2414.000000
2474.104980 2410.000000
2475.103760 2397.000000
2476.102051 2392.000000
2477.099365 2481.000000
2478.096436 2483.000000
2479.093506 2344.000000
2480.089111 2371.000000
2481.084717 2367.000000
2482.078613 2343.000000
2483.072510 2334.000000
2484.065918 2428.000000
2485.058838 2382.000000
2486.050781 2350.000000
2487.041992 2367.000000
2488.032959 2304.000000
2489.023438 2352.000000
2490.012939 2348.000000
2491.001709 2448.000000
2491.990479 2475.000000
2492.978271 2283.000000
2493.964844 2433.000000
2494.951416 2204.000000
2495.937500 2377.000000
2496.922852 2435.000000
2497.907227 2366.000000
2498.891357 2435.000000
2499.875488 2392.000000
2500.858154 2394.000000
2501.840332 2354.000000
2502.822021 2313.000000
2503.802979 2350.000000
2504.783447 2293.000000
2505.763672 2292.000000
2506.742432 2313.000000
2507.720947 2393.000000
2508.698975 2256.000000
2509.676514 2219.000000
2510.653076 2245.000000
2511.629395 2413.000000
2512.604980 2299.000000
2513.580078 2267.000000
2514.554688 2257.000000
2515.528076 2279.000000
2516.501221 2246.000000
2517.474121 2222.000000
2518.446045 2190.000000
2519.417236 2154.000000
2520.387939 2187.000000
2521.358398 2105.000000
2522.328125 2092.000000
2523.296875 2148.000000
2524.264893 2191.000000
2525.232910 2150.000000
2526.199951 2210.000000
2527.166748 2060.000000
2528.132324 2152.000000
2529.097900 2139.000000
2530.062744 2140.000000
2531.027100 2135.000000
2531.990234 2136.000000
2532.953613 2036.000000
2533.916016 2134.000000
2534.878174 2179.000000
2535.839111 2055.000000
2536.799316 2107.000000
2537.759766 2104.000000
2538.719238 2104.000000
2539.677979 2046.000000
2540.635742 2086.000000
2541.593750 2022.000000
2542.551025 1992.000000
2543.507324 2060.000000
2544.463379 2019.000000
2545.418213 1879.000000
2546.373291 1908.000000
2547.327637 1967.000000
2548.281250 1792.000000
2549.233887 1970.000000
2550.186279 1921.000000
2551.138184 1944.000000
2552.089355 1970.000000
2553.039795 2024.000000
2553.989746 1940.000000
2554.939453 1887.000000
2555.888428 1816.000000
2556.836914 1872.000000
2557.784180 1891.000000
2558.731445 1851.000000
2559.677979 1911.000000
2560.624023 1868.000000
2561.569092 2023.000000
2562.513916 1921.000000
2563.458252 1834.000000
2564.402100 1791.000000
2565.345459 1789.000000
2566.287354 1910.000000
2567.229492 1847.000000
2568.170898 1844.000000
2569.111572 1837.000000
2570.051514 1749.000000
2570.991455 1797.000000
2571.930420 1845.000000
2572.869141 1887.000000
2573.806885 1834.000000
2574.744385 1847.000000
2575.681152 1791.000000
2576.617188 1870.000000
2577.552734 1849.000000
2578.487549 1800.000000
2579.422363 1794.000000
2580.356201 1861.000000
2581.289551 1471.000000
2582.222168 1837.000000
2583.154541 1928.000000
2584.086182 1759.000000
2585.017334 1774.000000
2585.947998 1691.000000
2586.877441 1815.000000
2587.806885 1709.000000
2588.735840 1754.000000
2589.664551 1721.000000
2590.591553 1786.000000
2591.518799 1798.000000
2592.445557 1738.000000
2593.371582 1703.000000
2594.297363 1809.000000
2595.221924 1837.000000
2596.146240 1716.000000
2597.070068 1829.000000
2597.993408 1718.000000
2598.915771 1711.000000
2599.837891 1811.000000
2600.759521 1623.000000
2601.680420 1755.000000
2602.600586 1657.000000
2603.520508 1722.000000
2604.439941 1738.000000
2605.359131 1726.000000
2606.277344 1690.000000
2607.194336 1647.000000
2608.111572 1664.000000
2609.028564 1707.000000
2609.944580 1720.000000
2610.859375 1659.000000
2611.774658 1657.000000
2612.689209 1625.000000
2613.602783 1645.000000
2614.516357 1637.000000
2615.428711 1525.000000
2616.341064 1674.000000
2617.252441 1618.000000
2618.163574 1642.000000
2619.073975 1682.000000
2619.984131 1597.000000
2620.893555 1540.000000
2621.802490 1677.000000
2622.710449 1492.000000
2623.618652 1565.000000
2624.525879 1634.000000
2625.432617 1571.000000
2626.338623 1563.000000
2627.244385 1540.000000
2628.149414 1335.000000
2629.054199 1547.000000
2629.958252 1529.000000
2630.861328 1433.000000
2631.764404 1544.000000
2632.666504 1489.000000
2633.568604 1534.000000
2634.470459 1465.000000
2635.370605 1518.000000
2636.270996 1491.000000
2637.170654 1438.000000
2638.070068 1477.000000
2638.968018 1477.000000
2639.866455 1480.000000
2640.764404 1433.000000
2641.661621 1531.000000
2642.557617 1381.000000
2643.453613 1603.000000
2644.349365 1444.000000
2645.244385 1503.000000
2646.139160 1394.000000
2647.032471 1466.000000
2647.925781 1414.000000
2648.818848 1377.000000
2649.711670 1430.000000
2650.602783 1451.000000
2651.494141 1448.000000
2652.385010 1283.000000
2653.275146 1318.000000
2654.165039 1396.000000
2655.053711 1454.000000
2655.942627 1412.000000
2656.831055 1379.000000
2657.718506 1248.000000
2658.604980 1359.000000
2659.491943 1355.000000
2660.378174 1399.000000
2661.263916 1358.000000
2662.148438 1359.000000
2663.032959 1226.000000
2663.917236 1405.000000
2664.800781 1354.000000
2665.683838 1317.000000
2666.566162 1455.000000
2667.447998 1385.000000
2668.329102 1403.000000
2669.210449 1419.000000
2670.090332 1413.000000
2670.970459 1394.000000
2671.849854 1309.000000
2672.729248 1318.000000
2673.607910 1346.000000
2674.484863 1298.000000
2675.362549 1356.000000
2676.239502 1406.000000
2677.115723 1376.000000
2677.991455 1324.000000
2678.866455 1353.000000
2679.741699 1296.000000
2680.615967 1355.000000
2681.489746 1292.000000
2682.362793 1377.000000
2683.235596 1273.000000
2684.108154 1237.000000
2684.979980 1359.000000
2685.851074 1316.000000
2686.721924 1371.000000
2687.592285 1294.000000
2688.462402 1415.000000
2689.330811 1250.000000
2690.199951 1209.000000
2691.068359 1326.000000
2691.936523 1315.000000
2692.803955 1187.000000
2693.670166 1429.000000
2694.536865 1289.000000
2695.402588 1259.000000
2696.268311 1207.000000
2697.132568 1205.000000
2697.997559 1309.000000
2698.861084 1311.000000
2699.724854 1221.000000
2700.587158 1250.000000
2701.449951 1265.000000
2702.311768 1114.000000
2703.173096 1182.000000
2704.034424 1262.000000
2704.894531 1259.000000
2705.754639 1275.000000
2706.614258 1355.000000
2707.473633 1155.000000
2708.331299 1272.000000
2709.189209 1257.000000
2710.047607 1182.000000
2710.904785 1190.000000
2711.761230 1322.000000
2712.617188 1128.000000
2713.473145 1189.000000
2714.328369 1171.000000
2715.182861 1201.000000
2716.036865 1112.000000
2716.890869 1172.000000
2717.743896 1194.000000
2718.597168 1269.000000
2719.448730 1161.000000
2720.300781 1093.000000
2721.152588 1172.000000
2722.003174 1201.000000
2722.853760 1210.000000
2723.703857 1230.000000
2724.553223 1071.000000
2725.402588 1176.000000
2726.250732 1105.000000
2727.098389 1176.000000
2727.946533 1119.000000
2728.793457 1182.000000
2729.640869 1188.000000
2730.486816 1070.000000
2731.332031 1244.000000
2732.177734 1178.000000
2733.022461 1180.000000
2733.867188 1180.000000
2734.710693 1195.000000
2735.554443 1133.000000
2736.397461 1015.000000
2737.239990 1099.000000
2738.081543 1153.000000
2738.923584 1065.000000
2739.764648 1174.000000
2740.605469 1178.000000
2741.446045 1146.000000
2742.285400 1094.000000
2743.124756 1069.000000
2743.964111 1164.000000
2744.802246 1208.000000
2745.639893 1156.000000
2746.477539 1040.000000
2747.314697 1053.000000
2748.151611 1100.000000
2748.988037 1131.000000
2749.823242 1123.000000
2750.658691 1116.000000
2751.493652 1025.000000
2752.327881 1117.000000
2753.161865 1110.000000
2753.995361 983.000000
2754.828857 979.000000
2755.661377 1103.000000
2756.493408 1222.000000
2757.324951 1112.000000
2758.156494 1102.000000
2758.987061 1051.000000
2759.817871 1169.000000
2760.647461 1132.000000
2761.477051 1063.000000
2762.306396 1041.000000
2763.135010 1062.000000
2763.963135 1046.000000
2764.790771 937.000000
2765.618408 1034.000000
2766.445557 1026.000000
2767.271973 973.000000
2768.097900 997.000000
2768.923340 998.000000
2769.748535 972.000000
2770.573730 996.000000
2771.397705 902.000000
2772.221680 1027.000000
2773.045654 1027.000000
2773.868408 972.000000
2774.691406 1156.000000
2775.513184 1076.000000
2776.334961 1051.000000
2777.156738 922.000000
2777.977539 1024.000000
2778.797607 959.000000
2779.617920 965.000000
2780.437744 905.000000
2781.257568 933.000000
2782.075439 916.000000
2782.894531 962.000000
2783.712402 1041.000000
2784.530029 914.000000
2785.347168 945.000000
2786.163818 893.000000
2786.980225 920.000000
2787.796143 930.000000
2788.611816 960.000000
2789.426514 826.000000
2790.241699 826.000000
2791.056152 904.000000
2791.870117 900.000000
2792.683838 857.000000
2793.496338 977.000000
2794.309082 828.000000
2795.121338 917.000000
2795.933105 929.000000
2796.744141 833.000000
2797.555908 867.000000
2798.366455 841.000000
2799.177002 1006.000000
2799.986084 838.000000
2800.795898 934.000000
2801.604980 951.000000
2802.413818 810.000000
2803.222168 828.000000
2804.029541 880.000000
2804.837402 900.000000
2805.644531 873.000000
2806.451416 843.000000
2807.257080 952.000000
2808.063232 933.000000
2808.868652 839.000000
2809.674072 862.000000
2810.478760 875.000000
2811.282471 865.000000
2812.086670 766.000000
2812.890381 986.000000
2813.693848 852.000000
2814.495850 846.000000
2815.298584 855.000000
2816.100586 973.000000
2816.902344 955.000000
2817.703613 928.000000
2818.504395 880.000000
2819.304688 809.000000
2820.105225 814.000000
2820.904785 810.000000
2821.703857 836.000000
2822.502930 808.000000
2823.301758 890.000000
2824.100098 848.000000
2824.897461 916.000000
2825.695068 953.000000
2826.491943 863.000000
2827.289063 852.000000
2828.085449 832.000000
2828.881104 848.000000
2829.676758 858.000000
2830.472168 867.000000
2831.267090 841.000000
2832.061279 788.000000
2832.855469 917.000000
2833.649414 913.000000
2834.442871 898.000000
2835.235596 926.000000
2836.028076 904.000000
2836.820557 889.000000
2837.612793 878.000000
2838.404541 812.000000
2839.195313 872.000000
2839.986084 808.000000
2840.777100 794.000000
2841.567139 872.000000
2842.356689 892.000000
2843.146484 936.000000
2843.935303 748.000000
2844.724121 820.000000
2845.512939 869.000000
2846.300781 809.000000
2847.088135 820.000000
2847.875732 829.000000
2848.662842 917.000000
2849.449219 870.000000
2850.235596 914.000000
2851.021729 916.000000
2851.807373 790.000000
2852.592041 803.000000
2853.377197 893.000000
2854.162109 880.000000
2854.946289 813.000000
2855.730469 825.000000
2856.513428 809.000000
2857.296631 903.000000
2858.079590 913.000000
2858.862061 797.000000
2859.644287 943.000000
2860.426025 853.000000
2861.207520 923.000000
2861.989258 913.000000
2862.770264 873.000000
2863.550537 953.000000
2864.330566 793.000000
2865.110596 806.000000
2865.890381 938.000000
2866.669189 939.000000
2867.448242 929.000000
2868.226807 1073.000000
2869.005127 957.000000
2869.782959 967.000000
2870.560547 1017.000000
2871.337891 959.000000
2872.114990 1122.000000
2872.891602 1090.000000
2873.667725 1011.000000
2874.443848 1069.000000
2875.219482 1041.000000
2875.994873 1136.000000
2876.769775 1176.000000
2877.544434 1254.000000
2878.319092 1255.000000
2879.093506 1173.000000
2879.867188 1149.000000
2880.640137 1284.000000
2881.413818 1188.000000
2882.186523 1214.000000
2882.959229 1145.000000
2883.731201 1117.000000
2884.502930 1316.000000
2885.275146 1257.000000
2886.046143 1208.000000
2886.816650 1333.000000
2887.587646 1234.000000
2888.358643 1259.000000
2889.128906 1250.000000
2889.898193 1209.000000
2890.667725 1294.000000
2891.437256 1144.000000
2892.206299 1205.000000
2892.974854 1207.000000
2893.743408 1131.000000
2894.510986 1148.000000
2895.279053 1077.000000
2896.046631 1197.000000
2896.814209 1246.000000
2897.580566 1202.000000
2898.347900 1152.000000
2899.114014 1141.000000
2899.880371 1102.000000
2900.645264 1152.000000
2901.410645 1121.000000
2902.176514 1063.000000
2902.940918 1185.000000
2903.705322 1065.000000
2904.469971 1088.000000
2905.233643 1075.000000
2905.998047 1058.000000
2906.761719 1054.000000
2907.524658 1090.000000
2908.287354 1096.000000
2909.050537 1099.000000
2909.813232 1004.000000
2910.574707 1068.000000
2911.336670 1068.000000
spectrumdark 2048
-96.894104 6148.000000
-94.267235 6148.000000
-91.642242 6113.000000
-89.019142 6449.000000
-86.397911 5839.000000
-83.778580 6223.000000
-81.161110 6120.000000
-78.545517 6406.000000
-75.931801 6219.000000
-73.319962 6046.000000
-70.709984 6075.000000
-68.101891 5944.000000
-65.495644 5953.000000
-62.891277 5971.000000
-60.288769 6141.000000
-57.688114 5690.000000
-55.089321 6213.000000
-52.492386 6871.000000
-49.897305 6490.000000
-47.304077 6534.000000
-44.712700 6249.000000
-42.123169 6759.000000
-39.535480 5907.000000
-36.949642 6056.000000
-34.365646 6509.000000
-31.783485 5703.000000
-29.203173 6331.000000
-26.624687 5763.000000
-24.048044 6161.000000
-21.473227 6259.000000
-18.900249 6415.000000
-16.329092 6518.000000
-13.759768 6790.000000
-11.192270 7783.000000
-8.626591 6331.000000
-6.062737 6486.000000
-3.500697 6036.000000
-0.940481 5785.000000
1.617927 6274.000000
4.174514 6914.000000
6.729297 6620.000000
9.282262 6020.000000
11.833426 6722.000000
14.382778 6489.000000
16.930334 6745.000000
19.476078 6020.000000
22.020029 5693.000000
24.562176 6677.000000
27.102526 6767.000000
29.641090 6851.000000
32.177856 6157.000000
34.712822 5759.000000
37.246010 7287.000000
39.777416 6327.000000
42.307030 7063.000000
44.834846 6523.000000
47.360905 7854.000000
49.885174 5682.000000
52.407673 6259.000000
54.928375 6750.000000
57.447323 6267.000000
59.964497 6440.000000
62.479893 6644.000000
64.993515 5622.000000
67.505379 5709.000000
70.015495 6547.000000
72.523819 6529.000000
75.030388 5988.000000
77.535210 6321.000000
80.038277 6407.000000
82.539566 6267.000000
85.039116 6107.000000
87.536911 6333.000000
90.032974 5747.000000
92.527260 7235.000000
95.019806 5791.000000
97.510635 6895.000000
99.999695 7143.000000
102.487007 6375.000000
104.972595 6211.000000
107.456444 6419.000000
109.938545 5890.000000
112.418922 6742.000000
114.897575 6219.000000
117.374504 6575.000000
119.849678 7214.000000
122.323143 6860.000000
124.794876 5916.000000
127.264900 6735.000000
129.733170 6286.000000
132.199768 6356.000000
134.664612 5689.000000
137.127762 6293.000000
139.589172 7282.000000
142.048889 6953.000000
144.506882 6405.000000
146.963181 6010.000000
149.417770 5819.000000
151.870636 6829.000000
154.321823 6362.000000
156.771317 6631.000000
159.219086 6109.000000
161.665146 6630.000000
164.109528 8703.000000
166.552231 6441.000000
168.993240 6802.000000
171.432541 6226.000000
173.870132 7236.000000
176.306091 6610.000000
178.740311 6966.000000
181.172852 7213.000000
183.603745 6681.000000
186.032913 7181.000000
188.460434 6733.000000
190.886276 6320.000000
193.310440 6714.000000
195.732941 7191.000000
198.153748 7398.000000
200.572891 6503.000000
202.990372 5977.000000
205.406158 7576.000000
207.820297 7090.000000
210.232803 6373.000000
212.643631 6094.000000
215.052780 6291.000000
217.460297 7413.000000
219.866104 6164.000000
222.270325 6474.000000
224.672836 6649.000000
227.073730 6958.000000
229.472977 6499.000000
231.870560 6936.000000
234.266479 7285.000000
236.660782 6482.000000
239.053421 6109.000000
241.444443 6803.000000
243.833801 6536.000000
246.221542 6403.000000
248.607635 6977.000000
250.992096 6155.000000
253.374908 7870.000000
255.756149 6669.000000
258.135681 6678.000000
260.513641 6494.000000
262.889923 7535.000000
265.264648 7573.000000
267.637726 7915.000000
270.009155 6121.000000
272.378937 6464.000000
274.747162 5879.000000
277.113739 6323.000000
279.478729 6515.000000
281.842102 6054.000000
284.203827 6249.000000
286.563965 7194.000000
288.922485 5974.000000
291.279419 6530.000000
293.634735 6380.000000
295.988464 5935.000000
298.340546 6024.000000
300.691071 6308.000000
303.040009 6400.000000
305.387299 6796.000000
307.733063 6406.000000
310.077148 6532.000000
312.419708 7409.000000
314.760651 7528.000000
317.099976 7217.000000
319.437744 6960.000000
321.773956 8104.000000
324.108521 6291.000000
326.441528 6408.000000
328.772980 5970.000000
331.102844 6628.000000
333.431122 6436.000000
335.757782 7218.000000
338.082947 6320.000000
340.406494 6197.000000
342.728485 5992.000000
345.048920 7545.000000
347.367737 7736.000000
349.684998 5965.000000
352.000732 5806.000000
354.314880 6956.000000
356.627441 6290.000000
358.938446 6385.000000
361.247925 7035.000000
363.555878 6457.000000
365.862213 5656.000000
368.166962 6560.000000
370.470245 6431.000000
372.771912 6271.000000
375.072083 6398.000000
377.370697 6344.000000
379.667755 5752.000000
381.963257 6142.000000
384.257233 5867.000000
386.549622 5241.000000
388.840515 5653.000000
391.129883 6196.000000
393.417664 6292.000000
395.703918 6510.000000
397.988678 7058.000000
400.271820 6059.000000
402.553528 6484.000000
404.833710 6165.000000
407.112305 7209.000000
409.389374 6513.000000
411.664917 6794.000000
413.938934 6576.000000
416.211517 6523.000000
418.482483 6594.000000
420.751953 6458.000000
423.019928 7112.000000
425.286346 7257.000000
427.551270 6258.000000
429.814728 6284.000000
432.076599 6444.000000
434.337006 5997.000000
436.595856 6647.000000
438.853241 6113.000000
441.109131 5641.000000
443.363525 5841.000000
445.616394 5459.000000
447.867706 6950.000000
450.117615 6154.000000
452.365936 6322.000000
454.612823 5651.000000
456.858246 6542.000000
459.102112 6465.000000
461.344482 6545.000000
463.585358 5612.000000
465.824829 6763.000000
468.062714 5448.000000
470.299164 5943.000000
472.534088 6095.000000
474.767548 7433.000000
476.999573 6686.000000
479.230072 5704.000000
481.459076 6451.000000
483.686615 6267.000000
485.912659 5963.000000
488.137268 6548.000000
490.360413 5845.000000
492.582092 6411.000000
494.802216 6738.000000
497.020935 5643.000000
499.238159 6241.000000
501.454010 5594.000000
503.668243 6198.000000
505.881165 6508.000000
508.092499 6483.000000
510.302399 6890.000000
512.510864 6549.000000
514.717957 6545.000000
516.923462 6428.000000
519.127563 6602.000000
521.330139 6217.000000
523.531311 6627.000000
525.731140 6698.000000
527.929443 6965.000000
530.126221 5373.000000
532.321655 5823.000000
534.515564 5654.000000
536.708130 7533.000000
538.899170 6719.000000
541.088806 6046.000000
543.277039 6890.000000
545.463745 7153.000000
547.648987 6890.000000
549.832947 6259.000000
552.015320 6401.000000
554.196350 6252.000000
556.375854 6058.000000
558.554077 5964.000000
560.730774 6043.000000
562.906067 6438.000000
565.079956 6477.000000
567.252380 6005.000000
569.423401 6032.000000
571.592957 6330.000000
573.761230 5236.000000
575.927979 6462.000000
578.093262 6278.000000
580.257141 6177.000000
582.419739 5748.000000
584.580811 6016.000000
586.740479 5657.000000
588.898804 5785.000000
591.055603 6162.000000
593.211060 6597.000000
595.365112 5840.000000
597.517822 6119.000000
599.669006 7235.000000
601.818848 6809.000000
603.967346 6687.000000
606.114258 6033.000000
608.259949 6466.000000
610.404236 6442.000000
612.547058 7030.000000
614.688416 6238.000000
616.828552 6463.000000
618.967163 7744.000000
621.104492 5740.000000
623.240356 6620.000000
625.374817 6897.000000
627.507813 7227.000000
629.639648 6633.000000
631.770020 6624.000000
633.898987 6773.000000
636.026489 6558.000000
638.152710 6251.000000
640.277405 7375.000000
642.400879 6380.000000
644.523010 6818.000000
646.643677 6829.000000
648.763000 6607.000000
650.880920 5702.000000
652.997498 5741.000000
655.112671 6425.000000
657.226501 6486.000000
659.338867 5851.000000
661.450012 6192.000000
663.559753 5415.000000
665.668030 6058.000000
667.775146 6281.000000
669.880798 6883.000000
671.984985 5925.000000
674.087952 5710.000000
676.189514 7052.000000
678.289734 5359.000000
680.388550 6778.000000
682.486023 6178.000000
684.582214 6936.000000
686.676941 6408.000000
688.770447 7131.000000
690.862610 6688.000000
692.953247 7920.000000
695.042664 6668.000000
697.130798 6429.000000
699.217468 5990.000000
701.302917 6712.000000
703.386841 5152.000000
705.469543 5924.000000
707.550964 5958.000000
709.630920 7565.000000
711.709656 6208.000000
713.786926 5617.000000
715.862915 6669.000000
717.937622 6133.000000
720.011047 7075.000000
722.082947 6361.000000
724.153687 7355.000000
726.223083 5794.000000
728.291077 6450.000000
730.357727 6311.000000
732.423157 7111.000000
734.487244 5779.000000
736.549988 6204.000000
738.611389 6592.000000
740.671509 6591.000000
742.730225 6063.000000
744.787720 6635.000000
746.843933 6588.000000
748.898743 6757.000000
750.952271 6406.000000
753.004395 7531.000000
755.055298 5854.000000
757.104980 6677.000000
759.153198 6282.000000
761.200195 6156.000000
763.245911 7050.000000
765.290222 5360.000000
767.333252 5782.000000
769.375061 6511.000000
771.415527 7240.000000
773.454590 6408.000000
775.492493 6160.000000
777.529053 5993.000000
779.564392 5317.000000
781.598389 5788.000000
783.630981 6961.000000
785.662415 5533.000000
787.692444 5821.500000
789.721191 6110.000000
791.748779 6349.000000
793.775024 6443.000000
795.799866 5838.000000
797.823608 5494.000000
799.845947 6381.000000
801.867065 5887.000000
803.886841 6694.000000
805.905334 4884.000000
807.922607 6693.000000
809.938477 6791.000000
811.953186 5723.000000
813.966553 6496.000000
815.978699 6272.000000
817.989624 6078.000000
819.999207 6587.000000
822.007568 5199.000000
824.014526 5705.000000
826.020264 6072.000000
828.024780 5753.000000
830.028015 5711.000000
832.029968 6423.000000
834.030640 6087.000000
836.030090 5937.000000
838.028198 6335.000000
840.025208 7046.000000
842.020813 6167.000000
844.015259 6043.000000
846.008362 6251.000000
848.000244 6882.000000
849.990784 5633.000000
851.980042 6875.000000
853.968262 6027.000000
855.955078 5790.000000
857.940674 6409.000000
859.924988 7299.000000
861.908203 6362.000000
863.890015 6402.000000
865.870605 5840.000000
867.849915 7715.000000
869.828064 7142.000000
871.804871 6176.000000
873.780396 6217.000000
875.754883 6213.000000
877.727905 6026.000000
879.699890 5425.000000
881.670532 6353.000000
883.640015 6150.000000
885.608154 5583.000000
887.575134 5185.000000
889.540771 6175.000000
891.505249 5875.000000
893.468506 6041.000000
895.430542 6567.000000
897.391296 5858.000000
899.350830 6455.000000
901.309082 6707.000000
903.266235 6358.000000
905.222229 6106.000000
907.176819 7017.000000
909.130188 6566.000000
911.082397 6475.000000
913.033386 6440.000000
914.983093 7149.000000
916.931641 6327.000000
918.878967 6173.000000
920.825012 6114.000000
922.769775 6077.000000
924.713501 6323.000000
926.656067 5955.000000
928.597351 5603.000000
930.537292 6437.000000
932.476135 5722.000000
934.413696 5523.000000
936.350037 5967.000000
938.285217 5822.000000
940.219116 6095.000000
942.151917 5937.000000
944.083496 6782.000000
946.013916 5274.000000
947.943115 6477.000000
949.870972 7010.000000
951.797791 6599.000000
953.723328 5928.000000
955.647583 5388.000000
957.570740 5994.000000
959.492737 6752.000000
961.413452 7383.000000
963.333008 6440.000000
965.251404 5288.000000
967.168762 6481.000000
969.084656 6385.000000
970.999451 6186.000000
972.913025 5961.000000
974.825439 6397.000000
976.736633 6506.000000
978.646667 5463.000000
980.555420 6292.000000
982.463135 6246.000000
984.369629 6427.000000
986.274902 5753.000000
988.179077 6822.000000
990.082031 6225.000000
991.983765 6780.000000
993.884338 6611.000000
995.783752 6667.000000
997.681946 5309.000000
999.578979 6499.000000
1001.474792 6580.000000
1003.369446 7714.000000
1005.263000 5594.000000
1007.155273 7235.000000
1009.046631 6114.000000
1010.936646 5377.000000
1012.825439 6624.000000
1014.713074 6372.000000
1016.599548 6947.000000
1018.484863 6773.000000
1020.369019 6002.000000
1022.251953 5873.000000
1024.133789 6292.000000
1026.014404 5194.000000
1027.893921 5858.000000
1029.772461 6101.000000
1031.649658 5462.000000
1033.525513 6220.000000
1035.400391 5924.000000
1037.274292 6600.000000
1039.146729 7111.000000
1041.018188 6748.000000
1042.888306 5508.000000
1044.757446 5529.000000
1046.625366 5800.000000
1048.492188 6987.000000
1050.357910 6656.000000
1052.222412 6469.000000
1054.085815 6443.000000
1055.947876 6461.000000
1057.808960 5911.000000
1059.668945 6524.000000
1061.527588 6662.000000
1063.385132 5819.000000
1065.241577 6750.000000
1067.096924 5907.000000
1068.951050 5809.000000
1070.804321 6273.000000
1072.656128 6294.000000
1074.506958 6124.000000
1076.356567 6151.000000
1078.204956 5819.000000
1080.052490 7979.000000
1081.898682 5640.000000
1083.743652 6268.000000
1085.587769 5375.000000
1087.430542 5539.000000
1089.272095 6531.000000
1091.112915 5481.000000
1092.952148 5708.000000
1094.790649 6063.000000
1096.627808 6074.000000
1098.463745 6822.000000
1100.298706 6563.000000
1102.132446 5408.000000
1103.965210 5734.000000
1105.796631 6200.000000
1107.627197 7301.000000
1109.456421 6538.000000
1111.284668 6425.000000
1113.111694 7149.000000
1114.937744 5448.000000
1116.762573 6415.000000
1118.586304 7184.000000
1120.408813 6075.000000
1122.230225 5855.000000
1124.050781 5948.000000
1125.869873 6555.000000
1127.688110 7092.000000
1129.505005 7087.000000
1131.321045 6655.000000
1133.135864 6468.000000
1134.949585 5711.000000
1136.762207 5801.000000
1138.573608 5611.000000
1140.384033 6211.000000
1142.193359 6788.000000
1144.001343 6970.000000
1145.808594 5951.000000
1147.614380 5927.000000
1149.419312 5359.000000
1151.223145 5444.000000
1153.025757 6089.000000
1154.827515 6090.000000
1156.627808 6130.000000
1158.427124 6215.000000
1160.225464 5897.000000
1162.022461 5486.000000
1163.818726 5916.000000
1165.613647 6097.000000
1167.407471 6366.000000
1169.200439 7747.000000
1170.992065 5757.000000
1172.782715 6601.000000
1174.572388 6019.000000
1176.360596 5889.000000
1178.147949 7566.000000
1179.934204 6679.000000
1181.719360 5723.000000
1183.503418 6006.000000
1185.286377 7651.000000
1187.068359 5916.000000
1188.849121 5919.000000
1190.628906 6355.000000
1192.407593 7024.000000
1194.185303 6655.000000
1195.961792 7176.000000
1197.737183 6594.000000
1199.511475 6514.000000
1201.284668 6753.000000
1203.057007 6618.000000
1204.828003 6740.000000
1206.598145 5732.000000
1208.367065 6137.000000
1210.134888 6318.000000
1211.901855 5901.000000
1213.667480 6009.000000
1215.432129 6980.000000
1217.195679 6551.000000
1218.958130 5953.000000
1220.719727 6766.000000
1222.480103 5886.000000
1224.239380 6449.000000
1225.997803 6082.000000
1227.755005 7271.000000
1229.511108 6465.000000
1231.266113 5497.000000
1233.020264 5995.000000
1234.773071 5849.000000
1236.524902 5994.000000
1238.275879 5939.000000
1240.025513 4962.000000
1241.774292 6979.000000
1243.521729 6486.000000
1245.268433 6664.000000
1247.013916 6478.000000
1248.758545 6409.000000
1250.501831 6783.000000
1252.244141 6664.000000
1253.985352 5364.000000
1255.725708 5117.000000
1257.464966 5858.000000
1259.203003 6631.000000
1260.940186 7109.000000
1262.676147 6172.000000
1264.411133 6438.000000
1266.145142 7360.000000
1267.878174 6014.000000
1269.609985 6183.000000
1271.340820 6456.000000
1273.070435 7280.000000
1274.799194 5949.000000
1276.526855 5676.000000
1278.253418 5518.000000
1279.979126 5564.000000
1281.703491 6492.000000
1283.427002 5259.000000
1285.149536 6948.000000
1286.871094 6597.000000
1288.591431 6364.000000
1290.310791 6761.000000
1292.029053 7295.000000
1293.746338 6496.000000
1295.462646 5738.000000
1297.177734 6368.000000
1298.891846 6166.000000
1300.604980 5715.000000
1302.317261 6468.000000
1304.028320 8380.000000
1305.738403 5264.000000
1307.447388 6577.000000
1309.155151 6703.000000
1310.862305 7049.000000
1312.567993 5777.000000
1314.272949 6936.000000
1315.976929 6218.000000
1317.679688 5959.000000
1319.381470 6619.000000
1321.082397 6043.000000
1322.781982 10008.000000
1324.480713 7785.500000
1326.178711 5563.000000
1327.875366 6475.000000
1329.570923 7146.000000
1331.265625 6888.000000
1332.959106 5761.000000
1334.651733 5394.000000
1336.343506 7403.000000
1338.033936 6232.000000
1339.723633 6637.000000
1341.412231 6154.000000
1343.099731 7664.000000
1344.786255 5706.000000
1346.471680 6765.000000
1348.156128 5955.000000
1349.839722 7264.000000
1351.522095 6385.000000
1353.203491 6037.000000
1354.884033 6606.000000
1356.563354 6734.000000
1358.242065 5952.000000
1359.919434 6494.000000
1361.595703 5806.000000
1363.270996 5592.000000
1364.945557 6581.000000
1366.618896 6521.000000
1368.291260 6856.000000
1369.962646 5217.000000
1371.633057 6812.000000
1373.302368 6183.000000
1374.970703 5719.000000
1376.638184 5937.000000
1378.304565 6527.000000
1379.969971 6184.000000
1381.634399 5851.000000
1383.297607 5970.000000
1384.960205 5707.000000
1386.621460 6374.000000
1388.281860 6592.000000
1389.941162 6383.000000
1391.599487 6553.000000
1393.257080 6874.000000
1394.913452 6509.000000
1396.568970 7072.000000
1398.223267 6379.000000
1399.876709 5854.000000
1401.529053 6149.000000
1403.180664 6438.000000
1404.831055 7185.000000
1406.480347 6311.000000
1408.128906 7532.000000
1409.776367 7902.000000
1411.422852 6261.000000
1413.068481 6239.000000
1414.713135 5970.000000
1416.356567 6997.000000
1417.999146 7157.000000
1419.640625 6894.000000
1421.281250 6490.000000
1422.920898 6477.000000
1424.559448 6103.000000
1426.197144 6662.000000
1427.833740 6388.000000
1429.469360 6016.000000
1431.104248 6398.000000
1432.738037 5902.000000
1434.370728 6109.000000
1436.002441 5704.000000
1437.633301 6121.000000
1439.263062 6085.000000
1440.891724 7973.000000
1442.519775 6023.000000
1444.146729 6228.000000
1445.772461 6167.000000
1447.397583 6167.000000
1449.021606 6543.000000
1450.644653 6066.000000
1452.266724 6037.000000
1453.887695 7483.000000
1455.507690 6311.000000
1457.126953 6867.000000
1458.744873 5689.000000
1460.362183 17254.000000
1461.978516 5582.000000
1463.593628 7347.000000
1465.207886 6370.000000
1466.821289 5259.000000
1468.433594 5608.000000
1470.045044 6305.000000
1471.655640 6398.000000
1473.265015 5985.000000
1474.873413 6055.000000
1476.480957 6261.000000
1478.087524 6811.000000
1479.693359 5317.000000
1481.297974 6267.000000
1482.901733 5547.000000
1484.504272 6766.000000
1486.106201 5551.000000
1487.706909 5511.000000
1489.306885 5574.000000
1490.905762 6302.000000
1492.503784 6525.000000
1494.100708 6682.000000
1495.696777 6342.000000
1497.291870 6021.000000
1498.885986 5512.000000
1500.479370 6611.000000
1502.071655 5604.000000
1503.662720 6172.000000
1505.253296 6742.000000
1506.842529 6440.000000
1508.431152 6171.000000
1510.018677 6572.000000
1511.605103 6901.000000
1513.190796 6201.000000
1514.775391 6616.000000
1516.359131 6403.000000
1517.941772 6237.000000
1519.523682 6614.000000
1521.104492 6687.000000
1522.684570 6061.000000
1524.263428 6239.000000
1525.841431 6415.000000
1527.418701 6285.000000
1528.994751 5702.000000
1530.570068 5858.000000
1532.144287 6379.000000
1533.717773 5447.000000
1535.290039 5939.000000
1536.861572 6421.000000
1538.432129 6476.000000
1540.001831 6367.000000
1541.570313 5458.000000
1543.138062 6623.000000
1544.704956 5630.000000
1546.270630 6769.000000
1547.835571 5971.000000
1549.399414 5077.000000
1550.962646 7523.000000
1552.524536 6341.000000
1554.085815 5982.000000
1555.645996 5707.000000
1557.205444 5787.000000
1558.763794 5827.000000
1560.321411 6283.000000
1561.877930 7073.000000
1563.433228 5855.000000
1564.987915 6411.000000
1566.541870 5639.000000
1568.094849 6406.000000
1569.646484 5682.000000
1571.197388 5903.000000
1572.747559 6230.000000
1574.296753 6402.000000
1575.844604 5845.000000
1577.391968 5493.000000
1578.938354 5710.000000
1580.483887 5072.000000
1582.028442 6649.000000
1583.571777 6379.000000
1585.114502 6594.000000
1586.656372 6489.000000
1588.197144 6717.000000
1589.736938 5826.000000
1591.276001 6663.000000
1592.813965 6008.000000
1594.351440 6158.000000
1595.887573 5887.000000
1597.422607 6772.000000
1598.957153 6274.000000
1600.490723 5953.000000
1602.023438 6228.000000
1603.554565 6346.000000
1605.085449 6301.000000
1606.615479 5773.000000
1608.144287 6207.000000
1609.671997 6157.000000
1611.199097 6004.000000
1612.725464 5838.000000
1614.250854 6263.000000
1615.775391 5850.000000
1617.298584 5827.000000
1618.821045 5632.000000
1620.342773 6568.000000
1621.863647 7027.000000
1623.383057 15597.000000
1624.901978 6242.000000
1626.420166 6097.000000
1627.937500 5880.000000
1629.453735 6406.000000
1630.968628 7054.000000
1632.483032 6817.000000
1633.996704 5790.000000
1635.509277 6873.000000
1637.020630 5980.000000
1638.531616 6488.000000
1640.041504 6226.000000
1641.550537 6209.000000
1643.058228 5626.000000
1644.565552 6160.000000
1646.072021 7169.000000
1647.577515 6280.000000
1649.082153 6859.000000
1650.585327 6148.000000
1652.087891 6660.000000
1653.590088 6330.000000
1655.090942 6680.000000
1656.590698 7607.000000
1658.089600 6181.000000
1659.588135 6584.000000
1661.085449 6261.000000
1662.582031 5908.000000
1664.077026 6502.000000
1665.571777 6362.000000
1667.065674 5189.000000
1668.558594 5707.000000
1670.050171 20688.000000
1671.541260 6512.000000
1673.031738 6065.000000
1674.521118 6011.000000
1676.009033 6987.000000
1677.496704 6876.000000
1678.983398 6069.000000
1680.469238 5430.000000
1681.954224 6111.000000
1683.437744 6231.000000
1684.921021 6341.000000
1686.403442 5899.000000
1687.884766 6256.000000
1689.364624 6258.000000
1690.844238 5586.000000
1692.323120 6563.000000
1693.801025 6034.000000
1695.277954 6116.000000
1696.753662 5768.000000
1698.229004 6028.000000
1699.703125 6411.000000
1701.176636 5509.000000
1702.648682 5581.000000
1704.120483 6917.000000
1705.591309 6389.000000
1707.061279 7110.000000
1708.529907 5138.000000
1709.998047 5835.000000
1711.465454 6374.000000
1712.931763 5562.000000
1714.397461 5720.000000
1715.861450 6184.000000
1717.325317 5963.000000
1718.788330 7012.000000
1720.250366 6416.000000
1721.711182 6593.000000
1723.171387 5492.000000
1724.630859 6335.000000
1726.089478 6152.000000
1727.547119 6009.000000
1729.003418 6275.000000
1730.459473 6085.000000
1731.914551 6474.000000
1733.368652 5996.000000
1734.821533 6922.000000
1736.274170 5958.000000
1737.725708 6926.000000
1739.176514 6008.000000
1740.626343 6612.000000
1742.074829 5964.000000
1743.522949 7617.000000
1744.970215 6621.000000
1746.416748 6652.000000
1747.861694 6708.000000
1749.306396 6108.000000
1750.750244 5811.000000
1752.193237 5495.000000
1753.634766 6576.000000
1755.076050 6340.000000
1756.516479 19532.000000
1757.955933 6338.000000
1759.394409 5311.000000
1760.831909 6136.000000
1762.268921 7669.000000
1763.704956 5853.000000
1765.140137 7124.000000
1766.573853 6227.000000
1768.007446 6492.000000
1769.440063 6695.000000
1770.871826 5818.000000
1772.302734 5913.000000
1773.732422 6378.000000
1775.161377 6113.000000
1776.589844 6326.000000
1778.017334 6781.000000
1779.443481 6235.000000
1780.869385 5560.000000
1782.294189 6926.000000
1783.718384 5576.000000
1785.141113 6667.000000
1786.563354 6562.000000
1787.984863 6900.000000
1789.405640 5912.000000
1790.825439 6005.000000
1792.243896 6171.000000
1793.661865 6873.000000
1795.079224 5521.000000
1796.495728 6044.000000
1797.910767 6571.000000
1799.325439 5891.000000
1800.739502 6731.000000
1802.152344 6011.000000
1803.564575 6996.000000
1804.975464 7095.000000
1806.385864 7854.000000
1807.795532 6454.000000
1809.204224 6066.000000
1810.611816 5436.000000
1812.018921 6423.000000
1813.425171 6344.000000
1814.830444 6668.000000
1816.234619 5980.000000
1817.638428 5969.000000
1819.041260 6291.000000
1820.443237 6040.000000
1821.844604 5904.000000
1823.244507 6336.000000
1824.643799 6407.000000
1826.042603 6570.000000
1827.440552 7464.000000
1828.837158 5773.000000
1830.233154 6748.000000
1831.628418 5907.000000
1833.023071 8149.000000
1834.416748 5996.000000
1835.809082 6831.000000
1837.200928 6377.000000
1838.592163 5911.000000
1839.982422 7103.000000
1841.371460 6064.000000
1842.760132 6102.000000
1844.147827 5966.000000
1845.534790 5891.000000
1846.920410 6946.000000
1848.305786 5857.000000
1849.690308 6404.000000
1851.074097 6333.000000
1852.456787 6359.000000
1853.838257 5428.000000
1855.219238 6522.000000
1856.599731 6372.000000
1857.979248 5735.000000
1859.357300 6002.000000
1860.735229 6245.000000
1862.112183 7900.000000
1863.488403 6136.000000
1864.863770 6090.000000
1866.237671 5668.000000
1867.611450 5762.000000
1868.984375 6217.000000
1870.356201 5920.000000
1871.727051 6860.000000
1873.097534 5425.000000
1874.466919 6040.000000
1875.835815 6123.000000
1877.203125 7224.000000
1878.570313 6121.000000
1879.936523 6055.000000
1881.302002 6817.000000
1882.666748 7551.000000
1884.029907 6860.000000
1885.392944 6915.000000
1886.755127 6363.000000
1888.116455 6427.000000
1889.476440 5718.000000
1890.836060 5816.000000
1892.195068 6151.000000
1893.553101 6659.000000
1894.910278 7358.000000
1896.266235 5976.000000
1897.621948 7684.000000
1898.976685 5899.000000
1900.330566 5535.000000
1901.683350 5929.000000
1903.035645 5949.000000
1904.387207 5980.000000
1905.737915 6902.000000
1907.087402 6551.000000
1908.436401 6707.000000
1909.784546 5842.000000
1911.132080 6196.000000
1912.478882 6297.000000
1913.824097 6858.000000
1915.169067 6074.000000
1916.513306 5465.000000
1917.856689 6557.000000
1919.198730 6006.000000
1920.540527 6677.000000
1921.881470 6985.000000
1923.221680 6183.000000
1924.560913 6342.000000
1925.899170 6377.000000
1927.236816 6523.000000
1928.573730 7023.000000
1929.909790 6794.000000
1931.244629 5620.000000
1932.579102 6723.000000
1933.912842 7302.000000
1935.245728 6270.000000
1936.577148 5761.000000
1937.908691 6337.000000
1939.238892 6679.000000
1940.568604 5805.000000
1941.897461 6025.000000
1943.225098 5838.000000
1944.552246 5026.000000
1945.878662 5915.000000
1947.204346 6479.000000
1948.528687 5787.000000
1949.852783 6661.000000
1951.176025 6393.000000
1952.498535 6434.000000
1953.819946 5783.000000
1955.140381 7411.000000
1956.460205 6046.000000
1957.779663 5574.000000
1959.098145 6857.000000
1960.415283 5898.000000
1961.732056 5850.000000
1963.048096 6644.000000
1964.363403 6605.000000
1965.677246 6258.000000
1966.990845 5661.000000
1968.303711 6272.000000
1969.615723 6028.000000
1970.927124 6055.000000
1972.237183 6284.000000
1973.546753 5810.000000
1974.855591 6297.000000
1976.163818 6577.000000
1977.470703 6107.000000
1978.776978 7297.000000
1980.082886 5573.000000
1981.387573 6451.000000
1982.691772 5883.000000
1983.994751 5723.000000
1985.297363 7634.000000
1986.598999 6127.000000
1987.900024 6835.000000
1989.199463 6071.000000
1990.499023 6614.000000
1991.797485 5361.000000
1993.095459 6058.000000
1994.391846 6123.000000
1995.688232 5810.000000
1996.983643 5688.000000
1998.278320 6510.000000
1999.572144 5760.000000
2000.864746 6623.000000
2002.156860 5805.000000
2003.448486 7204.000000
2004.739380 6420.000000
2006.028687 6260.000000
2007.317749 6766.000000
2008.606079 5974.000000
2009.893677 6012.000000
2011.180420 6660.000000
2012.466064 5672.000000
2013.751343 6344.000000
2015.035645 6036.000000
2016.319336 5616.000000
2017.601685 6065.000000
2018.883667 6556.000000
2020.165161 6776.000000
2021.445679 5913.000000
2022.725464 6117.000000
2024.004150 6818.000000
2025.282104 5824.000000
2026.559570 5969.000000
2027.836426 6335.000000
2029.111572 5951.000000
2030.386841 6620.000000
2031.661133 6040.000000
2032.934448 5999.000000
2034.206909 6026.000000
2035.479004 6187.000000
2036.750000 6976.000000
2038.020752 6525.000000
2039.290161 6050.000000
2040.558472 6813.000000
2041.826782 6598.000000
2043.094116 5929.000000
2044.360718 5990.000000
2045.626099 5565.000000
2046.890869 5842.000000
2048.155518 5445.000000
2049.418701 5891.000000
2050.681641 6417.000000
2051.942627 6146.000000
2053.204102 6125.000000
2054.464355 5903.000000
2055.723877 6655.000000
2056.982666 6190.000000
2058.240479 6829.000000
2059.497803 5923.000000
2060.754395 5970.000000
2062.009521 6510.000000
2063.264648 5712.000000
2064.518799 5622.000000
2065.772217 5635.000000
2067.024902 6904.000000
2068.276367 6229.000000
2069.527588 6393.000000
2070.778076 5625.000000
2072.027832 5399.000000
2073.276123 6476.000000
2074.524414 6543.000000
2075.771729 7430.000000
2077.018311 5602.000000
2078.264160 6070.000000
2079.508789 7100.000000
2080.752930 7594.000000
2081.996582 5536.000000
2083.239258 6025.000000
2084.480713 6996.000000
2085.721924 6000.000000
2086.962646 6329.000000
2088.202393 6785.000000
2089.440918 7138.000000
2090.678955 6225.000000
2091.916260 5892.000000
2093.153320 6651.000000
2094.388916 6070.000000
2095.623779 6269.000000
2096.858398 6079.000000
2098.092041 5621.000000
2099.324707 6163.000000
2100.556641 7005.000000
2101.788086 6407.000000
2103.018555 6767.000000
2104.248291 5962.000000
2105.477783 6007.000000
2106.705322 6034.000000
2107.933105 5983.000000
2109.160156 6430.000000
2110.386230 5553.000000
2111.610840 6438.000000
2112.835693 6973.000000
2114.059326 7071.000000
2115.282471 6257.000000
2116.504395 7458.000000
2117.726074 6081.000000
2118.946777 6843.000000
2120.166748 6023.000000
2121.386230 6159.000000
2122.604248 6608.000000
2123.822266 7071.000000
2125.039307 5742.000000
2126.255859 5818.000000
2127.470703 6607.000000
2128.685791 6372.000000
2129.899902 6882.000000
2131.113281 5717.000000
2132.325928 6124.000000
2133.537109 5838.000000
2134.748535 6528.000000
2135.958740 6636.000000
2137.168457 5975.000000
2138.376709 6364.000000
2139.584961 5717.000000
2140.792480 5885.000000
2141.998779 7729.000000
2143.204346 5843.000000
2144.409668 5693.000000
2145.614014 5535.000000
2146.817627 6346.000000
2148.020752 6291.000000
2149.222412 6427.000000
2150.423828 5350.000000
2151.624512 6303.000000
2152.824463 6100.000000
2154.023193 5954.000000
2155.221680 6950.000000
2156.419678 6169.000000
2157.616699 6022.000000
2158.812988 5113.000000
2160.008057 5328.000000
2161.202881 6164.000000
2162.396973 5610.000000
2163.590088 6017.000000
2164.782227 7039.000000
2165.974121 5893.000000
2167.165283 6301.000000
2168.355469 6364.000000
2169.544922 6495.000000
2170.733887 6807.000000
2171.921875 6058.000000
2173.109619 5751.000000
2174.295898 5929.000000
2175.481445 6594.000000
2176.666748 6042.000000
2177.851563 5873.000000
2179.035156 6418.000000
2180.218018 7535.000000
2181.399902 6245.000000
2182.581543 6025.000000
2183.762695 6598.000000
2184.942627 5688.000000
2186.121582 5583.000000
2187.300049 6331.000000
2188.478271 6970.000000
2189.655273 7176.000000
2190.831299 6772.000000
2192.007080 6107.000000
2193.182373 5642.000000
2194.356201 6616.000000
2195.529541 6169.000000
2196.702637 6204.000000
2197.874512 6543.000000
2199.045898 7121.000000
2200.216797 6332.000000
2201.385986 6930.000000
2202.555176 7573.000000
2203.723877 6306.000000
2204.891602 5903.000000
2206.058350 5640.000000
2207.224365 7144.000000
2208.389893 6694.000000
2209.555176 5996.000000
2210.718994 6746.000000
2211.882324 5444.000000
2213.044434 6185.000000
2214.206787 6213.000000
2215.367920 6696.000000
2216.528076 6689.000000
2217.687744 6332.000000
2218.847168 6555.000000
2220.005371 6446.000000
2221.162598 6352.000000
2222.319580 6778.000000
2223.475830 6561.000000
2224.631348 6766.000000
2225.786133 6309.000000
2226.939941 6393.000000
2228.092773 6044.000000
2229.246094 6878.000000
2230.397461 6232.000000
2231.548584 6158.000000
2232.698975 6531.000000
2233.848877 7720.000000
2234.997803 6369.000000
2236.146240 5240.000000
2237.293213 6813.000000
2238.440430 6974.000000
2239.586426 6073.000000
2240.732178 7246.000000
2241.876221 7340.000000
2243.020508 6699.000000
2244.163818 6253.000000
2245.306396 5990.000000
2246.447998 5760.000000
2247.589355 5849.000000
2248.729736 6419.000000
2249.869385 6451.000000
2251.008545 5880.000000
2252.146484 5865.000000
2253.284424 6242.000000
2254.421387 5374.000000
2255.557617 6327.000000
2256.692871 6093.000000
2257.827393 7327.000000
2258.961670 6376.000000
2260.095459 5368.000000
2261.227783 6143.000000
2262.359619 6843.000000
2263.490967 6222.000000
2264.621338 6536.000000
2265.751465 8077.000000
2266.880371 6763.000000
2268.008789 6078.000000
2269.136719 5556.000000
2270.263672 6196.000000
2271.389893 5954.000000
2272.515137 6710.000000
2273.640381 6525.000000
2274.764893 6421.000000
2275.888184 5916.000000
2277.010742 6317.000000
2278.132813 6189.000000
2279.254395 7415.000000
2280.375244 6415.000000
2281.494873 6444.000000
2282.614014 7114.000000
2283.732910 7663.000000
2284.851074 7282.000000
2285.968262 5950.000000
2287.084473 6444.000000
2288.200439 7045.000000
2289.315674 6882.000000
2290.430176 7432.000000
2291.543457 5860.000000
2292.656738 6389.000000
2293.769287 6018.000000
2294.881104 5416.000000
2295.992188 6816.000000
2297.102051 6425.000000
2298.211426 6171.000000
2299.320557 6741.000000
2300.428711 6328.000000
2301.535889 6817.000000
2302.642822 5915.000000
2303.749023 6279.000000
2304.854736 6619.000000
2305.958984 6641.000000
2307.062988 5491.000000
2308.166504 5823.000000
2309.269531 6570.000000
2310.371338 7414.000000
2311.472412 7343.000000
2312.572998 6599.000000
2313.673096 5551.000000
2314.772461 6348.000000
2315.870361 6593.000000
2316.968750 7094.000000
2318.065674 8159.000000
2319.162354 6898.000000
2320.258545 5856.000000
2321.353027 6894.000000
2322.447510 7629.000000
2323.541260 5855.000000
2324.634766 6100.000000
2325.726563 6477.000000
2326.818359 7065.000000
2327.909424 6147.000000
2328.999756 6299.000000
2330.089111 6957.000000
2331.178467 6003.000000
2332.266602 6387.000000
2333.354248 6831.000000
2334.441650 6543.000000
2335.527344 6755.000000
2336.612793 7758.000000
2337.697998 6258.000000
2338.782227 6795.000000
2339.865479 5978.000000
2340.948486 6418.000000
2342.030518 7184.000000
2343.112305 5980.000000
2344.193359 7439.000000
2345.273193 6664.000000
2346.352539 5757.000000
2347.431396 6756.000000
2348.509766 6545.000000
2349.586670 6327.000000
2350.663330 7040.000000
2351.739746 6030.000000
2352.815186 6373.000000
2353.889648 5958.000000
2354.963867 6358.000000
2356.037354 6789.000000
2357.110352 6204.000000
2358.182129 7022.000000
2359.253662 6277.000000
2360.324219 6872.000000
2361.394531 7542.000000
2362.463867 7621.000000
2363.532227 6929.000000
2364.600342 6755.000000
2365.667725 7145.000000
2366.734619 7192.000000
2367.800781 6158.000000
2368.865723 6898.000000
2369.930664 7075.000000
2370.994873 6382.000000
2372.058350 6865.000000
2373.120605 5829.000000
2374.182861 6277.000000
2375.244141 6411.000000
2376.305176 5961.000000
2377.364990 6314.000000
2378.424072 7902.000000
2379.483154 6483.000000
2380.541260 7663.000000
2381.598633 6943.000000
2382.655029 8033.000000
2383.711182 7848.000000
2384.766846 6226.000000
2385.821777 7107.000000
2386.875244 6771.000000
2387.928955 6555.000000
2388.981689 6361.000000
2390.033936 6773.000000
2391.085449 6179.000000
2392.135986 6639.000000
2393.186279 6522.000000
2394.235596 6322.000000
2395.284912 6222.000000
2396.332764 6962.000000
2397.380127 7023.000000
2398.427246 6316.000000
2399.473389 6672.000000
2400.518799 6153.000000
2401.563477 6776.000000
2402.608154 7782.000000
2403.651367 7504.000000
2404.694580 6581.000000
2405.736328 5882.000000
2406.778320 6780.000000
2407.819580 7133.000000
2408.859863 6104.000000
2409.899414 6427.000000
2410.937988 6388.000000
2411.976807 5980.000000
2413.014404 6555.000000
2414.051758 6876.000000
2415.087891 7366.000000
2416.123779 6233.000000
2417.158936 6288.000000
2418.193604 6906.000000
2419.226807 7188.000000
2420.260254 6469.000000
2421.292725 6667.000000
2422.324951 6833.000000
2423.355713 7061.000000
2424.386475 6436.000000
2425.416748 6858.000000
2426.445801 6847.000000
2427.474854 6715.000000
2428.502197 7435.000000
2429.530029 6716.000000
2430.556641 7285.000000
2431.583008 6954.000000
2432.607910 7687.000000
2433.633057 6539.000000
2434.657227 7133.000000
2435.681152 6719.000000
2436.703857 5860.000000
2437.725830 6274.000000
2438.747559 6635.000000
2439.768555 6699.000000
2440.789063 6039.000000
2441.808350 6481.000000
2442.827637 6620.000000
2443.845947 8462.000000
2444.864014 6286.000000
2445.880615 6490.000000
2446.897217 6590.000000
2447.913086 6116.000000
2448.928955 7056.000000
2449.943359 6885.000000
2450.957031 5545.000000
2451.970215 7276.000000
2452.983154 6025.000000
2453.995361 7181.000000
2455.006592 6727.000000
2456.017578 7739.000000
2457.027832 6348.000000
2458.037598 7599.000000
2459.046387 5935.000000
2460.054443 5978.000000
2461.062500 6335.000000
2462.069336 7412.000000
2463.075928 5451.000000
2464.081299 7435.000000
2465.086426 6916.000000
2466.091309 5887.000000
2467.094971 6593.000000
2468.098389 6395.000000
2469.100830 7590.000000
2470.103027 7372.000000
2471.104736 6874.000000
2472.105469 6659.000000
2473.105225 6951.000000
2474.104980 6745.000000
2475.103760 5689.000000
2476.102051 6593.000000
2477.099365 6986.000000
2478.096436 6039.000000
2479.093506 6963.000000
2480.089111 5846.000000
2481.084717 7191.000000
2482.078613 6724.000000
2483.072510 8134.000000
2484.065918 6903.000000
2485.058838 6761.000000
2486.050781 7558.000000
2487.041992 7272.000000
2488.032959 6821.000000
2489.023438 5882.000000
2490.012939 6635.000000
2491.001709 6493.000000
2491.990479 5652.000000
2492.978271 6879.000000
2493.964844 6548.000000
2494.951416 8171.000000
2495.937500 6730.000000
2496.922852 7020.000000
2497.907227 8291.000000
2498.891357 6000.000000
2499.875488 6878.000000
2500.858154 5761.000000
2501.840332 7009.000000
2502.822021 6874.000000
2503.802979 7293.000000
2504.783447 6520.000000
2505.763672 5782.000000
2506.742432 6366.000000
2507.720947 7577.000000
2508.698975 6750.000000
2509.676514 7148.000000
2510.653076 6092.000000
2511.629395 5933.000000
2512.604980 6470.000000
2513.580078 6177.000000
2514.554688 6513.000000
2515.528076 7572.000000
2516.501221 6806.000000
2517.474121 6985.000000
2518.446045 6163.000000
2519.417236 6870.000000
2520.387939 6952.000000
2521.358398 7836.000000
2522.328125 8118.000000
2523.296875 6167.000000
2524.264893 6101.000000
2525.232910 7724.000000
2526.199951 6313.000000
2527.166748 5564.000000
2528.132324 7214.000000
2529.097900 7046.000000
2530.062744 7753.000000
2531.027100 6359.000000
2531.990234 6352.000000
2532.953613 5960.000000
2533.916016 5940.000000
2534.878174 6671.000000
2535.839111 6446.000000
2536.799316 6141.000000
2537.759766 6181.000000
2538.719238 6760.000000
2539.677979 6826.000000
2540.635742 6636.000000
2541.593750 6282.000000
2542.551025 6794.000000
2543.507324 6053.000000
2544.463379 7105.000000
2545.418213 6269.000000
2546.373291 7828.000000
2547.327637 7077.000000
2548.281250 6499.000000
2549.233887 7223.000000
2550.186279 6731.000000
2551.138184 7008.000000
2552.089355 6422.000000
2553.039795 7642.000000
2553.989746 7086.000000
2554.939453 7386.000000
2555.888428 6665.000000
2556.836914 6277.000000
2557.784180 7181.000000
2558.731445 6345.000000
2559.677979 6548.000000
2560.624023 6791.000000
2561.569092 7299.000000
2562.513916 6691.000000
2563.458252 7206.000000
2564.402100 6848.000000
2565.345459 6642.000000
2566.287354 6571.000000
2567.229492 6578.000000
2568.170898 6164.000000
2569.111572 7113.000000
2570.051514 7353.000000
2570.991455 5758.000000
2571.930420 6161.000000
2572.869141 7513.000000
2573.806885 7194.000000
2574.744385 5446.000000
2575.681152 6968.000000
2576.617188 6827.000000
2577.552734 7523.000000
2578.487549 6417.000000
2579.422363 6017.000000
2580.356201 7081.000000
2581.289551 7283.000000
2582.222168 5887.000000
2583.154541 6794.000000
2584.086182 5459.000000
2585.017334 7107.000000
2585.947998 6982.000000
2586.877441 6886.000000
2587.806885 7292.000000
2588.735840 6487.000000
2589.664551 7486.000000
2590.591553 7405.000000
2591.518799 5900.000000
2592.445557 6852.000000
2593.371582 6287.000000
2594.297363 5621.000000
2595.221924 7590.000000
2596.146240 7637.000000
2597.070068 5304.000000
2597.993408 7415.000000
2598.915771 6238.000000
2599.837891 6872.000000
2600.759521 8375.000000
2601.680420 6444.000000
2602.600586 5838.000000
2603.520508 6357.000000
2604.439941 6416.000000
2605.359131 6382.000000
2606.277344 5868.000000
2607.194336 6020.000000
2608.111572 7326.000000
2609.028564 5869.000000
2609.944580 7533.000000
2610.859375 6617.000000
2611.774658 6645.000000
2612.689209 6580.000000
2613.602783 6559.000000
2614.516357 6458.000000
2615.428711 7731.000000
2616.341064 7067.000000
2617.252441 6828.000000
2618.163574 5746.000000
2619.073975 7189.000000
2619.984131 6683.000000
2620.893555 6174.000000
2621.802490 6604.000000
2622.710449 6332.000000
2623.618652 6990.000000
2624.525879 6615.000000
2625.432617 7069.000000
2626.338623 6012.000000
2627.244385 6612.000000
2628.149414 6640.000000
2629.054199 7851.000000
2629.958252 6515.000000
2630.861328 6417.000000
2631.764404 6457.000000
2632.666504 5681.000000
2633.568604 6731.000000
2634.470459 7023.000000
2635.370605 6822.000000
2636.270996 6495.000000
2637.170654 6454.000000
2638.070068 6018.000000
2638.968018 6887.000000
2639.866455 6793.000000
2640.764404 6435.000000
2641.661621 6093.000000
2642.557617 6205.000000
2643.453613 6750.000000
2644.349365 6146.000000
2645.244385 6474.000000
2646.139160 6691.000000
2647.032471 7306.000000
2647.925781 6340.000000
2648.818848 6804.000000
2649.711670 6473.000000
2650.602783 7459.000000
2651.494141 6408.000000
2652.385010 7677.000000
2653.275146 7321.000000
2654.165039 6598.000000
2655.053711 7323.000000
2655.942627 6649.000000
2656.831055 6582.000000
2657.718506 7418.000000
2658.604980 6501.000000
2659.491943 7075.000000
2660.378174 6811.000000
2661.263916 6869.000000
2662.148438 6549.000000
2663.032959 6443.000000
2663.917236 6183.000000
2664.800781 7151.000000
2665.683838 7838.000000
2666.566162 7290.000000
2667.447998 6226.000000
2668.329102 6586.000000
2669.210449 6111.000000
2670.090332 6581.000000
2670.970459 7365.000000
2671.849854 7213.000000
2672.729248 6409.000000
2673.607910 6186.000000
2674.484863 6443.000000
2675.362549 6755.000000
2676.239502 6379.000000
2677.115723 8095.000000
2677.991455 7241.000000
2678.866455 6270.000000
2679.741699 7814.000000
2680.615967 7003.000000
2681.489746 7358.000000
2682.362793 6950.000000
2683.235596 6237.000000
2684.108154 6116.000000
2684.979980 6994.000000
2685.851074 6561.000000
2686.721924 6880.000000
2687.592285 7123.000000
2688.462402 6704.000000
2689.330811 6357.000000
2690.199951 7442.000000
2691.068359 7100.000000
2691.936523 6675.000000
2692.803955 6992.000000
2693.670166 5834.000000
2694.536865 7169.000000
2695.402588 7441.000000
2696.268311 7190.000000
2697.132568 7929.000000
2697.997559 6605.000000
2698.861084 7306.000000
2699.724854 5843.000000
2700.587158 7440.000000
2701.449951 6755.000000
2702.311768 6031.000000
2703.173096 6921.000000
2704.034424 6742.000000
2704.894531 7453.000000
2705.754639 7310.000000
2706.614258 6547.000000
2707.473633 6915.000000
2708.331299 7189.000000
2709.189209 6915.000000
2710.047607 7328.000000
2710.904785 6695.000000
2711.761230 5942.000000
2712.617188 6919.000000
2713.473145 6123.000000
2714.328369 6933.000000
2715.182861 6102.000000
2716.036865 6865.000000
2716.890869 7311.000000
2717.743896 6279.000000
2718.597168 6595.000000
2719.448730 7753.000000
2720.300781 6846.000000
2721.152588 6327.000000
2722.003174 6534.000000
2722.853760 6414.000000
2723.703857 7103.000000
2724.553223 7072.000000
2725.402588 6971.000000
2726.250732 6713.000000
2727.098389 6525.000000
2727.946533 7031.000000
2728.793457 6829.000000
2729.640869 5523.000000
2730.486816 7591.000000
2731.332031 7010.000000
2732.177734 6439.000000
2733.022461 7078.000000
2733.867188 7370.000000
2734.710693 6867.000000
2735.554443 7824.000000
2736.397461 7215.000000
2737.239990 6057.000000
2738.081543 6224.000000
2738.923584 6899.000000
2739.764648 6905.000000
2740.605469 5746.000000
2741.446045 5930.000000
2742.285400 7773.000000
2743.124756 6915.000000
2743.964111 6927.000000
2744.802246 6713.000000
2745.639893 7872.000000
2746.477539 6375.000000
2747.314697 7147.000000
2748.151611 6238.000000
2748.988037 6015.000000
2749.823242 6629.000000
2750.658691 6282.000000
2751.493652 6379.000000
2752.327881 6248.000000
2753.161865 6938.000000
2753.995361 6926.000000
2754.828857 8037.000000
2755.661377 6842.000000
2756.493408 7265.000000
2757.324951 6805.000000
2758.156494 7160.000000
2758.987061 7298.000000
2759.817871 7269.000000
2760.647461 7246.000000
2761.477051 6831.000000
2762.306396 7316.000000
2763.135010 6876.000000
2763.963135 6783.000000
2764.790771 6924.000000
2765.618408 6642.000000
2766.445557 7900.000000
2767.271973 5852.000000
2768.097900 7522.000000
2768.923340 6885.000000
2769.748535 7840.000000
2770.573730 7088.000000
2771.397705 6856.000000
2772.221680 6496.000000
2773.045654 7647.000000
2773.868408 6629.000000
2774.691406 6853.000000
2775.513184 6869.000000
2776.334961 6944.000000
2777.156738 6511.000000
2777.977539 7923.000000
2778.797607 6559.000000
2779.617920 6986.000000
2780.437744 7329.000000
2781.257568 6474.000000
2782.075439 5998.000000
2782.894531 8066.000000
2783.712402 6477.000000
2784.530029 6778.000000
2785.347168 7169.000000
2786.163818 7280.000000
2786.980225 7229.000000
2787.796143 6298.000000
2788.611816 5961.000000
2789.426514 6431.000000
2790.241699 7061.000000
2791.056152 7206.000000
2791.870117 6604.000000
2792.683838 7494.000000
2793.496338 8782.000000
2794.309082 7002.000000
2795.121338 7428.000000
2795.933105 7224.000000
2796.744141 7405.000000
2797.555908 6620.000000
2798.366455 7252.000000
2799.177002 6961.000000
2799.986084 7457.000000
2800.795898 8118.000000
2801.604980 7812.000000
2802.413818 6720.000000
2803.222168 7215.000000
2804.029541 6182.000000
2804.837402 6493.000000
2805.644531 6929.000000
2806.451416 7049.000000
2807.257080 7163.000000
2808.063232 6624.000000
2808.868652 6555.000000
2809.674072 7367.000000
2810.478760 6230.000000
2811.282471 7670.000000
2812.086670 7560.000000
2812.890381 6335.000000
2813.693848 6123.000000
2814.495850 6665.000000
2815.298584 7336.000000
2816.100586 7784.000000
2816.902344 6111.000000
2817.703613 6559.000000
2818.504395 7271.000000
2819.304688 6529.000000
2820.105225 6757.000000
2820.904785 8130.000000
2821.703857 7242.000000
2822.502930 6502.000000
2823.301758 6894.000000
2824.100098 6391.000000
2824.897461 7068.000000
2825.695068 6984.000000
2826.491943 6693.000000
2827.289063 7384.000000
2828.085449 7931.000000
2828.881104 7065.000000
2829.676758 7408.000000
2830.472168 7586.000000
2831.267090 7456.000000
2832.061279 6743.000000
2832.855469 6846.000000
2833.649414 5636.000000
2834.442871 6905.000000
2835.235596 7153.000000
2836.028076 8207.000000
2836.820557 7621.000000
2837.612793 7553.000000
2838.404541 6487.000000
2839.195313 6823.000000
2839.986084 8879.000000
2840.777100 7502.000000
2841.567139 6290.000000
2842.356689 7694.000000
2843.146484 7235.000000
2843.935303 7454.000000
2844.724121 7861.000000
2845.512939 7756.000000
2846.300781 7528.000000
2847.088135 7294.000000
2847.875732 7556.000000
2848.662842 7318.000000
2849.449219 6673.000000
2850.235596 7437.000000
2851.021729 7205.000000
2851.807373 7585.000000
2852.592041 7212.000000
2853.377197 6922.000000
2854.162109 7435.000000
2854.946289 7178.000000
2855.730469 6978.000000
2856.513428 8393.000000
2857.296631 6828.000000
2858.079590 6814.000000
2858.862061 7841.000000
2859.644287 6276.000000
2860.426025 6695.000000
2861.207520 7604.000000
2861.989258 7513.000000
2862.770264 7631.000000
2863.550537 6569.000000
2864.330566 6811.000000
2865.110596 8260.000000
2865.890381 7434.000000
2866.669189 8138.000000
2867.448242 7699.000000
2868.226807 6767.000000
2869.005127 6896.000000
2869.782959 7265.000000
2870.560547 6921.000000
2871.337891 7566.000000
2872.114990 6966.000000
2872.891602 6424.000000
2873.667725 7502.000000
2874.443848 7235.000000
2875.219482 8297.000000
2875.994873 7264.000000
2876.769775 6700.000000
2877.544434 8012.000000
2878.319092 6622.000000
2879.093506 7935.000000
2879.867188 6848.000000
2880.640137 7117.000000
2881.413818 6809.000000
2882.186523 7628.000000
2882.959229 7919.000000
2883.731201 8317.000000
2884.502930 6219.000000
2885.275146 6778.000000
2886.046143 6920.000000
2886.816650 6135.000000
2887.587646 8314.000000
2888.358643 7379.000000
2889.128906 7949.000000
2889.898193 7700.000000
2890.667725 6962.000000
2891.437256 7272.000000
2892.206299 7347.000000
2892.974854 7907.000000
2893.743408 7768.000000
2894.510986 7001.000000
2895.279053 6644.000000
2896.046631 7427.000000
2896.814209 8310.000000
2897.580566 7393.000000
2898.347900 6527.000000
2899.114014 7213.000000
2899.880371 7055.000000
2900.645264 8321.000000
2901.410645 6970.000000
2902.176514 6515.000000
2902.940918 7747.000000
2903.705322 7902.000000
2904.469971 8502.000000
2905.233643 6652.000000
2905.998047 8482.000000
2906.761719 6711.000000
2907.524658 8432.000000
2908.287354 6556.000000
2909.050537 9096.000000
2909.813232 7029.000000
2910.574707 6759.000000
2911.336670 6759.000000
