scanname Analyse053
timestamp 2017-02-10 21:11:10
ccdbias 896.708984
ccdgain 3.473401
sigmaread 8.960639
laserwavenum -0.653452
wavenumcorrection -0.130488
scancount 1
totalexposurems 10000
singleexposurems 10000
measurementstate Unknown
scanmode Manual
snr 24.513166 0.375534 0.190289
replacelist 0
peaks 10
398.597565 0.061586 0.000000 0.228327 0.000028
811.237061 0.056279 0.000000 0.402517 0.000077
841.581482 0.054836 0.000000 0.296108 0.000048
877.930237 0.051552 0.000000 0.161337 0.000015
1041.186279 0.045431 0.000000 0.056680 0.000015
1153.293823 0.047213 0.000000 0.153480 0.000054
1330.069580 0.050195 0.000000 0.268833 0.000034
1458.294434 0.051016 0.000000 0.253107 0.000051
1554.160889 0.041005 0.000000 0.059337 0.000023
2330.508057 0.023978 0.000000 0.076460 0.000163
finalresult GLS_Multiple 83
A11883	Polypropylene (Isotactic)	5.817925e-001
A13180	Polypropylene (lot B)	5.783010e-001
A13500	Poly(propylene-co-ethylene)	5.709939e-001
A0115	Polypropylene	5.635443e-001
A1531	Ethyl formate	3.694437e-001
A14069	(R)-(-)-1,2-Propanediol	3.662701e-001
A0518	Propylene glycol	3.640900e-001
A9546	4-Methoxy-alpha-methylbenzyl alcohol	3.611764e-001
A13184	Piperidine hydrochloride	3.546438e-001
A1270	Methyl DL-lactate	3.546314e-001
A2703	Acetaldehyde dimethyl acetal	3.528606e-001
A1676	Trifluoroacetic acid	3.527371e-001
A0400	Potassium permanganate	3.515523e-001
A2313	Barium peroxide	3.495474e-001
A11885	Poly(methyl methacrylate-co-butyl methacrylate)	3.492777e-001
A4807	2-(2-Nitroethoxy)tetrahydropyran	3.481628e-001
A10269	1-[N,N-Bis(2-hydroxyethyl)amino]-2-propanol	3.480771e-001
A6290	Bis(2,2,2-trifluoroethyl) phosphite	3.480281e-001
A13820	(-)-Methyl L-lactate	3.467333e-001
A11872	Poly(methyl methacrylate)	3.461112e-001
A10222	CHES	3.454055e-001
A13507	Poly(methyl methacrylate-co-ethyl acrylate)	3.445908e-001
A2721	Formaldehyde diethyl acetal	3.439846e-001
A2017	Isopropylamine	3.397599e-001
A0369	2,4,6-Tribromophenol	3.396161e-001
A0524	Propionic acid	3.381291e-001
A10301	2-Methoxytetrahydropyran	3.366235e-001
A2098	Diethylene glycol dibutyl ether	3.325507e-001
A1341	Nicotinic acid	3.323733e-001
A12448	Tribromofluoromethane	3.314883e-001
A4025	2,4-Dimethylpentane	3.308401e-001
A2782	Acetamide	3.299816e-001
A1754	N,N-Dimethylhydrazine	3.294884e-001
A2210	Calcium peroxide hydrate	3.275679e-001
A11925	Butyl (S)-(-)-2-pyrrolidone-5-carboxylate	3.257143e-001
A12040	Ethanol w/ sweetener	3.253773e-001
A8461	Ethanol	3.248775e-001
A2727	Acrolein diethyl acetal	3.248078e-001
A6025	2-Nitrothiophene	3.228160e-001
A3222	Potassium nitrite	3.223080e-001
A11101	Hydrogen peroxide, 70%	3.219045e-001
A0113	Hydrogen peroxide	3.217201e-001
A0273	Denatured Solvent Alcohol	3.209831e-001
A0761	N,N,N',N'-Tetrakis(2-Hydroxypropyl)ethylenediamine	3.209025e-001
A2385	Amphotericin B	3.199379e-001
A0251	Ethylamine	3.193415e-001
A11100	Hydrogen peroxide, 50%	3.186889e-001
A2943	Potassium binoxalate	3.186203e-001
A13034	4'-Nitrobenzo-15-crown-5	3.182773e-001
A1550	Nitroethane	3.177407e-001
A4972	Boric acid	3.166806e-001
A12725	Cerium(III) fluoride	3.155781e-001
A8580	Sodium permanganate solution	3.155215e-001
A3625	1-Dimethylamino-2-propanol	3.149994e-001
A7805	Ethyl 3-pyridylacetate	3.148296e-001
A0969	Diethylene glycol monopropyl ether	3.145691e-001
A0398	Ammonium nitrate	3.140488e-001
A2336	Ammonium bicarbonate	3.131674e-001
A10229	Nitric acid; 35%	3.131450e-001
A2435	Sodium percarbonate	3.127840e-001
A0040	Silver nitrate	3.126262e-001
A3976	2-Aminopyrimidine	3.123894e-001
A13807	Nitric acid; 18%	3.120179e-001
A15973	Silver azide	3.117706e-001
A10230	Nitric acid; 7%	3.116130e-001
A6201	Ammonium nitrate, 50% sat. sol.	3.116021e-001
A5382	3-Methoxypropionic acid	3.115005e-001
A9847	3-Pyridinecarboxaldehyde	3.115005e-001
A13172	Manganese(II) nitrate tetrahydrate	3.114781e-001
A2789	Ammonium carbonate	3.114337e-001
A3560	Lead(II) nitrate	3.114222e-001
A15809	Methylamine (40 wt% in water)	3.112649e-001
A10581	Piperidine	3.110066e-001
A0188	Sodium bicarbonate	3.106473e-001
A0014	Methanol	3.103450e-001
A7885	beta-Carotene	3.102776e-001
A2413	Sodium selenate	3.101881e-001
A12691	Ethylamine hydrochloride	3.094384e-001
A13682	Tetrabutylammonium nitrate	3.092932e-001
A2155	Ammonium carbamate	3.088686e-001
A10228	Nitric acid; 52%	3.087905e-001
A3164	Ammonium chromate	3.069975e-001
A3586	Bismuth(III) nitrate pentahydrate	3.060434e-001
spectrum 2048
-96.948006 45797.000000
-94.321136 45797.000000
-91.696144 46327.000000
-89.073044 46183.000000
-86.451813 47110.000000
-83.832481 46718.000000
-81.215012 46994.000000
-78.599419 46717.000000
-75.985703 46970.000000
-73.373863 47368.000000
-70.763885 47179.000000
-68.155792 47488.000000
-65.549545 47391.000000
-62.945171 47429.000000
-60.342663 47284.000000
-57.742008 47783.000000
-55.143215 47184.000000
-52.546280 46622.000000
-49.951199 46939.000000
-47.357971 46873.000000
-44.766594 47143.000000
-42.177063 46688.000000
-39.589375 47560.000000
-37.003536 47346.000000
-34.419540 46943.000000
-31.837383 47757.000000
-29.257071 47095.000000
-26.678585 47612.000000
-24.101942 47160.000000
-21.527124 46959.000000
-18.954147 46766.000000
-16.382990 46750.000000
-13.813666 46464.000000
-11.246168 45368.000000
-8.680489 46818.000000
-6.116634 46573.000000
-3.554594 47008.000000
-0.994378 47029.000000
1.564030 46528.000000
4.120617 45688.000000
6.675399 45694.000000
9.228364 45980.000000
11.779529 44786.000000
14.328880 44381.000000
16.876436 43475.000000
19.422180 43319.000000
21.966131 42619.000000
24.508278 39959.000000
27.048628 37733.000000
29.587193 34582.000000
32.123962 31130.000000
34.658928 23746.000000
37.192116 14098.000000
39.723522 9166.000000
42.253136 8381.000000
44.780952 7844.000000
47.307011 6832.000000
49.831280 6151.000000
52.353779 5356.000000
54.874481 4962.000000
57.393429 5060.000000
59.910603 6024.000000
62.425999 7617.000000
64.939613 8268.000000
67.451477 7748.000000
69.961594 6231.000000
72.469917 4216.000000
74.976486 3342.000000
77.481308 2780.000000
79.984375 2375.000000
82.485664 2139.000000
84.985214 2037.000000
87.483009 1872.000000
89.979073 2052.000000
92.473358 2509.000000
94.965904 2774.000000
97.456734 2814.000000
99.945793 2497.000000
102.433105 1936.000000
104.918694 1685.000000
107.402542 1501.000000
109.884644 1488.000000
112.365021 1230.000000
114.843674 1161.000000
117.320602 1038.000000
119.795776 986.000000
122.269241 1029.000000
124.740974 1021.000000
127.210999 918.000000
129.679276 957.000000
132.145874 1052.000000
134.610718 986.000000
137.073868 1065.000000
139.535278 984.000000
141.994995 989.000000
144.452988 1160.000000
146.909286 1129.000000
149.363876 1273.000000
151.816742 1356.000000
154.267929 1458.000000
156.717422 1647.000000
159.165192 1702.000000
161.611252 2013.000000
164.055634 2109.000000
166.498337 2333.000000
168.939346 2458.000000
171.378647 2549.000000
173.816238 2779.000000
176.252197 2761.000000
178.686417 2669.000000
181.118958 2647.000000
183.549850 2606.000000
185.979019 2662.000000
188.406540 2617.000000
190.832382 2477.000000
193.256546 2558.000000
195.679047 2607.000000
198.099854 2620.000000
200.518997 2590.000000
202.936478 2798.000000
205.352264 2764.000000
207.766403 2823.000000
210.178909 2963.000000
212.589737 3184.000000
214.998886 3375.000000
217.406403 3568.000000
219.812210 3670.000000
222.216431 3806.000000
224.618942 4009.000000
227.019836 4119.000000
229.419083 4212.000000
231.816666 4340.000000
234.212585 4168.000000
236.606888 4239.000000
238.999527 4349.000000
241.390549 4159.000000
243.779907 4283.000000
246.167648 4393.000000
248.553741 4310.000000
250.938202 4250.000000
253.321014 4259.000000
255.702255 4269.000000
258.081787 4254.000000
260.459747 4253.000000
262.836029 4083.000000
265.210754 4202.000000
267.583832 4242.000000
269.955261 4076.000000
272.325043 4134.000000
274.693268 4121.000000
277.059845 4060.000000
279.424835 4052.000000
281.788208 4183.000000
284.149933 4045.000000
286.510071 4027.000000
288.868591 4073.000000
291.225525 4077.000000
293.580841 3995.000000
295.934570 4134.000000
298.286652 4022.000000
300.637177 4094.000000
302.986115 4021.000000
305.333405 4053.000000
307.679169 3960.000000
310.023254 3927.000000
312.365814 3892.000000
314.706757 3987.000000
317.046082 3953.000000
319.383850 3943.000000
321.720062 3914.000000
324.054626 3837.000000
326.387634 3825.000000
328.719086 3894.000000
331.048950 3819.000000
333.377228 3856.000000
335.703888 3790.000000
338.029053 3899.000000
340.352600 3787.000000
342.674591 3753.000000
344.995026 3764.000000
347.313843 3724.000000
349.631104 3762.000000
351.946838 3635.000000
354.260986 3686.000000
356.573547 3744.000000
358.884552 3919.000000
361.194031 3733.000000
363.501984 3769.000000
365.808319 3753.000000
368.113068 3692.000000
370.416351 3659.000000
372.718018 3698.000000
375.018188 3687.000000
377.316803 3670.000000
379.613861 3724.000000
381.909363 3650.000000
384.203339 3785.000000
386.495728 3674.000000
388.786621 3797.000000
391.075989 3781.000000
393.363770 3816.000000
395.650024 4074.000000
397.934784 3932.000000
400.217926 4007.000000
402.499634 4010.000000
404.779816 3964.000000
407.058411 3867.000000
409.335480 3769.000000
411.611023 3826.000000
413.885040 3663.000000
416.157623 3700.000000
418.428589 3685.000000
420.698059 3742.000000
422.966034 3659.000000
425.232452 3703.000000
427.497375 3557.000000
429.760834 3641.000000
432.022705 3620.000000
434.283112 3641.000000
436.541962 3543.000000
438.799347 3586.000000
441.055237 3590.000000
443.309631 3577.000000
445.562500 3583.000000
447.813812 3549.000000
450.063721 3487.000000
452.312042 3569.000000
454.558929 3563.000000
456.804352 3554.000000
459.048218 3471.000000
461.290588 3375.000000
463.531464 3495.000000
465.770935 3306.000000
468.008820 3515.000000
470.245270 3490.000000
472.480194 3338.000000
474.713654 3422.000000
476.945679 3320.000000
479.176178 3235.000000
481.405182 3313.000000
483.632721 3251.000000
485.858765 3204.000000
488.083374 3253.000000
490.306519 3330.000000
492.528198 3293.000000
494.748322 3363.000000
496.967041 3340.000000
499.184265 3290.000000
501.400116 3328.000000
503.614349 3347.000000
505.827271 3359.000000
508.038605 3301.000000
510.248505 3300.000000
512.456970 3363.000000
514.664063 3398.000000
516.869568 3347.000000
519.073669 3394.000000
521.276245 3360.000000
523.477417 3466.000000
525.677246 3448.000000
527.875549 3442.000000
530.072327 3408.000000
532.267761 3380.000000
534.461670 3279.000000
536.654236 3307.000000
538.845276 3193.000000
541.034912 3273.000000
543.223145 3236.000000
545.409851 3259.000000
547.595093 3190.000000
549.779053 3137.000000
551.961426 3261.000000
554.142456 3168.000000
556.321960 3169.000000
558.500183 3148.000000
560.676880 3067.000000
562.852173 3118.000000
565.026062 3024.000000
567.198486 3074.000000
569.369507 3012.000000
571.539063 3009.000000
573.707336 3032.000000
575.874084 3124.000000
578.039368 3065.000000
580.203247 2952.000000
582.365845 3122.000000
584.526917 3027.000000
586.686584 3028.000000
588.844910 3041.000000
591.001709 3064.000000
593.157166 3003.000000
595.311218 3054.000000
597.463928 3080.000000
599.615112 3078.000000
601.764954 3128.000000
603.913452 2943.000000
606.060364 3149.000000
608.206055 2980.000000
610.350342 3060.000000
612.493164 3095.000000
614.634521 3091.000000
616.774658 3074.000000
618.913269 2945.000000
621.050598 3115.000000
623.186462 3022.000000
625.320923 3038.000000
627.453918 3023.000000
629.585754 2958.000000
631.716125 2973.000000
633.845093 3103.000000
635.972595 2924.000000
638.098816 2894.000000
640.223511 2905.000000
642.346985 2957.000000
644.469116 2986.000000
646.589783 2776.000000
648.709106 2993.000000
650.827026 2862.000000
652.943604 2938.000000
655.058777 2873.000000
657.172607 2823.000000
659.284973 2867.000000
661.396118 2925.000000
663.505859 2893.000000
665.614136 2778.000000
667.721252 2918.000000
669.826904 2807.000000
671.931091 3009.000000
674.034058 2877.000000
676.135620 3007.000000
678.235840 2869.000000
680.334656 2938.000000
682.432129 2941.000000
684.528320 2922.000000
686.623047 2833.000000
688.716553 2845.000000
690.808716 2828.000000
692.899353 2842.000000
694.988770 2924.000000
697.076904 2982.000000
699.163574 2954.000000
701.249023 2941.000000
703.332947 2740.000000
705.415649 2868.000000
707.497070 2916.000000
709.577026 2863.000000
711.655762 2747.000000
713.733032 2681.000000
715.809021 2676.000000
717.883728 2687.000000
719.957153 2751.000000
722.029053 2841.000000
724.099792 2794.000000
726.169189 2744.000000
728.237183 2734.000000
730.303833 2667.000000
732.369263 2726.000000
734.433350 2651.000000
736.496094 2675.000000
738.557495 2769.000000
740.617615 2730.000000
742.676331 2677.000000
744.733826 2625.000000
746.790039 2718.000000
748.844849 2757.000000
750.898376 2623.000000
752.950500 2655.000000
755.001404 2665.000000
757.051086 2675.000000
759.099304 2719.000000
761.146301 2642.000000
763.192017 2618.000000
765.236328 2662.000000
767.279358 2666.000000
769.321167 2583.000000
771.361633 2621.000000
773.400696 2601.000000
775.438599 2569.000000
777.475159 2611.000000
779.510498 2675.000000
781.544495 2686.000000
783.577087 2643.000000
785.608521 2654.000000
787.638550 2681.000000
789.667297 2754.000000
791.694885 2768.000000
793.721130 2622.000000
795.745972 2743.000000
797.769714 2754.000000
799.792053 2841.000000
801.813171 2812.000000
803.832947 2879.000000
805.851440 2950.000000
807.868713 3051.000000
809.884583 3146.000000
811.899292 3156.000000
813.912659 2967.000000
815.924805 2904.000000
817.935730 2914.000000
819.945313 2712.000000
821.953674 2703.000000
823.960632 2703.000000
825.966370 2709.000000
827.970886 2744.000000
829.974121 2600.000000
831.976074 2647.000000
833.976746 2675.000000
835.976196 2746.000000
837.974304 2768.000000
839.971313 2877.000000
841.966919 2878.000000
843.961365 2886.000000
845.954468 2652.000000
847.946350 2652.000000
849.936890 2615.000000
851.926147 2532.000000
853.914368 2521.000000
855.901184 2503.000000
857.886780 2549.000000
859.871094 2445.000000
861.854309 2417.000000
863.836121 2398.000000
865.816711 2543.000000
867.796021 2515.000000
869.774170 2454.000000
871.750977 2586.000000
873.726501 2608.000000
875.700989 2551.000000
877.674011 2738.000000
879.645996 2724.000000
881.616638 2660.000000
883.586121 2695.000000
885.554260 2610.000000
887.521240 2616.000000
889.486877 2548.000000
891.451355 2608.000000
893.414612 2550.000000
895.376648 2512.000000
897.337402 2568.000000
899.296936 2447.000000
901.255188 2512.000000
903.212341 2525.000000
905.168335 2436.000000
907.122925 2471.000000
909.076294 2366.000000
911.028503 2317.000000
912.979492 2389.000000
914.929199 2323.000000
916.877747 2350.000000
918.825073 2347.000000
920.771118 2423.000000
922.715881 2194.000000
924.659607 2218.000000
926.602173 2131.000000
928.543457 2142.000000
930.483398 2110.000000
932.422241 2156.000000
934.359802 2100.000000
936.296143 2106.000000
938.231323 2212.000000
940.165222 2216.000000
942.098022 2188.000000
944.029602 2160.000000
945.960022 2156.000000
947.889221 2109.000000
949.817078 2140.000000
951.743896 2149.000000
953.669434 2161.000000
955.593689 2159.000000
957.516846 2197.000000
959.438843 2144.000000
961.359558 2202.000000
963.279114 2178.000000
965.197510 2230.000000
967.114868 2189.000000
969.030762 2281.000000
970.945557 2292.000000
972.859131 2357.000000
974.771545 2436.000000
976.682739 2326.000000
978.592773 2321.000000
980.501526 2280.000000
982.409241 2238.000000
984.315735 2187.000000
986.221008 2216.000000
988.125183 2162.000000
990.028137 2221.000000
991.929871 2204.000000
993.830444 2198.000000
995.729858 2148.000000
997.628052 2144.000000
999.525085 2241.000000
1001.420898 2173.000000
1003.315552 1949.000000
1005.209106 2052.000000
1007.101379 2021.000000
1008.992737 2071.000000
1010.882751 1962.000000
1012.771545 1943.000000
1014.659180 1952.000000
1016.545654 1987.000000
1018.430969 2023.000000
1020.315125 1883.000000
1022.198059 2001.000000
1024.079956 2021.000000
1025.960571 1926.000000
1027.840088 1967.000000
1029.718628 1909.000000
1031.595825 2085.000000
1033.471680 2035.000000
1035.346558 2025.000000
1037.220459 2158.000000
1039.092896 2037.000000
1040.964355 2081.000000
1042.834473 2070.000000
1044.703613 2063.000000
1046.571533 1984.000000
1048.438354 2117.000000
1050.304077 2054.000000
1052.168579 1976.000000
1054.031982 2054.000000
1055.894043 2025.000000
1057.755127 1934.000000
1059.615112 1907.000000
1061.473755 1903.000000
1063.331299 2025.000000
1065.187744 1890.000000
1067.043091 1980.000000
1068.897217 1982.000000
1070.750488 1989.000000
1072.602295 2066.000000
1074.453125 1923.000000
1076.302734 1920.000000
1078.151123 2091.000000
1079.998657 1938.000000
1081.844849 1873.000000
1083.689819 2107.000000
1085.533936 1909.000000
1087.376709 1946.000000
1089.218262 1987.000000
1091.059082 2006.000000
1092.898315 1870.000000
1094.736816 1910.000000
1096.573975 1960.000000
1098.409912 1838.000000
1100.244873 1868.000000
1102.078613 1845.000000
1103.911377 1836.000000
1105.742798 1801.000000
1107.573364 1864.000000
1109.402588 1823.000000
1111.230835 1801.000000
1113.057861 1700.000000
1114.883911 1767.000000
1116.708740 1712.000000
1118.532471 1814.000000
1120.354980 1782.000000
1122.176392 1764.000000
1123.996948 1747.000000
1125.816040 1676.000000
1127.634277 1809.000000
1129.451172 1728.000000
1131.267212 1845.000000
1133.082031 1817.000000
1134.895752 1795.000000
1136.708374 1747.000000
1138.519775 1869.000000
1140.330200 1833.000000
1142.139526 1883.000000
1143.947510 1941.000000
1145.754761 1975.000000
1147.560547 2006.000000
1149.365479 2075.000000
1151.169312 2110.000000
1152.971924 2210.000000
1154.773682 2086.000000
1156.573975 2131.000000
1158.373291 1922.000000
1160.171631 2043.000000
1161.968628 1943.000000
1163.764893 1920.000000
1165.559814 1839.000000
1167.353638 1931.000000
1169.146606 1893.000000
1170.938232 1911.000000
1172.728882 1984.000000
1174.518555 1813.000000
1176.306763 1782.000000
1178.094116 1827.000000
1179.880371 1706.000000
1181.665527 1741.000000
1183.449585 1718.000000
1185.232544 1711.000000
1187.014526 1726.000000
1188.795288 1691.000000
1190.575073 1790.000000
1192.353760 1676.000000
1194.131470 1646.000000
1195.907959 1644.000000
1197.683350 1622.000000
1199.457642 1704.000000
1201.230835 1585.000000
1203.003174 1764.000000
1204.774170 1651.000000
1206.544312 1560.000000
1208.313232 1660.000000
1210.081055 1694.000000
1211.848022 1713.000000
1213.613647 1729.000000
1215.378296 1683.000000
1217.141846 1683.000000
1218.904297 1732.000000
1220.665894 1669.000000
1222.426270 1694.000000
1224.185547 1738.000000
1225.943970 1630.000000
1227.701172 1588.000000
1229.457275 1645.000000
1231.212280 1564.000000
1232.966431 1685.000000
1234.719238 1681.000000
1236.471069 1680.000000
1238.222046 1701.000000
1239.971680 1707.000000
1241.720459 1638.000000
1243.467896 1665.000000
1245.214600 1692.000000
1246.960083 1718.000000
1248.704712 1718.000000
1250.447998 1632.000000
1252.190308 1790.000000
1253.931519 1780.000000
1255.671875 1625.000000
1257.411133 1649.000000
1259.149170 1617.000000
1260.886353 1620.000000
1262.622314 1577.000000
1264.357300 1646.000000
1266.091309 1626.000000
1267.824341 1695.000000
1269.556152 1692.000000
1271.286987 1702.000000
1273.016602 1700.000000
1274.745361 1656.000000
1276.473022 1717.000000
1278.199585 1795.000000
1279.925293 1704.000000
1281.649658 1596.000000
1283.373169 1692.000000
1285.095703 1770.000000
1286.817261 1705.000000
1288.537598 1704.000000
1290.256958 1764.000000
1291.975220 1771.000000
1293.692505 1720.000000
1295.408813 1766.000000
1297.123901 1677.000000
1298.838013 1771.000000
1300.551147 1759.000000
1302.263428 1732.000000
1303.974487 1793.000000
1305.684570 1654.000000
1307.393555 1610.000000
1309.101318 1643.000000
1310.808472 1661.000000
1312.514160 1686.000000
1314.219116 1711.000000
1315.923096 1643.000000
1317.625854 1754.000000
1319.327637 1826.000000
1321.028564 1800.000000
1322.728149 2846.000000
1324.426880 602.000000
1326.124878 1860.000000
1327.821533 1916.000000
1329.517090 1883.000000
1331.211792 1956.000000
1332.905273 1968.000000
1334.597900 1808.000000
1336.289673 1772.000000
1337.980103 1750.000000
1339.669800 1597.000000
1341.358398 1679.000000
1343.045898 1643.000000
1344.732422 1645.000000
1346.417847 1648.000000
1348.102295 1649.000000
1349.785889 1677.000000
1351.468262 1685.000000
1353.149658 1646.000000
1354.830200 1693.000000
1356.509521 1802.000000
1358.188232 1815.000000
1359.865601 1755.000000
1361.541870 1764.000000
1363.217163 1839.000000
1364.891724 1769.000000
1366.565063 1810.000000
1368.237427 1759.000000
1369.908813 1733.000000
1371.579224 1753.000000
1373.248535 1789.000000
1374.916870 1735.000000
1376.584351 1769.000000
1378.250732 1685.000000
1379.916138 1667.000000
1381.580566 1654.000000
1383.243774 1654.000000
1384.906372 1722.000000
1386.567627 1637.000000
1388.228027 1634.000000
1389.887329 1557.000000
1391.545654 1628.000000
1393.203247 1577.000000
1394.859619 1457.000000
1396.515137 1641.000000
1398.169434 1487.000000
1399.822876 1660.000000
1401.475220 1622.000000
1403.126831 1571.000000
1404.777222 1597.000000
1406.426514 1515.000000
1408.075073 1497.000000
1409.722534 1544.000000
1411.369019 1534.000000
1413.014648 1478.000000
1414.659302 1455.000000
1416.302734 1513.000000
1417.945313 1469.000000
1419.586792 1504.000000
1421.227417 1520.000000
1422.867065 1465.000000
1424.505615 1482.000000
1426.143311 1446.000000
1427.779907 1464.000000
1429.415527 1496.000000
1431.050415 1459.000000
1432.684204 1524.000000
1434.316895 1537.000000
1435.948608 1496.000000
1437.579468 1565.000000
1439.209229 1482.000000
1440.837891 1580.000000
1442.465942 1483.000000
1444.092896 1517.000000
1445.718628 1605.000000
1447.343750 1616.000000
1448.967773 1596.000000
1450.590820 1547.000000
1452.212891 1622.000000
1453.833862 1750.000000
1455.453857 1724.000000
1457.073120 1691.000000
1458.691040 1785.000000
1460.308350 1796.000000
1461.924683 1673.000000
1463.539795 1608.000000
1465.154053 1618.000000
1466.767456 1603.000000
1468.379761 1540.000000
1469.991211 1478.000000
1471.601807 1524.000000
1473.211182 1440.000000
1474.819580 1359.000000
1476.427124 1428.000000
1478.033691 1433.000000
1479.639526 1401.000000
1481.244141 1376.000000
1482.847900 1410.000000
1484.450439 1364.000000
1486.052368 1279.000000
1487.653076 1254.000000
1489.253052 1264.000000
1490.851929 1372.000000
1492.449951 1260.000000
1494.046875 1294.000000
1495.642944 1304.000000
1497.238037 1391.000000
1498.832153 1285.000000
1500.425537 1388.000000
1502.017822 1400.000000
1503.608887 1365.000000
1505.199463 1338.000000
1506.788696 1425.000000
1508.377319 1305.000000
1509.964844 1240.000000
1511.551270 1301.000000
1513.136963 1193.000000
1514.721558 1253.000000
1516.305298 1251.000000
1517.887939 1332.000000
1519.469849 1302.000000
1521.050659 1305.000000
1522.630737 1174.000000
1524.209595 1258.000000
1525.787598 1184.000000
1527.364868 1176.000000
1528.940918 1266.000000
1530.516235 1348.000000
1532.090454 1204.000000
1533.663940 1184.000000
1535.236206 1220.000000
1536.807739 1207.000000
1538.378296 1245.000000
1539.947998 1192.000000
1541.516479 1197.000000
1543.084229 1100.000000
1544.651123 1202.000000
1546.216797 1214.000000
1547.781738 1241.000000
1549.345581 1266.000000
1550.908813 1201.000000
1552.470703 1232.000000
1554.031982 1227.000000
1555.592163 1194.000000
1557.151611 1260.000000
1558.709961 1331.000000
1560.267578 1223.000000
1561.824097 1186.000000
1563.379395 1115.000000
1564.934082 1157.000000
1566.488037 1094.000000
1568.041016 1143.000000
1569.592651 1091.000000
1571.143555 1150.000000
1572.693726 1179.000000
1574.242920 1145.000000
1575.790771 1161.000000
1577.338135 1246.000000
1578.884521 1181.000000
1580.430054 1186.000000
1581.974609 1150.000000
1583.517944 1213.000000
1585.060669 1084.000000
1586.602539 1203.000000
1588.143311 1147.000000
1589.683105 1161.000000
1591.222168 1091.000000
1592.760132 1180.000000
1594.297607 1079.000000
1595.833740 1131.000000
1597.368774 1159.000000
1598.903320 1090.000000
1600.436890 1137.000000
1601.969604 1078.000000
1603.500732 1141.000000
1605.031616 1087.000000
1606.561646 1199.000000
1608.090454 1182.000000
1609.618164 1097.000000
1611.145264 1154.000000
1612.671631 1291.000000
1614.197021 1126.000000
1615.721558 1092.000000
1617.244751 1158.000000
1618.767212 1012.000000
1620.288940 1190.000000
1621.809814 1055.000000
1623.329224 1132.000000
1624.848145 959.000000
1626.366333 1112.000000
1627.883667 1097.000000
1629.399902 1166.000000
1630.914795 1132.000000
1632.429199 1074.000000
1633.942871 1075.000000
1635.455444 1131.000000
1636.966797 1116.000000
1638.477783 1036.000000
1639.987671 1071.000000
1641.496704 1099.000000
1643.004395 1109.000000
1644.511719 1088.000000
1646.018188 1073.000000
1647.523682 1122.000000
1649.028320 1058.000000
1650.531494 1074.000000
1652.034058 1064.000000
1653.536255 1058.000000
1655.037109 1016.000000
1656.536865 1004.000000
1658.035767 1056.000000
1659.534302 1095.000000
1661.031616 976.000000
1662.528198 985.000000
1664.023193 923.000000
1665.517944 1025.000000
1667.011841 945.000000
1668.504761 943.000000
1669.996338 1315.000000
1671.487427 950.000000
1672.977905 966.000000
1674.467285 945.000000
1675.955200 970.000000
1677.442871 967.000000
1678.929565 952.000000
1680.415405 841.000000
1681.900391 955.000000
1683.383911 911.000000
1684.867188 905.000000
1686.349609 823.000000
1687.830933 857.000000
1689.310791 945.000000
1690.790405 849.000000
1692.269287 921.000000
1693.747192 897.000000
1695.224121 907.000000
1696.699829 958.000000
1698.175171 953.000000
1699.649292 854.000000
1701.122803 845.000000
1702.594849 874.000000
1704.066650 903.000000
1705.537476 910.000000
1707.007446 927.000000
1708.476074 877.000000
1709.944214 932.000000
1711.411621 882.000000
1712.877930 821.000000
1714.343628 881.000000
1715.807617 934.000000
1717.271484 848.000000
1718.734497 948.000000
1720.196533 919.000000
1721.657349 949.000000
1723.117554 957.000000
1724.577026 828.000000
1726.035645 956.000000
1727.493286 830.000000
1728.949585 843.000000
1730.405640 909.000000
1731.860718 847.000000
1733.314819 893.000000
1734.767700 776.000000
1736.220337 989.000000
1737.671875 930.000000
1739.122681 858.000000
1740.572510 886.000000
1742.020996 864.000000
1743.469116 923.000000
1744.916382 843.000000
1746.362915 836.000000
1747.807861 849.000000
1749.252563 840.000000
1750.696411 885.000000
1752.139404 733.000000
1753.580933 952.000000
1755.022217 843.000000
1756.462646 824.000000
1757.902100 859.000000
1759.340576 850.000000
1760.778076 848.000000
1762.215088 787.000000
1763.651123 824.000000
1765.086304 959.000000
1766.520020 736.000000
1767.953613 805.000000
1769.386230 790.000000
1770.817993 728.000000
1772.248901 822.000000
1773.678589 740.000000
1775.107544 798.000000
1776.536011 796.000000
1777.963501 764.000000
1779.389648 613.000000
1780.815552 721.000000
1782.240356 700.000000
1783.664551 748.000000
1785.087280 811.000000
1786.509521 789.000000
1787.931030 745.000000
1789.351807 793.000000
1790.771606 728.000000
1792.190063 723.000000
1793.608032 730.000000
1795.025391 702.000000
1796.441895 691.000000
1797.856934 685.000000
1799.271606 754.000000
1800.685669 704.000000
1802.098511 727.000000
1803.510742 575.000000
1804.921631 674.000000
1806.332031 673.000000
1807.741699 695.000000
1809.150391 638.000000
1810.557983 735.000000
1811.965088 653.000000
1813.371338 682.000000
1814.776611 662.000000
1816.180786 748.000000
1817.584595 762.000000
1818.987427 678.000000
1820.389404 751.000000
1821.790771 745.000000
1823.190674 707.000000
1824.589966 676.000000
1825.988770 743.000000
1827.386719 706.000000
1828.783325 654.000000
1830.179321 575.000000
1831.574585 635.000000
1832.969238 733.000000
1834.362915 673.000000
1835.755249 647.000000
1837.147095 674.000000
1838.538330 710.000000
1839.928589 685.000000
1841.317627 723.000000
1842.706299 745.000000
1844.093994 689.000000
1845.480957 672.000000
1846.866577 678.000000
1848.251953 625.000000
1849.636475 630.000000
1851.020264 746.000000
1852.402954 633.000000
1853.784424 664.000000
1855.165405 703.000000
1856.545898 624.000000
1857.925415 639.000000
1859.303467 649.000000
1860.681396 619.000000
1862.058350 615.000000
1863.434570 697.000000
1864.809937 646.000000
1866.183838 618.000000
1867.557617 522.000000
1868.930542 689.000000
1870.302368 607.000000
1871.673218 628.000000
1873.043701 579.000000
1874.413086 652.000000
1875.781982 669.000000
1877.149292 602.000000
1878.516479 611.000000
1879.882690 617.000000
1881.248169 600.000000
1882.612915 602.000000
1883.976074 647.000000
1885.339111 702.000000
1886.701294 623.000000
1888.062622 631.000000
1889.422607 593.000000
1890.782227 571.000000
1892.141235 608.000000
1893.499268 582.000000
1894.856445 638.000000
1896.212402 603.000000
1897.568115 537.000000
1898.922852 596.000000
1900.276733 567.000000
1901.629517 617.000000
1902.981812 641.000000
1904.333374 550.000000
1905.684082 535.000000
1907.033569 638.000000
1908.382568 562.000000
1909.730713 590.000000
1911.078247 604.000000
1912.425049 573.000000
1913.770264 655.000000
1915.115234 588.000000
1916.459473 575.000000
1917.802856 612.000000
1919.144897 558.000000
1920.486694 614.000000
1921.827637 647.000000
1923.167847 537.000000
1924.507080 587.000000
1925.845337 491.000000
1927.182983 577.000000
1928.519897 515.000000
1929.855957 586.000000
1931.190796 610.000000
1932.525269 495.000000
1933.859009 603.000000
1935.191895 601.000000
1936.523315 560.000000
1937.854858 539.000000
1939.185059 542.000000
1940.514771 590.000000
1941.843628 609.000000
1943.171265 608.000000
1944.498413 538.000000
1945.824829 528.000000
1947.150513 499.000000
1948.474854 614.000000
1949.798950 459.000000
1951.122192 431.000000
1952.444702 492.000000
1953.766113 491.000000
1955.086548 532.000000
1956.406372 443.000000
1957.725830 590.000000
1959.044312 571.000000
1960.361450 494.000000
1961.678223 543.000000
1962.994263 503.000000
1964.309570 632.000000
1965.623413 510.000000
1966.937012 512.000000
1968.249878 431.000000
1969.561890 450.000000
1970.873291 535.000000
1972.183350 573.000000
1973.492920 532.000000
1974.801758 510.000000
1976.109985 469.000000
1977.416870 478.000000
1978.723145 434.000000
1980.029053 372.000000
1981.333740 428.000000
1982.637939 449.000000
1983.940918 425.000000
1985.243530 536.000000
1986.545166 440.000000
1987.846191 489.000000
1989.145630 489.000000
1990.445190 430.000000
1991.743652 472.000000
1993.041626 407.000000
1994.338013 389.000000
1995.634399 493.000000
1996.929810 393.000000
1998.224487 461.000000
1999.518311 489.000000
2000.810913 458.000000
2002.103027 403.000000
2003.394653 486.000000
2004.685547 403.000000
2005.974854 405.000000
2007.263916 520.000000
2008.552246 418.000000
2009.839844 455.000000
2011.126587 426.000000
2012.412231 458.000000
2013.697510 347.000000
2014.981812 439.000000
2016.265503 461.000000
2017.547852 361.000000
2018.829834 385.000000
2020.111328 366.000000
2021.391846 430.000000
2022.671631 411.000000
2023.950317 398.000000
2025.228271 439.000000
2026.505737 424.000000
2027.782593 403.000000
2029.057739 470.000000
2030.333008 367.000000
2031.607300 506.000000
2032.880615 508.000000
2034.153076 542.000000
2035.425171 392.000000
2036.696167 439.000000
2037.966919 461.000000
2039.236328 532.000000
2040.504639 369.000000
2041.772949 392.000000
2043.040283 378.000000
2044.306885 321.000000
2045.572266 393.000000
2046.837036 389.000000
2048.101563 464.000000
2049.364746 476.000000
2050.627686 450.000000
2051.888672 382.000000
2053.150146 538.000000
2054.410400 499.000000
2055.669922 440.000000
2056.928711 311.000000
2058.186523 381.000000
2059.443848 433.000000
2060.700439 285.000000
2061.955566 444.000000
2063.210693 463.000000
2064.464844 441.000000
2065.718262 366.000000
2066.970947 391.000000
2068.222412 412.000000
2069.473633 335.000000
2070.724121 483.000000
2071.973877 427.000000
2073.222168 397.000000
2074.470459 389.000000
2075.717773 478.000000
2076.964355 410.000000
2078.210205 362.000000
2079.454834 294.000000
2080.698975 338.000000
2081.942627 392.000000
2083.185303 460.000000
2084.426758 420.000000
2085.667969 415.000000
2086.908691 348.000000
2088.148438 367.000000
2089.386963 372.000000
2090.625000 361.000000
2091.862305 374.000000
2093.099365 468.000000
2094.334961 358.000000
2095.569824 359.000000
2096.804443 310.000000
2098.038086 389.000000
2099.270752 389.000000
2100.502686 329.000000
2101.734131 354.000000
2102.964600 452.000000
2104.194336 386.000000
2105.423828 415.000000
2106.651367 262.000000
2107.879150 384.000000
2109.106201 343.000000
2110.332275 292.000000
2111.556885 310.000000
2112.781738 319.000000
2114.005371 376.000000
2115.228516 302.000000
2116.450439 460.000000
2117.672119 340.000000
2118.892822 427.000000
2120.112793 412.000000
2121.332275 357.000000
2122.550293 329.000000
2123.768311 432.000000
2124.985352 367.000000
2126.201904 308.000000
2127.416748 222.000000
2128.631836 318.000000
2129.845947 359.000000
2131.059326 321.000000
2132.271973 340.000000
2133.483154 305.000000
2134.694580 381.000000
2135.904785 331.000000
2137.114502 337.000000
2138.322754 365.000000
2139.531006 422.000000
2140.738525 323.000000
2141.944824 393.000000
2143.150391 287.000000
2144.355713 327.000000
2145.560059 301.000000
2146.763672 363.000000
2147.966797 331.000000
2149.168457 434.000000
2150.369873 293.000000
2151.570557 266.000000
2152.770508 215.000000
2153.969238 395.000000
2155.167725 441.000000
2156.365723 337.000000
2157.562744 299.000000
2158.759033 359.000000
2159.954102 314.000000
2161.148926 362.000000
2162.343018 287.000000
2163.536133 255.000000
2164.728271 307.000000
2165.920166 368.000000
2167.111328 244.000000
2168.301514 218.000000
2169.490967 262.000000
2170.679932 281.000000
2171.867920 243.000000
2173.055664 299.000000
2174.241943 296.000000
2175.427490 352.000000
2176.612793 238.000000
2177.797607 233.000000
2178.981201 322.000000
2180.164063 317.000000
2181.345947 239.000000
2182.527588 219.000000
2183.708740 242.000000
2184.888672 264.000000
2186.067627 334.000000
2187.246094 269.000000
2188.424316 265.000000
2189.601318 208.000000
2190.777344 199.000000
2191.953125 268.000000
2193.128418 335.000000
2194.302246 282.000000
2195.475586 360.000000
2196.648682 177.000000
2197.820557 320.000000
2198.991943 302.000000
2200.162842 276.000000
2201.332031 321.000000
2202.501221 337.000000
2203.669922 196.000000
2204.837646 263.000000
2206.004395 257.000000
2207.170410 291.000000
2208.335938 271.000000
2209.501221 264.000000
2210.665039 254.000000
2211.828369 266.000000
2212.990479 274.000000
2214.152832 210.000000
2215.313965 232.000000
2216.474121 239.000000
2217.633789 259.000000
2218.793213 248.000000
2219.951416 156.000000
2221.108643 301.000000
2222.265625 281.000000
2223.421875 326.000000
2224.577393 243.000000
2225.732178 268.000000
2226.885986 266.000000
2228.038818 233.000000
2229.192139 276.000000
2230.343506 339.000000
2231.494629 348.000000
2232.645020 236.000000
2233.794922 334.000000
2234.943848 205.000000
2236.092285 253.000000
2237.239258 155.000000
2238.386475 273.000000
2239.532471 289.000000
2240.678223 255.000000
2241.822266 267.000000
2242.966553 259.000000
2244.109863 197.000000
2245.252441 266.000000
2246.394043 194.000000
2247.535400 243.000000
2248.675781 222.000000
2249.815430 201.000000
2250.954590 160.000000
2252.092529 332.000000
2253.230469 242.000000
2254.367432 308.000000
2255.503662 310.000000
2256.638916 203.000000
2257.773438 260.000000
2258.907715 205.000000
2260.041504 179.000000
2261.173828 264.000000
2262.305664 149.000000
2263.437012 204.000000
2264.567383 229.000000
2265.697510 234.000000
2266.826416 151.000000
2267.954834 198.000000
2269.082764 265.000000
2270.209717 178.000000
2271.335938 203.000000
2272.461182 146.000000
2273.586426 208.000000
2274.710938 275.000000
2275.834229 259.000000
2276.956787 174.000000
2278.078857 188.000000
2279.200439 265.000000
2280.321289 238.000000
2281.440918 226.000000
2282.560059 283.000000
2283.678955 208.000000
2284.797119 239.000000
2285.914307 125.000000
2287.030518 223.000000
2288.146484 206.000000
2289.261719 221.000000
2290.376221 174.000000
2291.489502 178.000000
2292.602783 254.000000
2293.715332 92.000000
2294.827148 165.000000
2295.938232 268.000000
2297.048096 177.000000
2298.157471 177.000000
2299.266602 139.000000
2300.374756 361.000000
2301.481934 289.000000
2302.588867 182.000000
2303.695068 238.000000
2304.800781 253.000000
2305.905029 242.000000
2307.009033 159.000000
2308.112549 273.000000
2309.215576 180.000000
2310.317383 98.000000
2311.418457 283.000000
2312.519043 249.000000
2313.619141 225.000000
2314.718506 128.000000
2315.816406 117.000000
2316.914795 158.000000
2318.011719 190.000000
2319.108398 263.000000
2320.204590 256.000000
2321.299072 206.000000
2322.393555 96.000000
2323.487305 200.000000
2324.580811 219.000000
2325.672607 307.000000
2326.764404 355.000000
2327.855469 208.000000
2328.945801 248.000000
2330.035156 411.000000
2331.124512 294.000000
2332.212646 279.000000
2333.300293 337.000000
2334.387695 167.000000
2335.473389 122.000000
2336.558838 219.000000
2337.644043 171.000000
2338.728271 189.000000
2339.811523 170.000000
2340.894531 176.000000
2341.976563 85.000000
2343.058350 215.000000
2344.139404 138.000000
2345.219238 179.000000
2346.298584 136.000000
2347.377441 278.000000
2348.455811 201.000000
2349.532715 140.000000
2350.609375 158.000000
2351.685791 136.000000
2352.761230 141.000000
2353.835693 253.000000
2354.909912 208.000000
2355.983398 143.000000
2357.056396 248.000000
2358.128174 102.000000
2359.199707 182.000000
2360.270264 131.000000
2361.340576 287.000000
2362.409912 200.000000
2363.478271 268.000000
2364.546387 176.000000
2365.613770 103.000000
2366.680664 150.000000
2367.746826 92.000000
2368.811768 152.000000
2369.876709 133.000000
2370.940918 150.000000
2372.004395 233.000000
2373.066650 53.000000
2374.128906 100.000000
2375.190186 218.000000
2376.251221 175.000000
2377.311035 82.000000
2378.370117 90.000000
2379.429199 120.000000
2380.487305 173.000000
2381.544678 150.000000
2382.601074 165.000000
2383.657227 151.000000
2384.712891 140.000000
2385.767822 141.000000
2386.821289 120.000000
2387.875000 177.000000
2388.927734 111.000000
2389.979980 128.000000
2391.031494 105.000000
2392.082031 160.000000
2393.132324 94.000000
2394.181641 219.000000
2395.230957 112.000000
2396.278809 171.000000
2397.326172 83.000000
2398.373291 175.000000
2399.419434 166.000000
2400.464844 141.000000
2401.509521 163.000000
2402.554199 173.000000
2403.597412 69.000000
2404.640625 189.000000
2405.682373 91.000000
2406.724365 134.000000
2407.765625 91.000000
2408.805908 154.000000
2409.845459 103.000000
2410.884033 185.000000
2411.922852 163.000000
2412.960449 187.000000
2413.997803 152.000000
2415.033936 130.000000
2416.069824 151.000000
2417.104980 149.000000
2418.139648 98.000000
2419.172852 121.000000
2420.206299 96.000000
2421.238770 138.000000
2422.270996 134.000000
2423.301758 197.000000
2424.332520 125.000000
2425.362793 76.000000
2426.391846 84.000000
2427.420898 92.000000
2428.448242 153.000000
2429.476074 129.000000
2430.502686 167.000000
2431.529053 128.000000
2432.553955 125.000000
2433.579102 110.000000
2434.603271 154.000000
2435.627197 138.000000
2436.649902 113.000000
2437.671875 199.000000
2438.693604 173.000000
2439.714600 121.000000
2440.735107 187.000000
2441.754395 254.000000
2442.773682 150.000000
2443.791992 63.000000
2444.810059 167.000000
2445.826660 162.000000
2446.843262 129.000000
2447.859131 93.000000
2448.875000 135.000000
2449.889404 170.000000
2450.903076 129.000000
2451.916260 95.000000
2452.929199 130.000000
2453.941406 138.000000
2454.952637 52.000000
2455.963623 129.000000
2456.973877 122.000000
2457.983643 103.000000
2458.992432 133.000000
2460.000488 156.000000
2461.008545 53.000000
2462.015381 56.000000
2463.021973 85.000000
2464.027344 -38.000000
2465.032471 49.000000
2466.037354 110.000000
2467.041016 108.000000
2468.044434 153.000000
2469.046875 177.000000
2470.049072 105.000000
2471.050781 191.000000
2472.051514 40.000000
2473.051270 90.000000
2474.051025 138.000000
2475.049805 142.000000
2476.048096 61.000000
2477.045410 131.000000
2478.042480 164.000000
2479.039551 57.000000
2480.035156 29.000000
2481.030762 51.000000
2482.024658 103.000000
2483.018555 164.000000
2484.011963 134.000000
2485.004883 193.000000
2485.996826 167.000000
2486.988037 46.000000
2487.979004 132.000000
2488.969482 183.000000
2489.958984 67.000000
2490.947754 46.000000
2491.936523 97.000000
2492.924316 52.000000
2493.910889 155.000000
2494.897461 14.000000
2495.883545 121.000000
2496.868896 103.000000
2497.853271 92.000000
2498.837402 33.000000
2499.821533 47.000000
2500.804199 117.000000
2501.786377 186.000000
2502.768066 129.000000
2503.749023 26.000000
2504.729492 175.000000
2505.709717 82.000000
2506.688477 83.000000
2507.666992 57.000000
2508.645020 120.000000
2509.622559 150.000000
2510.599121 44.000000
2511.575439 138.000000
2512.551025 50.000000
2513.526123 141.000000
2514.500732 125.000000
2515.474121 -52.000000
2516.447266 104.000000
2517.420166 99.000000
2518.392090 39.000000
2519.363281 70.000000
2520.333984 32.000000
2521.304443 184.000000
2522.274170 158.000000
2523.242920 115.000000
2524.210938 119.000000
2525.178955 -19.000000
2526.145996 117.000000
2527.112793 160.000000
2528.078369 217.000000
2529.043945 174.000000
2530.008789 26.000000
2530.973145 126.000000
2531.936279 83.000000
2532.899658 150.000000
2533.862061 124.000000
2534.824219 21.000000
2535.785156 168.000000
2536.745361 154.000000
2537.705811 112.000000
2538.665283 11.000000
2539.624023 118.000000
2540.581787 84.000000
2541.539795 128.000000
2542.497070 137.000000
2543.453369 134.000000
2544.409424 36.000000
2545.364258 5.000000
2546.319336 172.000000
2547.273682 61.000000
2548.227295 -100.000000
2549.179932 49.000000
2550.132324 94.000000
2551.084229 148.000000
2552.035400 -14.000000
2552.985840 68.000000
2553.935791 -2.000000
2554.885498 48.000000
2555.834473 65.000000
2556.782959 104.000000
2557.730225 60.000000
2558.677490 -12.000000
2559.624023 180.000000
2560.570068 6.000000
2561.515137 168.000000
2562.459961 41.000000
2563.404297 144.000000
2564.348145 124.000000
2565.291504 77.000000
2566.233398 63.000000
2567.175537 30.000000
2568.116943 135.000000
2569.057617 108.000000
2569.997559 54.000000
2570.937500 54.000000
2571.876465 136.000000
2572.815186 49.000000
2573.752930 64.000000
2574.690430 152.000000
2575.627197 29.000000
2576.563232 40.000000
2577.498779 62.000000
2578.433594 67.000000
2579.368408 73.000000
2580.302246 78.000000
2581.235596 97.000000
2582.168213 49.000000
2583.100586 78.000000
2584.032227 125.000000
2584.963379 -19.000000
2585.894043 83.000000
2586.823486 99.000000
2587.752930 1.000000
2588.681885 34.000000
2589.610596 82.000000
2590.537598 -7.000000
2591.464844 53.000000
2592.391602 26.000000
2593.317627 65.000000
2594.243408 83.000000
2595.167969 86.000000
2596.092285 50.000000
2597.016113 33.000000
2597.939453 98.000000
2598.861816 -3.000000
2599.783936 21.000000
2600.705566 40.000000
2601.626465 102.000000
2602.546631 -28.000000
2603.466553 150.000000
2604.385986 83.000000
2605.305176 113.000000
2606.223389 96.000000
2607.140381 24.000000
2608.057617 56.000000
2608.974609 151.000000
2609.890625 125.000000
2610.805420 97.000000
2611.720703 9.000000
2612.635254 101.000000
2613.548828 38.000000
2614.462402 154.000000
2615.374756 67.000000
2616.287109 13.000000
2617.198486 75.000000
2618.109619 65.000000
2619.020020 113.000000
2619.930176 66.000000
2620.839600 83.000000
2621.748535 50.000000
2622.656494 7.000000
2623.564697 113.000000
2624.471924 28.000000
2625.378662 -1.000000
2626.284668 51.000000
2627.190430 149.000000
2628.095459 102.000000
2629.000244 51.000000
2629.904297 71.000000
2630.807373 122.000000
2631.710449 26.000000
2632.612549 16.000000
2633.514648 51.000000
2634.416504 65.000000
2635.316650 43.000000
2636.217041 -37.000000
2637.116699 133.000000
2638.016113 22.000000
2638.914063 -6.000000
2639.812500 38.000000
2640.710449 77.000000
2641.607666 159.000000
2642.503662 -32.000000
2643.399658 112.000000
2644.295410 39.000000
2645.190430 43.000000
2646.085205 -17.000000
2646.978516 49.000000
2647.871826 72.000000
2648.764893 42.000000
2649.657715 82.000000
2650.548828 26.000000
2651.440186 -13.000000
2652.331055 -57.000000
2653.221191 0.000000
2654.111084 91.000000
2654.999756 61.000000
2655.888672 -17.000000
2656.777100 54.000000
2657.664551 -12.000000
2658.551025 14.000000
2659.437988 -73.000000
2660.324219 46.000000
2661.209961 -36.000000
2662.094482 53.000000
2662.979004 -9.000000
2663.863281 61.000000
2664.746826 49.000000
2665.629883 97.000000
2666.512207 158.000000
2667.394043 98.000000
2668.275146 38.000000
2669.156494 -5.000000
2670.036377 14.000000
2670.916504 8.000000
2671.795898 111.000000
2672.675293 24.000000
2673.553955 33.000000
2674.430908 20.000000
2675.308594 -4.000000
2676.185547 42.000000
2677.061768 13.000000
2677.937500 95.000000
2678.812500 -24.000000
2679.687744 47.000000
2680.562012 135.000000
2681.435791 -25.000000
2682.308838 -27.000000
2683.181641 93.000000
2684.054199 158.000000
2684.926025 46.000000
2685.797119 78.000000
2686.667969 75.000000
2687.538330 23.000000
2688.408447 68.000000
2689.276855 81.000000
2690.145996 -7.000000
2691.014404 -23.000000
2691.882568 35.000000
2692.750000 -21.000000
2693.616211 102.000000
2694.482910 107.000000
2695.348633 -30.000000
2696.214355 42.000000
2697.078613 59.000000
2697.943604 96.000000
2698.807129 -41.000000
2699.670898 36.000000
2700.533203 -40.000000
2701.395996 42.000000
2702.257813 59.000000
2703.119141 39.000000
2703.980469 57.000000
2704.840576 8.000000
2705.700684 145.000000
2706.560303 47.000000
2707.419678 70.000000
2708.277344 90.000000
2709.135254 -88.000000
2709.993652 -38.000000
2710.850830 -81.000000
2711.707275 13.000000
2712.563232 1.000000
2713.419189 24.000000
2714.274414 68.000000
2715.128906 19.000000
2715.982910 -5.000000
2716.836914 94.000000
2717.689941 65.000000
2718.543213 80.000000
2719.394775 -10.000000
2720.246826 94.000000
2721.098633 128.000000
2721.949219 74.000000
2722.799805 8.000000
2723.649902 27.000000
2724.499268 -5.000000
2725.348633 79.000000
2726.196777 85.000000
2727.044434 68.000000
2727.892578 50.000000
2728.739502 27.000000
2729.586914 102.000000
2730.432861 90.000000
2731.278076 39.000000
2732.123779 35.000000
2732.968506 -15.000000
2733.813232 -4.000000
2734.656738 -9.000000
2735.500488 3.000000
2736.343506 25.000000
2737.186035 70.000000
2738.027588 75.000000
2738.869629 10.000000
2739.710693 30.000000
2740.551514 7.000000
2741.392090 24.000000
2742.231445 6.000000
2743.070801 -9.000000
2743.910156 36.000000
2744.748291 -25.000000
2745.585938 -32.000000
2746.423584 27.000000
2747.260742 -14.000000
2748.097656 20.000000
2748.934082 39.000000
2749.769287 89.000000
2750.604736 -18.000000
2751.439697 11.000000
2752.273926 64.000000
2753.107910 -55.000000
2753.941406 42.000000
2754.774902 -68.000000
2755.607422 -2.000000
2756.439453 53.000000
2757.270996 77.000000
2758.102539 -52.000000
2758.933105 52.000000
2759.763916 -19.000000
2760.593506 -38.000000
2761.423096 37.000000
2762.252441 15.000000
2763.081055 -64.000000
2763.909180 14.000000
2764.736816 51.000000
2765.564453 -3.000000
2766.391602 34.000000
2767.218018 0.000000
2768.043945 15.000000
2768.869385 -46.000000
2769.694580 35.000000
2770.519775 -4.000000
2771.343750 32.000000
2772.167725 18.000000
2772.991699 72.000000
2773.814453 55.000000
2774.637451 -124.000000
2775.459229 24.000000
2776.281006 9.000000
2777.102783 -17.000000
2777.923584 -43.000000
2778.743652 43.000000
2779.563965 -31.000000
2780.383789 30.000000
2781.203613 -23.000000
2782.021484 -6.000000
2782.840576 -29.000000
2783.658447 23.000000
2784.476074 -8.000000
2785.293213 26.000000
2786.109863 16.000000
2786.926270 50.000000
2787.742188 18.000000
2788.557861 5.000000
2789.372559 104.000000
2790.187744 -25.000000
2791.002197 27.000000
2791.816162 0.000000
2792.629883 51.000000
2793.442383 75.000000
2794.255127 9.000000
2795.067383 57.000000
2795.879150 27.000000
2796.690186 10.000000
2797.501953 90.000000
2798.312500 54.000000
2799.123047 -5.000000
2799.932129 -73.000000
2800.741943 16.000000
2801.551025 -24.000000
2802.359863 23.000000
2803.168213 1.000000
2803.975586 45.000000
2804.783447 53.000000
2805.590576 33.000000
2806.397461 -5.000000
2807.203125 57.000000
2808.009277 77.000000
2808.814697 30.000000
2809.620117 5.000000
2810.424805 62.000000
2811.228516 85.000000
2812.032715 -45.000000
2812.836426 65.000000
2813.639893 42.000000
2814.441895 40.000000
2815.244629 70.000000
2816.046631 21.000000
2816.848389 6.000000
2817.649658 12.000000
2818.450439 3.000000
2819.250732 -75.000000
2820.051270 -3.000000
2820.850830 73.000000
2821.649902 47.000000
2822.448975 54.000000
2823.247803 38.000000
2824.046143 -38.000000
2824.843506 87.000000
2825.641113 -19.000000
2826.437988 21.000000
2827.235107 -28.000000
2828.031494 -36.000000
2828.827148 47.000000
2829.622803 -53.000000
2830.418213 -18.000000
2831.213135 52.000000
2832.007324 100.000000
2832.801514 103.000000
2833.595459 50.000000
2834.388916 28.000000
2835.181641 -1.000000
2835.974121 -39.000000
2836.766602 58.000000
2837.558838 73.000000
2838.350586 68.000000
2839.141357 29.000000
2839.932129 -74.000000
2840.723145 27.000000
2841.513184 30.000000
2842.302734 16.000000
2843.092529 -69.000000
2843.881348 200.000000
2844.670166 1.000000
2845.458984 -68.000000
2846.246826 -11.000000
2847.034180 91.000000
2847.821777 128.000000
2848.608887 -50.000000
2849.395264 72.000000
2850.181641 22.000000
2850.967773 -70.000000
2851.753418 -60.000000
2852.538086 -61.000000
2853.323242 52.000000
2854.108154 84.000000
2854.892334 4.000000
2855.676514 17.000000
2856.459473 130.000000
2857.242676 29.000000
2858.025635 39.000000
2858.808105 111.000000
2859.590332 53.000000
2860.372070 52.000000
2861.153564 -91.000000
2861.935303 35.000000
2862.716309 19.000000
2863.496582 25.000000
2864.276611 84.000000
2865.056641 -47.000000
2865.836426 190.000000
2866.615234 49.000000
2867.394287 83.000000
2868.172852 -24.000000
2868.951172 65.000000
2869.729004 27.000000
2870.506592 30.000000
2871.283936 109.000000
2872.061035 64.000000
2872.837646 30.000000
2873.613770 43.000000
2874.389893 92.000000
2875.165527 139.000000
2875.940918 37.000000
2876.715820 121.000000
2877.490479 110.000000
2878.265137 36.000000
2879.039551 -74.000000
2879.813232 70.000000
2880.586182 -117.000000
2881.359863 167.000000
2882.132568 175.000000
2882.905273 84.000000
2883.677246 -27.000000
2884.448975 -34.000000
2885.221191 50.000000
2885.992188 150.000000
2886.762695 29.000000
2887.533691 134.000000
2888.304688 157.000000
2889.074951 68.000000
2889.844238 -20.000000
2890.613770 90.000000
2891.383301 136.000000
2892.152344 -30.000000
2892.920898 79.000000
2893.689453 52.000000
2894.457031 67.000000
2895.225098 20.000000
2895.992676 -53.000000
2896.760254 51.000000
2897.526611 76.000000
2898.293945 39.000000
2899.060059 119.000000
2899.826416 39.000000
2900.591309 22.000000
2901.356689 40.000000
2902.122559 65.000000
2902.886963 109.000000
2903.651367 -62.000000
2904.416016 87.000000
2905.179688 57.000000
2905.944092 91.000000
2906.707764 127.000000
2907.470703 -32.000000
2908.233398 133.000000
2908.996582 73.000000
2909.759277 6.000000
2910.520752 99.000000
2911.282715 99.000000
spectrumdark 2048
-96.948006 6183.000000
-94.321136 6183.000000
-91.696144 6008.000000
-89.073044 6416.000000
-86.451813 5722.000000
-83.832481 6242.000000
-81.215012 6066.000000
-78.599419 6413.000000
-75.985703 6220.000000
-73.373863 5901.000000
-70.763885 6081.000000
-68.155792 5857.000000
-65.549545 6002.000000
-62.945171 5960.000000
-60.342663 6083.000000
-57.742008 5646.000000
-55.143215 6206.000000
-52.546280 6812.000000
-49.951199 6440.000000
-47.357971 6530.000000
-44.766594 6252.000000
-42.177063 6704.000000
-39.589375 5845.000000
-37.003536 6033.000000
-34.419540 6444.000000
-31.837383 5661.000000
-29.257071 6289.000000
-26.678585 5723.000000
-24.101942 6130.000000
-21.527124 6308.000000
-18.954147 6494.000000
-16.382990 6475.000000
-13.813666 6694.000000
-11.246168 7813.000000
-8.680489 6309.000000
-6.116634 6460.000000
-3.554594 5991.000000
-0.994378 5780.000000
1.564030 6187.000000
4.120617 6927.000000
6.675399 6633.000000
9.228364 6014.000000
11.779529 6676.000000
14.328880 6466.000000
16.876436 6659.000000
19.422180 5979.000000
21.966131 5717.000000
24.508278 6633.000000
27.048628 6757.000000
29.587193 6866.000000
32.123962 6171.000000
34.658928 5795.000000
37.192116 7186.000000
39.723522 6266.000000
42.253136 6992.000000
44.780952 6451.000000
47.307011 7950.000000
49.831280 5609.000000
52.353779 6233.000000
54.874481 6720.000000
57.393429 6338.000000
59.910603 6421.000000
62.425999 6623.000000
64.939613 5630.000000
67.451477 5669.000000
69.961594 6461.000000
72.469917 6515.000000
74.976486 5902.000000
77.481308 6340.000000
79.984375 6379.000000
82.485664 6278.000000
84.985214 6118.000000
87.483009 6337.000000
89.979073 5744.000000
92.473358 7171.000000
94.965904 5757.000000
97.456734 6880.000000
99.945793 7126.000000
102.433105 6388.000000
104.918694 6143.000000
107.402542 6362.000000
109.884644 5705.000000
112.365021 6553.000000
114.843674 6144.000000
117.320602 6474.000000
119.795776 7272.000000
122.269241 6794.000000
124.740974 5866.000000
127.210999 6781.000000
129.679276 6248.000000
132.145874 6312.000000
134.610718 5669.000000
137.073868 6129.000000
139.535278 7303.000000
141.994995 6849.000000
144.452988 6348.000000
146.909286 5994.000000
149.363876 5791.000000
151.816742 6803.000000
154.267929 6338.000000
156.717422 6557.000000
159.165192 6060.000000
161.611252 6535.000000
164.055634 8682.000000
166.498337 6392.000000
168.939346 6738.000000
171.378647 6252.000000
173.816238 7154.000000
176.252197 6601.000000
178.686417 6917.000000
181.118958 7205.000000
183.549850 6680.000000
185.979019 7056.000000
188.406540 6727.000000
190.832382 6379.000000
193.256546 6635.000000
195.679047 7077.000000
198.099854 7337.000000
200.518997 6463.000000
202.936478 5955.000000
205.352264 7618.000000
207.766403 7066.000000
210.178909 6367.000000
212.589737 6082.000000
214.998886 6143.000000
217.406403 7381.000000
219.812210 6141.000000
222.216431 6523.000000
224.618942 6608.000000
227.019836 6886.000000
229.419083 6478.000000
231.816666 6827.000000
234.212585 7311.000000
236.606888 6512.000000
238.999527 5821.000000
241.390549 6829.000000
243.779907 6531.000000
246.167648 6334.000000
248.553741 6941.000000
250.938202 6071.000000
253.321014 7854.000000
255.702255 6603.000000
258.081787 6617.000000
260.459747 6434.000000
262.836029 7591.000000
265.210754 7532.000000
267.583832 7787.000000
269.955261 6207.000000
272.325043 6385.000000
274.693268 5871.000000
277.059845 6373.000000
279.424835 6767.000000
281.788208 5943.000000
284.149933 6230.000000
286.510071 7110.000000
288.868591 6042.000000
291.225525 6454.000000
293.580841 6414.000000
295.934570 5881.000000
298.286652 5952.000000
300.637177 6312.000000
302.986115 6249.000000
305.333405 6813.000000
307.679169 6462.000000
310.023254 6489.000000
312.365814 7352.000000
314.706757 7538.000000
317.046082 7143.000000
319.383850 6945.000000
321.720062 8066.000000
324.054626 6216.000000
326.387634 6453.000000
328.719086 6042.000000
331.048950 6566.000000
333.377228 6373.000000
335.703888 7204.000000
338.029053 6310.000000
340.352600 6149.000000
342.674591 5905.000000
344.995026 7459.000000
347.313843 7676.000000
349.631104 5940.000000
351.946838 5814.000000
354.260986 6958.000000
356.573547 6275.000000
358.884552 6193.000000
361.194031 7008.000000
363.501984 6329.000000
365.808319 5640.000000
368.113068 6410.000000
370.416351 6430.000000
372.718018 6225.000000
375.018188 6294.000000
377.316803 6256.000000
379.613861 5700.000000
381.909363 6113.000000
384.203339 5802.000000
386.495728 5205.000000
388.786621 5564.000000
391.075989 6168.000000
393.363770 6270.000000
395.650024 6397.000000
397.934784 7018.000000
400.217926 6036.000000
402.499634 6421.000000
404.779816 6101.000000
407.058411 7247.000000
409.335480 6476.000000
411.611023 6696.000000
413.885040 6495.000000
416.157623 6466.000000
418.428589 6343.000000
420.698059 6361.000000
422.966034 7057.000000
425.232452 7194.000000
427.497375 6280.000000
429.760834 6295.000000
432.022705 6435.000000
434.283112 5907.000000
436.541962 6464.000000
438.799347 6117.000000
441.055237 5674.000000
443.309631 5750.000000
445.562500 5470.000000
447.813812 6897.000000
450.063721 6075.000000
452.312042 6236.000000
454.558929 5656.000000
456.804352 6456.000000
459.048218 6474.000000
461.290588 6842.000000
463.531464 5608.000000
465.770935 6741.000000
468.008820 5365.000000
470.245270 5780.000000
472.480194 6084.000000
474.713654 7221.000000
476.945679 6702.000000
479.176178 5710.000000
481.405182 6460.000000
483.632721 6361.000000
485.858765 5962.000000
488.083374 6588.000000
490.306519 5865.000000
492.528198 6417.000000
494.748322 6686.000000
496.967041 5620.000000
499.184265 6224.000000
501.400116 5559.000000
503.614349 6154.000000
505.827271 6432.000000
508.038605 6388.000000
510.248505 6869.000000
512.456970 6419.000000
514.664063 6549.000000
516.869568 6404.000000
519.073669 6592.000000
521.276245 6163.000000
523.477417 6490.000000
525.677246 6583.000000
527.875549 6924.000000
530.072327 5316.000000
532.267761 5770.000000
534.461670 5581.000000
536.654236 7491.000000
538.845276 6712.000000
541.034912 6020.000000
543.223145 6952.000000
545.409851 7094.000000
547.595093 6834.000000
549.779053 6185.000000
551.961426 6385.000000
554.142456 6101.000000
556.321960 5977.000000
558.500183 5832.000000
560.676880 5970.000000
562.852173 6354.000000
565.026062 6450.000000
567.198486 5898.000000
569.369507 6016.000000
571.539063 6285.000000
573.707336 5265.000000
575.874084 6396.000000
578.039368 6252.000000
580.203247 6189.000000
582.365845 5695.000000
584.526917 5995.000000
586.686584 5620.000000
588.844910 5753.000000
591.001709 6059.000000
593.157166 6611.000000
595.311218 5754.000000
597.463928 6092.000000
599.615112 7214.000000
601.764954 6755.000000
603.913452 6706.000000
606.060364 5960.000000
608.206055 6509.000000
610.350342 6420.000000
612.493164 7015.000000
614.634521 6160.000000
616.774658 6405.000000
618.913269 7738.000000
621.050598 5669.000000
623.186462 6622.000000
625.320923 6852.000000
627.453918 7203.000000
629.585754 6661.000000
631.716125 6519.000000
633.845093 6701.000000
635.972595 6525.000000
638.098816 6211.000000
640.223511 7310.000000
642.346985 6383.000000
644.469116 6735.000000
646.589783 6978.000000
648.709106 6506.000000
650.827026 5676.000000
652.943604 5591.000000
655.058777 6418.000000
657.172607 6485.000000
659.284973 5816.000000
661.396118 6064.000000
663.505859 5386.000000
665.614136 6076.000000
667.721252 6215.000000
669.826904 6744.000000
671.931091 5733.000000
674.034058 5677.000000
676.135620 6925.000000
678.235840 5310.000000
680.334656 6701.000000
682.432129 6187.000000
684.528320 6938.000000
686.623047 6243.000000
688.716553 7001.000000
690.808716 6582.000000
692.899353 7922.000000
694.988770 6669.000000
697.076904 6442.000000
699.163574 6011.000000
701.249023 6700.000000
703.332947 5189.000000
705.415649 5943.000000
707.497070 5913.000000
709.577026 7567.000000
711.655762 6180.000000
713.733032 5550.000000
715.809021 6586.000000
717.883728 6075.000000
719.957153 6986.000000
722.029053 6249.000000
724.099792 7337.000000
726.169189 5764.000000
728.237183 6475.000000
730.303833 6360.000000
732.369263 7022.000000
734.433350 5771.000000
736.496094 6181.000000
738.557495 6482.000000
740.617615 6565.000000
742.676331 6052.000000
744.733826 6619.000000
746.790039 6575.000000
748.844849 6657.000000
750.898376 6407.000000
752.950500 7428.000000
755.001404 5759.000000
757.051086 6675.000000
759.099304 6238.000000
761.146301 6115.000000
763.192017 7052.000000
765.236328 5295.000000
767.279358 5770.000000
769.321167 15012.000000
771.361633 6902.000000
773.400696 6308.000000
775.438599 6082.000000
777.475159 5961.000000
779.510498 5372.000000
781.544495 5733.000000
783.577087 6840.000000
785.608521 5492.000000
787.638550 11579.000000
789.667297 6037.000000
791.694885 6230.000000
793.721130 6372.000000
795.745972 5781.000000
797.769714 5522.000000
799.792053 6310.000000
801.813171 5825.000000
803.832947 6657.000000
805.851440 4906.000000
807.868713 6701.000000
809.884583 6856.000000
811.899292 5714.000000
813.912659 6426.000000
815.924805 6192.000000
817.935730 5983.000000
819.945313 6553.000000
821.953674 5309.000000
823.960632 5692.000000
825.966370 6072.000000
827.970886 5711.000000
829.974121 5623.000000
831.976074 6462.000000
833.976746 6048.000000
835.976196 5848.000000
837.974304 6322.000000
839.971313 6938.000000
841.966919 6173.000000
843.961365 5973.000000
845.954468 6216.000000
847.946350 6784.000000
849.936890 5576.000000
851.926147 6718.000000
853.914368 5970.000000
855.901184 5765.000000
857.886780 6352.000000
859.871094 7269.000000
861.854309 6272.000000
863.836121 6421.000000
865.816711 5810.000000
867.796021 7744.000000
869.774170 7091.000000
871.750977 6128.000000
873.726501 5959.000000
875.700989 6204.000000
877.674011 5964.000000
879.645996 5447.000000
881.616638 6373.000000
883.586121 6135.000000
885.554260 5576.000000
887.521240 5112.000000
889.486877 6062.000000
891.451355 5706.000000
893.414612 5978.000000
895.376648 6497.000000
897.337402 5793.000000
899.296936 6405.000000
901.255188 6652.000000
903.212341 6364.000000
905.168335 6035.000000
907.122925 6855.000000
909.076294 6482.000000
911.028503 6464.000000
912.979492 6385.000000
914.929199 7103.000000
916.877747 6295.000000
918.825073 6149.000000
920.771118 6044.000000
922.715881 6087.000000
924.659607 6290.000000
926.602173 5979.000000
928.543457 5519.000000
930.483398 6460.000000
932.422241 5699.000000
934.359802 5528.000000
936.296143 5971.000000
938.231323 5766.000000
940.165222 6057.000000
942.098022 5862.000000
944.029602 6684.000000
945.960022 5223.000000
947.889221 6428.000000
949.817078 7003.000000
951.743896 6692.000000
953.669434 5964.000000
955.593689 5343.000000
957.516846 5945.000000
959.438843 6715.000000
961.359558 7253.000000
963.279114 6513.000000
965.197510 5303.000000
967.114868 6455.000000
969.030762 6398.000000
970.945557 6143.000000
972.859131 5918.000000
974.771545 6350.000000
976.682739 6443.000000
978.592773 5417.000000
980.501526 6210.000000
982.409241 6132.000000
984.315735 6353.000000
986.221008 5731.000000
988.125183 6754.000000
990.028137 6164.000000
991.929871 6824.000000
993.830444 6522.000000
995.729858 6599.000000
997.628052 5340.000000
999.525085 6513.000000
1001.420898 6484.000000
1003.315552 7740.000000
1005.209106 5567.000000
1007.101379 7128.000000
1008.992737 6074.000000
1010.882751 5333.000000
1012.771545 6628.000000
1014.659180 6290.000000
1016.545654 6908.000000
1018.430969 6688.000000
1020.315125 6003.000000
1022.198059 5837.000000
1024.079956 6152.000000
1025.960571 5137.000000
1027.840088 5792.000000
1029.718628 6091.000000
1031.595825 5387.000000
1033.471680 6180.000000
1035.346558 5930.000000
1037.220459 6520.000000
1039.092896 6979.000000
1040.964355 6699.000000
1042.834473 5464.000000
1044.703613 5456.000000
1046.571533 5785.000000
1048.438354 7059.000000
1050.304077 6667.000000
1052.168579 6445.000000
1054.031982 6460.000000
1055.894043 6430.000000
1057.755127 5955.000000
1059.615112 6539.000000
1061.473755 6679.000000
1063.331299 5780.000000
1065.187744 6768.000000
1067.043091 5919.000000
1068.897217 5778.000000
1070.750488 6219.000000
1072.602295 6293.000000
1074.453125 6185.000000
1076.302734 6199.000000
1078.151123 5657.000000
1079.998657 7910.000000
1081.844849 5630.000000
1083.689819 6146.000000
1085.533936 5466.000000
1087.376709 5550.000000
1089.218262 6489.000000
1091.059082 5437.000000
1092.898315 5776.000000
1094.736816 6061.000000
1096.573975 5985.000000
1098.409912 6858.000000
1100.244873 6534.000000
1102.078613 5376.000000
1103.911377 5702.000000
1105.742798 6162.000000
1107.573364 7256.000000
1109.402588 6537.000000
1111.230835 6429.000000
1113.057861 7112.000000
1114.883911 5372.000000
1116.708740 6341.000000
1118.532471 7110.000000
1120.354980 6042.000000
1122.176392 5841.000000
1123.996948 5868.000000
1125.816040 6603.000000
1127.634277 7008.000000
1129.451172 6857.000000
1131.267212 6614.000000
1133.082031 6465.000000
1134.895752 5611.000000
1136.708374 5844.000000
1138.519775 5606.000000
1140.330200 6161.000000
1142.139526 6702.000000
1143.947510 6923.000000
1145.754761 5904.000000
1147.560547 5909.000000
1149.365479 5374.000000
1151.169312 5345.000000
1152.971924 6086.000000
1154.773682 6092.000000
1156.573975 6035.000000
1158.373291 6133.000000
1160.171631 5835.000000
1161.968628 5445.000000
1163.764893 5844.000000
1165.559814 6078.000000
1167.353638 6303.000000
1169.146606 7739.000000
1170.938232 5726.000000
1172.728882 6472.000000
1174.518555 5997.000000
1176.306763 5907.000000
1178.094116 7418.000000
1179.880371 6893.000000
1181.665527 5748.000000
1183.449585 5967.000000
1185.232544 7639.000000
1187.014526 5817.000000
1188.795288 5907.000000
1190.575073 6280.000000
1192.353760 6883.000000
1194.131470 6698.000000
1195.907959 7178.000000
1197.683350 6554.000000
1199.457642 6497.000000
1201.230835 6718.000000
1203.003174 6420.000000
1204.774170 6665.000000
1206.544312 5728.000000
1208.313232 6123.000000
1210.081055 6264.000000
1211.848022 5756.000000
1213.613647 5903.000000
1215.378296 6965.000000
1217.141846 6559.000000
1218.904297 5929.000000
1220.665894 6777.000000
1222.426270 5894.000000
1224.185547 6227.000000
1225.943970 6022.000000
1227.701172 7098.000000
1229.457275 6467.000000
1231.212280 5532.000000
1232.966431 5974.000000
1234.719238 5764.000000
1236.471069 5980.000000
1238.222046 5947.000000
1239.971680 4869.000000
1241.720459 7013.000000
1243.467896 6477.000000
1245.214600 6588.000000
1246.960083 6438.000000
1248.704712 6395.000000
1250.447998 6803.000000
1252.190308 6590.000000
1253.931519 5332.000000
1255.671875 5052.000000
1257.411133 5778.000000
1259.149170 6582.000000
1260.886353 7088.000000
1262.622314 6128.000000
1264.357300 6392.000000
1266.091309 7257.000000
1267.824341 5976.000000
1269.556152 6185.000000
1271.286987 6384.000000
1273.016602 7216.000000
1274.745361 5930.000000
1276.473022 5649.000000
1278.199585 5495.000000
1279.925293 5565.000000
1281.649658 6489.000000
1283.373169 5205.000000
1285.095703 6867.000000
1286.817261 6607.000000
1288.537598 6198.000000
1290.256958 6654.000000
1291.975220 7191.000000
1293.692505 6402.000000
1295.408813 5735.000000
1297.123901 6412.000000
1298.838013 6089.000000
1300.551147 5790.000000
1302.263428 6401.000000
1303.974487 8262.000000
1305.684570 5293.000000
1307.393555 6270.000000
1309.101318 6660.000000
1310.808472 7022.000000
1312.514160 5788.000000
1314.219116 6875.000000
1315.923096 6165.000000
1317.625854 6013.000000
1319.327637 6577.000000
1321.028564 6009.000000
1322.728149 10095.000000
1324.426880 31383.000000
1326.124878 5547.000000
1327.821533 6491.000000
1329.517090 7151.000000
1331.211792 6794.000000
1332.905273 5658.000000
1334.597900 5355.000000
1336.289673 7427.000000
1337.980103 6242.000000
1339.669800 6620.000000
1341.358398 6061.000000
1343.045898 7527.000000
1344.732422 5634.000000
1346.417847 6728.000000
1348.102295 5925.000000
1349.785889 7251.000000
1351.468262 6379.000000
1353.149658 5960.000000
1354.830200 6564.000000
1356.509521 6671.000000
1358.188232 5898.000000
1359.865601 6614.000000
1361.541870 5817.000000
1363.217163 5524.000000
1364.891724 6550.000000
1366.565063 6389.000000
1368.237427 6784.000000
1369.908813 5142.000000
1371.579224 6769.000000
1373.248535 6097.000000
1374.916870 5619.000000
1376.584351 5917.000000
1378.250732 6361.000000
1379.916138 6178.000000
1381.580566 5878.000000
1383.243774 5963.000000
1384.906372 5650.000000
1386.567627 6391.000000
1388.228027 6544.000000
1389.887329 6460.000000
1391.545654 6455.000000
1393.203247 6840.000000
1394.859619 6571.000000
1396.515137 6940.000000
1398.169434 6388.000000
1399.822876 5770.000000
1401.475220 6085.000000
1403.126831 6474.000000
1404.777222 7113.000000
1406.426514 6220.000000
1408.075073 7456.000000
1409.722534 7858.000000
1411.369019 6109.000000
1413.014648 6174.000000
1414.659302 5976.000000
1416.302734 6985.000000
1417.945313 7136.000000
1419.586792 6822.000000
1421.227417 6468.000000
1422.867065 6473.000000
1424.505615 6002.000000
1426.143311 6577.000000
1427.779907 6293.000000
1429.415527 5973.000000
1431.050415 6358.000000
1432.684204 5833.000000
1434.316895 6114.000000
1435.948608 5662.000000
1437.579468 6086.000000
1439.209229 6049.000000
1440.837891 7739.000000
1442.465942 5940.000000
1444.092896 6168.000000
1445.718628 6089.000000
1447.343750 6083.000000
1448.967773 6483.000000
1450.590820 6036.000000
1452.212891 5997.000000
1453.833862 7286.000000
1455.453857 6275.000000
1457.073120 6919.000000
1458.691040 5633.000000
1460.308350 16410.000000
1461.924683 5568.000000
1463.539795 7287.000000
1465.154053 6243.000000
1466.767456 5210.000000
1468.379761 5601.000000
1469.991211 6265.000000
1471.601807 6367.000000
1473.211182 5983.000000
1474.819580 6024.000000
1476.427124 6158.000000
1478.033691 6678.000000
1479.639526 5330.000000
1481.244141 6266.000000
1482.847900 5481.000000
1484.450439 6621.000000
1486.052368 5544.000000
1487.653076 5469.000000
1489.253052 5621.000000
1490.851929 6259.000000
1492.449951 6459.000000
1494.046875 6612.000000
1495.642944 6351.000000
1497.238037 6019.000000
1498.832153 5494.000000
1500.425537 6502.000000
1502.017822 5472.000000
1503.608887 6146.000000
1505.199463 6714.000000
1506.788696 6421.000000
1508.377319 6116.000000
1509.964844 6480.000000
1511.551270 6833.000000
1513.136963 6232.000000
1514.721558 6639.000000
1516.305298 6280.000000
1517.887939 6141.000000
1519.469849 6562.000000
1521.050659 6701.000000
1522.630737 6067.000000
1524.209595 6184.000000
1525.787598 6382.000000
1527.364868 6325.000000
1528.940918 5622.000000
1530.516235 5806.000000
1532.090454 6341.000000
1533.663940 5465.000000
1535.236206 5898.000000
1536.807739 6385.000000
1538.378296 6392.000000
1539.947998 6255.000000
1541.516479 5422.000000
1543.084229 6589.000000
1544.651123 5582.000000
1546.216797 6776.000000
1547.781738 5898.000000
1549.345581 5009.000000
1550.908813 7398.000000
1552.470703 6289.000000
1554.031982 5973.000000
1555.592163 5717.000000
1557.151611 5755.000000
1558.709961 5840.000000
1560.267578 6231.000000
1561.824097 6987.000000
1563.379395 5879.000000
1564.934082 6310.000000
1566.488037 5609.000000
1568.041016 6306.000000
1569.592651 5667.000000
1571.143555 5891.000000
1572.693726 6204.000000
1574.242920 6330.000000
1575.790771 5773.000000
1577.338135 5443.000000
1578.884521 5710.000000
1580.430054 5024.000000
1581.974609 6621.000000
1583.517944 6295.000000
1585.060669 6631.000000
1586.602539 6412.000000
1588.143311 6665.000000
1589.683105 5786.000000
1591.222168 6674.000000
1592.760132 5863.000000
1594.297607 6136.000000
1595.833740 5930.000000
1597.368774 6644.000000
1598.903320 6228.000000
1600.436890 5934.000000
1601.969604 6052.000000
1603.500732 6233.000000
1605.031616 6228.000000
1606.561646 5701.000000
1608.090454 6057.000000
1609.618164 6124.000000
1611.145264 5986.000000
1612.671631 5784.000000
1614.197021 6254.000000
1615.721558 5790.000000
1617.244751 5725.000000
1618.767212 5629.000000
1620.288940 6520.000000
1621.809814 6981.000000
1623.329224 15533.000000
1624.848145 6283.000000
1626.366333 6015.000000
1627.883667 5912.000000
1629.399902 6366.000000
1630.914795 6951.000000
1632.429199 6759.000000
1633.942871 5779.000000
1635.455444 6804.000000
1636.966797 5892.000000
1638.477783 6418.000000
1639.987671 6235.000000
1641.496704 6122.000000
1643.004395 5589.000000
1644.511719 6097.000000
1646.018188 7100.000000
1647.523682 6198.000000
1649.028320 6820.000000
1650.531494 6123.000000
1652.034058 6487.000000
1653.536255 6369.000000
1655.037109 6613.000000
1656.536865 7613.000000
1658.035767 5938.000000
1659.534302 6435.000000
1661.031616 6251.000000
1662.528198 5930.000000
1664.023193 6483.000000
1665.517944 6292.000000
1667.011841 5183.000000
1668.504761 5643.000000
1669.996338 20868.000000
1671.487427 6443.000000
1672.977905 6060.000000
1674.467285 5927.000000
1675.955200 6902.000000
1677.442871 6816.000000
1678.929565 5970.000000
1680.415405 5388.000000
1681.900391 6106.000000
1683.383911 6189.000000
1684.867188 6165.000000
1686.349609 5885.000000
1687.830933 6277.000000
1689.310791 6149.000000
1690.790405 5615.000000
1692.269287 6527.000000
1693.747192 6011.000000
1695.224121 6130.000000
1696.699829 5755.000000
1698.175171 5935.000000
1699.649292 6299.000000
1701.122803 5503.000000
1702.594849 5584.000000
1704.066650 6855.000000
1705.537476 6355.000000
1707.007446 7063.000000
1708.476074 5151.000000
1709.944214 5808.000000
1711.411621 6383.000000
1712.877930 5510.000000
1714.343628 5783.000000
1715.807617 6146.000000
1717.271484 5941.000000
1718.734497 6882.000000
1720.196533 6296.000000
1721.657349 6539.000000
1723.117554 5436.000000
1724.577026 6406.000000
1726.035645 6093.000000
1727.493286 5976.000000
1728.949585 6230.000000
1730.405640 6085.000000
1731.860718 6433.000000
1733.314819 5990.000000
1734.767700 6869.000000
1736.220337 5853.000000
1737.671875 6642.000000
1739.122681 5994.000000
1740.572510 6557.000000
1742.020996 5922.000000
1743.469116 7274.000000
1744.916382 6565.000000
1746.362915 6661.000000
1747.807861 6734.000000
1749.252563 6156.000000
1750.696411 5845.000000
1752.139404 5555.000000
1753.580933 6486.000000
1755.022217 6352.000000
1756.462646 19444.000000
1757.902100 6234.000000
1759.340576 5219.000000
1760.778076 6029.000000
1762.215088 7572.000000
1763.651123 5836.000000
1765.086304 7040.000000
1766.520020 6198.000000
1767.953613 6442.000000
1769.386230 6633.000000
1770.817993 5796.000000
1772.248901 5732.000000
1773.678589 6380.000000
1775.107544 6137.000000
1776.536011 6210.000000
1777.963501 6681.000000
1779.389648 6296.000000
1780.815552 5576.000000
1782.240356 6895.000000
1783.664551 5537.000000
1785.087280 6575.000000
1786.509521 6505.000000
1787.931030 6877.000000
1789.351807 5822.000000
1790.771606 5970.000000
1792.190063 6162.000000
1793.608032 6811.000000
1795.025391 5518.000000
1796.441895 6036.000000
1797.856934 6560.000000
1799.271606 5813.000000
1800.685669 6571.000000
1802.098511 5937.000000
1803.510742 6996.000000
1804.921631 7121.000000
1806.332031 7814.000000
1807.741699 6487.000000
1809.150391 5954.000000
1810.557983 5420.000000
1811.965088 6446.000000
1813.371338 6360.000000
1814.776611 6747.000000
1816.180786 5905.000000
1817.584595 5928.000000
1818.987427 6229.000000
1820.389404 5993.000000
1821.790771 5814.000000
1823.190674 6351.000000
1824.589966 6568.000000
1825.988770 6531.000000
1827.386719 7458.000000
1828.783325 5752.000000
1830.179321 6818.000000
1831.574585 5909.000000
1832.969238 8111.000000
1834.362915 6056.000000
1835.755249 6825.000000
1837.147095 6405.000000
1838.538330 5935.000000
1839.928589 7067.000000
1841.317627 5960.000000
1842.706299 6003.000000
1844.093994 6026.000000
1845.480957 5847.000000
1846.866577 6922.000000
1848.251953 5893.000000
1849.636475 6419.000000
1851.020264 6284.000000
1852.402954 6370.000000
1853.784424 5369.000000
1855.165405 6466.000000
1856.545898 6295.000000
1857.925415 5685.000000
1859.303467 5957.000000
1860.681396 6231.000000
1862.058350 7916.000000
1863.434570 6074.000000
1864.809937 6090.000000
1866.183838 5626.000000
1867.557617 5762.000000
1868.930542 6201.000000
1870.302368 6028.000000
1871.673218 6896.000000
1873.043701 5421.000000
1874.413086 6044.000000
1875.781982 6087.000000
1877.149292 7129.000000
1878.516479 5981.000000
1879.882690 5935.000000
1881.248169 6772.000000
1882.612915 7487.000000
1883.976074 6711.000000
1885.339111 6883.000000
1886.701294 6354.000000
1888.062622 6401.000000
1889.422607 5662.000000
1890.782227 5794.000000
1892.141235 6127.000000
1893.499268 6624.000000
1894.856445 7258.000000
1896.212402 5940.000000
1897.568115 7645.000000
1898.922852 5799.000000
1900.276733 5525.000000
1901.629517 5908.000000
1902.981812 5901.000000
1904.333374 5934.000000
1905.684082 6895.000000
1907.033569 6483.000000
1908.382568 6661.000000
1909.730713 5763.000000
1911.078247 6093.000000
1912.425049 6283.000000
1913.770264 6767.000000
1915.115234 6054.000000
1916.459473 5431.000000
1917.802856 6475.000000
1919.144897 6010.000000
1920.486694 6622.000000
1921.827637 6977.000000
1923.167847 6155.000000
1924.507080 6307.000000
1925.845337 6333.000000
1927.182983 6416.000000
1928.519897 7030.000000
1929.855957 6714.000000
1931.190796 5578.000000
1932.525269 6770.000000
1933.859009 7224.000000
1935.191895 6233.000000
1936.523315 5712.000000
1937.854858 6333.000000
1939.185059 6629.000000
1940.514771 5780.000000
1941.843628 6059.000000
1943.171265 5757.000000
1944.498413 5046.000000
1945.824829 5831.000000
1947.150513 6497.000000
1948.474854 5727.000000
1949.798950 6639.000000
1951.122192 6361.000000
1952.444702 6450.000000
1953.766113 5790.000000
1955.086548 7367.000000
1956.406372 6030.000000
1957.725830 5530.000000
1959.044312 6781.000000
1960.361450 5929.000000
1961.678223 5795.000000
1962.994263 6560.000000
1964.309570 6512.000000
1965.623413 6262.000000
1966.937012 5647.000000
1968.249878 6194.000000
1969.561890 6017.000000
1970.873291 6021.000000
1972.183350 6284.000000
1973.492920 5810.000000
1974.801758 6205.000000
1976.109985 6618.000000
1977.416870 6087.000000
1978.723145 7249.000000
1980.029053 5592.000000
1981.333740 6403.000000
1982.637939 5909.000000
1983.940918 5746.000000
1985.243530 7514.000000
1986.545166 6156.000000
1987.846191 6810.000000
1989.145630 6087.000000
1990.445190 6609.000000
1991.743652 5232.000000
1993.041626 6097.000000
1994.338013 6133.000000
1995.634399 5743.000000
1996.929810 5602.000000
1998.224487 6528.000000
1999.518311 5667.000000
2000.810913 6527.000000
2002.103027 5758.000000
2003.394653 7125.000000
2004.685547 6388.000000
2005.974854 6291.000000
2007.263916 6783.000000
2008.552246 6017.000000
2009.839844 5975.000000
2011.126587 6625.000000
2012.412231 5634.000000
2013.697510 6359.000000
2014.981812 5979.000000
2016.265503 5547.000000
2017.547852 6070.000000
2018.829834 6520.000000
2020.111328 6822.000000
2021.391846 5958.000000
2022.671631 6102.000000
2023.950317 6753.000000
2025.228271 5804.000000
2026.505737 5880.000000
2027.782593 6249.000000
2029.057739 5685.000000
2030.333008 6627.000000
2031.607300 5989.000000
2032.880615 5897.000000
2034.153076 5858.000000
2035.425171 6107.000000
2036.696167 7026.000000
2037.966919 6558.000000
2039.236328 5919.000000
2040.504639 6800.000000
2041.772949 6554.000000
2043.040283 5913.000000
2044.306885 6057.000000
2045.572266 5666.000000
2046.837036 5877.000000
2048.101563 5365.000000
2049.364746 5819.000000
2050.627686 6370.000000
2051.888672 6128.000000
2053.150146 5986.000000
2054.410400 5875.000000
2055.669922 6418.000000
2056.928711 6297.000000
2058.186523 7008.000000
2059.443848 6172.000000
2060.700439 6019.000000
2061.955566 6456.000000
2063.210693 5534.000000
2064.464844 5549.000000
2065.718262 5625.000000
2066.970947 6814.000000
2068.222412 6252.000000
2069.473633 6308.000000
2070.724121 5574.000000
2071.973877 5395.000000
2073.222168 6469.000000
2074.470459 6480.000000
2075.717773 7345.000000
2076.964355 5556.000000
2078.210205 6042.000000
2079.454834 7067.000000
2080.698975 7652.000000
2081.942627 5491.000000
2083.185303 6020.000000
2084.426758 6933.000000
2085.667969 5911.000000
2086.908691 6321.000000
2088.148438 6727.000000
2089.386963 7052.000000
2090.625000 6194.000000
2091.862305 5743.000000
2093.099365 6591.000000
2094.334961 6075.000000
2095.569824 6233.000000
2096.804443 6089.000000
2098.038086 5582.000000
2099.270752 6058.000000
2100.502686 6902.000000
2101.734131 6395.000000
2102.964600 6694.000000
2104.194336 5940.000000
2105.423828 5948.000000
2106.651367 6040.000000
2107.879150 5959.000000
2109.106201 6285.000000
2110.332275 5488.000000
2111.556885 6396.000000
2112.781738 6961.000000
2114.005371 7015.000000
2115.228516 6230.000000
2116.450439 7425.000000
2117.672119 5969.000000
2118.892822 6762.000000
2120.112793 5970.000000
2121.332275 6156.000000
2122.550293 6570.000000
2123.768311 6986.000000
2124.985352 5728.000000
2126.201904 5796.000000
2127.416748 6584.000000
2128.631836 6309.000000
2129.845947 6933.000000
2131.059326 5641.000000
2132.271973 6037.000000
2133.483154 5848.000000
2134.694580 6518.000000
2135.904785 6626.000000
2137.114502 5947.000000
2138.322754 6166.000000
2139.531006 5568.000000
2140.738525 5860.000000
2141.944824 7617.000000
2143.150391 5914.000000
2144.355713 5660.000000
2145.560059 5512.000000
2146.763672 6296.000000
2147.966797 6186.000000
2149.168457 6373.000000
2150.369873 5321.000000
2151.570557 6301.000000
2152.770508 6088.000000
2153.969238 5924.000000
2155.167725 6922.000000
2156.365723 6139.000000
2157.562744 5943.000000
2158.759033 5136.000000
2159.954102 5257.000000
2161.148926 6125.000000
2162.343018 5582.000000
2163.536133 6030.000000
2164.728271 6916.000000
2165.920166 5863.000000
2167.111328 6394.000000
2168.301514 6301.000000
2169.490967 6492.000000
2170.679932 6845.000000
2171.867920 6267.000000
2173.055664 5737.000000
2174.241943 5898.000000
2175.427490 6500.000000
2176.612793 6010.000000
2177.797607 5863.000000
2178.981201 6342.000000
2180.164063 7488.000000
2181.345947 6317.000000
2182.527588 5969.000000
2183.708740 6579.000000
2184.888672 5660.000000
2186.067627 5521.000000
2187.246094 6359.000000
2188.424316 6915.000000
2189.601318 7191.000000
2190.777344 6801.000000
2191.953125 6122.000000
2193.128418 5570.000000
2194.302246 6626.000000
2195.475586 6178.000000
2196.648682 6203.000000
2197.820557 6388.000000
2198.991943 7065.000000
2200.162842 6297.000000
2201.332031 6860.000000
2202.501221 7503.000000
2203.669922 6356.000000
2204.837646 5919.000000
2206.004395 5710.000000
2207.170410 7088.000000
2208.335938 6674.000000
2209.501221 5969.000000
2210.665039 6714.000000
2211.828369 5452.000000
2212.990479 6149.000000
2214.152832 6217.000000
2215.313965 6646.000000
2216.474121 6669.000000
2217.633789 6281.000000
2218.793213 6618.000000
2219.951416 6415.000000
2221.108643 6252.000000
2222.265625 6787.000000
2223.421875 6530.000000
2224.577393 6773.000000
2225.732178 6287.000000
2226.885986 6425.000000
2228.038818 6043.000000
2229.192139 6861.000000
2230.343506 6158.000000
2231.494629 6127.000000
2232.645020 6550.000000
2233.794922 7610.000000
2234.943848 6330.000000
2236.092285 5269.000000
2237.239258 6779.000000
2238.386475 7032.000000
2239.532471 6024.000000
2240.678223 7240.000000
2241.822266 7278.000000
2242.966553 6742.000000
2244.109863 6213.000000
2245.252441 5932.000000
2246.394043 5796.000000
2247.535400 5852.000000
2248.675781 6428.000000
2249.815430 6431.000000
2250.954590 5820.000000
2252.092529 5801.000000
2253.230469 6181.000000
2254.367432 5296.000000
2255.503662 6275.000000
2256.638916 6121.000000
2257.773438 7234.000000
2258.907715 6346.000000
2260.041504 5425.000000
2261.173828 6139.000000
2262.305664 6807.000000
2263.437012 6268.000000
2264.567383 6437.000000
2265.697510 8071.000000
2266.826416 6691.000000
2267.954834 6086.000000
2269.082764 5552.000000
2270.209717 6106.000000
2271.335938 5979.000000
2272.461182 6762.000000
2273.586426 6497.000000
2274.710938 6396.000000
2275.834229 5849.000000
2276.956787 6422.000000
2278.078857 5980.000000
2279.200439 7414.000000
2280.321289 6400.000000
2281.440918 6406.000000
2282.560059 7057.000000
2283.678955 7676.000000
2284.797119 7232.000000
2285.914307 5936.000000
2287.030518 6429.000000
2288.146484 6994.000000
2289.261719 6796.000000
2290.376221 7397.000000
2291.489502 5809.000000
2292.602783 6314.000000
2293.715332 6001.000000
2294.827148 5393.000000
2295.938232 6727.000000
2297.048096 6370.000000
2298.157471 6172.000000
2299.266602 6675.000000
2300.374756 6247.000000
2301.481934 6722.000000
2302.588867 5812.000000
2303.695068 6197.000000
2304.800781 6551.000000
2305.905029 6559.000000
2307.009033 5456.000000
2308.112549 5668.000000
2309.215576 6534.000000
2310.317383 7450.000000
2311.418457 7315.000000
2312.519043 6537.000000
2313.619141 5481.000000
2314.718506 6353.000000
2315.816406 6536.000000
2316.914795 6994.000000
2318.011719 8219.000000
2319.108398 6838.000000
2320.204590 5759.000000
2321.299072 6849.000000
2322.393555 7592.000000
2323.487305 5795.000000
2324.580811 6008.000000
2325.672607 6431.000000
2326.764404 6875.000000
2327.855469 6156.000000
2328.945801 6286.000000
2330.035156 6876.000000
2331.124512 6034.000000
2332.212646 6290.000000
2333.300293 6800.000000
2334.387695 6545.000000
2335.473389 6745.000000
2336.558838 7725.000000
2337.644043 6344.000000
2338.728271 6733.000000
2339.811523 5895.000000
2340.894531 6418.000000
2341.976563 7135.000000
2343.058350 5948.000000
2344.139404 7391.000000
2345.219238 6627.000000
2346.298584 5709.000000
2347.377441 6695.000000
2348.455811 6525.000000
2349.532715 6282.000000
2350.609375 6995.000000
2351.685791 6066.000000
2352.761230 6434.000000
2353.835693 5899.000000
2354.909912 6277.000000
2355.983398 6763.000000
2357.056396 6232.000000
2358.128174 7028.000000
2359.199707 6234.000000
2360.270264 6811.000000
2361.340576 7374.000000
2362.409912 7516.000000
2363.478271 6781.000000
2364.546387 6737.000000
2365.613770 7110.000000
2366.680664 7133.000000
2367.746826 6124.000000
2368.811768 6878.000000
2369.876709 7014.000000
2370.940918 6304.000000
2372.004395 6870.000000
2373.066650 5832.000000
2374.128906 6352.000000
2375.190186 6324.000000
2376.251221 5909.000000
2377.311035 6280.000000
2378.370117 7901.000000
2379.429199 6464.000000
2380.487305 7560.000000
2381.544678 6867.000000
2382.601074 8036.000000
2383.657227 7795.000000
2384.712891 6232.000000
2385.767822 7013.000000
2386.821289 6743.000000
2387.875000 6513.000000
2388.927734 6338.000000
2389.979980 6753.000000
2391.031494 6151.000000
2392.082031 6627.000000
2393.132324 6519.000000
2394.181641 6112.000000
2395.230957 6218.000000
2396.278809 6910.000000
2397.326172 6947.000000
2398.373291 6303.000000
2399.419434 6661.000000
2400.464844 6148.000000
2401.509521 6732.000000
2402.554199 7667.000000
2403.597412 7527.000000
2404.640625 6510.000000
2405.682373 5796.000000
2406.724365 6656.000000
2407.765625 7122.000000
2408.805908 6075.000000
2409.845459 6452.000000
2410.884033 6277.000000
2411.922852 6093.000000
2412.960449 6516.000000
2413.997803 6867.000000
2415.033936 7348.000000
2416.069824 6210.000000
2417.104980 6243.000000
2418.139648 6628.000000
2419.172852 7190.000000
2420.206299 6484.000000
2421.238770 6665.000000
2422.270996 6799.000000
2423.301758 6996.000000
2424.332520 6345.000000
2425.362793 6869.000000
2426.391846 6871.000000
2427.420898 6610.000000
2428.448242 7361.000000
2429.476074 6683.000000
2430.502686 7235.000000
2431.529053 6902.000000
2432.553955 7736.000000
2433.579102 6546.000000
2434.603271 7094.000000
2435.627197 6719.000000
2436.649902 5828.000000
2437.671875 6288.000000
2438.693604 6632.000000
2439.714600 6624.000000
2440.735107 6011.000000
2441.754395 6437.000000
2442.773682 6544.000000
2443.791992 8456.000000
2444.810059 6204.000000
2445.826660 6415.000000
2446.843262 6558.000000
2447.859131 5996.000000
2448.875000 6980.000000
2449.889404 6840.000000
2450.903076 5538.000000
2451.916260 7220.000000
2452.929199 5945.000000
2453.941406 7164.000000
2454.952637 6692.000000
2455.963623 7697.000000
2456.973877 6309.000000
2457.983643 7651.000000
2458.992432 5884.000000
2460.000488 5940.000000
2461.008545 6347.000000
2462.015381 7363.000000
2463.021973 5419.000000
2464.027344 7456.000000
2465.032471 6940.000000
2466.037354 5835.000000
2467.041016 6486.000000
2468.044434 6335.000000
2469.046875 7516.000000
2470.049072 7353.000000
2471.050781 6823.000000
2472.051514 6617.000000
2473.051270 7034.000000
2474.051025 6728.000000
2475.049805 5614.000000
2476.048096 6603.000000
2477.045410 6991.000000
2478.042480 6080.000000
2479.039551 7024.000000
2480.035156 5860.000000
2481.030762 7150.000000
2482.024658 6690.000000
2483.018555 8004.000000
2484.011963 6837.000000
2485.004883 6729.000000
2485.996826 7424.000000
2486.988037 7237.000000
2487.979004 6721.000000
2488.969482 5775.000000
2489.958984 6594.000000
2490.947754 6497.000000
2491.936523 5642.000000
2492.924316 6790.000000
2493.910889 6530.000000
2494.897461 8032.000000
2495.883545 6734.000000
2496.868896 7088.000000
2497.853271 8097.000000
2498.837402 6081.000000
2499.821533 6909.000000
2500.804199 5761.000000
2501.786377 6917.000000
2502.768066 6818.000000
2503.749023 7246.000000
2504.729492 6478.000000
2505.709717 5727.000000
2506.688477 6323.000000
2507.666992 7537.000000
2508.645020 6713.000000
2509.622559 7017.000000
2510.599121 6078.000000
2511.575439 5903.000000
2512.551025 6427.000000
2513.526123 6162.000000
2514.500732 6478.000000
2515.474121 7657.000000
2516.447266 6795.000000
2517.420166 6915.000000
2518.392090 6080.000000
2519.363281 6784.000000
2520.333984 6926.000000
2521.304443 7743.000000
2522.274170 7986.000000
2523.242920 6108.000000
2524.210938 6129.000000
2525.178955 7816.000000
2526.145996 6282.000000
2527.112793 5492.000000
2528.078369 7225.000000
2529.043945 6955.000000
2530.008789 7756.000000
2530.973145 6325.000000
2531.936279 6329.000000
2532.899658 5810.000000
2533.862061 5915.000000
2534.824219 6724.000000
2535.785156 6330.000000
2536.745361 6079.000000
2537.705811 6129.000000
2538.665283 6779.000000
2539.624023 6809.000000
2540.581787 6681.000000
2541.539795 6175.000000
2542.497070 6746.000000
2543.453369 6034.000000
2544.409424 7122.000000
2545.364258 6262.000000
2546.319336 7667.000000
2547.273682 7001.000000
2548.227295 6548.000000
2549.179932 7232.000000
2550.132324 6688.000000
2551.084229 6895.000000
2552.035400 6450.000000
2552.985840 7692.000000
2553.935791 7304.000000
2554.885498 7384.000000
2555.834473 6646.000000
2556.782959 6201.000000
2557.730225 7084.000000
2558.677490 6293.000000
2559.624023 6528.000000
2560.570068 6768.000000
2561.515137 7343.000000
2562.459961 6720.000000
2563.404297 7094.000000
2564.348145 6781.000000
2565.291504 6640.000000
2566.233398 6591.000000
2567.175537 6560.000000
2568.116943 6101.000000
2569.057617 7106.000000
2569.997559 7252.000000
2570.937500 5691.000000
2571.876465 6113.000000
2572.815186 7543.000000
2573.752930 7204.000000
2574.690430 5409.000000
2575.627197 6990.000000
2576.563232 6803.000000
2577.498779 7462.000000
2578.433594 6365.000000
2579.368408 5962.000000
2580.302246 7048.000000
2581.235596 7178.000000
2582.168213 5848.000000
2583.100586 6939.000000
2584.032227 5453.000000
2584.963379 7128.000000
2585.894043 7020.000000
2586.823486 6884.000000
2587.752930 7234.000000
2588.681885 6499.000000
2589.610596 7412.000000
2590.537598 7377.000000
2591.464844 5869.000000
2592.391602 6821.000000
2593.317627 6254.000000
2594.243408 5653.000000
2595.167969 7583.000000
2596.092285 7594.000000
2597.016113 5362.000000
2597.939453 7277.000000
2598.861816 6291.000000
2599.783936 6874.000000
2600.705566 8268.000000
2601.626465 6341.000000
2602.546631 5779.000000
2603.466553 6307.000000
2604.385986 6384.000000
2605.305176 6396.000000
2606.223389 5819.000000
2607.140381 5982.000000
2608.057617 7235.000000
2608.974609 5844.000000
2609.890625 7493.000000
2610.805420 6638.000000
2611.720703 6668.000000
2612.635254 6526.000000
2613.548828 6572.000000
2614.462402 6086.000000
2615.374756 7584.000000
2616.287109 7049.000000
2617.198486 6744.000000
2618.109619 5720.000000
2619.020020 7108.000000
2619.930176 6649.000000
2620.839600 6122.000000
2621.748535 6576.000000
2622.656494 6244.000000
2623.564697 6777.000000
2624.471924 6646.000000
2625.378662 7072.000000
2626.284668 5985.000000
2627.190430 6517.000000
2628.095459 6423.000000
2629.000244 7837.000000
2629.904297 6416.000000
2630.807373 6367.000000
2631.710449 6434.000000
2632.612549 5618.000000
2633.514648 6766.000000
2634.416504 6965.000000
2635.316650 6711.000000
2636.217041 6437.000000
2637.116699 6408.000000
2638.016113 5992.000000
2638.914063 6867.000000
2639.812500 6747.000000
2640.710449 6383.000000
2641.607666 6028.000000
2642.503662 6165.000000
2643.399658 6726.000000
2644.295410 6083.000000
2645.190430 6402.000000
2646.085205 6668.000000
2646.978516 7102.000000
2647.871826 6293.000000
2648.764893 6742.000000
2649.657715 6416.000000
2650.548828 7513.000000
2651.440186 6420.000000
2652.331055 7691.000000
2653.221191 7301.000000
2654.111084 6577.000000
2654.999756 7230.000000
2655.888672 6596.000000
2656.777100 6611.000000
2657.664551 7374.000000
2658.551025 6494.000000
2659.437988 7056.000000
2660.324219 6789.000000
2661.209961 6886.000000
2662.094482 6488.000000
2662.979004 6377.000000
2663.863281 6189.000000
2664.746826 7058.000000
2665.629883 7744.000000
2666.512207 7225.000000
2667.394043 6131.000000
2668.275146 6623.000000
2669.156494 6076.000000
2670.036377 6565.000000
2670.916504 7378.000000
2671.795898 7119.000000
2672.675293 6275.000000
2673.553955 6141.000000
2674.430908 6435.000000
2675.308594 6797.000000
2676.185547 6391.000000
2677.061768 8150.000000
2677.937500 7126.000000
2678.812500 6275.000000
2679.687744 7695.000000
2680.562012 6879.000000
2681.435791 7380.000000
2682.308838 7025.000000
2683.181641 6178.000000
2684.054199 6023.000000
2684.926025 6855.000000
2685.797119 6520.000000
2686.667969 6858.000000
2687.538330 7108.000000
2688.408447 6690.000000
2689.276855 6286.000000
2690.145996 7364.000000
2691.014404 7125.000000
2691.882568 6636.000000
2692.750000 6897.000000
2693.616211 5821.000000
2694.482910 7064.000000
2695.348633 7411.000000
2696.214355 7169.000000
2697.078613 7846.000000
2697.943604 6551.000000
2698.807129 7276.000000
2699.670898 5855.000000
2700.533203 7415.000000
2701.395996 6788.000000
2702.257813 5899.000000
2703.119141 6912.000000
2703.980469 6678.000000
2704.840576 7438.000000
2705.700684 7252.000000
2706.560303 6538.000000
2707.419678 6789.000000
2708.277344 7169.000000
2709.135254 6905.000000
2709.993652 7368.000000
2710.850830 6756.000000
2711.707275 5962.000000
2712.563232 6910.000000
2713.419189 6107.000000
2714.274414 6896.000000
2715.128906 6088.000000
2715.982910 6816.000000
2716.836914 7288.000000
2717.689941 6230.000000
2718.543213 6569.000000
2719.394775 7836.000000
2720.246826 6749.000000
2721.098633 6221.000000
2721.949219 6456.000000
2722.799805 6410.000000
2723.649902 7141.000000
2724.499268 7003.000000
2725.348633 6943.000000
2726.196777 6616.000000
2727.044434 6544.000000
2727.892578 6966.000000
2728.739502 6918.000000
2729.586914 5522.000000
2730.432861 7440.000000
2731.278076 6989.000000
2732.123779 6421.000000
2732.968506 6937.000000
2733.813232 7368.000000
2734.656738 6889.000000
2735.500488 7770.000000
2736.343506 7131.000000
2737.186035 6026.000000
2738.027588 6205.000000
2738.869629 6834.000000
2739.710693 6924.000000
2740.551514 5818.000000
2741.392090 5916.000000
2742.231445 7770.000000
2743.070801 6821.000000
2743.910156 6881.000000
2744.748291 6832.000000
2745.585938 7869.000000
2746.423584 6305.000000
2747.260742 7091.000000
2748.097656 6214.000000
2748.934082 6004.000000
2749.769287 6602.000000
2750.604736 6311.000000
2751.439697 6287.000000
2752.273926 6220.000000
2753.107910 6881.000000
2753.941406 6769.000000
2754.774902 8047.000000
2755.607422 6787.000000
2756.439453 7256.000000
2757.270996 6799.000000
2758.102539 7154.000000
2758.933105 7218.000000
2759.763916 7246.000000
2760.593506 7277.000000
2761.423096 6667.000000
2762.252441 7249.000000
2763.081055 6908.000000
2763.909180 6773.000000
2764.736816 6859.000000
2765.564453 6675.000000
2766.391602 7859.000000
2767.218018 5817.000000
2768.043945 7479.000000
2768.869385 6930.000000
2769.694580 7798.000000
2770.519775 7054.000000
2771.343750 6734.000000
2772.167725 6490.000000
2772.991699 7621.000000
2773.814453 6644.000000
2774.637451 6888.000000
2775.459229 6893.000000
2776.281006 6920.000000
2777.102783 6535.000000
2777.923584 8021.000000
2778.743652 6537.000000
2779.563965 6982.000000
2780.383789 7260.000000
2781.203613 6479.000000
2782.021484 5974.000000
2782.840576 8078.000000
2783.658447 6488.000000
2784.476074 6756.000000
2785.293213 7098.000000
2786.109863 7264.000000
2786.926270 7188.000000
2787.742188 6260.000000
2788.557861 5956.000000
2789.372559 6321.000000
2790.187744 7001.000000
2791.002197 7093.000000
2791.816162 6604.000000
2792.629883 7368.000000
2793.442383 8719.000000
2794.255127 6999.000000
2795.067383 7363.000000
2795.879150 7189.000000
2796.690186 7372.000000
2797.501953 6531.000000
2798.312500 7171.000000
2799.123047 7078.000000
2799.932129 7434.000000
2800.741943 8140.000000
2801.551025 7798.000000
2802.359863 6619.000000
2803.168213 7193.000000
2803.975586 6177.000000
2804.783447 6464.000000
2805.590576 6912.000000
2806.397461 6986.000000
2807.203125 7155.000000
2808.009277 6627.000000
2808.814697 6449.000000
2809.620117 7297.000000
2810.424805 6189.000000
2811.228516 7583.000000
2812.032715 7470.000000
2812.836426 6314.000000
2813.639893 6103.000000
2814.441895 6278.000000
2815.244629 7274.000000
2816.046631 7797.000000
2816.848389 6153.000000
2817.649658 6526.000000
2818.450439 7245.000000
2819.250732 6604.000000
2820.051270 6667.000000
2820.850830 7958.000000
2821.649902 7149.000000
2822.448975 6435.000000
2823.247803 6852.000000
2824.046143 6375.000000
2824.843506 7000.000000
2825.641113 7407.000000
2826.437988 6682.000000
2827.235107 7400.000000
2828.031494 7975.000000
2828.827148 6992.000000
2829.622803 7426.000000
2830.418213 7521.000000
2831.213135 7416.000000
2832.007324 6627.000000
2832.801514 6788.000000
2833.595459 5632.000000
2834.388916 6850.000000
2835.181641 7165.000000
2835.974121 8166.000000
2836.766602 7620.000000
2837.558838 7472.000000
2838.350586 6420.000000
2839.141357 6751.000000
2839.932129 8876.000000
2840.723145 7429.000000
2841.513184 6237.000000
2842.302734 7652.000000
2843.092529 7222.000000
2843.881348 7277.000000
2844.670166 7783.000000
2845.458984 7802.000000
2846.246826 7512.000000
2847.034180 7184.000000
2847.821777 7490.000000
2848.608887 7351.000000
2849.395264 6605.000000
2850.181641 7504.000000
2850.967773 7228.000000
2851.753418 7573.000000
2852.538086 7215.000000
2853.323242 6895.000000
2854.108154 7408.000000
2854.892334 7117.000000
2855.676514 6930.000000
2856.459473 8167.000000
2857.242676 6818.000000
2858.025635 6749.000000
2858.808105 7683.000000
2859.590332 6249.000000
2860.372070 6619.000000
2861.153564 7665.000000
2861.935303 7518.000000
2862.716309 7614.000000
2863.496582 6579.000000
2864.276611 6682.000000
2865.056641 8259.000000
2865.836426 7404.000000
2866.615234 8125.000000
2867.394287 7590.000000
2868.172852 6828.000000
2868.951172 7007.000000
2869.729004 7173.000000
2870.506592 6923.000000
2871.283936 7489.000000
2872.061035 6965.000000
2872.837646 6471.000000
2873.613770 7442.000000
2874.389893 7111.000000
2875.165527 8230.000000
2875.940918 7222.000000
2876.715820 6590.000000
2877.490479 8052.000000
2878.265137 6714.000000
2879.039551 7904.000000
2879.813232 6784.000000
2880.586182 7288.000000
2881.359863 6741.000000
2882.132568 7541.000000
2882.905273 7820.000000
2883.677246 8268.000000
2884.448975 6257.000000
2885.221191 6791.000000
2885.992188 6846.000000
2886.762695 6160.000000
2887.533691 8304.000000
2888.304688 7306.000000
2889.074951 7986.000000
2889.844238 7668.000000
2890.613770 6932.000000
2891.383301 7164.000000
2892.152344 7400.000000
2892.920898 7909.000000
2893.689453 7648.000000
2894.457031 6977.000000
2895.225098 6628.000000
2895.992676 7445.000000
2896.760254 8334.000000
2897.526611 7321.000000
2898.293945 6526.000000
2899.060059 7249.000000
2899.826416 6994.000000
2900.591309 8308.000000
2901.356689 6979.000000
2902.122559 6429.000000
2902.886963 7759.000000
2903.651367 7753.000000
2904.416016 8397.000000
2905.179688 6626.000000
2905.944092 8474.000000
2906.707764 6674.000000
2907.470703 8383.000000
2908.233398 6407.000000
2908.996582 9081.000000
2909.759277 6960.000000
2910.520752 6792.000000
2911.282715 6792.000000
