scanname Analyse033
timestamp 2017-02-10 20:41:19
ccdbias 902.323242
ccdgain 3.473401
sigmaread 8.960639
laserwavenum -0.867105
wavenumcorrection -0.344141
scancount 1
totalexposurems 10000
singleexposurems 10000
measurementstate Unknown
scanmode Manual
snr 69.834770 1.714123 1.254848
replacelist 1
754 18942.000000 17621.000000
peaks 10
811.577271 0.155192 0.000000 0.301195 0.000053
845.760437 0.153720 0.000000 0.156333 0.000023
879.757263 0.176849 0.000000 1.455746 0.000301
1044.196167 0.143876 0.000000 0.304589 0.000047
1085.788574 0.141277 0.000000 0.243788 0.000045
1152.588989 0.133764 0.000000 0.204501 0.000066
1319.525757 0.148018 0.000000 5.859776 0.001621
1456.457397 0.140571 0.000000 0.246023 0.000176
2074.296387 0.074896 0.000000 0.060384 0.000064
2330.468018 0.063881 0.000000 0.193161 0.000202
finalresult GLS_Multiple 10
A8461	Ethanol	1.531888e-001
A12040	Ethanol w/ sweetener	1.494669e-001
A11101	Hydrogen peroxide, 70%	9.820113e-002
A0251	Ethylamine	9.402116e-002
A0273	Denatured Solvent Alcohol	9.033076e-002
A15808	Ethylamine (70 wt% in water)	7.939511e-002
A0113	Hydrogen peroxide	7.439093e-002
A11100	Hydrogen peroxide, 50%	6.606358e-002
A2782	Acetamide	6.059527e-002
A4972	Boric acid	5.025190e-002
spectrum 2048
-96.734352 46386.000000
-94.107483 46386.000000
-91.482491 46849.000000
-88.859390 46540.000000
-86.238159 47372.000000
-83.618828 46912.000000
-81.001358 47097.000000
-78.385765 46874.000000
-75.772049 47145.000000
-73.160210 47556.000000
-70.550232 47241.000000
-67.942139 47426.000000
-65.335892 47520.000000
-62.731518 47478.000000
-60.129009 47268.000000
-57.528355 47822.000000
-54.929562 47235.000000
-52.332626 46597.000000
-49.737545 46953.000000
-47.144318 46915.000000
-44.552940 47103.000000
-41.963409 46622.000000
-39.375721 47494.000000
-36.789883 47333.000000
-34.205887 46946.000000
-31.623730 47698.000000
-29.043417 47029.000000
-26.464931 47631.000000
-23.888288 47146.000000
-21.313471 47069.000000
-18.740494 46745.000000
-16.169336 46733.000000
-13.600013 46447.000000
-11.032515 45476.000000
-8.466835 47013.000000
-5.902981 46626.000000
-3.340940 47126.000000
-0.780725 47251.000000
1.777683 46780.000000
4.334270 46018.000000
6.889052 46185.000000
9.442018 46717.000000
11.993182 45883.000000
14.542534 45964.000000
17.090090 45440.000000
19.635834 45698.000000
22.179785 45106.000000
24.721931 43102.000000
27.262281 41065.000000
29.800846 37864.000000
32.337616 33940.000000
34.872581 29792.000000
37.405769 19061.000000
39.937176 10914.000000
42.466789 9873.000000
44.994606 8980.000000
47.520664 7757.000000
50.044933 6994.000000
52.567432 6084.000000
55.088135 5658.000000
57.607082 5964.000000
60.124256 6966.000000
62.639652 8735.000000
65.153267 9896.000000
67.665131 10156.000000
70.175247 8276.000000
72.683571 5835.000000
75.190140 5141.000000
77.694962 3964.000000
80.198029 2933.000000
82.699318 2541.000000
85.198868 2238.000000
87.696663 2237.000000
90.192726 2456.000000
92.687012 2766.000000
95.179558 3261.000000
97.670387 3580.000000
100.159447 3553.000000
102.646759 2753.000000
105.132347 1997.000000
107.616196 1805.000000
110.098297 1636.000000
112.578674 1547.000000
115.057327 1329.000000
117.534256 1274.000000
120.009430 1275.000000
122.482895 1065.000000
124.954628 1191.000000
127.424652 1337.000000
129.892929 1295.000000
132.359528 1373.000000
134.824371 1426.000000
137.287521 1382.000000
139.748932 1451.000000
142.208649 1495.000000
144.666641 1967.000000
147.122940 2061.000000
149.577530 2340.000000
152.030396 2855.000000
154.481583 3165.000000
156.931076 3567.000000
159.378845 4335.000000
161.824905 4952.000000
164.269287 5318.000000
166.711990 6114.000000
169.153000 6425.000000
171.592300 6890.000000
174.029892 6893.000000
176.465851 7172.000000
178.900070 7144.000000
181.332611 7278.000000
183.763504 7189.000000
186.192673 7309.000000
188.620193 7115.000000
191.046036 7220.000000
193.470200 7224.000000
195.892700 7281.000000
198.313507 7370.000000
200.732651 7383.000000
203.150131 7728.000000
205.565918 7839.000000
207.980057 8278.000000
210.392563 8472.000000
212.803391 8902.000000
215.212540 9371.000000
217.620056 9807.000000
220.025864 10499.000000
222.430084 10951.000000
224.832596 11409.000000
227.233490 11725.000000
229.632736 12050.000000
232.030319 12123.000000
234.426239 12194.000000
236.820541 12246.000000
239.213181 12449.000000
241.604202 12476.000000
243.993561 12279.000000
246.381302 12412.000000
248.767395 12389.000000
251.151855 12385.000000
253.534668 12156.000000
255.915909 12186.000000
258.295441 12153.000000
260.673401 12215.000000
263.049683 11998.000000
265.424408 12248.000000
267.797485 11905.000000
270.168915 12034.000000
272.538696 11990.000000
274.906921 11872.000000
277.273499 11865.000000
279.638489 12013.000000
282.001862 11829.000000
284.363586 11760.000000
286.723724 11540.000000
289.082245 11643.000000
291.439178 11759.000000
293.794495 11590.000000
296.148224 11713.000000
298.500305 11556.000000
300.850830 11566.000000
303.199768 11458.000000
305.547058 11476.000000
307.892822 11423.000000
310.236908 11303.000000
312.579468 11268.000000
314.920410 11303.000000
317.259735 11324.000000
319.597504 11393.000000
321.933716 11085.000000
324.268280 11240.000000
326.601288 11222.000000
328.932739 11091.000000
331.262604 11178.000000
333.590881 11098.000000
335.917542 11044.000000
338.242706 11151.000000
340.566254 11095.000000
342.888245 11084.000000
345.208679 10995.000000
347.527496 11072.000000
349.844757 11001.000000
352.160492 10803.000000
354.474640 10833.000000
356.787201 10991.000000
359.098206 10945.000000
361.407684 10843.000000
363.715637 10893.000000
366.021973 10914.000000
368.326721 10862.000000
370.630005 10935.000000
372.931671 10913.000000
375.231842 10934.000000
377.530457 10856.000000
379.827515 10988.000000
382.123016 10918.000000
384.416992 11062.000000
386.709381 11043.000000
389.000275 10924.000000
391.289642 11036.000000
393.577423 11177.000000
395.863678 11259.000000
398.148438 11411.000000
400.431580 11351.000000
402.713287 11264.000000
404.993469 11299.000000
407.272064 11190.000000
409.549133 11179.000000
411.824677 11154.000000
414.098694 11029.000000
416.371277 11062.000000
418.642242 11085.000000
420.911713 11134.000000
423.179688 11120.000000
425.446106 11089.000000
427.711029 10987.000000
429.974487 11057.000000
432.236359 11083.000000
434.496765 10965.000000
436.755615 10989.000000
439.013000 11073.000000
441.268890 11043.000000
443.523285 10694.000000
445.776154 10845.000000
448.027466 10827.000000
450.277374 10659.000000
452.525696 10566.000000
454.772583 10572.000000
457.018005 10718.000000
459.261871 10410.000000
461.504242 10427.000000
463.745117 10580.000000
465.984589 10333.000000
468.222473 10505.000000
470.458923 10587.000000
472.693848 10431.000000
474.927307 10400.000000
477.159332 10379.000000
479.389832 10371.000000
481.618835 10237.000000
483.846375 10362.000000
486.072418 10244.000000
488.297028 10174.000000
490.520172 10249.000000
492.741852 10207.000000
494.961975 10291.000000
497.180695 10240.000000
499.397919 10321.000000
501.613770 10302.000000
503.828003 10177.000000
506.040924 10298.000000
508.252258 10244.000000
510.462158 10297.000000
512.670593 10300.000000
514.877686 10346.000000
517.083191 10332.000000
519.287292 10356.000000
521.489868 10299.000000
523.691040 10427.000000
525.890869 10223.000000
528.089172 10120.000000
530.285950 10127.000000
532.481384 10190.000000
534.675293 10135.000000
536.867859 10070.000000
539.058899 9996.000000
541.248535 10101.000000
543.436768 10016.000000
545.623474 9977.000000
547.808716 9744.000000
549.992676 9779.000000
552.175049 9643.000000
554.356079 9635.000000
556.535583 9569.000000
558.713806 9560.000000
560.890503 9549.000000
563.065796 9449.000000
565.239685 9475.000000
567.412109 9339.000000
569.583130 9403.000000
571.752686 9509.000000
573.920959 9495.000000
576.087708 9522.000000
578.252991 9394.000000
580.416870 9422.000000
582.579468 9590.000000
584.740540 9393.000000
586.900208 9468.000000
589.058533 9535.000000
591.215332 9403.000000
593.370789 9428.000000
595.524841 9634.000000
597.677551 9531.000000
599.828735 9549.000000
601.978577 9518.000000
604.127075 9584.000000
606.273987 9432.000000
608.419678 9483.000000
610.563965 9513.000000
612.706787 9404.000000
614.848145 9632.000000
616.988281 9596.000000
619.126892 9459.000000
621.264221 9385.000000
623.400085 9447.000000
625.534546 9244.000000
627.667542 9424.000000
629.799377 9239.000000
631.929749 9238.000000
634.058716 9366.000000
636.186218 9315.000000
638.312439 9173.000000
640.437134 9074.000000
642.560608 8952.000000
644.682739 8952.000000
646.803406 8866.000000
648.922729 8994.000000
651.040649 8937.000000
653.157227 8983.000000
655.272400 8856.000000
657.386230 8645.000000
659.498596 8645.000000
661.609741 8761.000000
663.719482 8754.000000
665.827759 8693.000000
667.934875 8835.000000
670.040527 8694.000000
672.144714 8754.000000
674.247681 8712.000000
676.349243 8607.000000
678.449463 8794.000000
680.548279 8696.000000
682.645752 8864.000000
684.741943 8908.000000
686.836670 8666.000000
688.930176 8783.000000
691.022339 8749.000000
693.112976 8816.000000
695.202393 8891.000000
697.290527 9031.000000
699.377197 9098.000000
701.462646 8989.000000
703.546570 8984.000000
705.629272 8873.000000
707.710693 8783.000000
709.790649 8659.000000
711.869385 8486.000000
713.946655 8344.000000
716.022644 8495.000000
718.097351 8469.000000
720.170776 8429.000000
722.242676 8711.000000
724.313416 8751.000000
726.382813 8447.000000
728.450806 8430.000000
730.517456 8399.000000
732.582886 8359.000000
734.646973 8314.000000
736.709717 8251.000000
738.771118 8245.000000
740.831238 8259.000000
742.889954 8250.000000
744.947449 8149.000000
747.003662 8026.000000
749.058472 8057.000000
751.112000 8047.000000
753.164124 8125.000000
755.215027 8163.000000
757.264709 8120.000000
759.312927 8026.000000
761.359924 8006.000000
763.405640 7918.000000
765.449951 8066.000000
767.492981 8027.000000
769.534790 7775.000000
771.575256 7941.000000
773.614319 8076.000000
775.652222 7912.000000
777.688782 8154.000000
779.724121 8042.000000
781.758118 8107.000000
783.790710 8081.000000
785.822144 8080.000000
787.852173 8092.000000
789.880920 8188.000000
791.908508 8163.000000
793.934753 8230.000000
795.959595 8173.000000
797.983337 8227.000000
800.005676 8359.000000
802.026794 8234.000000
804.046570 8472.000000
806.065063 8426.000000
808.082336 8514.000000
810.098206 8634.000000
812.112915 8616.000000
814.126282 8424.000000
816.138428 8312.000000
818.149353 8163.000000
820.158936 8145.000000
822.167297 8049.000000
824.174255 7911.000000
826.179993 8009.000000
828.184509 7919.000000
830.187744 7831.000000
832.189697 7758.000000
834.190369 7838.000000
836.189819 7731.000000
838.187927 7978.000000
840.184937 7978.000000
842.180542 8032.000000
844.174988 7964.000000
846.168091 7767.000000
848.159973 7775.000000
850.150513 7707.000000
852.139771 7669.000000
854.127991 7669.000000
856.114807 7511.000000
858.100403 7593.000000
860.084717 7525.000000
862.067932 7531.000000
864.049744 7623.000000
866.030334 7825.000000
868.009644 7750.000000
869.987793 7882.000000
871.964600 8210.000000
873.940125 8367.000000
875.914612 8803.000000
877.887634 9139.000000
879.859619 9096.000000
881.830261 9225.000000
883.799744 8885.000000
885.767883 8771.000000
887.734863 8495.000000
889.700500 8171.000000
891.664978 8083.000000
893.628235 7731.000000
895.590271 7770.000000
897.551025 7638.000000
899.510559 7702.000000
901.468811 7609.000000
903.425964 7385.000000
905.381958 7559.000000
907.336548 7504.000000
909.289917 7444.000000
911.242126 7386.000000
913.193115 7343.000000
915.142822 7209.000000
917.091370 7128.000000
919.038696 7205.000000
920.984741 7257.000000
922.929504 6983.000000
924.873230 6966.000000
926.815796 6960.000000
928.757080 6879.000000
930.697021 6739.000000
932.635864 6603.000000
934.573425 6720.000000
936.509766 6608.000000
938.444946 6554.000000
940.378845 6759.000000
942.311646 6679.000000
944.243225 6704.000000
946.173645 6659.000000
948.102844 6543.000000
950.030701 6673.000000
951.957520 6670.000000
953.883057 6520.000000
955.807312 6545.000000
957.730469 6650.000000
959.652466 6582.000000
961.573181 6676.000000
963.492737 6779.000000
965.411133 6766.000000
967.328491 6951.000000
969.244385 6952.000000
971.159180 6747.000000
973.072754 6897.000000
974.985168 6932.000000
976.896362 6874.000000
978.806396 6888.000000
980.715149 6687.000000
982.622864 6810.000000
984.529358 6744.000000
986.434631 6703.000000
988.338806 6795.000000
990.241760 6745.000000
992.143494 6707.000000
994.044067 6740.000000
995.943481 6690.000000
997.841675 6626.000000
999.738708 6602.000000
1001.634521 6478.000000
1003.529175 6475.000000
1005.422729 6312.000000
1007.315002 6220.000000
1009.206360 6277.000000
1011.096375 6267.000000
1012.985168 6146.000000
1014.872803 6128.000000
1016.759277 6129.000000
1018.644592 6193.000000
1020.528748 6227.000000
1022.411682 6189.000000
1024.293579 6277.000000
1026.174194 6133.000000
1028.053711 6230.000000
1029.932251 6301.000000
1031.809448 6315.000000
1033.685303 6277.000000
1035.560181 6466.000000
1037.434082 6472.000000
1039.306519 6534.000000
1041.177979 6470.000000
1043.048096 6554.000000
1044.917236 6632.000000
1046.785156 6492.000000
1048.651978 6660.000000
1050.517700 6679.000000
1052.382202 6516.000000
1054.245605 6516.000000
1056.107666 6496.000000
1057.968750 6523.000000
1059.828735 6482.000000
1061.687378 6464.000000
1063.544922 6464.000000
1065.401367 6471.000000
1067.256714 6431.000000
1069.110840 6467.000000
1070.964111 6416.000000
1072.815918 6464.000000
1074.666748 6509.000000
1076.516357 6475.000000
1078.364746 6597.000000
1080.212280 6568.000000
1082.058472 6469.000000
1083.903442 6587.000000
1085.747559 6618.000000
1087.590332 6739.000000
1089.431885 6643.000000
1091.272705 6498.000000
1093.111938 6287.000000
1094.950439 6329.000000
1096.787598 6357.000000
1098.623535 6111.000000
1100.458496 6009.000000
1102.292236 5975.000000
1104.125000 5810.000000
1105.956421 5923.000000
1107.786987 5999.000000
1109.616211 5790.000000
1111.444458 5542.000000
1113.271484 5588.000000
1115.097534 5677.000000
1116.922363 5666.000000
1118.746094 5656.000000
1120.568604 5728.000000
1122.390015 5681.000000
1124.210571 5723.000000
1126.029663 5624.000000
1127.847900 5704.000000
1129.664795 5720.000000
1131.480835 5690.000000
1133.295654 5763.000000
1135.109375 5731.000000
1136.921997 5848.000000
1138.733398 5824.000000
1140.543823 5752.000000
1142.353149 5861.000000
1144.161133 5827.000000
1145.968384 5919.000000
1147.774170 5904.000000
1149.579102 5975.000000
1151.382935 5998.000000
1153.185547 6085.000000
1154.987305 6037.000000
1156.787598 5892.000000
1158.586914 5817.000000
1160.385254 5744.000000
1162.182251 5786.000000
1163.978516 5647.000000
1165.773438 5680.000000
1167.567261 5599.000000
1169.360229 5580.000000
1171.151855 5316.000000
1172.942505 5455.000000
1174.732178 5420.000000
1176.520386 5354.000000
1178.307739 5336.000000
1180.093994 5519.000000
1181.879150 5290.000000
1183.663208 5316.000000
1185.446167 5241.000000
1187.228149 5243.000000
1189.008911 5207.000000
1190.788696 5356.000000
1192.567383 5241.000000
1194.345093 5310.000000
1196.121582 5110.000000
1197.896973 5042.000000
1199.671265 5149.000000
1201.444458 4998.000000
1203.216797 4909.000000
1204.987793 4977.000000
1206.757935 5028.000000
1208.526855 5050.000000
1210.294678 5021.000000
1212.061646 4887.000000
1213.827271 4986.000000
1215.591919 4981.000000
1217.355469 4928.000000
1219.117920 5074.000000
1220.879517 5019.000000
1222.639893 5004.000000
1224.399170 4949.000000
1226.157593 4889.000000
1227.914795 4988.000000
1229.670898 4938.000000
1231.425903 5036.000000
1233.180054 5023.000000
1234.932861 5070.000000
1236.684692 4983.000000
1238.435669 5055.000000
1240.185303 5084.000000
1241.934082 5055.000000
1243.681519 5128.000000
1245.428223 5174.000000
1247.173706 5178.000000
1248.918335 5131.000000
1250.661621 5046.000000
1252.403931 5096.000000
1254.145142 5188.000000
1255.885498 5065.000000
1257.624756 4958.000000
1259.362793 4827.000000
1261.099976 4829.000000
1262.835938 4896.000000
1264.570923 4958.000000
1266.304932 4845.000000
1268.037964 5125.000000
1269.769775 5125.000000
1271.500610 5137.000000
1273.230225 5285.000000
1274.958984 5295.000000
1276.686646 5258.000000
1278.413208 5195.000000
1280.138916 5294.000000
1281.863281 5229.000000
1283.586792 5231.000000
1285.309326 5235.000000
1287.030884 5099.000000
1288.751221 5181.000000
1290.470581 5049.000000
1292.188843 5150.000000
1293.906128 5103.000000
1295.622437 5077.000000
1297.337524 5006.000000
1299.051636 5054.000000
1300.764771 4979.000000
1302.477051 5001.000000
1304.188110 4911.000000
1305.898193 4883.000000
1307.607178 4837.000000
1309.314941 4758.000000
1311.022095 4754.000000
1312.727783 4802.000000
1314.432739 4679.000000
1316.136719 4747.000000
1317.839478 5007.000000
1319.541260 5017.000000
1321.242188 4836.000000
1322.941772 8659.000000
1324.640503 1906.000000
1326.338501 4819.000000
1328.035156 4846.000000
1329.730713 4923.000000
1331.425415 4774.000000
1333.118896 4745.000000
1334.811523 4787.000000
1336.503296 4597.000000
1338.193726 4762.000000
1339.883423 4565.000000
1341.572021 4479.000000
1343.259521 4547.000000
1344.946045 4610.000000
1346.631470 4512.000000
1348.315918 4542.000000
1349.999512 4589.000000
1351.681885 4602.000000
1353.363281 4772.000000
1355.043823 4841.000000
1356.723145 4737.000000
1358.401855 4809.000000
1360.079224 4916.000000
1361.755493 4776.000000
1363.430786 4953.000000
1365.105347 4829.000000
1366.778687 4794.000000
1368.451050 4824.000000
1370.122437 4813.000000
1371.792847 4719.000000
1373.462158 4830.000000
1375.130493 4804.000000
1376.797974 4868.000000
1378.464355 4749.000000
1380.129761 4726.000000
1381.794189 4765.000000
1383.457397 4676.000000
1385.119995 4663.000000
1386.781250 4617.000000
1388.441650 4620.000000
1390.100952 4503.000000
1391.759277 4580.000000
1393.416870 4590.000000
1395.073242 4493.000000
1396.728760 4605.000000
1398.383057 4533.000000
1400.036499 4420.000000
1401.688843 4631.000000
1403.340454 4529.000000
1404.990845 4393.000000
1406.640137 4538.000000
1408.288696 4305.000000
1409.936157 4171.000000
1411.582642 4227.000000
1413.228271 4318.000000
1414.872925 4275.000000
1416.516357 4207.000000
1418.158936 4118.000000
1419.800415 4162.000000
1421.441040 4127.000000
1423.080688 4167.000000
1424.719238 4118.000000
1426.356934 4108.000000
1427.993530 4052.000000
1429.629150 4122.000000
1431.264038 4103.000000
1432.897827 4196.000000
1434.530518 4104.000000
1436.162231 4044.000000
1437.793091 4191.000000
1439.422852 4095.000000
1441.051514 4256.000000
1442.679565 4072.000000
1444.306519 4048.000000
1445.932251 4247.000000
1447.557373 4194.000000
1449.181396 4475.000000
1450.804443 4496.000000
1452.426514 4609.000000
1454.047485 4717.000000
1455.667480 4783.000000
1457.286743 4834.000000
1458.904663 4699.000000
1460.521973 4616.000000
1462.138306 4533.000000
1463.753418 4522.000000
1465.367676 4425.000000
1466.981079 4429.000000
1468.593384 4430.000000
1470.204834 4259.000000
1471.815430 4212.000000
1473.424805 4098.000000
1475.033203 4177.000000
1476.640747 4156.000000
1478.247314 4031.000000
1479.853149 4088.000000
1481.457764 4032.000000
1483.061523 4139.000000
1484.664063 4068.000000
1486.265991 3789.000000
1487.866699 3913.000000
1489.466675 3695.000000
1491.065552 3745.000000
1492.663574 3748.000000
1494.260498 3790.000000
1495.856567 3846.000000
1497.451660 3942.000000
1499.045776 3877.000000
1500.639160 3931.000000
1502.231445 3827.000000
1503.822510 3985.000000
1505.413086 3892.000000
1507.002319 3974.000000
1508.590942 3839.000000
1510.178467 3757.000000
1511.764893 3710.000000
1513.350586 3691.000000
1514.935181 3760.000000
1516.518921 3726.000000
1518.101563 3618.000000
1519.683472 3728.000000
1521.264282 3670.000000
1522.844360 3703.000000
1524.423218 3612.000000
1526.001221 3695.000000
1527.578491 3632.000000
1529.154541 3533.000000
1530.729858 3530.000000
1532.304077 3436.000000
1533.877563 3475.000000
1535.449829 3452.000000
1537.021362 3446.000000
1538.591919 3492.000000
1540.161621 3379.000000
1541.730103 3419.000000
1543.297852 3359.000000
1544.864746 3373.000000
1546.430420 3253.000000
1547.995361 3406.000000
1549.559204 3562.000000
1551.122437 3421.000000
1552.684326 3299.000000
1554.245605 3570.000000
1555.805786 3389.000000
1557.365234 3375.000000
1558.923584 3366.000000
1560.481201 3243.000000
1562.037720 3256.000000
1563.593018 3394.000000
1565.147705 3266.000000
1566.701660 3272.000000
1568.254639 3357.000000
1569.806274 3300.000000
1571.357178 3316.000000
1572.907349 3380.000000
1574.456543 3344.000000
1576.004395 3326.000000
1577.551758 3336.000000
1579.098145 3329.000000
1580.643677 3407.000000
1582.188232 3291.000000
1583.731567 3364.000000
1585.274292 3408.000000
1586.816162 3275.000000
1588.356934 3306.000000
1589.896729 3299.000000
1591.435791 3380.000000
1592.973755 3280.000000
1594.511230 3238.000000
1596.047363 3251.000000
1597.582397 3286.000000
1599.116943 3241.000000
1600.650513 3327.000000
1602.183228 3196.000000
1603.714355 3261.000000
1605.245239 3389.000000
1606.775269 3219.000000
1608.304077 3223.000000
1609.831787 3361.000000
1611.358887 3277.000000
1612.885254 3449.000000
1614.410645 3245.000000
1615.935181 3181.000000
1617.458374 3230.000000
1618.980835 3234.000000
1620.502563 3274.000000
1622.023438 3310.000000
1623.542847 3166.000000
1625.061768 3117.000000
1626.579956 3280.000000
1628.097290 3143.000000
1629.613525 3265.000000
1631.128418 3208.000000
1632.642822 3177.000000
1634.156494 3192.000000
1635.669067 3198.000000
1637.180420 3110.000000
1638.691406 3101.000000
1640.201294 3198.000000
1641.710327 3109.000000
1643.218018 3156.000000
1644.725342 3111.000000
1646.231812 3118.000000
1647.737305 3273.000000
1649.241943 3050.000000
1650.745117 3011.000000
1652.247681 2982.000000
1653.749878 3039.000000
1655.250732 3031.000000
1656.750488 2996.000000
1658.249390 2977.000000
1659.747925 2943.000000
1661.245239 2966.000000
1662.741821 2954.000000
1664.236816 2975.000000
1665.731567 2953.000000
1667.225464 2889.000000
1668.718384 2879.000000
1670.209961 3024.000000
1671.701050 2883.000000
1673.191528 2761.000000
1674.680908 2762.000000
1676.168823 2770.000000
1677.656494 2757.000000
1679.143188 2769.000000
1680.629028 2746.000000
1682.114014 2800.000000
1683.597534 2731.000000
1685.080811 2751.000000
1686.563232 2734.000000
1688.044556 2672.000000
1689.524414 2763.000000
1691.004028 2787.000000
1692.482910 2687.000000
1693.960815 2753.000000
1695.437744 2608.000000
1696.913452 2734.000000
1698.388794 2635.000000
1699.862915 2662.000000
1701.336426 2683.000000
1702.808472 2624.000000
1704.280273 2647.000000
1705.751099 2642.000000
1707.221069 2516.000000
1708.689697 2734.000000
1710.157837 2617.000000
1711.625244 2594.000000
1713.091553 2748.000000
1714.557251 2632.000000
1716.021240 2607.000000
1717.485107 2582.000000
1718.948120 2628.000000
1720.410156 2588.000000
1721.870972 2399.000000
1723.331177 2666.000000
1724.790649 2652.000000
1726.249268 2672.000000
1727.706909 2645.000000
1729.163208 2699.000000
1730.619263 2633.000000
1732.074341 2607.000000
1733.528442 2635.000000
1734.981323 2566.000000
1736.433960 2589.000000
1737.885498 2558.000000
1739.336304 2450.000000
1740.786133 2494.000000
1742.234619 2528.000000
1743.682739 2538.000000
1745.130005 2592.000000
1746.576538 2561.000000
1748.021484 2484.000000
1749.466187 2512.000000
1750.910034 2461.000000
1752.353027 2383.000000
1753.794556 2442.000000
1755.235840 2419.000000
1756.676270 2359.000000
1758.115723 2387.000000
1759.554199 2385.000000
1760.991699 2343.000000
1762.428711 2459.000000
1763.864746 2374.000000
1765.299927 2334.000000
1766.733643 2370.000000
1768.167236 2355.000000
1769.599854 2315.000000
1771.031616 2456.000000
1772.462524 2452.000000
1773.892212 2295.000000
1775.321167 2278.000000
1776.749634 2230.000000
1778.177124 2163.000000
1779.603271 2084.000000
1781.029175 2186.000000
1782.453979 2208.000000
1783.878174 2244.000000
1785.300903 2218.000000
1786.723145 2095.000000
1788.144653 2197.000000
1789.565430 2296.000000
1790.985229 2172.000000
1792.403687 2308.000000
1793.821655 2141.000000
1795.239014 2113.000000
1796.655518 2113.000000
1798.070557 2100.000000
1799.485229 2109.000000
1800.899292 2129.000000
1802.312134 2190.000000
1803.724365 2098.000000
1805.135254 2168.000000
1806.545654 2094.000000
1807.955322 2074.000000
1809.364014 2085.000000
1810.771606 2152.000000
1812.178711 2032.000000
1813.584961 1988.000000
1814.990234 2116.000000
1816.394409 2070.000000
1817.798218 2100.000000
1819.201050 2180.000000
1820.603027 2000.000000
1822.004395 2095.000000
1823.404297 2133.000000
1824.803589 2112.000000
1826.202393 2023.000000
1827.600342 2115.000000
1828.996948 2095.000000
1830.392944 2022.000000
1831.788208 2076.000000
1833.182861 1969.000000
1834.576538 2119.000000
1835.968872 2011.000000
1837.360718 2037.000000
1838.751953 2089.000000
1840.142212 2037.000000
1841.531250 2137.000000
1842.919922 2077.000000
1844.307617 2030.000000
1845.694580 2033.000000
1847.080200 2029.000000
1848.465576 2054.000000
1849.850098 2039.000000
1851.233887 1939.000000
1852.616577 2038.000000
1853.998047 2047.000000
1855.379028 1995.000000
1856.759521 2013.000000
1858.139038 1930.000000
1859.517090 1881.000000
1860.895020 1894.000000
1862.271973 1877.000000
1863.648193 1978.000000
1865.023560 1836.000000
1866.397461 1951.000000
1867.771240 1867.000000
1869.144165 1835.000000
1870.515991 1856.000000
1871.886841 1776.000000
1873.257324 1970.000000
1874.626709 1961.000000
1875.995605 1887.000000
1877.362915 1815.000000
1878.730103 1901.000000
1880.096313 1836.000000
1881.461792 1850.000000
1882.826538 1851.000000
1884.189697 1849.000000
1885.552734 1801.000000
1886.914917 1769.000000
1888.276245 1780.000000
1889.636230 1794.000000
1890.995850 1838.000000
1892.354858 1806.000000
1893.712891 1783.000000
1895.070068 1832.000000
1896.426025 1729.000000
1897.781738 1753.000000
1899.136475 1768.000000
1900.490356 1794.000000
1901.843140 1796.000000
1903.195435 1805.000000
1904.546997 1782.000000
1905.897705 1712.000000
1907.247192 1687.000000
1908.596191 1787.000000
1909.944336 1735.000000
1911.291870 1748.000000
1912.638672 1780.000000
1913.983887 1745.000000
1915.328857 1806.000000
1916.673096 1769.000000
1918.016479 1716.000000
1919.358521 1755.000000
1920.700317 1810.000000
1922.041260 1700.000000
1923.381470 1717.000000
1924.720703 1764.000000
1926.058960 1774.000000
1927.396606 1780.000000
1928.733521 1632.000000
1930.069580 1759.000000
1931.404419 1835.000000
1932.738892 1708.000000
1934.072632 1665.000000
1935.405518 1761.000000
1936.736938 1685.000000
1938.068481 1707.000000
1939.398682 1693.000000
1940.728394 1738.000000
1942.057251 1718.000000
1943.384888 1750.000000
1944.712036 1650.000000
1946.038452 1682.000000
1947.364136 1595.000000
1948.688477 1568.000000
1950.012573 1699.000000
1951.335815 1619.000000
1952.658325 1727.000000
1953.979736 1635.000000
1955.300171 1649.000000
1956.619995 1638.000000
1957.939453 1671.000000
1959.257935 1607.000000
1960.575073 1630.000000
1961.891846 1581.000000
1963.207886 1604.000000
1964.523193 1599.000000
1965.837036 1665.000000
1967.150635 1649.000000
1968.463501 1706.000000
1969.775513 1688.000000
1971.086914 1586.000000
1972.396973 1519.000000
1973.706543 1574.000000
1975.015381 1512.000000
1976.323608 1513.000000
1977.630493 1472.000000
1978.936768 1474.000000
1980.242676 1516.000000
1981.547363 1472.000000
1982.851563 1511.000000
1984.154541 1373.000000
1985.457153 1495.000000
1986.758789 1476.000000
1988.059814 1520.000000
1989.359253 1473.000000
1990.658813 1443.000000
1991.957275 1515.000000
1993.255249 1421.000000
1994.551636 1296.000000
1995.848022 1427.000000
1997.143433 1506.000000
1998.438110 1471.000000
1999.731934 1422.000000
2001.024536 1284.000000
2002.316650 1403.000000
2003.608276 1324.000000
2004.899170 1447.000000
2006.188477 1413.000000
2007.477539 1424.000000
2008.765869 1270.000000
2010.053467 1337.000000
2011.340210 1322.000000
2012.625854 1474.000000
2013.911133 1361.000000
2015.195435 1297.000000
2016.479126 1437.000000
2017.761475 1332.000000
2019.043457 1277.000000
2020.324951 1285.000000
2021.605469 1303.000000
2022.885254 1346.000000
2024.163940 1312.000000
2025.441895 1322.000000
2026.719360 1318.000000
2027.996216 1445.000000
2029.271362 1404.000000
2030.546631 1299.000000
2031.820923 1379.000000
2033.094238 1284.000000
2034.366699 1374.000000
2035.638794 1283.000000
2036.909790 1399.000000
2038.180542 1341.000000
2039.449951 1357.000000
2040.718262 1281.000000
2041.986572 1398.000000
2043.253906 1371.000000
2044.520508 1313.000000
2045.785889 1417.000000
2047.050659 1170.000000
2048.315186 1320.000000
2049.578613 1295.000000
2050.841553 1307.000000
2052.102539 1269.000000
2053.364014 1296.000000
2054.624268 1269.000000
2055.883789 1319.000000
2057.142578 1302.000000
2058.400391 1445.000000
2059.657715 1284.000000
2060.914307 1274.000000
2062.169434 1266.000000
2063.424561 1173.000000
2064.678711 1330.000000
2065.932129 1228.000000
2067.184814 1292.000000
2068.436279 1293.000000
2069.687500 1211.000000
2070.937988 1319.000000
2072.187744 1348.000000
2073.436035 1683.000000
2074.684326 1202.000000
2075.931641 1277.000000
2077.178223 1282.000000
2078.424072 1280.000000
2079.668701 1289.000000
2080.912842 1229.000000
2082.156494 1229.000000
2083.399170 1128.000000
2084.640625 1257.000000
2085.881836 1174.000000
2087.122559 1151.000000
2088.362305 1167.000000
2089.600830 1221.000000
2090.838867 1149.000000
2092.076172 1145.000000
2093.313232 1135.000000
2094.548828 1282.000000
2095.783691 1151.000000
2097.018311 1285.000000
2098.251953 1130.000000
2099.484619 1086.000000
2100.716553 1228.000000
2101.947998 1141.000000
2103.178467 1106.000000
2104.408203 1185.000000
2105.637695 1117.000000
2106.865234 1099.000000
2108.093018 1143.000000
2109.320068 1111.000000
2110.546143 1034.000000
2111.770752 1058.000000
2112.995605 1082.000000
2114.219238 1046.000000
2115.442383 1079.000000
2116.664307 1032.000000
2117.885986 1057.000000
2119.106689 1100.000000
2120.326660 1051.000000
2121.546143 1170.000000
2122.764160 1073.000000
2123.982178 1078.000000
2125.199219 1168.000000
2126.415771 1138.000000
2127.630615 1157.000000
2128.845703 1138.000000
2130.059814 1080.000000
2131.273193 1139.000000
2132.485840 1143.000000
2133.697021 1134.000000
2134.908447 1160.000000
2136.118652 1120.000000
2137.328369 1081.000000
2138.536621 1129.000000
2139.744873 1117.000000
2140.952393 1099.000000
2142.158691 1023.000000
2143.364258 1135.000000
2144.569580 1097.000000
2145.773926 1062.000000
2146.977539 1029.000000
2148.180664 1078.000000
2149.382324 1178.000000
2150.583740 1154.000000
2151.784424 1080.000000
2152.984375 1049.000000
2154.183105 1120.000000
2155.381592 952.000000
2156.579590 1019.000000
2157.776611 1131.000000
2158.972900 1058.000000
2160.167969 1079.000000
2161.362793 1044.000000
2162.556885 1045.000000
2163.750000 1041.000000
2164.942139 1044.000000
2166.134033 1075.000000
2167.325195 1008.000000
2168.515381 979.000000
2169.704834 1018.000000
2170.893799 891.000000
2172.081787 934.000000
2173.269531 1057.000000
2174.455811 978.000000
2175.641357 872.000000
2176.826660 914.000000
2178.011475 936.000000
2179.195068 890.000000
2180.377930 892.000000
2181.559814 948.000000
2182.741455 885.000000
2183.922607 980.000000
2185.102539 1008.000000
2186.281494 952.000000
2187.459961 867.000000
2188.638184 886.000000
2189.815186 837.000000
2190.991211 895.000000
2192.166992 893.000000
2193.342285 914.000000
2194.516113 1029.000000
2195.689453 906.000000
2196.862549 894.000000
2198.034424 910.000000
2199.205811 908.000000
2200.376709 855.000000
2201.545898 964.000000
2202.715088 961.000000
2203.883789 1009.000000
2205.051514 940.000000
2206.218262 905.000000
2207.384277 911.000000
2208.549805 934.000000
2209.715088 895.000000
2210.878906 901.000000
2212.042236 903.000000
2213.204346 819.000000
2214.366699 967.000000
2215.527832 821.000000
2216.687988 858.000000
2217.847656 923.000000
2219.007080 946.000000
2220.165283 839.000000
2221.322510 870.000000
2222.479492 844.000000
2223.635742 750.000000
2224.791260 868.000000
2225.946045 886.000000
2227.099854 876.000000
2228.252686 872.000000
2229.406006 739.000000
2230.557373 868.000000
2231.708496 861.000000
2232.858887 900.000000
2234.008789 880.000000
2235.157715 834.000000
2236.306152 885.000000
2237.453125 906.000000
2238.600342 763.000000
2239.746338 740.000000
2240.892090 809.000000
2242.036133 742.000000
2243.180420 811.000000
2244.323730 798.000000
2245.466309 868.000000
2246.607910 750.000000
2247.749268 844.000000
2248.889648 807.000000
2250.029297 764.000000
2251.168457 848.000000
2252.306396 781.000000
2253.444336 776.000000
2254.581299 718.000000
2255.717529 829.000000
2256.852783 820.000000
2257.987305 619.000000
2259.121582 787.000000
2260.255371 807.000000
2261.387695 753.000000
2262.519531 755.000000
2263.650879 683.000000
2264.781250 658.000000
2265.911377 725.000000
2267.040283 782.000000
2268.168701 694.000000
2269.296631 758.000000
2270.423584 736.000000
2271.549805 687.000000
2272.675049 660.000000
2273.800293 752.000000
2274.924805 735.000000
2276.048096 716.000000
2277.170654 727.000000
2278.292725 685.000000
2279.414307 704.000000
2280.535156 726.000000
2281.654785 659.000000
2282.773926 826.000000
2283.892822 655.000000
2285.010986 713.000000
2286.128174 699.000000
2287.244385 714.000000
2288.360352 672.000000
2289.475586 758.000000
2290.590088 687.000000
2291.703369 693.000000
2292.816650 716.000000
2293.929199 720.000000
2295.041016 705.000000
2296.152100 742.000000
2297.261963 762.000000
2298.371338 765.000000
2299.480469 673.000000
2300.588623 714.000000
2301.695801 657.000000
2302.802734 724.000000
2303.908936 646.000000
2305.014648 738.000000
2306.118896 779.000000
2307.222900 702.000000
2308.326416 704.000000
2309.429443 684.000000
2310.531250 660.000000
2311.632324 631.000000
2312.732910 641.000000
2313.833008 641.000000
2314.932373 615.000000
2316.030273 583.000000
2317.128662 731.000000
2318.225586 642.000000
2319.322266 738.000000
2320.418457 689.000000
2321.512939 546.000000
2322.607422 615.000000
2323.701172 767.000000
2324.794678 660.000000
2325.886475 790.000000
2326.978271 788.000000
2328.069336 714.000000
2329.159668 763.000000
2330.249023 784.000000
2331.338379 796.000000
2332.426514 765.000000
2333.514160 707.000000
2334.601563 666.000000
2335.687256 801.000000
2336.772705 683.000000
2337.857910 618.000000
2338.942139 590.000000
2340.025391 612.000000
2341.108398 625.000000
2342.190430 585.000000
2343.272217 593.000000
2344.353271 644.000000
2345.433105 649.000000
2346.512451 663.000000
2347.591309 615.000000
2348.669678 607.000000
2349.746582 596.000000
2350.823242 550.000000
2351.899658 595.000000
2352.975098 598.000000
2354.049561 626.000000
2355.123779 641.000000
2356.197266 565.000000
2357.270264 662.000000
2358.342041 601.000000
2359.413574 624.000000
2360.484131 545.000000
2361.554443 587.000000
2362.623779 573.000000
2363.692139 554.000000
2364.760254 567.000000
2365.827637 647.000000
2366.894531 538.000000
2367.960693 562.000000
2369.025635 600.000000
2370.090576 581.000000
2371.154785 486.000000
2372.218262 519.000000
2373.280518 568.000000
2374.342773 619.000000
2375.404053 486.000000
2376.465088 556.000000
2377.524902 587.000000
2378.583984 479.000000
2379.643066 538.000000
2380.701172 449.000000
2381.758545 568.000000
2382.814941 521.000000
2383.871094 511.000000
2384.926758 535.000000
2385.981689 537.000000
2387.035156 588.000000
2388.088867 506.000000
2389.141602 562.000000
2390.193848 626.000000
2391.245361 511.000000
2392.295898 523.000000
2393.346191 432.000000
2394.395508 549.000000
2395.444824 549.000000
2396.492676 485.000000
2397.540039 541.000000
2398.587158 520.000000
2399.633301 395.000000
2400.678711 494.000000
2401.723389 462.000000
2402.768066 513.000000
2403.811279 557.000000
2404.854492 445.000000
2405.896240 509.000000
2406.938232 448.000000
2407.979492 515.000000
2409.019775 570.000000
2410.059326 459.000000
2411.097900 510.000000
2412.136719 477.000000
2413.174316 569.000000
2414.211670 448.000000
2415.247803 581.000000
2416.283691 557.000000
2417.318848 539.000000
2418.353516 618.000000
2419.386719 509.000000
2420.420166 582.000000
2421.452637 555.000000
2422.484863 386.000000
2423.515625 507.000000
2424.546387 517.000000
2425.576660 499.000000
2426.605713 513.000000
2427.634766 443.000000
2428.662109 498.000000
2429.689941 470.000000
2430.716553 530.000000
2431.742920 487.000000
2432.767822 526.000000
2433.792969 537.000000
2434.817139 427.000000
2435.841064 387.000000
2436.863770 469.000000
2437.885742 512.000000
2438.907471 462.000000
2439.928467 457.000000
2440.948975 479.000000
2441.968262 439.000000
2442.987549 492.000000
2444.005859 409.000000
2445.023926 478.000000
2446.040527 430.000000
2447.057129 506.000000
2448.072998 476.000000
2449.088867 395.000000
2450.103271 431.000000
2451.116943 433.000000
2452.130127 380.000000
2453.143066 380.000000
2454.155273 383.000000
2455.166504 366.000000
2456.177490 402.000000
2457.187744 488.000000
2458.197510 408.000000
2459.206299 503.000000
2460.214355 371.000000
2461.222412 453.000000
2462.229248 352.000000
2463.235840 413.000000
2464.241211 487.000000
2465.246338 419.000000
2466.251221 382.000000
2467.254883 484.000000
2468.258301 385.000000
2469.260742 415.000000
2470.262939 394.000000
2471.264648 429.000000
2472.265381 361.000000
2473.265137 374.000000
2474.264893 378.000000
2475.263672 300.000000
2476.261963 453.000000
2477.259277 354.000000
2478.256348 408.000000
2479.253418 416.000000
2480.249023 356.000000
2481.244629 362.000000
2482.238525 436.000000
2483.232422 228.000000
2484.225830 323.000000
2485.218750 385.000000
2486.210693 353.000000
2487.201904 425.000000
2488.192871 332.000000
2489.183350 394.000000
2490.172852 446.000000
2491.161621 414.000000
2492.150391 382.000000
2493.138184 299.000000
2494.124756 417.000000
2495.111328 340.000000
2496.097412 396.000000
2497.082764 440.000000
2498.067139 394.000000
2499.051270 434.000000
2500.035400 396.000000
2501.018066 373.000000
2502.000244 388.000000
2502.981934 460.000000
2503.962891 347.000000
2504.943359 380.000000
2505.923584 354.000000
2506.902344 301.000000
2507.880859 388.000000
2508.858887 363.000000
2509.836426 356.000000
2510.812988 443.000000
2511.789307 314.000000
2512.764893 400.000000
2513.739990 281.000000
2514.714600 260.000000
2515.687988 406.000000
2516.661133 395.000000
2517.634033 347.000000
2518.605957 547.000000
2519.577148 331.000000
2520.547852 317.000000
2521.518311 259.000000
2522.488037 427.000000
2523.456787 285.000000
2524.424805 325.000000
2525.392822 338.000000
2526.359863 413.000000
2527.326660 333.000000
2528.292236 393.000000
2529.257813 407.000000
2530.222656 341.000000
2531.187012 390.000000
2532.150146 417.000000
2533.113525 442.000000
2534.075928 406.000000
2535.038086 270.000000
2535.999023 320.000000
2536.959229 362.000000
2537.919678 291.000000
2538.879150 392.000000
2539.837891 388.000000
2540.795654 272.000000
2541.753662 419.000000
2542.710938 333.000000
2543.667236 383.000000
2544.623291 284.000000
2545.578125 412.000000
2546.533203 270.000000
2547.487549 251.000000
2548.441162 447.000000
2549.393799 404.000000
2550.346191 348.000000
2551.298096 244.000000
2552.249268 299.000000
2553.199707 373.000000
2554.149658 307.000000
2555.099365 287.000000
2556.048340 356.000000
2556.996826 285.000000
2557.944092 355.000000
2558.891357 310.000000
2559.837891 337.000000
2560.783936 267.000000
2561.729004 349.000000
2562.673828 309.000000
2563.618164 297.000000
2564.562012 377.000000
2565.505371 290.000000
2566.447266 302.000000
2567.389404 282.000000
2568.330811 322.000000
2569.271484 302.000000
2570.211426 184.000000
2571.151367 263.000000
2572.090332 409.000000
2573.029053 224.000000
2573.966797 269.000000
2574.904297 359.000000
2575.841064 287.000000
2576.777100 370.000000
2577.712646 380.000000
2578.647461 318.000000
2579.582275 254.000000
2580.516113 321.000000
2581.449463 527.000000
2582.382080 356.000000
2583.314453 516.000000
2584.246094 308.000000
2585.177246 283.000000
2586.107910 385.000000
2587.037354 317.000000
2587.966797 280.000000
2588.895752 375.000000
2589.824463 389.000000
2590.751465 166.000000
2591.678711 375.000000
2592.605469 331.000000
2593.531494 322.000000
2594.457275 210.000000
2595.381836 336.000000
2596.306152 306.000000
2597.229980 257.000000
2598.153320 381.000000
2599.075684 265.000000
2599.997803 197.000000
2600.919434 257.000000
2601.840332 213.000000
2602.760498 261.000000
2603.680420 322.000000
2604.599854 278.000000
2605.519043 235.000000
2606.437256 290.000000
2607.354248 266.000000
2608.271484 208.000000
2609.188477 225.000000
2610.104492 247.000000
2611.019287 220.000000
2611.934570 260.000000
2612.849121 184.000000
2613.762695 210.000000
2614.676270 337.000000
2615.588623 245.000000
2616.500977 164.000000
2617.412354 209.000000
2618.323486 247.000000
2619.233887 238.000000
2620.144043 286.000000
2621.053467 224.000000
2621.962402 263.000000
2622.870361 289.000000
2623.778564 327.000000
2624.685791 224.000000
2625.592529 268.000000
2626.498535 223.000000
2627.404297 238.000000
2628.309326 367.000000
2629.214111 163.000000
2630.118164 200.000000
2631.021240 291.000000
2631.924316 304.000000
2632.826416 237.000000
2633.728516 209.000000
2634.630371 272.000000
2635.530518 287.000000
2636.430908 195.000000
2637.330566 265.000000
2638.229980 226.000000
2639.127930 271.000000
2640.026367 186.000000
2640.924316 293.000000
2641.821533 221.000000
2642.717529 212.000000
2643.613525 239.000000
2644.509277 356.000000
2645.404297 181.000000
2646.299072 154.000000
2647.192383 224.000000
2648.085693 277.000000
2648.978760 315.000000
2649.871582 182.000000
2650.762695 192.000000
2651.654053 336.000000
2652.544922 202.000000
2653.435059 193.000000
2654.324951 252.000000
2655.213623 219.000000
2656.102539 204.000000
2656.990967 272.000000
2657.878418 242.000000
2658.764893 215.000000
2659.651855 191.000000
2660.538086 248.000000
2661.423828 284.000000
2662.308350 227.000000
2663.192871 163.000000
2664.077148 237.000000
2664.960693 115.000000
2665.843750 140.000000
2666.726074 247.000000
2667.607910 270.000000
2668.489014 194.000000
2669.370361 307.000000
2670.250244 335.000000
2671.130371 267.000000
2672.009766 263.000000
2672.889160 365.000000
2673.767822 207.000000
2674.644775 297.000000
2675.522461 286.000000
2676.399414 241.000000
2677.275635 226.000000
2678.151367 250.000000
2679.026367 239.000000
2679.901611 256.000000
2680.775879 227.000000
2681.649658 72.000000
2682.522705 268.000000
2683.395508 147.000000
2684.268066 203.000000
2685.139893 247.000000
2686.010986 228.000000
2686.881836 232.000000
2687.752197 99.000000
2688.622314 185.000000
2689.490723 178.000000
2690.359863 259.000000
2691.228271 244.000000
2692.096436 225.000000
2692.963867 190.000000
2693.830078 181.000000
2694.696777 218.000000
2695.562500 171.000000
2696.428223 242.000000
2697.292480 212.000000
2698.157471 214.000000
2699.020996 116.000000
2699.884766 182.000000
2700.747070 201.000000
2701.609863 100.000000
2702.471680 135.000000
2703.333008 237.000000
2704.194336 148.000000
2705.054443 206.000000
2705.914551 272.000000
2706.774170 167.000000
2707.633545 222.000000
2708.491211 140.000000
2709.349121 320.000000
2710.207520 115.000000
2711.064697 198.000000
2711.921143 215.000000
2712.777100 149.000000
2713.633057 185.000000
2714.488281 155.000000
2715.342773 192.000000
2716.196777 185.000000
2717.050781 166.000000
2717.903809 186.000000
2718.757080 217.000000
2719.608643 220.000000
2720.460693 230.000000
2721.312500 197.000000
2722.163086 143.000000
2723.013672 174.000000
2723.863770 232.000000
2724.713135 120.000000
2725.562500 222.000000
2726.410645 142.000000
2727.258301 308.000000
2728.106445 189.000000
2728.953369 228.000000
2729.800781 96.000000
2730.646729 261.000000
2731.491943 203.000000
2732.337646 262.000000
2733.182373 216.000000
2734.027100 196.000000
2734.870605 275.000000
2735.714355 117.000000
2736.557373 356.000000
2737.399902 248.000000
2738.241455 133.000000
2739.083496 130.000000
2739.924561 195.000000
2740.765381 263.000000
2741.605957 264.000000
2742.445313 186.000000
2743.284668 72.000000
2744.124023 210.000000
2744.962158 206.000000
2745.799805 44.000000
2746.637451 128.000000
2747.474609 144.000000
2748.311523 176.000000
2749.147949 229.000000
2749.983154 228.000000
2750.818604 220.000000
2751.653564 104.000000
2752.487793 181.000000
2753.321777 130.000000
2754.155273 156.000000
2754.988770 167.000000
2755.821289 145.000000
2756.653320 175.000000
2757.484863 233.000000
2758.316406 243.000000
2759.146973 138.000000
2759.977783 247.000000
2760.807373 74.000000
2761.636963 213.000000
2762.466309 175.000000
2763.294922 192.000000
2764.123047 193.000000
2764.950684 181.000000
2765.778320 170.000000
2766.605469 275.000000
2767.431885 165.000000
2768.257813 154.000000
2769.083252 153.000000
2769.908447 216.000000
2770.733643 162.000000
2771.557617 109.000000
2772.381592 172.000000
2773.205566 199.000000
2774.028320 63.000000
2774.851318 144.000000
2775.673096 150.000000
2776.494873 104.000000
2777.316650 217.000000
2778.137451 133.000000
2778.957520 125.000000
2779.777832 131.000000
2780.597656 192.000000
2781.417480 157.000000
2782.235352 126.000000
2783.054443 121.000000
2783.872314 91.000000
2784.689941 75.000000
2785.507080 230.000000
2786.323730 61.000000
2787.140137 26.000000
2787.956055 81.000000
2788.771729 149.000000
2789.586426 141.000000
2790.401611 129.000000
2791.216064 167.000000
2792.030029 186.000000
2792.843750 205.000000
2793.656250 86.000000
2794.468994 131.000000
2795.281250 83.000000
2796.093018 188.000000
2796.904053 221.000000
2797.715820 144.000000
2798.526367 141.000000
2799.336914 158.000000
2800.145996 121.000000
2800.955811 39.000000
2801.764893 181.000000
2802.573730 119.000000
2803.382080 156.000000
2804.189453 126.000000
2804.997314 86.000000
2805.804443 106.000000
2806.611328 115.000000
2807.416992 124.000000
2808.223145 163.000000
2809.028564 88.000000
2809.833984 137.000000
2810.638672 186.000000
2811.442383 181.000000
2812.246582 133.000000
2813.050293 67.000000
2813.853760 89.000000
2814.655762 148.000000
2815.458496 170.000000
2816.260498 73.000000
2817.062256 83.000000
2817.863525 270.000000
2818.664307 124.000000
2819.464600 187.000000
2820.265137 223.000000
2821.064697 59.000000
2821.863770 108.000000
2822.662842 176.000000
2823.461670 125.000000
2824.260010 126.000000
2825.057373 130.000000
2825.854980 163.000000
2826.651855 167.000000
2827.448975 110.000000
2828.245361 152.000000
2829.041016 97.000000
2829.836670 125.000000
2830.632080 126.000000
2831.427002 192.000000
2832.221191 208.000000
2833.015381 101.000000
2833.809326 161.000000
2834.602783 164.000000
2835.395508 133.000000
2836.187988 140.000000
2836.980469 181.000000
2837.772705 215.000000
2838.564453 304.000000
2839.355225 238.000000
2840.145996 160.000000
2840.937012 187.000000
2841.727051 102.000000
2842.516602 176.000000
2843.306396 148.000000
2844.095215 196.000000
2844.884033 218.000000
2845.672852 177.000000
2846.460693 207.000000
2847.248047 192.000000
2848.035645 173.000000
2848.822754 88.000000
2849.609131 189.000000
2850.395508 99.000000
2851.181641 168.000000
2851.967285 129.000000
2852.751953 164.000000
2853.537109 207.000000
2854.322021 123.000000
2855.106201 175.000000
2855.890381 171.000000
2856.673340 164.000000
2857.456543 118.000000
2858.239502 159.000000
2859.021973 90.000000
2859.804199 102.000000
2860.585938 76.000000
2861.367432 168.000000
2862.149170 106.000000
2862.930176 132.000000
2863.710449 216.000000
2864.490479 148.000000
2865.270508 111.000000
2866.050293 207.000000
2866.829102 116.000000
2867.608154 216.000000
2868.386719 169.000000
2869.165039 253.000000
2869.942871 185.000000
2870.720459 255.000000
2871.497803 276.000000
2872.274902 219.000000
2873.051514 202.000000
2873.827637 183.000000
2874.603760 302.000000
2875.379395 215.000000
2876.154785 133.000000
2876.929688 316.000000
2877.704346 166.000000
2878.479004 313.000000
2879.253418 350.000000
2880.027100 302.000000
2880.800049 277.000000
2881.573730 280.000000
2882.346436 142.000000
2883.119141 181.000000
2883.891113 300.000000
2884.662842 285.000000
2885.435059 276.000000
2886.206055 144.000000
2886.976563 291.000000
2887.747559 259.000000
2888.518555 341.000000
2889.288818 244.000000
2890.058105 248.000000
2890.827637 189.000000
2891.597168 245.000000
2892.366211 246.000000
2893.134766 252.000000
2893.903320 173.000000
2894.670898 223.000000
2895.438965 287.000000
2896.206543 217.000000
2896.974121 283.000000
2897.740479 338.000000
2898.507813 325.000000
2899.273926 223.000000
2900.040283 167.000000
2900.805176 205.000000
2901.570557 125.000000
2902.336426 242.000000
2903.100830 233.000000
2903.865234 262.000000
2904.629883 310.000000
2905.393555 185.000000
2906.157959 211.000000
2906.921631 227.000000
2907.684570 236.000000
2908.447266 245.000000
2909.210449 243.000000
2909.973145 261.000000
2910.734619 250.000000
2911.496582 250.000000
spectrumdark 2048
-96.734352 6210.000000
-94.107483 6210.000000
-91.482491 5995.000000
-88.859390 6447.000000
-86.238159 5729.000000
-83.618828 6268.000000
-81.001358 6116.000000
-78.385765 6399.000000
-75.772049 6190.000000
-73.160210 5831.000000
-70.550232 6096.000000
-67.942139 5968.000000
-65.335892 5946.000000
-62.731518 5944.000000
-60.129009 6134.000000
-57.528355 5637.000000
-54.929562 6241.000000
-52.332626 6880.000000
-49.737545 6480.000000
-47.144318 6509.000000
-44.552940 6263.000000
-41.963409 6750.000000
-39.375721 5905.000000
-36.789883 6093.000000
-34.205887 6451.000000
-31.623730 5690.000000
-29.043417 6360.000000
-26.464931 5687.000000
-23.888288 6166.000000
-21.313471 6242.000000
-18.740494 6480.000000
-16.169336 6525.000000
-13.600013 6774.000000
-11.032515 7769.000000
-8.466835 6217.000000
-5.902981 6537.000000
-3.340940 6018.000000
-0.780725 5832.000000
1.777683 6246.000000
4.334270 6911.000000
6.889052 6634.000000
9.442018 6012.000000
11.993182 6744.000000
14.542534 6465.000000
17.090090 6702.000000
19.635834 5968.000000
22.179785 5772.000000
24.721931 6672.000000
27.262281 6798.000000
29.800846 6820.000000
32.337616 6161.000000
34.872581 5745.000000
37.405769 7236.000000
39.937176 6320.000000
42.466789 7136.000000
44.994606 6527.000000
47.520664 7842.000000
50.044933 5633.000000
52.567432 6241.000000
55.088135 6740.000000
57.607082 6311.000000
60.124256 6432.000000
62.639652 6619.000000
65.153267 5594.000000
67.665131 5692.000000
70.175247 6502.000000
72.683571 6621.000000
75.190140 5879.000000
77.694962 6364.000000
80.198029 6428.000000
82.699318 6256.000000
85.198868 6131.000000
87.696663 6315.000000
90.192726 5705.000000
92.687012 7224.000000
95.179558 5765.000000
97.670387 6895.000000
100.159447 7135.000000
102.646759 6338.000000
105.132347 6204.000000
107.616196 6367.000000
110.098297 5783.000000
112.578674 6690.000000
115.057327 6193.000000
117.534256 6468.000000
120.009430 7190.000000
122.482895 6874.000000
124.954628 5872.000000
127.424652 6627.000000
129.892929 6233.000000
132.359528 6237.000000
134.824371 5641.000000
137.287521 6185.000000
139.748932 7278.000000
142.208649 7042.000000
144.666641 6314.000000
147.122940 6002.000000
149.577530 5862.000000
152.030396 6752.000000
154.481583 6373.000000
156.931076 6616.000000
159.378845 6012.000000
161.824905 6613.000000
164.269287 8697.000000
166.711990 6375.000000
169.153000 6781.000000
171.592300 6221.000000
174.029892 7278.000000
176.465851 6583.000000
178.900070 6954.000000
181.332611 7135.000000
183.763504 6726.000000
186.192673 7121.000000
188.620193 6711.000000
191.046036 6344.000000
193.470200 6691.000000
195.892700 7189.000000
198.313507 7362.000000
200.732651 6534.000000
203.150131 5996.000000
205.565918 7623.000000
207.980057 7063.000000
210.392563 6389.000000
212.803391 6016.000000
215.212540 6225.000000
217.620056 7422.000000
220.025864 6171.000000
222.430084 6523.000000
224.832596 6664.000000
227.233490 6891.000000
229.632736 6457.000000
232.030319 6862.000000
234.426239 7306.000000
236.820541 6477.000000
239.213181 6083.000000
241.604202 6790.000000
243.993561 6628.000000
246.381302 6309.000000
248.767395 6898.000000
251.151855 6083.000000
253.534668 7909.000000
255.915909 6692.000000
258.295441 6674.000000
260.673401 6436.000000
263.049683 7527.000000
265.424408 7498.000000
267.797485 7868.000000
270.168915 6113.000000
272.538696 6365.000000
274.906921 5882.000000
277.273499 6332.000000
279.638489 6701.000000
282.001862 6042.000000
284.363586 6283.000000
286.723724 7109.000000
289.082245 6092.000000
291.439178 6554.000000
293.794495 6368.000000
296.148224 5922.000000
298.500305 6010.000000
300.850830 6293.000000
303.199768 6341.000000
305.547058 6820.000000
307.892822 6380.000000
310.236908 6557.000000
312.579468 7390.000000
314.920410 7539.000000
317.259735 7204.000000
319.597504 6941.000000
321.933716 8095.000000
324.268280 6325.000000
326.601288 6478.000000
328.932739 5993.000000
331.262604 6639.000000
333.590881 6367.000000
335.917542 7242.000000
338.242706 6357.000000
340.566254 6222.000000
342.888245 6018.000000
345.208679 7531.000000
347.527496 7677.000000
349.844757 5979.000000
352.160492 5868.000000
354.474640 7004.000000
356.787201 6318.000000
359.098206 6390.000000
361.407684 7058.000000
363.715637 6389.000000
366.021973 5689.000000
368.326721 6368.000000
370.630005 6404.000000
372.931671 6285.000000
375.231842 6411.000000
377.530457 6290.000000
379.827515 5685.000000
382.123016 6137.000000
384.416992 5847.000000
386.709381 5267.000000
389.000275 5597.000000
391.289642 6227.000000
393.577423 6258.000000
395.863678 6527.000000
398.148438 6994.000000
400.431580 6063.000000
402.713287 6467.000000
404.993469 6136.000000
407.272064 7263.000000
409.549133 6496.000000
411.824677 6815.000000
414.098694 6606.000000
416.371277 6537.000000
418.642242 6338.000000
420.911713 6396.000000
423.179688 7123.000000
425.446106 7265.000000
427.711029 6307.000000
429.974487 6289.000000
432.236359 6469.000000
434.496765 5994.000000
436.755615 6559.000000
439.013000 6071.000000
441.268890 5658.000000
443.523285 5831.000000
445.776154 5397.000000
448.027466 6870.000000
450.277374 6110.000000
452.525696 6277.000000
454.772583 5671.000000
457.018005 6418.000000
459.261871 6437.000000
461.504242 6836.000000
463.745117 5626.000000
465.984589 6742.000000
468.222473 5460.000000
470.458923 5843.000000
472.693848 6072.000000
474.927307 7241.000000
477.159332 6700.000000
479.389832 5704.000000
481.618835 6511.000000
483.846375 6316.000000
486.072418 5974.000000
488.297028 6577.000000
490.520172 5877.000000
492.741852 6422.000000
494.961975 6665.000000
497.180695 5632.000000
499.397919 6218.000000
501.613770 5567.000000
503.828003 6161.000000
506.040924 6435.000000
508.252258 6421.000000
510.462158 6877.000000
512.670593 6470.000000
514.877686 6579.000000
517.083191 6426.000000
519.287292 6527.000000
521.489868 6178.000000
523.691040 6501.000000
525.890869 6711.000000
528.089172 6957.000000
530.285950 5367.000000
532.481384 5816.000000
534.675293 5618.000000
536.867859 7503.000000
539.058899 6711.000000
541.248535 5999.000000
543.436768 6877.000000
545.623474 7145.000000
547.808716 6818.000000
549.992676 6243.000000
552.175049 6430.000000
554.356079 6195.000000
556.535583 6051.000000
558.713806 5820.000000
560.890503 5975.000000
563.065796 6397.000000
565.239685 6394.000000
567.412109 5902.000000
569.583130 6057.000000
571.752686 6291.000000
573.920959 5230.000000
576.087708 6344.000000
578.252991 6329.000000
580.416870 6146.000000
582.579468 5734.000000
584.740540 6053.000000
586.900208 5689.000000
589.058533 5795.000000
591.215332 6257.000000
593.370789 6589.000000
595.524841 5759.000000
597.677551 6147.000000
599.828735 7275.000000
601.978577 6766.000000
604.127075 6683.000000
606.273987 6026.000000
608.419678 6518.000000
610.563965 6431.000000
612.706787 7065.000000
614.848145 6186.000000
616.988281 6437.000000
619.126892 7664.000000
621.264221 5719.000000
623.400085 6607.000000
625.534546 6840.000000
627.667542 7190.000000
629.799377 6660.000000
631.929749 6558.000000
634.058716 6771.000000
636.186218 6453.000000
638.312439 6200.000000
640.437134 7297.000000
642.560608 6445.000000
644.682739 6786.000000
646.803406 6915.000000
648.922729 6501.000000
651.040649 5646.000000
653.157227 5695.000000
655.272400 6448.000000
657.386230 6514.000000
659.498596 5854.000000
661.609741 6185.000000
663.719482 5330.000000
665.827759 6072.000000
667.934875 6276.000000
670.040527 6832.000000
672.144714 5895.000000
674.247681 5724.000000
676.349243 7028.000000
678.449463 5320.000000
680.548279 6769.000000
682.645752 6351.000000
684.741943 7021.000000
686.836670 6401.000000
688.930176 7073.000000
691.022339 6642.000000
693.112976 7995.000000
695.202393 6635.000000
697.290527 6427.000000
699.377197 6007.000000
701.462646 6653.000000
703.546570 5126.000000
705.629272 5967.000000
707.710693 5966.000000
709.790649 7583.000000
711.869385 6218.000000
713.946655 5544.000000
716.022644 6570.000000
718.097351 6149.000000
720.170776 6967.000000
722.242676 6277.000000
724.313416 7349.000000
726.382813 5780.000000
728.450806 6482.000000
730.517456 6434.000000
732.582886 7046.000000
734.646973 5734.000000
736.709717 6252.000000
738.771118 6532.000000
740.831238 6636.000000
742.889954 6021.000000
744.947449 6640.000000
747.003662 6556.000000
749.058472 6685.000000
751.112000 6360.000000
753.164124 7458.000000
755.215027 5720.000000
757.264709 6676.000000
759.312927 6347.000000
761.359924 6172.000000
763.405640 7041.000000
765.449951 5352.000000
767.492981 5757.000000
769.534790 14907.000000
771.575256 7140.000000
773.614319 6315.000000
775.652222 6169.000000
777.688782 5967.000000
779.724121 5330.000000
781.758118 5784.000000
783.790710 6838.000000
785.822144 5531.000000
787.852173 12131.000000
789.880920 5977.000000
791.908508 6316.000000
793.934753 6309.000000
795.959595 5830.000000
797.983337 5535.000000
800.005676 6339.000000
802.026794 5905.000000
804.046570 6722.000000
806.065063 4924.000000
808.082336 6714.000000
810.098206 6814.000000
812.112915 5647.000000
814.126282 6412.000000
816.138428 6213.000000
818.149353 6117.000000
820.158936 6548.000000
822.167297 5326.000000
824.174255 5773.000000
826.179993 5982.000000
828.184509 5758.000000
830.187744 5688.000000
832.189697 6445.000000
834.190369 6031.000000
836.189819 5956.000000
838.187927 6281.000000
840.184937 6945.000000
842.180542 6203.000000
844.174988 5935.000000
846.168091 6164.000000
848.159973 6811.000000
850.150513 5567.000000
852.139771 6822.000000
854.127991 5942.000000
856.114807 5732.000000
858.100403 6447.000000
860.084717 7267.000000
862.067932 6280.000000
864.049744 6416.000000
866.030334 5841.000000
868.009644 7694.000000
869.987793 7107.000000
871.964600 6220.000000
873.940125 6024.000000
875.914612 6130.000000
877.887634 5981.000000
879.859619 5407.000000
881.830261 6396.000000
883.799744 6141.000000
885.767883 5540.000000
887.734863 5194.000000
889.700500 6171.000000
891.664978 5792.000000
893.628235 6002.000000
895.590271 6424.000000
897.551025 5780.000000
899.510559 6350.000000
901.468811 6697.000000
903.425964 6449.000000
905.381958 6021.000000
907.336548 6917.000000
909.289917 6433.000000
911.242126 6462.000000
913.193115 6418.000000
915.142822 7067.000000
917.091370 6323.000000
919.038696 6154.000000
920.984741 6040.000000
922.929504 6048.000000
924.873230 6275.000000
926.815796 5922.000000
928.757080 5608.000000
930.697021 6468.000000
932.635864 5736.000000
934.573425 5475.000000
936.509766 5953.000000
938.444946 5868.000000
940.378845 6048.000000
942.311646 5876.000000
944.243225 6739.000000
946.173645 5227.000000
948.102844 6441.000000
950.030701 6989.000000
951.957520 6649.000000
953.883057 5999.000000
955.807312 5427.000000
957.730469 5967.000000
959.652466 6710.000000
961.573181 7270.000000
963.492737 6451.000000
965.411133 5286.000000
967.328491 6387.000000
969.244385 6324.000000
971.159180 6173.000000
973.072754 5983.000000
974.985168 6337.000000
976.896362 6478.000000
978.806396 5512.000000
980.715149 6274.000000
982.622864 6158.000000
984.529358 6338.000000
986.434631 5725.000000
988.338806 6809.000000
990.241760 6173.000000
992.143494 6813.000000
994.044067 6577.000000
995.943481 6583.000000
997.841675 5275.000000
999.738708 6547.000000
1001.634521 6527.000000
1003.529175 7667.000000
1005.422729 5563.000000
1007.315002 7242.000000
1009.206360 6050.000000
1011.096375 5375.000000
1012.985168 6583.000000
1014.872803 6306.000000
1016.759277 6912.000000
1018.644592 6757.000000
1020.528748 5922.000000
1022.411682 5878.000000
1024.293579 6216.000000
1026.174194 5265.000000
1028.053711 5887.000000
1029.932251 6065.000000
1031.809448 5376.000000
1033.685303 6229.000000
1035.560181 5863.000000
1037.434082 6546.000000
1039.306519 7023.000000
1041.177979 6689.000000
1043.048096 5498.000000
1044.917236 5443.000000
1046.785156 5797.000000
1048.651978 6998.000000
1050.517700 6687.000000
1052.382202 6489.000000
1054.245605 6471.000000
1056.107666 6502.000000
1057.968750 5873.000000
1059.828735 6491.000000
1061.687378 6611.000000
1063.544922 5734.000000
1065.401367 6693.000000
1067.256714 5954.000000
1069.110840 5795.000000
1070.964111 6298.000000
1072.815918 6364.000000
1074.666748 6151.000000
1076.516357 6116.000000
1078.364746 5755.000000
1080.212280 7949.000000
1082.058472 5580.000000
1083.903442 6274.000000
1085.747559 5413.000000
1087.590332 5550.000000
1089.431885 6567.000000
1091.272705 5485.000000
1093.111938 5732.000000
1094.950439 6110.000000
1096.787598 5985.000000
1098.623535 6822.000000
1100.458496 6562.000000
1102.292236 5420.000000
1104.125000 5660.000000
1105.956421 6150.000000
1107.786987 7256.000000
1109.616211 6597.000000
1111.444458 6508.000000
1113.271484 7149.000000
1115.097534 5421.000000
1116.922363 6273.000000
1118.746094 7150.000000
1120.568604 6073.000000
1122.390015 5858.000000
1124.210571 5874.000000
1126.029663 6643.000000
1127.847900 7073.000000
1129.664795 6871.000000
1131.480835 6709.000000
1133.295654 6488.000000
1135.109375 5627.000000
1136.921997 5775.000000
1138.733398 5627.000000
1140.543823 6182.000000
1142.353149 6645.000000
1144.161133 6990.000000
1145.968384 5995.000000
1147.774170 5910.000000
1149.579102 5345.000000
1151.382935 5410.000000
1153.185547 6069.000000
1154.987305 6035.000000
1156.787598 6077.000000
1158.586914 6123.000000
1160.385254 5853.000000
1162.182251 5431.000000
1163.978516 5998.000000
1165.773438 6159.000000
1167.567261 6322.000000
1169.360229 7763.000000
1171.151855 5755.000000
1172.942505 6532.000000
1174.732178 6007.000000
1176.520386 5901.000000
1178.307739 7539.000000
1180.093994 6719.000000
1181.879150 5813.000000
1183.663208 5987.000000
1185.446167 7634.000000
1187.228149 5919.000000
1189.008911 5878.000000
1190.788696 6258.000000
1192.567383 6966.000000
1194.345093 6648.000000
1196.121582 7215.000000
1197.896973 6584.000000
1199.671265 6508.000000
1201.444458 6669.000000
1203.216797 6588.000000
1204.987793 6742.000000
1206.757935 5757.000000
1208.526855 6053.000000
1210.294678 6354.000000
1212.061646 5824.000000
1213.827271 5885.000000
1215.591919 6986.000000
1217.355469 6531.000000
1219.117920 5933.000000
1220.879517 6732.000000
1222.639893 5883.000000
1224.399170 6281.000000
1226.157593 6102.000000
1227.914795 7067.000000
1229.670898 6432.000000
1231.425903 5590.000000
1233.180054 5970.000000
1234.932861 5793.000000
1236.684692 6031.000000
1238.435669 5977.000000
1240.185303 4957.000000
1241.934082 7032.000000
1243.681519 6526.000000
1245.428223 6615.000000
1247.173706 6447.000000
1248.918335 6427.000000
1250.661621 6777.000000
1252.403931 6753.000000
1254.145142 5370.000000
1255.885498 5090.000000
1257.624756 5819.000000
1259.362793 6583.000000
1261.099976 7082.000000
1262.835938 6137.000000
1264.570923 6400.000000
1266.304932 7282.000000
1268.037964 5899.000000
1269.769775 6209.000000
1271.500610 6394.000000
1273.230225 7268.000000
1274.958984 5908.000000
1276.686646 5683.000000
1278.413208 5526.000000
1280.138916 5576.000000
1281.863281 6469.000000
1283.586792 5184.000000
1285.309326 6867.000000
1287.030884 6688.000000
1288.751221 6352.000000
1290.470581 6723.000000
1292.188843 7216.000000
1293.906128 6402.000000
1295.622437 5721.000000
1297.337524 6389.000000
1299.051636 6159.000000
1300.764771 5789.000000
1302.477051 6477.000000
1304.188110 8254.000000
1305.898193 5275.000000
1307.607178 6258.000000
1309.314941 6679.000000
1311.022095 7035.000000
1312.727783 5804.000000
1314.432739 6874.000000
1316.136719 6160.000000
1317.839478 5971.000000
1319.541260 6530.000000
1321.242188 6081.000000
1322.941772 9436.000000
1324.640503 31016.000000
1326.338501 5594.000000
1328.035156 6420.000000
1329.730713 7135.000000
1331.425415 6793.000000
1333.118896 5756.000000
1334.811523 5376.000000
1336.503296 7412.000000
1338.193726 6154.000000
1339.883423 6554.000000
1341.572021 6160.000000
1343.259521 7640.000000
1344.946045 5660.000000
1346.631470 6825.000000
1348.315918 5948.000000
1349.999512 7301.000000
1351.681885 6357.000000
1353.363281 5900.000000
1355.043823 6482.000000
1356.723145 6680.000000
1358.401855 5883.000000
1360.079224 6610.000000
1361.755493 5793.000000
1363.430786 5549.000000
1365.105347 6585.000000
1366.778687 6458.000000
1368.451050 6780.000000
1370.122437 5150.000000
1371.792847 6802.000000
1373.462158 6246.000000
1375.130493 5685.000000
1376.797974 5953.000000
1378.464355 6561.000000
1380.129761 6180.000000
1381.794189 5840.000000
1383.457397 5966.000000
1385.119995 5731.000000
1386.781250 6379.000000
1388.441650 6544.000000
1390.100952 6428.000000
1391.759277 6449.000000
1393.416870 6814.000000
1395.073242 6491.000000
1396.728760 7004.000000
1398.383057 6293.000000
1400.036499 5943.000000
1401.688843 6093.000000
1403.340454 6383.000000
1404.990845 7197.000000
1406.640137 6203.000000
1408.288696 7542.000000
1409.936157 7950.000000
1411.582642 6174.000000
1413.228271 6219.000000
1414.872925 5939.000000
1416.516357 7000.000000
1418.158936 7189.000000
1419.800415 6829.000000
1421.441040 6499.000000
1423.080688 6434.000000
1424.719238 6032.000000
1426.356934 6559.000000
1427.993530 6350.000000
1429.629150 5987.000000
1431.264038 6388.000000
1432.897827 5896.000000
1434.530518 6154.000000
1436.162231 5684.000000
1437.793091 6259.000000
1439.422852 6048.000000
1441.051514 7756.000000
1442.679565 6025.000000
1444.306519 6272.000000
1445.932251 6174.000000
1447.557373 6193.000000
1449.181396 6545.000000
1450.804443 6043.000000
1452.426514 6108.000000
1454.047485 7397.000000
1455.667480 6275.000000
1457.286743 6899.000000
1458.904663 5723.000000
1460.521973 5635.000000
1462.138306 5547.000000
1463.753418 7186.000000
1465.367676 6334.000000
1466.981079 5159.000000
1468.593384 5587.000000
1470.204834 6294.000000
1471.815430 6344.000000
1473.424805 6016.000000
1475.033203 6019.000000
1476.640747 6187.000000
1478.247314 6708.000000
1479.853149 5348.000000
1481.457764 6296.000000
1483.061523 5458.000000
1484.664063 6775.000000
1486.265991 5529.000000
1487.866699 5512.000000
1489.466675 5681.000000
1491.065552 6249.000000
1492.663574 6475.000000
1494.260498 6631.000000
1495.856567 6285.000000
1497.451660 5955.000000
1499.045776 5483.000000
1500.639160 6579.000000
1502.231445 5527.000000
1503.822510 6106.000000
1505.413086 6746.000000
1507.002319 6399.000000
1508.590942 6150.000000
1510.178467 6523.000000
1511.764893 6860.000000
1513.350586 6165.000000
1514.935181 6599.000000
1516.518921 6376.000000
1518.101563 6194.000000
1519.683472 6576.000000
1521.264282 6663.000000
1522.844360 6055.000000
1524.423218 6196.000000
1526.001221 6341.000000
1527.578491 6280.000000
1529.154541 5662.000000
1530.729858 5947.000000
1532.304077 6380.000000
1533.877563 5506.000000
1535.449829 5977.000000
1537.021362 6376.000000
1538.591919 6446.000000
1540.161621 6329.000000
1541.730103 5468.000000
1543.297852 6587.000000
1544.864746 5624.000000
1546.430420 6816.000000
1547.995361 5962.000000
1549.559204 4988.000000
1551.122437 7459.000000
1552.684326 6352.000000
1554.245605 5900.000000
1555.805786 5704.000000
1557.365234 5797.000000
1558.923584 5847.000000
1560.481201 6288.000000
1562.037720 7093.000000
1563.593018 5852.000000
1565.147705 6354.000000
1566.701660 5630.000000
1568.254639 6257.000000
1569.806274 5646.000000
1571.357178 5897.000000
1572.907349 6212.000000
1574.456543 6320.000000
1576.004395 5814.000000
1577.551758 5517.000000
1579.098145 5722.000000
1580.643677 5057.000000
1582.188232 6665.000000
1583.731567 6401.000000
1585.274292 6626.000000
1586.816162 6460.000000
1588.356934 6718.000000
1589.896729 5822.000000
1591.435791 6647.000000
1592.973755 5893.000000
1594.511230 6117.000000
1596.047363 5937.000000
1597.582397 6653.000000
1599.116943 6250.000000
1600.650513 5939.000000
1602.183228 6082.000000
1603.714355 6307.000000
1605.245239 6198.000000
1606.775269 5788.000000
1608.304077 6102.000000
1609.831787 6064.000000
1611.358887 5979.000000
1612.885254 5709.000000
1614.410645 6261.000000
1615.935181 5801.000000
1617.458374 5812.000000
1618.980835 5627.000000
1620.502563 6579.000000
1622.023438 6954.000000
1623.542847 15538.000000
1625.061768 6256.000000
1626.579956 6043.000000
1628.097290 5987.000000
1629.613525 6388.000000
1631.128418 7025.000000
1632.642822 6769.000000
1634.156494 5778.000000
1635.669067 6791.000000
1637.180420 6000.000000
1638.691406 6490.000000
1640.201294 6266.000000
1641.710327 6216.000000
1643.218018 5555.000000
1644.725342 6105.000000
1646.231812 7113.000000
1647.737305 6184.000000
1649.241943 6853.000000
1650.745117 6155.000000
1652.247681 6626.000000
1653.749878 6299.000000
1655.250732 6656.000000
1656.750488 7566.000000
1658.249390 5911.000000
1659.747925 6465.000000
1661.245239 6263.000000
1662.741821 5908.000000
1664.236816 6481.000000
1665.731567 6363.000000
1667.225464 5187.000000
1668.718384 5603.000000
1670.209961 20493.000000
1671.701050 6466.000000
1673.191528 6111.000000
1674.680908 5942.000000
1676.168823 6943.000000
1677.656494 6910.000000
1679.143188 6093.000000
1680.629028 5455.000000
1682.114014 6104.000000
1683.597534 6103.000000
1685.080811 6176.000000
1686.563232 5894.000000
1688.044556 6275.000000
1689.524414 6161.000000
1691.004028 5462.000000
1692.482910 6560.000000
1693.960815 5972.000000
1695.437744 6178.000000
1696.913452 5754.000000
1698.388794 6008.000000
1699.862915 6289.000000
1701.336426 5488.000000
1702.808472 5624.000000
1704.280273 6913.000000
1705.751099 6388.000000
1707.221069 7374.000000
1708.689697 5136.000000
1710.157837 5840.000000
1711.625244 6371.000000
1713.091553 5472.000000
1714.557251 5773.000000
1716.021240 6245.000000
1717.485107 5992.000000
1718.948120 6938.000000
1720.410156 6349.000000
1721.870972 6747.000000
1723.331177 5443.000000
1724.790649 6361.000000
1726.249268 6149.000000
1727.706909 6042.000000
1729.163208 6186.000000
1730.619263 6026.000000
1732.074341 6447.000000
1733.528442 5983.000000
1734.981323 6845.000000
1736.433960 5961.000000
1737.885498 6700.000000
1739.336304 5954.000000
1740.786133 6599.000000
1742.234619 5895.000000
1743.682739 7635.000000
1745.130005 6504.000000
1746.576538 6588.000000
1748.021484 6699.000000
1749.466187 6211.000000
1750.910034 5794.000000
1752.353027 5569.000000
1753.794556 6580.000000
1755.235840 6339.000000
1756.676270 19451.000000
1758.115723 6264.000000
1759.554199 5279.000000
1760.991699 6077.000000
1762.428711 7446.000000
1763.864746 5834.000000
1765.299927 7228.000000
1766.733643 6175.000000
1768.167236 6506.000000
1769.599854 6644.000000
1771.031616 5749.000000
1772.462524 5724.000000
1773.892212 6431.000000
1775.321167 6200.000000
1776.749634 6268.000000
1778.177124 6715.000000
1779.603271 6220.000000
1781.029175 5611.000000
1782.453979 6904.000000
1783.878174 5592.000000
1785.300903 6659.000000
1786.723145 6589.000000
1788.144653 6910.000000
1789.565430 5856.000000
1790.985229 5949.000000
1792.403687 6106.000000
1793.821655 6867.000000
1795.239014 5525.000000
1796.655518 6076.000000
1798.070557 6554.000000
1799.485229 5868.000000
1800.899292 6599.000000
1802.312134 5950.000000
1803.724365 6993.000000
1805.135254 7116.000000
1806.545654 7816.000000
1807.955322 6502.000000
1809.364014 5968.000000
1810.771606 5419.000000
1812.178711 6461.000000
1813.584961 6432.000000
1814.990234 6716.000000
1816.394409 5921.000000
1817.798218 5983.000000
1819.201050 6211.000000
1820.603027 6081.000000
1822.004395 5885.000000
1823.404297 6374.000000
1824.803589 6494.000000
1826.202393 6611.000000
1827.600342 7475.000000
1828.996948 5674.000000
1830.392944 6761.000000
1831.788208 5972.000000
1833.182861 8191.000000
1834.576538 5994.000000
1835.968872 6852.000000
1837.360718 6422.000000
1838.751953 5872.000000
1840.142212 7075.000000
1841.531250 5969.000000
1842.919922 6017.000000
1844.307617 5976.000000
1845.694580 5801.000000
1847.080200 6899.000000
1848.465576 5827.000000
1849.850098 6386.000000
1851.233887 6337.000000
1852.616577 6335.000000
1853.998047 5394.000000
1855.379028 6531.000000
1856.759521 6325.000000
1858.139038 5803.000000
1859.517090 5994.000000
1860.895020 6273.000000
1862.271973 7875.000000
1863.648193 6063.000000
1865.023560 6123.000000
1866.397461 5600.000000
1867.771240 5727.000000
1869.144165 6198.000000
1870.515991 5983.000000
1871.886841 6942.000000
1873.257324 5409.000000
1874.626709 5971.000000
1875.995605 6076.000000
1877.362915 7179.000000
1878.730103 6024.000000
1880.096313 6018.000000
1881.461792 6739.000000
1882.826538 7484.000000
1884.189697 6751.000000
1885.552734 6937.000000
1886.914917 6312.000000
1888.276245 6430.000000
1889.636230 5649.000000
1890.995850 5762.000000
1892.354858 6114.000000
1893.712891 6692.000000
1895.070068 7264.000000
1896.426025 5938.000000
1897.781738 7692.000000
1899.136475 5848.000000
1900.490356 5561.000000
1901.843140 5896.000000
1903.195435 5873.000000
1904.546997 5945.000000
1905.897705 6933.000000
1907.247192 6603.000000
1908.596191 6645.000000
1909.944336 5858.000000
1911.291870 6135.000000
1912.638672 6310.000000
1913.983887 6823.000000
1915.328857 6071.000000
1916.673096 5469.000000
1918.016479 6499.000000
1919.358521 5973.000000
1920.700317 6702.000000
1922.041260 7038.000000
1923.381470 6167.000000
1924.720703 6259.000000
1926.058960 6331.000000
1927.396606 6480.000000
1928.733521 7080.000000
1930.069580 6686.000000
1931.404419 5539.000000
1932.738892 6703.000000
1934.072632 7312.000000
1935.405518 6224.000000
1936.736938 5765.000000
1938.068481 6330.000000
1939.398682 6642.000000
1940.728394 5785.000000
1942.057251 6080.000000
1943.384888 5791.000000
1944.712036 5013.000000
1946.038452 5841.000000
1947.364136 6611.000000
1948.688477 5829.000000
1950.012573 6663.000000
1951.335815 6355.000000
1952.658325 6359.000000
1953.979736 5822.000000
1955.300171 7434.000000
1956.619995 6051.000000
1957.939453 5538.000000
1959.257935 6834.000000
1960.575073 5892.000000
1961.891846 5845.000000
1963.207886 6627.000000
1964.523193 6592.000000
1965.837036 6265.000000
1967.150635 5668.000000
1968.463501 6219.000000
1969.775513 5959.000000
1971.086914 6021.000000
1972.396973 6330.000000
1973.706543 5785.000000
1975.015381 6226.000000
1976.323608 6594.000000
1977.630493 6119.000000
1978.936768 7244.000000
1980.242676 5554.000000
1981.547363 6449.000000
1982.851563 5928.000000
1984.154541 5766.000000
1985.457153 7517.000000
1986.758789 6125.000000
1988.059814 6831.000000
1989.359253 6001.000000
1990.658813 6640.000000
1991.957275 5278.000000
1993.255249 6062.000000
1994.551636 6194.000000
1995.848022 5770.000000
1997.143433 5537.000000
1998.438110 6504.000000
1999.731934 5677.000000
2001.024536 6649.000000
2002.316650 5732.000000
2003.608276 7183.000000
2004.899170 6424.000000
2006.188477 6298.000000
2007.477539 6790.000000
2008.765869 6021.000000
2010.053467 6038.000000
2011.340210 6613.000000
2012.625854 5636.000000
2013.911133 6324.000000
2015.195435 6026.000000
2016.479126 5581.000000
2017.761475 6074.000000
2019.043457 6496.000000
2020.324951 6833.000000
2021.605469 5928.000000
2022.885254 6079.000000
2024.163940 6776.000000
2025.441895 5841.000000
2026.719360 5942.000000
2027.996216 6305.000000
2029.271362 5683.000000
2030.546631 6613.000000
2031.820923 6063.000000
2033.094238 5981.000000
2034.366699 5954.000000
2035.638794 6159.000000
2036.909790 6986.000000
2038.180542 6595.000000
2039.449951 6042.000000
2040.718262 7004.000000
2041.986572 6606.000000
2043.253906 5904.000000
2044.520508 6027.000000
2045.785889 5557.000000
2047.050659 5877.000000
2048.315186 5393.000000
2049.578613 5868.000000
2050.841553 6414.000000
2052.102539 6143.000000
2053.364014 6087.000000
2054.624268 5866.000000
2055.883789 6476.000000
2057.142578 6273.000000
2058.400391 6771.000000
2059.657715 6194.000000
2060.914307 6025.000000
2062.169434 6497.000000
2063.424561 5690.000000
2064.678711 5559.000000
2065.932129 5636.000000
2067.184814 6862.000000
2068.436279 6222.000000
2069.687500 6376.000000
2070.937988 5619.000000
2072.187744 5389.000000
2073.436035 6129.000000
2074.684326 6536.000000
2075.931641 7421.000000
2077.178223 5575.000000
2078.424072 6046.000000
2079.668701 7039.000000
2080.912842 7584.000000
2082.156494 5463.000000
2083.399170 6091.000000
2084.640625 6960.000000
2085.881836 5926.000000
2087.122559 6380.000000
2088.362305 6786.000000
2089.600830 7066.000000
2090.838867 6197.000000
2092.076172 5796.000000
2093.313232 6668.000000
2094.548828 6044.000000
2095.783691 6204.000000
2097.018311 6035.000000
2098.251953 5617.000000
2099.484619 6081.000000
2100.716553 6876.000000
2101.947998 6393.000000
2103.178467 6819.000000
2104.408203 6054.000000
2105.637695 6030.000000
2106.865234 6049.000000
2108.093018 6002.000000
2109.320068 6387.000000
2110.546143 5497.000000
2111.770752 6429.000000
2112.995605 6979.000000
2114.219238 7109.000000
2115.442383 6222.000000
2116.664307 7578.000000
2117.885986 5990.000000
2119.106689 6843.000000
2120.326660 6071.000000
2121.546143 6144.000000
2122.764160 6624.000000
2123.982178 7092.000000
2125.199219 5783.000000
2126.415771 5811.000000
2127.630615 6568.000000
2128.845703 6369.000000
2130.059814 6985.000000
2131.273193 5647.000000
2132.485840 6111.000000
2133.697021 5825.000000
2134.908447 6538.000000
2136.118652 6646.000000
2137.328369 5979.000000
2138.536621 6147.000000
2139.744873 5686.000000
2140.952393 5897.000000
2142.158691 7709.000000
2143.364258 5862.000000
2144.569580 5691.000000
2145.773926 5556.000000
2146.977539 6307.000000
2148.180664 6182.000000
2149.382324 6396.000000
2150.583740 5299.000000
2151.784424 6245.000000
2152.984375 6135.000000
2154.183105 5932.000000
2155.381592 6993.000000
2156.579590 6219.000000
2157.776611 5963.000000
2158.972900 5103.000000
2160.167969 5249.000000
2161.362793 6147.000000
2162.556885 5587.000000
2163.750000 6063.000000
2164.942139 6874.000000
2166.134033 5898.000000
2167.325195 6323.000000
2168.515381 6278.000000
2169.704834 6471.000000
2170.893799 6865.000000
2172.081787 6300.000000
2173.269531 5674.000000
2174.455811 5909.000000
2175.641357 6651.000000
2176.826660 6018.000000
2178.011475 5796.000000
2179.195068 6408.000000
2180.377930 7534.000000
2181.559814 6326.000000
2182.741455 5996.000000
2183.922607 6549.000000
2185.102539 5660.000000
2186.281494 5564.000000
2187.459961 6325.000000
2188.638184 6904.000000
2189.815186 7230.000000
2190.991211 6797.000000
2192.166992 6152.000000
2193.342285 5554.000000
2194.516113 6636.000000
2195.689453 6229.000000
2196.862549 6154.000000
2198.034424 6529.000000
2199.205811 7105.000000
2200.376709 6324.000000
2201.545898 6874.000000
2202.715088 7520.000000
2203.883789 6222.000000
2205.051514 5910.000000
2206.218262 5649.000000
2207.384277 7157.000000
2208.549805 6657.000000
2209.715088 5956.000000
2210.878906 6696.000000
2212.042236 5406.000000
2213.204346 6214.000000
2214.366699 6135.000000
2215.527832 6729.000000
2216.687988 6676.000000
2217.847656 6284.000000
2219.007080 6584.000000
2220.165283 6370.000000
2221.322510 6303.000000
2222.479492 6797.000000
2223.635742 6637.000000
2224.791260 6821.000000
2225.946045 6272.000000
2227.099854 6483.000000
2228.252686 6035.000000
2229.406006 6963.000000
2230.557373 6174.000000
2231.708496 6184.000000
2232.858887 6514.000000
2234.008789 7659.000000
2235.157715 6310.000000
2236.306152 5224.000000
2237.453125 6725.000000
2238.600342 7093.000000
2239.746338 6091.000000
2240.892090 7232.000000
2242.036133 7368.000000
2243.180420 6751.000000
2244.323730 6166.000000
2245.466309 5939.000000
2246.607910 5792.000000
2247.749268 5813.000000
2248.889648 6398.000000
2250.029297 6420.000000
2251.168457 5803.000000
2252.306396 5816.000000
2253.444336 6202.000000
2254.581299 5372.000000
2255.717529 6256.000000
2256.852783 6098.000000
2257.987305 7312.000000
2259.121582 6341.000000
2260.255371 5437.000000
2261.387695 6141.000000
2262.519531 6821.000000
2263.650879 6328.000000
2264.781250 6534.000000
2265.911377 8119.000000
2267.040283 6650.000000
2268.168701 6102.000000
2269.296631 5524.000000
2270.423584 6145.000000
2271.549805 5958.000000
2272.675049 6737.000000
2273.800293 6485.000000
2274.924805 6429.000000
2276.048096 5971.000000
2277.170654 6320.000000
2278.292725 6002.000000
2279.414307 7387.000000
2280.535156 6355.000000
2281.654785 6459.000000
2282.773926 7048.000000
2283.892822 7700.000000
2285.010986 7222.000000
2286.128174 5899.000000
2287.244385 6430.000000
2288.360352 7024.000000
2289.475586 6917.000000
2290.590088 7424.000000
2291.703369 5831.000000
2292.816650 6340.000000
2293.929199 6012.000000
2295.041016 5386.000000
2296.152100 6733.000000
2297.261963 6379.000000
2298.371338 6144.000000
2299.480469 6628.000000
2300.588623 6293.000000
2301.695801 6762.000000
2302.802734 5858.000000
2303.908936 6265.000000
2305.014648 6545.000000
2306.118896 6575.000000
2307.222900 5465.000000
2308.326416 5697.000000
2309.429443 6543.000000
2310.531250 7382.000000
2311.632324 7378.000000
2312.732910 6650.000000
2313.833008 5542.000000
2314.932373 6399.000000
2316.030273 6645.000000
2317.128662 6984.000000
2318.225586 8212.000000
2319.322266 6829.000000
2320.418457 5743.000000
2321.512939 6967.000000
2322.607422 7632.000000
2323.701172 5829.000000
2324.794678 6051.000000
2325.886475 6395.000000
2326.978271 7002.000000
2328.069336 6113.000000
2329.159668 6258.000000
2330.249023 6967.000000
2331.338379 6011.000000
2332.426514 6340.000000
2333.514160 6823.000000
2334.601563 6505.000000
2335.687256 6654.000000
2336.772705 7719.000000
2337.857910 6288.000000
2338.942139 6739.000000
2340.025391 5886.000000
2341.108398 6397.000000
2342.190430 7183.000000
2343.272217 6004.000000
2344.353271 7438.000000
2345.433105 6636.000000
2346.512451 5670.000000
2347.591309 6762.000000
2348.669678 6532.000000
2349.746582 6337.000000
2350.823242 7056.000000
2351.899658 6020.000000
2352.975098 6449.000000
2354.049561 5877.000000
2355.123779 6258.000000
2356.197266 6804.000000
2357.270264 6201.000000
2358.342041 7058.000000
2359.413574 6251.000000
2360.484131 6757.000000
2361.554443 7544.000000
2362.623779 7566.000000
2363.692139 6797.000000
2364.760254 6743.000000
2365.827637 7038.000000
2366.894531 7128.000000
2367.960693 6041.000000
2369.025635 6874.000000
2370.090576 6959.000000
2371.154785 6316.000000
2372.218262 6933.000000
2373.280518 5834.000000
2374.342773 6245.000000
2375.404053 6358.000000
2376.465088 5912.000000
2377.524902 6250.000000
2378.583984 7953.000000
2379.643066 6430.000000
2380.701172 7648.000000
2381.758545 6880.000000
2382.814941 8057.000000
2383.871094 7854.000000
2384.926758 6233.000000
2385.981689 7065.000000
2387.035156 6688.000000
2388.088867 6578.000000
2389.141602 6268.000000
2390.193848 6670.000000
2391.245361 6162.000000
2392.295898 6649.000000
2393.346191 6577.000000
2394.395508 6292.000000
2395.444824 6184.000000
2396.492676 6909.000000
2397.540039 6959.000000
2398.587158 6330.000000
2399.633301 6708.000000
2400.678711 6145.000000
2401.723389 6763.000000
2402.768066 7723.000000
2403.811279 7416.000000
2404.854492 6621.000000
2405.896240 5750.000000
2406.938232 6703.000000
2407.979492 7086.000000
2409.019775 6104.000000
2410.059326 6478.000000
2411.097900 6304.000000
2412.136719 6062.000000
2413.174316 6489.000000
2414.211670 6929.000000
2415.247803 7329.000000
2416.283691 6232.000000
2417.318848 6280.000000
2418.353516 6583.000000
2419.386719 7238.000000
2420.420166 6439.000000
2421.452637 6664.000000
2422.484863 6880.000000
2423.515625 7083.000000
2424.546387 6345.000000
2425.576660 6835.000000
2426.605713 6825.000000
2427.634766 6657.000000
2428.662109 7391.000000
2429.689941 6686.000000
2430.716553 7231.000000
2431.742920 6942.000000
2432.767822 7682.000000
2433.792969 6534.000000
2434.817139 7149.000000
2435.841064 6735.000000
2436.863770 5789.000000
2437.885742 6332.000000
2438.907471 6637.000000
2439.928467 6627.000000
2440.948975 6002.000000
2441.968262 6514.000000
2442.987549 6556.000000
2444.005859 8466.000000
2445.023926 6247.000000
2446.040527 6496.000000
2447.057129 6493.000000
2448.072998 5972.000000
2449.088867 7020.000000
2450.103271 6859.000000
2451.116943 5564.000000
2452.130127 7306.000000
2453.143066 6045.000000
2454.155273 7228.000000
2455.166504 6699.000000
2456.177490 7673.000000
2457.187744 6365.000000
2458.197510 7614.000000
2459.206299 5904.000000
2460.214355 5975.000000
2461.222412 6318.000000
2462.229248 7354.000000
2463.235840 5396.000000
2464.241211 7376.000000
2465.246338 6934.000000
2466.251221 5897.000000
2467.254883 6485.000000
2468.258301 6357.000000
2469.260742 7608.000000
2470.262939 7361.000000
2471.264648 6878.000000
2472.265381 6582.000000
2473.265137 6954.000000
2474.264893 6741.000000
2475.263672 5710.000000
2476.261963 6577.000000
2477.259277 7072.000000
2478.256348 6108.000000
2479.253418 6970.000000
2480.249023 5796.000000
2481.244629 7146.000000
2482.238525 6716.000000
2483.232422 8181.000000
2484.225830 6949.000000
2485.218750 6768.000000
2486.210693 7520.000000
2487.201904 7196.000000
2488.192871 6739.000000
2489.183350 5867.000000
2490.172852 6561.000000
2491.161621 6513.000000
2492.150391 5681.000000
2493.138184 6855.000000
2494.124756 6570.000000
2495.111328 8027.000000
2496.097412 6750.000000
2497.082764 7091.000000
2498.067139 7982.000000
2499.051270 6004.000000
2500.035400 6874.000000
2501.018066 5768.000000
2502.000244 6979.000000
2502.981934 6829.000000
2503.962891 7297.000000
2504.943359 6532.000000
2505.923584 5768.000000
2506.902344 6326.000000
2507.880859 7566.000000
2508.858887 6778.000000
2509.836426 7101.000000
2510.812988 6041.000000
2511.789307 5981.000000
2512.764893 6429.000000
2513.739990 6317.000000
2514.714600 6515.000000
2515.687988 7555.000000
2516.661133 6807.000000
2517.634033 6847.000000
2518.605957 6002.000000
2519.577148 6823.000000
2520.547852 6942.000000
2521.518311 7866.000000
2522.488037 8010.000000
2523.456787 6121.000000
2524.424805 6163.000000
2525.392822 7665.000000
2526.359863 6281.000000
2527.326660 5537.000000
2528.292236 7239.000000
2529.257813 6982.000000
2530.222656 7762.000000
2531.187012 6314.000000
2532.150146 6247.000000
2533.113525 5823.000000
2534.075928 5940.000000
2535.038086 6729.000000
2535.999023 6361.000000
2536.959229 6106.000000
2537.919678 6167.000000
2538.879150 6725.000000
2539.837891 6810.000000
2540.795654 6675.000000
2541.753662 6169.000000
2542.710938 6767.000000
2543.667236 6059.000000
2544.623291 7164.000000
2545.578125 6178.000000
2546.533203 7766.000000
2547.487549 7030.000000
2548.441162 6690.000000
2549.393799 7236.000000
2550.346191 6728.000000
2551.298096 6960.000000
2552.249268 6424.000000
2553.199707 7665.000000
2554.149658 7305.000000
2555.099365 7381.000000
2556.048340 6585.000000
2556.996826 6241.000000
2557.944092 7074.000000
2558.891357 6307.000000
2559.837891 6547.000000
2560.783936 6759.000000
2561.729004 7395.000000
2562.673828 6685.000000
2563.618164 7182.000000
2564.562012 6791.000000
2565.505371 6663.000000
2566.447266 6594.000000
2567.389404 6587.000000
2568.330811 6136.000000
2569.271484 7171.000000
2570.211426 7322.000000
2571.151367 5721.000000
2572.090332 6118.000000
2573.029053 7513.000000
2573.966797 7162.000000
2574.904297 5441.000000
2575.841064 7022.000000
2576.777100 6732.000000
2577.712646 7451.000000
2578.647461 6340.000000
2579.582275 5982.000000
2580.516113 7033.000000
2581.449463 6989.000000
2582.382080 5810.000000
2583.314453 6797.000000
2584.246094 5469.000000
2585.177246 7046.000000
2586.107910 6951.000000
2587.037354 6848.000000
2587.966797 7242.000000
2588.895752 6411.000000
2589.824463 7441.000000
2590.751465 7378.000000
2591.678711 5832.000000
2592.605469 6809.000000
2593.531494 6275.000000
2594.457275 5678.000000
2595.381836 7600.000000
2596.306152 7613.000000
2597.229980 5359.000000
2598.153320 7246.000000
2599.075684 6256.000000
2599.997803 6904.000000
2600.919434 8358.000000
2601.840332 6435.000000
2602.760498 5801.000000
2603.680420 6328.000000
2604.599854 6417.000000
2605.519043 6448.000000
2606.437256 5818.000000
2607.354248 6019.000000
2608.271484 7293.000000
2609.188477 5898.000000
2610.104492 7580.000000
2611.019287 6620.000000
2611.934570 6642.000000
2612.849121 6578.000000
2613.762695 6593.000000
2614.676270 6061.000000
2615.588623 7656.000000
2616.500977 7101.000000
2617.412354 6828.000000
2618.323486 5755.000000
2619.233887 7219.000000
2620.144043 6600.000000
2621.053467 6158.000000
2621.962402 6580.000000
2622.870361 6223.000000
2623.778564 6827.000000
2624.685791 6648.000000
2625.592529 7053.000000
2626.498535 6068.000000
2627.404297 6602.000000
2628.309326 6378.000000
2629.214111 7849.000000
2630.118164 6470.000000
2631.021240 6368.000000
2631.924316 6436.000000
2632.826416 5665.000000
2633.728516 6763.000000
2634.630371 6973.000000
2635.530518 6716.000000
2636.430908 6469.000000
2637.330566 6423.000000
2638.229980 5979.000000
2639.127930 6859.000000
2640.026367 6800.000000
2640.924316 6355.000000
2641.821533 6127.000000
2642.717529 6163.000000
2643.613525 6782.000000
2644.509277 5964.000000
2645.404297 6443.000000
2646.299072 6690.000000
2647.192383 7295.000000
2648.085693 6269.000000
2648.978760 6729.000000
2649.871582 6486.000000
2650.762695 7468.000000
2651.654053 6339.000000
2652.544922 7619.000000
2653.435059 7323.000000
2654.324951 6516.000000
2655.213623 7301.000000
2656.102539 6659.000000
2656.990967 6562.000000
2657.878418 7330.000000
2658.764893 6465.000000
2659.651855 7086.000000
2660.538086 6842.000000
2661.423828 6801.000000
2662.308350 6493.000000
2663.192871 6454.000000
2664.077148 6209.000000
2664.960693 7105.000000
2665.843750 7835.000000
2666.726074 7222.000000
2667.607910 6209.000000
2668.489014 6642.000000
2669.370361 6058.000000
2670.250244 6487.000000
2671.130371 7336.000000
2672.009766 7147.000000
2672.889160 6252.000000
2673.767822 6160.000000
2674.644775 6379.000000
2675.522461 6720.000000
2676.399414 6399.000000
2677.275635 8077.000000
2678.151367 7148.000000
2679.026367 6222.000000
2679.901611 7740.000000
2680.775879 6950.000000
2681.649658 7403.000000
2682.522705 6977.000000
2683.395508 6156.000000
2684.268066 6093.000000
2685.139893 6904.000000
2686.010986 6506.000000
2686.881836 6883.000000
2687.752197 7208.000000
2688.622314 6743.000000
2689.490723 6325.000000
2690.359863 7345.000000
2691.228271 7062.000000
2692.096436 6673.000000
2692.963867 6898.000000
2693.830078 5838.000000
2694.696777 7146.000000
2695.562500 7409.000000
2696.428223 7210.000000
2697.292480 7945.000000
2698.157471 6569.000000
2699.020996 7300.000000
2699.884766 5858.000000
2700.747070 7472.000000
2701.609863 6843.000000
2702.471680 5955.000000
2703.333008 6860.000000
2704.194336 6729.000000
2705.054443 7444.000000
2705.914551 7278.000000
2706.774170 6598.000000
2707.633545 6841.000000
2708.491211 7198.000000
2709.349121 6865.000000
2710.207520 7377.000000
2711.064697 6752.000000
2711.921143 5931.000000
2712.777100 6864.000000
2713.633057 6102.000000
2714.488281 6974.000000
2715.342773 6141.000000
2716.196777 6871.000000
2717.050781 7340.000000
2717.903809 6268.000000
2718.757080 6569.000000
2719.608643 7702.000000
2720.460693 6755.000000
2721.312500 6244.000000
2722.163086 6545.000000
2723.013672 6403.000000
2723.863770 7072.000000
2724.713135 7098.000000
2725.562500 6973.000000
2726.410645 6667.000000
2727.258301 6487.000000
2728.106445 7032.000000
2728.953369 6841.000000
2729.800781 5582.000000
2730.646729 7506.000000
2731.491943 6991.000000
2732.337646 6405.000000
2733.182373 6942.000000
2734.027100 7360.000000
2734.870605 6892.000000
2735.714355 7787.000000
2736.557373 6950.000000
2737.399902 6008.000000
2738.241455 6280.000000
2739.083496 6833.000000
2739.924561 6914.000000
2740.765381 5777.000000
2741.605957 5865.000000
2742.445313 7765.000000
2743.284668 6903.000000
2744.124023 6861.000000
2744.962158 6830.000000
2745.799805 7954.000000
2746.637451 6323.000000
2747.474609 7114.000000
2748.311523 6190.000000
2749.147949 6008.000000
2749.983154 6624.000000
2750.818604 6255.000000
2751.653564 6369.000000
2752.487793 6240.000000
2753.321777 6893.000000
2754.155273 6804.000000
2754.988770 7987.000000
2755.821289 6830.000000
2756.653320 7292.000000
2757.484863 6782.000000
2758.316406 7085.000000
2759.146973 7291.000000
2759.977783 7192.000000
2760.807373 7332.000000
2761.636963 6673.000000
2762.466309 7274.000000
2763.294922 6838.000000
2764.123047 6773.000000
2764.950684 6840.000000
2765.778320 6623.000000
2766.605469 7832.000000
2767.431885 5812.000000
2768.257813 7458.000000
2769.083252 6829.000000
2769.908447 7823.000000
2770.733643 7065.000000
2771.557617 6809.000000
2772.381592 6525.000000
2773.205566 7594.000000
2774.028320 6643.000000
2774.851318 6966.000000
2775.673096 6918.000000
2776.494873 6966.000000
2777.316650 6445.000000
2778.137451 7987.000000
2778.957520 6544.000000
2779.777832 7037.000000
2780.597656 7308.000000
2781.417480 6415.000000
2782.235352 5951.000000
2783.054443 8061.000000
2783.872314 6538.000000
2784.689941 6733.000000
2785.507080 7130.000000
2786.323730 7278.000000
2787.140137 7286.000000
2787.956055 6325.000000
2788.771729 5975.000000
2789.586426 6424.000000
2790.401611 7009.000000
2791.216064 7153.000000
2792.030029 6546.000000
2792.843750 7447.000000
2793.656250 8812.000000
2794.468994 7002.000000
2795.281250 7482.000000
2796.093018 7209.000000
2796.904053 7307.000000
2797.715820 6532.000000
2798.526367 7249.000000
2799.336914 7048.000000
2800.145996 7382.000000
2800.955811 8206.000000
2801.764893 7768.000000
2802.573730 6674.000000
2803.382080 7168.000000
2804.189453 6149.000000
2804.997314 6476.000000
2805.804443 6769.000000
2806.611328 6992.000000
2807.416992 7085.000000
2808.223145 6651.000000
2809.028564 6468.000000
2809.833984 7282.000000
2810.638672 6201.000000
2811.442383 7650.000000
2812.246582 7491.000000
2813.050293 6353.000000
2813.853760 6137.000000
2814.655762 6566.000000
2815.458496 7340.000000
2816.260498 7827.000000
2817.062256 6150.000000
2817.863525 6483.000000
2818.664307 7277.000000
2819.464600 6485.000000
2820.265137 6590.000000
2821.064697 8068.000000
2821.863770 7158.000000
2822.662842 6475.000000
2823.461670 6891.000000
2824.260010 6416.000000
2825.057373 7052.000000
2825.854980 7409.000000
2826.651855 6683.000000
2827.448975 7374.000000
2828.245361 8125.000000
2829.041016 7180.000000
2829.836670 7335.000000
2830.632080 7567.000000
2831.427002 7421.000000
2832.221191 6619.000000
2833.015381 6853.000000
2833.809326 5639.000000
2834.602783 6882.000000
2835.395508 7174.000000
2836.187988 8195.000000
2836.980469 7611.000000
2837.772705 7514.000000
2838.564453 6345.000000
2839.355225 6737.000000
2840.145996 8855.000000
2840.937012 7474.000000
2841.727051 6284.000000
2842.516602 7667.000000
2843.306396 7154.000000
2844.095215 7307.000000
2844.884033 7796.000000
2845.672852 7700.000000
2846.460693 7515.000000
2847.248047 7197.000000
2848.035645 7466.000000
2848.822754 7340.000000
2849.609131 6645.000000
2850.395508 7482.000000
2851.181641 7214.000000
2851.967285 7529.000000
2852.751953 7156.000000
2853.537109 6862.000000
2854.322021 7500.000000
2855.106201 7137.000000
2855.890381 6890.000000
2856.673340 8232.000000
2857.456543 6812.000000
2858.239502 6780.000000
2859.021973 7826.000000
2859.804199 6276.000000
2860.585938 6705.000000
2861.367432 7577.000000
2862.149170 7484.000000
2862.930176 7652.000000
2863.710449 6529.000000
2864.490479 6743.000000
2865.270508 8247.000000
2866.050293 7469.000000
2866.829102 8169.000000
2867.608154 7646.000000
2868.386719 6826.000000
2869.165039 7031.000000
2869.942871 7215.000000
2870.720459 6939.000000
2871.497803 7449.000000
2872.274902 6944.000000
2873.051514 6478.000000
2873.827637 7478.000000
2874.603760 7118.000000
2875.379395 8295.000000
2876.154785 7289.000000
2876.929688 6625.000000
2877.704346 8108.000000
2878.479004 6668.000000
2879.253418 7814.000000
2880.027100 6802.000000
2880.800049 7178.000000
2881.573730 6797.000000
2882.346436 7685.000000
2883.119141 7948.000000
2883.891113 8201.000000
2884.662842 6197.000000
2885.435059 6810.000000
2886.206055 6999.000000
2886.976563 6148.000000
2887.747559 8291.000000
2888.518555 7351.000000
2889.288818 7964.000000
2890.058105 7691.000000
2890.827637 6985.000000
2891.597168 7251.000000
2892.366211 7350.000000
2893.134766 7876.000000
2893.903320 7754.000000
2894.670898 6986.000000
2895.438965 6586.000000
2896.206543 7440.000000
2896.974121 8353.000000
2897.740479 7325.000000
2898.507813 6501.000000
2899.273926 7228.000000
2900.040283 7032.000000
2900.805176 8379.000000
2901.570557 7066.000000
2902.336426 6467.000000
2903.100830 7785.000000
2903.865234 7716.000000
2904.629883 8462.000000
2905.393555 6669.000000
2906.157959 8451.000000
2906.921631 6722.000000
2907.684570 8361.000000
2908.447266 6536.000000
2909.210449 9190.000000
2909.973145 6963.000000
2910.734619 6788.000000
2911.496582 6788.000000
