scanname Analyse047
timestamp 2017-02-10 21:01:30
ccdbias 898.750000
ccdgain 3.473401
sigmaread 8.960639
laserwavenum -0.551330
wavenumcorrection -0.028366
scancount 1
totalexposurems 10000
singleexposurems 10000
measurementstate Unknown
scanmode Manual
snr 17.512363 0.214501 0.069227
replacelist 0
peaks 7
398.978607 0.045109 0.000000 0.133232 0.000016
809.748169 0.040910 0.000000 0.432231 0.000076
840.383484 0.038474 0.000000 0.206424 0.000020
1157.588135 0.031779 0.000000 0.089563 0.000017
1328.797974 0.036598 0.000000 0.104806 0.000026
1458.380493 0.037476 0.000000 0.188813 0.000046
2330.610107 0.018933 0.000000 0.301288 0.000178
finalresult GLS_Multiple 89
A11883	Polypropylene (Isotactic)	6.405268e-001
A13500	Poly(propylene-co-ethylene)	6.378920e-001
A0115	Polypropylene	6.342735e-001
A13180	Polypropylene (lot B)	6.340832e-001
A1531	Ethyl formate	4.767237e-001
A14069	(R)-(-)-1,2-Propanediol	4.709637e-001
A0518	Propylene glycol	4.684073e-001
A9321	Methyl 2-hydroxyisobutyrate	4.581044e-001
A2017	Isopropylamine	4.561822e-001
A0340	Butyronitrile	4.513254e-001
A11885	Poly(methyl methacrylate-co-butyl methacrylate)	4.487776e-001
A3653	(R)-(+)-3-Methylcyclopentanone	4.485146e-001
A10674	Dibutyl succinate	4.479159e-001
A13507	Poly(methyl methacrylate-co-ethyl acrylate)	4.477261e-001
A1676	Trifluoroacetic acid	4.469675e-001
A0400	Potassium permanganate	4.469238e-001
A1270	Methyl DL-lactate	4.469093e-001
A11872	Poly(methyl methacrylate)	4.467490e-001
A2721	Formaldehyde diethyl acetal	4.466032e-001
A9546	4-Methoxy-alpha-methylbenzyl alcohol	4.465448e-001
A2703	Acetaldehyde dimethyl acetal	4.465013e-001
A2313	Barium peroxide	4.460353e-001
A3222	Potassium nitrite	4.436229e-001
A2098	Diethylene glycol dibutyl ether	4.410743e-001
A0098	Roundup (weed and grass killer)	4.397604e-001
A13820	(-)-Methyl L-lactate	4.395152e-001
A7225	Dibutyl adipate	4.383051e-001
A12733	Tri-tert-butyl borate	4.382474e-001
A0369	2,4,6-Tribromophenol	4.374130e-001
A1002	Dibutyl maleate	4.368815e-001
A4269	2,4-Dibromoanisole	4.367953e-001
A0524	Propionic acid	4.366373e-001
A8580	Sodium permanganate solution	4.351027e-001
A2210	Calcium peroxide hydrate	4.339865e-001
A1899	Dibutyl sebacate	4.332289e-001
A0793	Tris(2-methoxyethoxy)(vinyl)silane	4.325722e-001
A4812	2-(3-Butynyloxy)tetrahydro-2H-pyran	4.321300e-001
A4881	2-(2-Chloroethoxy)tetrahydro-2H-pyran	4.321156e-001
A3625	1-Dimethylamino-2-propanol	4.321014e-001
A2225	Diethylene glycol butyl ether	4.319446e-001
A2727	Acrolein diethyl acetal	4.316453e-001
A12955	2-Chloro-1,3,2-dioxaphospholane	4.313031e-001
A8610	5-Methyl-2-pyrrolidinone	4.311039e-001
A0365	Tris(2-butoxyethyl) phosphate	4.308620e-001
A12448	Tribromofluoromethane	4.305772e-001
A0587	Triethylene glycol monobutyl ether	4.301366e-001
A12947	Diethyl (trichloromethyl)phosphonate	4.299515e-001
A1167	Ethylene glycol butyl ether	4.295820e-001
A7848	Butyl glycolate	4.292981e-001
A1224	Poly(ethylene glycol) butyl ether	4.290566e-001
A10301	2-Methoxytetrahydropyran	4.280781e-001
A9308	Dimethyl 2,4-dimethylglutarate,mixture of (+/-) and meso	4.276956e-001
A1584	Pentane	4.254193e-001
A0761	N,N,N',N'-Tetrakis(2-Hydroxypropyl)ethylenediamine	4.253629e-001
A13558	D-Alanine methyl ester hydrochloride	4.248130e-001
A6278	6-Methylnicotinamide	4.243053e-001
A6025	2-Nitrothiophene	4.242066e-001
A12725	Cerium(III) fluoride	4.238970e-001
A5382	3-Methoxypropionic acid	4.229684e-001
A10529	1-Formylpiperazine	4.224626e-001
A1547	Isovaleric acid	4.223222e-001
A13034	4'-Nitrobenzo-15-crown-5	4.215502e-001
A4645	1-Bromo-4-(trifluoromethoxy)benzene	4.212837e-001
A15973	Silver azide	4.206389e-001
A13611	5-Methyl-2-nitrophenyl isocyanate	4.195474e-001
A12438	Methyl dichlorophosphite	4.186952e-001
A11767	Di(ethylene glycol) vinyl ether	4.182206e-001
A11366	4-Isopropylanisole	4.180115e-001
A0544	1,4-Dioxane	4.172448e-001
A9593	(R)-(-)-2-Amino-1-propanol	4.171332e-001
A5525	2-Methylene-1,3-propanediol	4.156864e-001
A10581	Piperidine	4.147702e-001
A14007	1,2-Dichlorotetramethyldisilane	4.145761e-001
A0419	Sodium chlorite	4.145483e-001
A0673	Hexachlorocyclopentadiene	4.142987e-001
A3574	Sodium hexanitrocobaltate(III)	4.141186e-001
A11923	Tri(propylene glycol) butyl ether	4.140077e-001
A7885	beta-Carotene	4.137583e-001
A1149	Methyl 2-aminobenzoate	4.134676e-001
A10296	Tri(ethylene glycol) divinyl ether	4.129001e-001
A5377	4-Methyl-2-nitroanisole	4.128587e-001
A4025	2,4-Dimethylpentane	4.127067e-001
A4543	1,4-Butanediol divinyl ether	4.124855e-001
A11482	Methyl 5-methoxysalicylate	4.093011e-001
A3132	4-Methyl-3-nitrobenzoic acid	4.080649e-001
A8663	4-Methyl-3,5-dinitrobenzoic acid	4.072971e-001
A3868	N-formylmorpholine	4.071328e-001
A6700	4'-Methoxypropiophenone	4.069546e-001
A2839	5-Azacytidine	4.062568e-001
spectrum 2048
-97.050125 45705.000000
-94.423256 45705.000000
-91.798264 46308.000000
-89.175163 46176.000000
-86.553932 47029.000000
-83.934601 46730.000000
-81.317131 46946.000000
-78.701538 46740.000000
-76.087822 47052.000000
-73.475983 47390.000000
-70.866005 47232.000000
-68.257912 47395.000000
-65.651665 47472.000000
-63.047295 47467.000000
-60.444786 47328.000000
-57.844131 47756.000000
-55.245338 47201.000000
-52.648403 46600.000000
-50.053322 46971.000000
-47.460094 46884.000000
-44.868717 47116.000000
-42.279186 46670.000000
-39.691498 47496.000000
-37.105659 47330.000000
-34.521664 46985.000000
-31.939505 47645.000000
-29.359192 47011.000000
-26.780706 47575.000000
-24.204063 47093.000000
-21.629246 47034.000000
-19.056269 46765.000000
-16.485111 46701.000000
-13.915788 46470.000000
-11.348289 45349.000000
-8.782610 46847.000000
-6.218756 46598.000000
-3.656716 46930.000000
-1.096500 47051.000000
1.461908 46525.000000
4.018496 45754.000000
6.573277 45899.000000
9.126243 46344.000000
11.677407 45166.000000
14.226759 44966.000000
16.774315 44148.000000
19.320059 44270.000000
21.864010 43512.000000
24.406157 41032.000000
26.946507 38772.000000
29.485071 36133.000000
32.021839 32171.000000
34.556805 22993.000000
37.089993 13572.000000
39.621399 9276.000000
42.151012 8295.000000
44.678829 7811.000000
47.204887 7051.000000
49.729156 6441.000000
52.251656 5628.000000
54.772358 5142.000000
57.291306 5235.000000
59.808479 6426.000000
62.323875 7551.000000
64.837494 8648.000000
67.349358 8908.000000
69.859474 6730.000000
72.367798 4328.000000
74.874367 3322.000000
77.379189 2800.000000
79.882256 2432.000000
82.383545 2136.000000
84.883095 2040.000000
87.380890 1936.000000
89.876953 2176.000000
92.371239 2741.000000
94.863785 2983.000000
97.354614 2783.000000
99.843674 2395.000000
102.330986 1869.000000
104.816574 1570.000000
107.300423 1466.000000
109.782524 1430.000000
112.262901 1289.000000
114.741554 1090.000000
117.218483 1128.000000
119.693657 1096.000000
122.167122 956.000000
124.638855 925.000000
127.108879 956.000000
129.577148 1048.000000
132.043747 977.000000
134.508591 1028.000000
136.971741 1054.000000
139.433151 1009.000000
141.892868 1048.000000
144.350861 1042.000000
146.807159 1073.000000
149.261749 1184.000000
151.714615 1218.000000
154.165802 1180.000000
156.615295 1275.000000
159.063065 1381.000000
161.509125 1543.000000
163.953506 1684.000000
166.396210 1721.000000
168.837219 1823.000000
171.276520 2006.000000
173.714111 1986.000000
176.150070 2085.000000
178.584290 2046.000000
181.016830 2086.000000
183.447723 1995.000000
185.876892 1879.000000
188.304413 1878.000000
190.730255 1951.000000
193.154419 1920.000000
195.576920 1934.000000
197.997726 1959.000000
200.416870 1923.000000
202.834351 2082.000000
205.250137 1995.000000
207.664276 2172.000000
210.076782 2306.000000
212.487610 2321.000000
214.896759 2396.000000
217.304276 2583.000000
219.710083 2800.000000
222.114304 2881.000000
224.516815 2921.000000
226.917709 2969.000000
229.316956 3090.000000
231.714539 3073.000000
234.110458 3201.000000
236.504761 3083.000000
238.897400 3219.000000
241.288422 3171.000000
243.677780 3206.000000
246.065521 3282.000000
248.451614 3173.000000
250.836075 3151.000000
253.218887 3150.000000
255.600128 3261.000000
257.979675 3192.000000
260.357605 3225.000000
262.733887 3233.000000
265.108643 3167.000000
267.481689 3171.000000
269.853149 3205.000000
272.222900 3082.000000
274.591125 3209.000000
276.957703 2994.000000
279.322693 3138.000000
281.686096 3178.000000
284.047791 3131.000000
286.407959 2999.000000
288.766479 3040.000000
291.123413 3048.000000
293.478699 3072.000000
295.832458 3077.000000
298.184509 2973.000000
300.535034 3025.000000
302.883972 3021.000000
305.231262 2937.000000
307.577026 2962.000000
309.921143 2966.000000
312.263672 3007.000000
314.604614 2873.000000
316.943970 2926.000000
319.281738 3068.000000
321.617920 2964.000000
323.952515 2933.000000
326.285522 2985.000000
328.616943 2897.000000
330.946838 2863.000000
333.275085 2880.000000
335.601746 2883.000000
337.926941 2753.000000
340.250488 2862.000000
342.572449 2814.000000
344.892883 2864.000000
347.211731 2914.000000
349.528992 2758.000000
351.844727 2712.000000
354.158875 2695.000000
356.471436 2779.000000
358.782410 2689.000000
361.091919 2716.000000
363.399841 2732.000000
365.706177 2685.000000
368.010925 2782.000000
370.314209 2669.000000
372.615906 2748.000000
374.916077 2780.000000
377.214661 2667.000000
379.511719 2696.000000
381.807251 2735.000000
384.101196 2780.000000
386.393616 2777.000000
388.684509 2694.000000
390.973877 2808.000000
393.261658 2794.000000
395.547913 2945.000000
397.832642 2958.000000
400.115784 2984.000000
402.397522 2935.000000
404.677673 2904.000000
406.956299 2810.000000
409.233337 2787.000000
411.508911 2775.000000
413.782898 2711.000000
416.055481 2732.000000
418.326477 2737.000000
420.595947 2613.000000
422.863892 2671.000000
425.130310 2737.000000
427.395264 2620.000000
429.658691 2691.000000
431.920593 2695.000000
434.180969 2679.000000
436.439819 2619.000000
438.697205 2632.000000
440.953125 2537.000000
443.207520 2518.000000
445.460388 2498.000000
447.711670 2575.000000
449.961609 2696.000000
452.209900 2501.000000
454.456787 2685.000000
456.702209 2468.000000
458.946106 2546.000000
461.188477 2549.000000
463.429321 2514.000000
465.668823 2453.000000
467.906677 2524.000000
470.143127 2453.000000
472.378052 2451.000000
474.611511 2471.000000
476.843567 2490.000000
479.074036 2420.000000
481.303040 2346.000000
483.530579 2366.000000
485.756653 2503.000000
487.981262 2369.000000
490.204407 2331.000000
492.426086 2444.000000
494.646179 2365.000000
496.864929 2370.000000
499.082153 2486.000000
501.297974 2389.000000
503.512207 2369.000000
505.725159 2466.000000
507.936462 2416.000000
510.146362 2292.000000
512.354858 2438.000000
514.561951 2374.000000
516.767456 2453.000000
518.971558 2352.000000
521.174133 2431.000000
523.375305 2555.000000
525.575134 2555.000000
527.773438 2490.000000
529.970215 2452.000000
532.165649 2447.000000
534.359558 2346.000000
536.552124 2342.000000
538.743164 2395.000000
540.932800 2331.000000
543.121033 2375.000000
545.307739 2376.000000
547.492981 2239.000000
549.676941 2258.000000
551.859314 2302.000000
554.040344 2253.000000
556.219849 2219.000000
558.398071 2199.000000
560.574768 2327.000000
562.750061 2159.000000
564.923950 2175.000000
567.096375 2191.000000
569.267395 2169.000000
571.436951 2134.000000
573.605225 2045.000000
575.771973 2170.000000
577.937256 2181.000000
580.101135 2186.000000
582.263733 2176.000000
584.424805 2185.000000
586.584473 2185.000000
588.742798 2182.000000
590.899597 2287.000000
593.055054 2132.000000
595.209106 2169.000000
597.361816 2270.000000
599.513000 2236.000000
601.662842 2186.000000
603.811340 2072.000000
605.958252 2178.000000
608.103943 2175.000000
610.248230 2213.000000
612.391052 2203.000000
614.532410 2280.000000
616.672546 2264.000000
618.811157 2182.000000
620.948486 2219.000000
623.084351 2167.000000
625.218811 2112.000000
627.351807 2192.000000
629.483643 2097.000000
631.614014 2091.000000
633.742981 2110.000000
635.870483 2127.000000
637.996704 2156.000000
640.121399 2117.000000
642.244873 2025.000000
644.367004 2093.000000
646.487671 2075.000000
648.606995 2096.000000
650.724915 2049.000000
652.841492 2097.000000
654.956665 2058.000000
657.070496 2051.000000
659.182861 2105.000000
661.294006 1961.000000
663.403748 2014.000000
665.512024 1928.000000
667.619141 2121.000000
669.724792 2082.000000
671.828979 1994.000000
673.931946 1948.000000
676.033508 2039.000000
678.133728 2074.000000
680.232544 1944.000000
682.330017 2032.000000
684.426208 2039.000000
686.520935 1998.000000
688.614441 1945.000000
690.706604 2125.000000
692.797241 2013.000000
694.886658 2090.000000
696.974792 2132.000000
699.061462 2094.000000
701.146912 2022.000000
703.230835 2045.000000
705.313538 1971.000000
707.394958 1968.000000
709.474915 1964.000000
711.553650 1976.000000
713.630920 1927.000000
715.706909 1942.000000
717.781616 1984.000000
719.855042 1824.000000
721.926941 1916.000000
723.997681 2038.000000
726.067078 1884.000000
728.135071 1907.000000
730.201721 2028.000000
732.267151 1876.000000
734.331238 1937.000000
736.393982 1945.000000
738.455383 1974.000000
740.515503 1924.000000
742.574219 1892.000000
744.631714 1917.000000
746.687927 1922.000000
748.742737 1908.000000
750.796265 1823.000000
752.848389 1848.000000
754.899292 1857.000000
756.948975 1920.000000
758.997192 1880.000000
761.044189 1823.000000
763.089905 1712.000000
765.134216 1849.000000
767.177246 1775.000000
769.219055 1768.000000
771.259521 1927.000000
773.298584 1811.000000
775.336487 1878.000000
777.373047 1839.000000
779.408386 1904.000000
781.442383 1794.000000
783.474976 1875.000000
785.506409 1873.000000
787.536438 1831.000000
789.565186 1943.000000
791.592773 1813.000000
793.619019 1915.000000
795.643860 1918.000000
797.667603 2001.000000
799.689941 1971.000000
801.711060 2005.000000
803.730835 2109.000000
805.749329 2120.000000
807.766602 2257.000000
809.782471 2255.000000
811.797180 2289.000000
813.810547 2187.000000
815.822693 1988.000000
817.833618 1974.000000
819.843201 1941.000000
821.851563 1957.000000
823.858521 1893.000000
825.864258 1817.000000
827.868774 1932.000000
829.872009 1897.000000
831.873962 1883.000000
833.874634 1929.000000
835.874084 1838.000000
837.872192 2008.000000
839.869202 2082.000000
841.864807 1997.000000
843.859253 1967.000000
845.852356 2024.000000
847.844238 1860.000000
849.834778 1828.000000
851.824036 1809.000000
853.812256 1737.000000
855.799072 1768.000000
857.784668 1736.000000
859.768982 1760.000000
861.752197 1679.000000
863.734009 1707.000000
865.714600 1800.000000
867.693909 1637.000000
869.672058 1740.000000
871.648865 1809.000000
873.624390 1766.000000
875.598877 1767.000000
877.571899 1899.000000
879.543884 1789.000000
881.514526 1770.000000
883.484009 1852.000000
885.452148 1789.000000
887.419128 1746.000000
889.384766 1726.000000
891.349243 1776.000000
893.312500 1699.000000
895.274536 1710.000000
897.235291 1780.000000
899.194824 1707.000000
901.153076 1753.000000
903.110229 1685.000000
905.066223 1653.000000
907.020813 1745.000000
908.974182 1567.000000
910.926392 1622.000000
912.877380 1758.000000
914.827087 1587.000000
916.775635 1611.000000
918.722961 1718.000000
920.669006 1632.000000
922.613770 1551.000000
924.557495 1491.000000
926.500061 1481.000000
928.441345 1576.000000
930.381287 1471.000000
932.320129 1475.000000
934.257690 1483.000000
936.194031 1547.000000
938.129211 1463.000000
940.063110 1511.000000
941.995911 1518.000000
943.927490 1479.000000
945.857910 1527.000000
947.787109 1531.000000
949.714966 1550.000000
951.641785 1432.000000
953.567322 1426.000000
955.491577 1447.000000
957.414734 1569.000000
959.336731 1460.000000
961.257446 1509.000000
963.177002 1548.000000
965.095398 1543.000000
967.012756 1577.000000
968.928650 1476.000000
970.843445 1574.000000
972.757019 1696.000000
974.669434 1621.000000
976.580627 1642.000000
978.490662 1597.000000
980.399414 1484.000000
982.307129 1521.000000
984.213623 1570.000000
986.118896 1393.000000
988.023071 1562.000000
989.926025 1456.000000
991.827759 1534.000000
993.728333 1217.000000
995.627747 1569.000000
997.525940 1484.000000
999.422974 1555.000000
1001.318787 1491.000000
1003.213440 1379.000000
1005.106995 1338.000000
1006.999268 1271.000000
1008.890625 1318.000000
1010.780640 1374.000000
1012.669434 1298.000000
1014.557068 1359.000000
1016.443542 1326.000000
1018.328857 1268.000000
1020.213013 1317.000000
1022.095947 1357.000000
1023.977844 1386.000000
1025.858398 1352.000000
1027.737915 1343.000000
1029.616455 1367.000000
1031.493652 1366.000000
1033.369507 1376.000000
1035.244385 1373.000000
1037.118286 1490.000000
1038.990723 1410.000000
1040.862183 1388.000000
1042.732300 1389.000000
1044.601440 1434.000000
1046.469360 1339.000000
1048.336182 1288.000000
1050.201904 1331.000000
1052.066406 1321.000000
1053.929810 1361.000000
1055.791870 1397.000000
1057.652954 1353.000000
1059.512939 1301.000000
1061.371582 1274.000000
1063.229126 1273.000000
1065.085571 1409.000000
1066.940918 1319.000000
1068.795044 1318.000000
1070.648315 1299.000000
1072.500122 1255.000000
1074.350952 1383.000000
1076.200562 1294.000000
1078.048950 1461.000000
1079.896484 1345.000000
1081.742676 1285.000000
1083.587646 1253.000000
1085.431763 1313.000000
1087.274536 1313.000000
1089.116089 1354.000000
1090.956909 1173.000000
1092.796143 1350.000000
1094.634644 1286.000000
1096.471802 1358.000000
1098.307739 1271.000000
1100.142700 1311.000000
1101.976440 1355.000000
1103.809204 1180.000000
1105.640625 1288.000000
1107.471191 1253.000000
1109.300415 1307.000000
1111.128662 1207.000000
1112.955688 1164.000000
1114.781738 1243.000000
1116.606567 1158.000000
1118.430298 1249.000000
1120.252808 1186.000000
1122.074219 1200.000000
1123.894775 1150.000000
1125.713867 1177.000000
1127.532104 1221.000000
1129.348999 1261.000000
1131.165039 1188.000000
1132.979858 1176.000000
1134.793579 1229.000000
1136.606201 1189.000000
1138.417603 1194.000000
1140.228027 1227.000000
1142.037354 1235.000000
1143.845337 1269.000000
1145.652588 1266.000000
1147.458374 1396.000000
1149.263306 1431.000000
1151.067139 1386.000000
1152.869751 1505.000000
1154.671509 1408.000000
1156.471802 1449.000000
1158.271118 1339.000000
1160.069458 1371.000000
1161.866455 1369.000000
1163.662720 1400.000000
1165.457642 1363.000000
1167.251465 1321.000000
1169.044434 1306.000000
1170.836060 1246.000000
1172.626709 1344.000000
1174.416382 1203.000000
1176.204590 1274.000000
1177.991943 1224.000000
1179.778198 1164.000000
1181.563354 1183.000000
1183.347412 1186.000000
1185.130371 1145.000000
1186.912354 1188.000000
1188.693115 1259.000000
1190.472900 1153.000000
1192.251587 1116.000000
1194.029297 1194.000000
1195.805786 1203.000000
1197.581177 1237.000000
1199.355469 1186.000000
1201.128662 1252.000000
1202.901001 1076.000000
1204.671997 1167.000000
1206.442139 1123.000000
1208.211060 1208.000000
1209.978882 1176.000000
1211.745850 1144.000000
1213.511475 1254.000000
1215.276123 1146.000000
1217.039673 1180.000000
1218.802124 1169.000000
1220.563721 1172.000000
1222.324097 1204.000000
1224.083374 1167.000000
1225.841797 1115.000000
1227.598999 1214.000000
1229.355103 1244.000000
1231.110107 1227.000000
1232.864258 1183.000000
1234.617065 1135.000000
1236.368896 1187.000000
1238.119873 1091.000000
1239.869507 1202.000000
1241.618286 1286.000000
1243.365723 1167.000000
1245.112427 1230.000000
1246.857910 1142.000000
1248.602539 1156.000000
1250.345825 1229.000000
1252.088135 1226.000000
1253.829346 1176.000000
1255.569702 1115.000000
1257.308960 1160.000000
1259.046997 1138.000000
1260.784180 1057.000000
1262.520142 1123.000000
1264.255127 1130.000000
1265.989136 1091.000000
1267.722168 1196.000000
1269.453979 1173.000000
1271.184814 1171.000000
1272.914429 1264.000000
1274.643188 1118.000000
1276.370850 1192.000000
1278.097412 1209.000000
1279.823120 1281.000000
1281.547485 1215.000000
1283.270996 1177.000000
1284.993530 1187.000000
1286.715088 1258.000000
1288.435425 1159.000000
1290.154785 1255.000000
1291.873047 1182.000000
1293.590332 1258.000000
1295.306641 1211.000000
1297.021729 1230.000000
1298.735840 1273.000000
1300.448975 1125.000000
1302.161255 1344.000000
1303.872314 1166.000000
1305.582397 1164.000000
1307.291382 1214.000000
1308.999146 1219.000000
1310.706299 1132.000000
1312.411987 1241.000000
1314.116943 1236.000000
1315.820923 1276.000000
1317.523682 1247.000000
1319.225464 1276.000000
1320.926392 1297.000000
1322.625977 2008.000000
1324.324707 555.000000
1326.022705 1366.000000
1327.719360 1453.000000
1329.414917 1355.000000
1331.109619 1443.000000
1332.803101 1366.000000
1334.495728 1339.000000
1336.187500 1289.000000
1337.877930 1241.000000
1339.567627 1175.000000
1341.256226 1180.000000
1342.943726 1230.000000
1344.630249 1213.000000
1346.315674 1142.000000
1348.000122 1238.000000
1349.683716 1133.000000
1351.366089 1227.000000
1353.047485 1202.000000
1354.728027 1232.000000
1356.407349 1299.000000
1358.086060 1334.000000
1359.763428 1427.000000
1361.439697 1355.000000
1363.114990 1269.000000
1364.789551 1305.000000
1366.462891 1336.000000
1368.135254 1341.000000
1369.806641 1306.000000
1371.477051 1251.000000
1373.146362 1370.000000
1374.814697 1268.000000
1376.482178 1266.000000
1378.148560 1215.000000
1379.813965 1251.000000
1381.478394 1231.000000
1383.141602 1139.000000
1384.804199 1179.000000
1386.465454 1230.000000
1388.125854 1163.000000
1389.785156 1201.000000
1391.443481 1119.000000
1393.101074 1134.000000
1394.757446 1249.000000
1396.412964 1155.000000
1398.067261 1151.000000
1399.720703 1181.000000
1401.373047 1132.000000
1403.024658 1114.000000
1404.675049 1066.000000
1406.324341 1141.000000
1407.972900 1106.000000
1409.620361 1101.000000
1411.266846 1153.000000
1412.912476 1043.000000
1414.557129 1063.000000
1416.200562 1039.000000
1417.843140 1039.000000
1419.484619 1090.000000
1421.125244 1002.000000
1422.764893 1042.000000
1424.403442 1055.000000
1426.041138 1131.000000
1427.677734 1096.000000
1429.313354 1036.000000
1430.948242 996.000000
1432.582031 1081.000000
1434.214722 1038.000000
1435.846436 1091.000000
1437.477295 1004.000000
1439.107056 1115.000000
1440.735718 1062.000000
1442.363770 1040.000000
1443.990723 1119.000000
1445.616455 1028.000000
1447.241577 1167.000000
1448.865601 1099.000000
1450.488647 1163.000000
1452.110718 1166.000000
1453.731689 1356.000000
1455.351685 1210.000000
1456.970947 1253.000000
1458.588867 1311.000000
1460.206177 1188.000000
1461.822510 1277.000000
1463.437622 1299.000000
1465.051880 1103.000000
1466.665283 1094.000000
1468.277588 1149.000000
1469.889038 1167.000000
1471.499634 994.000000
1473.109009 1026.000000
1474.717407 951.000000
1476.324951 1063.000000
1477.931519 962.000000
1479.537354 996.000000
1481.141968 921.000000
1482.745728 1030.000000
1484.348267 951.000000
1485.950195 951.000000
1487.550903 1023.000000
1489.150879 898.000000
1490.749756 928.000000
1492.347778 945.000000
1493.944702 994.000000
1495.540771 874.000000
1497.135864 1004.000000
1498.729980 935.000000
1500.323364 922.000000
1501.915649 1017.000000
1503.506714 928.000000
1505.097290 1019.000000
1506.686523 943.000000
1508.275146 981.000000
1509.862671 914.000000
1511.449097 879.000000
1513.034790 957.000000
1514.619385 915.000000
1516.203125 838.000000
1517.785767 863.000000
1519.367676 999.000000
1520.948486 857.000000
1522.528564 923.000000
1524.107422 916.000000
1525.685425 990.000000
1527.262695 882.000000
1528.838745 926.000000
1530.414063 954.000000
1531.988281 861.000000
1533.561768 844.000000
1535.134033 960.000000
1536.705566 845.000000
1538.276123 871.000000
1539.845825 882.000000
1541.414307 892.000000
1542.982056 907.000000
1544.548950 793.000000
1546.114624 835.000000
1547.679565 832.000000
1549.243408 861.000000
1550.806641 886.000000
1552.368530 927.000000
1553.929810 962.000000
1555.489990 900.000000
1557.049438 942.000000
1558.607788 1037.000000
1560.165405 845.000000
1561.721924 831.000000
1563.277222 797.000000
1564.831909 787.000000
1566.385864 867.000000
1567.938843 825.000000
1569.490479 801.000000
1571.041382 822.000000
1572.591553 829.000000
1574.140747 811.000000
1575.688599 795.000000
1577.235962 786.000000
1578.782349 829.000000
1580.327881 859.000000
1581.872437 889.000000
1583.415771 794.000000
1584.958496 824.000000
1586.500366 903.000000
1588.041138 765.000000
1589.580933 790.000000
1591.119995 864.000000
1592.657959 787.000000
1594.195435 746.000000
1595.731567 770.000000
1597.266602 832.000000
1598.801147 829.000000
1600.334717 807.000000
1601.867432 931.000000
1603.398560 768.000000
1604.929443 792.000000
1606.459473 810.000000
1607.988281 759.000000
1609.515991 714.000000
1611.043091 839.000000
1612.569458 812.000000
1614.094849 813.000000
1615.619385 789.000000
1617.142578 853.000000
1618.665039 822.000000
1620.186768 792.000000
1621.707642 817.000000
1623.227051 830.000000
1624.745972 683.000000
1626.264160 756.000000
1627.781494 716.000000
1629.297729 727.000000
1630.812622 879.000000
1632.327026 762.000000
1633.840698 763.000000
1635.353271 705.000000
1636.864624 715.000000
1638.375610 710.000000
1639.885498 780.000000
1641.394531 829.000000
1642.902222 746.000000
1644.409546 678.000000
1645.916016 716.000000
1647.421509 696.000000
1648.926147 751.000000
1650.429321 720.000000
1651.931885 647.000000
1653.434082 688.000000
1654.934937 647.000000
1656.434692 693.000000
1657.933594 684.000000
1659.432129 766.000000
1660.929443 663.000000
1662.426025 757.000000
1663.921021 650.000000
1665.415771 773.000000
1666.909668 780.000000
1668.402588 673.000000
1669.894165 887.000000
1671.385254 685.000000
1672.875732 762.000000
1674.365112 728.000000
1675.853027 737.000000
1677.340698 546.000000
1678.827393 701.000000
1680.313232 669.000000
1681.798218 624.000000
1683.281738 683.000000
1684.765015 635.000000
1686.247437 629.000000
1687.728760 673.000000
1689.208618 652.000000
1690.688232 635.000000
1692.167114 726.000000
1693.645020 553.000000
1695.121948 637.000000
1696.597656 592.000000
1698.072998 626.000000
1699.547119 696.000000
1701.020630 586.000000
1702.492676 647.000000
1703.964478 672.000000
1705.435303 547.000000
1706.905273 616.000000
1708.373901 663.000000
1709.842041 647.000000
1711.309448 604.000000
1712.775757 682.000000
1714.241455 541.000000
1715.705444 625.000000
1717.169312 535.000000
1718.632324 595.000000
1720.094360 588.000000
1721.555176 650.000000
1723.015381 570.000000
1724.474854 595.000000
1725.933472 606.000000
1727.391113 637.000000
1728.847412 597.000000
1730.303467 557.000000
1731.758545 594.000000
1733.212646 557.000000
1734.665527 623.000000
1736.118164 666.000000
1737.569702 639.000000
1739.020508 580.000000
1740.470337 610.000000
1741.918823 606.000000
1743.366943 560.000000
1744.814209 581.000000
1746.260742 575.000000
1747.705688 512.000000
1749.150391 615.000000
1750.594238 516.000000
1752.037231 529.000000
1753.478760 638.000000
1754.920044 589.000000
1756.360474 467.000000
1757.799927 568.000000
1759.238403 595.000000
1760.675903 524.000000
1762.112915 614.000000
1763.548950 506.000000
1764.984131 501.000000
1766.417847 545.000000
1767.851440 532.000000
1769.284058 568.000000
1770.715820 584.000000
1772.146729 630.000000
1773.576416 503.000000
1775.005371 600.000000
1776.433838 528.000000
1777.861328 479.000000
1779.287476 472.000000
1780.713379 541.000000
1782.138184 616.000000
1783.562378 504.000000
1784.985107 514.000000
1786.407349 460.000000
1787.828857 531.000000
1789.249634 456.000000
1790.669434 519.000000
1792.087891 520.000000
1793.505859 516.000000
1794.923218 478.000000
1796.339722 484.000000
1797.754761 446.000000
1799.169434 460.000000
1800.583496 513.000000
1801.996338 443.000000
1803.408569 436.000000
1804.819458 441.000000
1806.229858 509.000000
1807.639526 534.000000
1809.048218 454.000000
1810.455811 587.000000
1811.862915 550.000000
1813.269165 445.000000
1814.674438 441.000000
1816.078613 475.000000
1817.482422 561.000000
1818.885254 471.000000
1820.287231 493.000000
1821.688599 391.000000
1823.088501 510.000000
1824.487793 523.000000
1825.886597 482.000000
1827.284546 526.000000
1828.681152 477.000000
1830.077148 504.000000
1831.472412 462.000000
1832.867065 487.000000
1834.260742 544.000000
1835.653076 509.000000
1837.044922 440.000000
1838.436157 560.000000
1839.826416 546.000000
1841.215454 597.000000
1842.604126 458.000000
1843.991821 396.000000
1845.378784 472.000000
1846.764404 488.000000
1848.149780 463.000000
1849.534302 399.000000
1850.918091 357.000000
1852.300781 464.000000
1853.682251 512.000000
1855.063232 458.000000
1856.443726 501.000000
1857.823242 454.000000
1859.201294 463.000000
1860.579224 405.000000
1861.956177 424.000000
1863.332397 406.000000
1864.707764 481.000000
1866.081665 530.000000
1867.455444 409.000000
1868.828369 527.000000
1870.200195 357.000000
1871.571045 377.000000
1872.941528 413.000000
1874.310913 381.000000
1875.679810 526.000000
1877.047119 477.000000
1878.414307 415.000000
1879.780518 374.000000
1881.145996 391.000000
1882.510742 360.000000
1883.873901 445.000000
1885.236938 510.000000
1886.599121 492.000000
1887.960449 381.000000
1889.320435 384.000000
1890.680054 475.000000
1892.039063 325.000000
1893.397095 365.000000
1894.754272 486.000000
1896.110229 349.000000
1897.465942 415.000000
1898.820679 363.000000
1900.174561 329.000000
1901.527344 344.000000
1902.879639 462.000000
1904.231201 334.000000
1905.581909 391.000000
1906.931396 509.000000
1908.280396 377.000000
1909.628540 423.000000
1910.976074 424.000000
1912.322876 410.000000
1913.668091 361.000000
1915.013062 355.000000
1916.357300 402.000000
1917.700684 428.000000
1919.042725 433.000000
1920.384521 406.000000
1921.725464 501.000000
1923.065674 351.000000
1924.404907 335.000000
1925.743164 390.000000
1927.080811 392.000000
1928.417725 429.000000
1929.753784 329.000000
1931.088623 425.000000
1932.423096 472.000000
1933.756836 436.000000
1935.089722 391.000000
1936.421143 322.000000
1937.752686 386.000000
1939.082886 348.000000
1940.412598 355.000000
1941.741455 449.000000
1943.069092 515.000000
1944.396240 375.000000
1945.722656 371.000000
1947.048340 342.000000
1948.372681 330.000000
1949.696777 297.000000
1951.020020 342.000000
1952.342529 373.000000
1953.663940 365.000000
1954.984375 431.000000
1956.304199 374.000000
1957.623657 412.000000
1958.942139 343.000000
1960.259277 334.000000
1961.576050 415.000000
1962.892090 348.000000
1964.207397 385.000000
1965.521240 417.000000
1966.834839 348.000000
1968.147705 286.000000
1969.459717 315.000000
1970.771118 346.000000
1972.081177 426.000000
1973.390747 256.000000
1974.699585 403.000000
1976.007813 281.000000
1977.314697 335.000000
1978.620972 424.000000
1979.926880 239.000000
1981.231567 307.000000
1982.535767 325.000000
1983.838745 313.000000
1985.141357 312.000000
1986.442993 366.000000
1987.744019 378.000000
1989.043457 322.000000
1990.343018 242.000000
1991.641479 317.000000
1992.939453 240.000000
1994.235840 361.000000
1995.532227 271.000000
1996.827637 321.000000
1998.122314 282.000000
1999.416138 313.000000
2000.708740 343.000000
2002.000854 259.000000
2003.292480 315.000000
2004.583374 313.000000
2005.872681 119.000000
2007.161743 262.000000
2008.450073 198.000000
2009.737671 350.000000
2011.024414 318.000000
2012.310059 275.000000
2013.595337 207.000000
2014.879639 345.000000
2016.163330 292.000000
2017.445679 225.000000
2018.727661 345.000000
2020.009155 298.000000
2021.289673 277.000000
2022.569458 247.000000
2023.848145 281.000000
2025.126099 181.000000
2026.403564 224.000000
2027.680420 266.000000
2028.955566 250.000000
2030.230835 382.000000
2031.505127 291.000000
2032.778442 255.000000
2034.050903 241.000000
2035.322998 324.000000
2036.593994 264.000000
2037.864746 290.000000
2039.134155 390.000000
2040.402466 278.000000
2041.670776 256.000000
2042.938110 320.000000
2044.204712 201.000000
2045.470093 129.000000
2046.734863 585.000000
2047.999390 271.000000
2049.262695 244.000000
2050.525635 334.000000
2051.786621 283.000000
2053.048096 245.000000
2054.308350 319.000000
2055.567871 244.000000
2056.826660 320.000000
2058.084473 209.000000
2059.341797 226.000000
2060.598389 318.000000
2061.853516 255.000000
2063.108643 163.000000
2064.362793 275.000000
2065.616211 212.000000
2066.868896 191.000000
2068.120361 253.000000
2069.371582 366.000000
2070.622070 263.000000
2071.871826 295.000000
2073.120117 258.000000
2074.368408 279.000000
2075.615723 244.000000
2076.862305 279.000000
2078.108154 238.000000
2079.352783 257.000000
2080.596924 247.000000
2081.840576 252.000000
2083.083252 274.000000
2084.324707 224.000000
2085.565918 325.000000
2086.806641 222.000000
2088.046387 208.000000
2089.284912 212.000000
2090.522949 256.000000
2091.760254 214.000000
2092.997314 227.000000
2094.232910 271.000000
2095.467773 265.000000
2096.702393 217.000000
2097.936035 224.000000
2099.168701 210.000000
2100.400635 189.000000
2101.632080 279.000000
2102.862549 167.000000
2104.092285 263.000000
2105.321777 204.000000
2106.549316 245.000000
2107.777100 230.000000
2109.004150 222.000000
2110.230225 206.000000
2111.454834 287.000000
2112.679688 298.000000
2113.903320 244.000000
2115.126465 245.000000
2116.348389 245.000000
2117.570068 290.000000
2118.790771 203.000000
2120.010742 289.000000
2121.230225 166.000000
2122.448242 237.000000
2123.666260 212.000000
2124.883301 269.000000
2126.099854 226.000000
2127.314697 179.000000
2128.529785 241.000000
2129.743896 220.000000
2130.957275 186.000000
2132.169922 172.000000
2133.381104 171.000000
2134.592529 273.000000
2135.802734 444.000000
2137.012451 180.000000
2138.220703 181.000000
2139.428955 286.000000
2140.636475 206.000000
2141.842773 384.000000
2143.048340 140.000000
2144.253662 218.000000
2145.458008 231.000000
2146.661621 277.000000
2147.864746 212.000000
2149.066406 232.000000
2150.267822 312.000000
2151.468506 126.000000
2152.668457 193.000000
2153.867188 184.000000
2155.065674 105.000000
2156.263672 169.000000
2157.460693 153.000000
2158.656982 142.000000
2159.852051 229.000000
2161.046875 335.000000
2162.240967 174.000000
2163.434082 182.000000
2164.626221 140.000000
2165.818115 246.000000
2167.009277 210.000000
2168.199463 139.000000
2169.388916 108.000000
2170.577881 172.000000
2171.765869 221.000000
2172.953613 120.000000
2174.139893 118.000000
2175.325439 180.000000
2176.510742 173.000000
2177.695557 202.000000
2178.879150 72.000000
2180.062012 157.000000
2181.243896 176.000000
2182.425537 167.000000
2183.606689 327.000000
2184.786621 173.000000
2185.965576 198.000000
2187.144043 192.000000
2188.322266 177.000000
2189.499268 183.000000
2190.675293 197.000000
2191.851074 299.000000
2193.026367 157.000000
2194.200195 211.000000
2195.373535 99.000000
2196.546631 261.000000
2197.718506 142.000000
2198.889893 143.000000
2200.060791 115.000000
2201.229980 253.000000
2202.399170 211.000000
2203.567871 181.000000
2204.735596 131.000000
2205.902344 230.000000
2207.068359 125.000000
2208.233887 253.000000
2209.399170 127.000000
2210.562988 177.000000
2211.726318 184.000000
2212.888428 254.000000
2214.050781 174.000000
2215.211914 194.000000
2216.372070 226.000000
2217.531738 93.000000
2218.691162 187.000000
2219.849365 79.000000
2221.006592 100.000000
2222.163574 96.000000
2223.319824 198.000000
2224.475342 205.000000
2225.630127 127.000000
2226.783936 116.000000
2227.936768 128.000000
2229.090088 180.000000
2230.241455 73.000000
2231.392578 141.000000
2232.542969 169.000000
2233.692871 104.000000
2234.841797 187.000000
2235.990234 110.000000
2237.137207 127.000000
2238.284424 82.000000
2239.430420 161.000000
2240.576172 53.000000
2241.720215 120.000000
2242.864502 125.000000
2244.007813 169.000000
2245.150391 182.000000
2246.291992 90.000000
2247.433350 192.000000
2248.573730 145.000000
2249.713379 110.000000
2250.852539 140.000000
2251.990479 157.000000
2253.128418 171.000000
2254.265381 175.000000
2255.401611 129.000000
2256.536865 145.000000
2257.671387 111.000000
2258.805664 134.000000
2259.939453 170.000000
2261.071777 130.000000
2262.203613 182.000000
2263.334961 175.000000
2264.465332 132.000000
2265.595459 197.000000
2266.724365 131.000000
2267.852783 151.000000
2268.980713 126.000000
2270.107666 155.000000
2271.233887 170.000000
2272.359131 137.000000
2273.484375 149.000000
2274.608887 128.000000
2275.732178 179.000000
2276.854736 88.000000
2277.976807 182.000000
2279.098389 135.000000
2280.219238 117.000000
2281.338867 91.000000
2282.458008 232.000000
2283.576904 128.000000
2284.695068 90.000000
2285.812256 199.000000
2286.928467 138.000000
2288.044434 256.000000
2289.159668 89.000000
2290.274170 104.000000
2291.387451 133.000000
2292.500732 99.000000
2293.613281 115.000000
2294.725098 202.000000
2295.836182 68.000000
2296.946045 127.000000
2298.055420 141.000000
2299.164551 134.000000
2300.272705 164.000000
2301.379883 96.000000
2302.486816 82.000000
2303.593018 185.000000
2304.698730 92.000000
2305.802979 112.000000
2306.906982 136.000000
2308.010498 145.000000
2309.113525 71.000000
2310.215332 128.000000
2311.316406 161.000000
2312.416992 157.000000
2313.517090 125.000000
2314.616455 157.000000
2315.714355 119.000000
2316.812744 154.000000
2317.909668 107.000000
2319.006348 98.000000
2320.102539 91.000000
2321.197021 126.000000
2322.291504 124.000000
2323.385254 111.000000
2324.478760 127.000000
2325.570557 161.000000
2326.662354 181.000000
2327.753418 217.000000
2328.843750 253.000000
2329.933105 189.000000
2331.022461 198.000000
2332.110596 297.000000
2333.198242 285.000000
2334.285645 162.000000
2335.371338 134.000000
2336.456787 32.000000
2337.541992 246.000000
2338.626221 61.000000
2339.709473 99.000000
2340.792480 133.000000
2341.874512 -176.000000
2342.956299 108.000000
2344.037354 117.000000
2345.117188 75.000000
2346.196533 70.000000
2347.275391 124.000000
2348.353760 175.000000
2349.430664 138.000000
2350.507324 73.000000
2351.583740 44.000000
2352.659180 135.000000
2353.733643 110.000000
2354.807861 77.000000
2355.881348 126.000000
2356.954346 85.000000
2358.026123 13.000000
2359.097656 59.000000
2360.168213 186.000000
2361.238525 111.000000
2362.307861 27.000000
2363.376221 146.000000
2364.444336 43.000000
2365.511719 28.000000
2366.578613 45.000000
2367.644775 42.000000
2368.709717 28.000000
2369.774658 13.000000
2370.838867 55.000000
2371.902344 45.000000
2372.964600 55.000000
2374.026855 69.000000
2375.088135 150.000000
2376.149170 69.000000
2377.208984 90.000000
2378.268066 94.000000
2379.327148 102.000000
2380.385254 32.000000
2381.442627 43.000000
2382.499023 64.000000
2383.555176 129.000000
2384.610840 84.000000
2385.665771 227.000000
2386.719238 69.000000
2387.772949 69.000000
2388.825684 90.000000
2389.877930 115.000000
2390.929443 122.000000
2391.979980 118.000000
2393.030273 82.000000
2394.079590 96.000000
2395.128906 34.000000
2396.176758 155.000000
2397.224121 103.000000
2398.271240 57.000000
2399.317383 168.000000
2400.362793 12.000000
2401.407471 83.000000
2402.452148 93.000000
2403.495361 82.000000
2404.538574 81.000000
2405.580322 59.000000
2406.622314 14.000000
2407.663574 122.000000
2408.703857 195.000000
2409.743408 135.000000
2410.781982 22.000000
2411.820801 256.000000
2412.858398 44.000000
2413.895752 69.000000
2414.931885 78.000000
2415.967773 77.000000
2417.002930 83.000000
2418.037598 84.000000
2419.070801 123.000000
2420.104248 111.000000
2421.136719 122.000000
2422.168945 82.000000
2423.199707 36.000000
2424.230469 15.000000
2425.260742 -10.000000
2426.289795 4.000000
2427.318848 36.000000
2428.346191 53.000000
2429.374023 106.000000
2430.400635 93.000000
2431.427002 76.000000
2432.451904 156.000000
2433.477051 51.000000
2434.501221 85.000000
2435.525146 121.000000
2436.547852 11.000000
2437.569824 41.000000
2438.591553 107.000000
2439.612549 6.000000
2440.633057 29.000000
2441.652344 98.000000
2442.671631 85.000000
2443.689941 59.000000
2444.708008 21.000000
2445.724609 62.000000
2446.741211 113.000000
2447.757080 97.000000
2448.772949 -46.000000
2449.787354 18.000000
2450.801025 -11.000000
2451.814209 110.000000
2452.827148 54.000000
2453.839355 144.000000
2454.850586 88.000000
2455.861572 107.000000
2456.871826 28.000000
2457.881592 -36.000000
2458.890381 32.000000
2459.898438 171.000000
2460.906494 67.000000
2461.913330 55.000000
2462.919922 40.000000
2463.925293 24.000000
2464.930420 37.000000
2465.935303 167.000000
2466.938965 -34.000000
2467.942383 44.000000
2468.944824 92.000000
2469.947021 19.000000
2470.948730 110.000000
2471.949463 101.000000
2472.949219 -8.000000
2473.948975 76.000000
2474.947754 7.000000
2475.946045 119.000000
2476.943359 134.000000
2477.940430 97.000000
2478.937500 35.000000
2479.933105 2.000000
2480.928711 70.000000
2481.922607 61.000000
2482.916504 122.000000
2483.909912 114.000000
2484.902832 112.000000
2485.894775 85.000000
2486.885986 25.000000
2487.876953 92.000000
2488.867432 -19.000000
2489.856934 4.000000
2490.845703 147.000000
2491.834473 91.000000
2492.822266 -12.000000
2493.808838 87.000000
2494.795410 -72.000000
2495.781494 -54.000000
2496.766846 30.000000
2497.751221 -4.000000
2498.735352 6.000000
2499.719482 69.000000
2500.702148 45.000000
2501.684326 -28.000000
2502.666016 -32.000000
2503.646973 92.000000
2504.627441 46.000000
2505.607666 26.000000
2506.586426 75.000000
2507.564941 0.000000
2508.542969 24.000000
2509.520508 -7.000000
2510.497070 33.000000
2511.473389 101.000000
2512.448975 73.000000
2513.424072 132.000000
2514.398682 33.000000
2515.372070 70.000000
2516.345215 107.000000
2517.318115 113.000000
2518.290039 9.000000
2519.261230 31.000000
2520.231934 103.000000
2521.202393 95.000000
2522.172119 61.000000
2523.140869 5.000000
2524.108887 42.000000
2525.076904 38.000000
2526.043945 159.000000
2527.010742 2.000000
2527.976318 90.000000
2528.941895 61.000000
2529.906738 52.000000
2530.871094 21.000000
2531.834229 109.000000
2532.797607 104.000000
2533.760010 14.000000
2534.722168 36.000000
2535.683105 145.000000
2536.643311 37.000000
2537.603760 8.000000
2538.563232 68.000000
2539.521973 51.000000
2540.479736 27.000000
2541.437744 57.000000
2542.395020 20.000000
2543.351318 60.000000
2544.307373 2.000000
2545.262207 93.000000
2546.217285 93.000000
2547.171631 27.000000
2548.125244 39.000000
2549.077881 1.000000
2550.030273 6.000000
2550.982178 29.000000
2551.933350 -5.000000
2552.883789 105.000000
2553.833740 153.000000
2554.783447 84.000000
2555.732422 90.000000
2556.680908 29.000000
2557.628174 -86.000000
2558.575439 58.000000
2559.521973 100.000000
2560.468018 -13.000000
2561.413086 82.000000
2562.357910 56.000000
2563.302246 24.000000
2564.246094 27.000000
2565.189453 33.000000
2566.131348 12.000000
2567.073486 75.000000
2568.014893 35.000000
2568.955566 -29.000000
2569.895508 38.000000
2570.835449 48.000000
2571.774414 78.000000
2572.713135 27.000000
2573.650879 126.000000
2574.588379 9.000000
2575.525146 56.000000
2576.461182 65.000000
2577.396729 54.000000
2578.331543 36.000000
2579.266357 101.000000
2580.200195 -15.000000
2581.133545 -114.000000
2582.066162 69.000000
2582.998535 -39.000000
2583.930176 91.000000
2584.861328 125.000000
2585.791992 101.000000
2586.721436 -17.000000
2587.650879 -22.000000
2588.579834 2.000000
2589.508545 -15.000000
2590.435547 81.000000
2591.362793 91.000000
2592.289551 -12.000000
2593.215576 -41.000000
2594.141357 47.000000
2595.065918 62.000000
2595.990234 98.000000
2596.914063 127.000000
2597.837402 15.000000
2598.759766 42.000000
2599.681885 44.000000
2600.603516 -45.000000
2601.524414 46.000000
2602.444580 23.000000
2603.364502 4.000000
2604.283936 12.000000
2605.203125 38.000000
2606.121338 -33.000000
2607.038330 -23.000000
2607.955566 19.000000
2608.872559 24.000000
2609.788574 44.000000
2610.703369 9.000000
2611.618652 -26.000000
2612.533203 -1.000000
2613.446777 8.000000
2614.360352 17.000000
2615.272705 -3.000000
2616.185059 -13.000000
2617.096436 82.000000
2618.007568 -25.000000
2618.917969 7.000000
2619.828125 117.000000
2620.737549 18.000000
2621.646484 -13.000000
2622.554443 -21.000000
2623.462646 63.000000
2624.369873 -59.000000
2625.276611 64.000000
2626.182617 49.000000
2627.088379 -13.000000
2627.993408 30.000000
2628.898193 38.000000
2629.802246 4.000000
2630.705322 101.000000
2631.608398 6.000000
2632.510498 -44.000000
2633.412598 152.000000
2634.314453 36.000000
2635.214600 31.000000
2636.114990 72.000000
2637.014648 15.000000
2637.914063 24.000000
2638.812012 47.000000
2639.710449 53.000000
2640.608398 37.000000
2641.505615 58.000000
2642.401611 20.000000
2643.297607 153.000000
2644.193359 27.000000
2645.088379 11.000000
2645.983154 56.000000
2646.876465 24.000000
2647.769775 19.000000
2648.662842 83.000000
2649.555664 5.000000
2650.446777 -19.000000
2651.338135 21.000000
2652.229004 23.000000
2653.119141 26.000000
2654.009033 -3.000000
2654.897705 43.000000
2655.786621 62.000000
2656.675049 11.000000
2657.562500 120.000000
2658.448975 18.000000
2659.335938 2.000000
2660.222168 -4.000000
2661.107910 -29.000000
2661.992432 -79.000000
2662.876953 59.000000
2663.761230 67.000000
2664.644775 -27.000000
2665.527832 2.000000
2666.410156 14.000000
2667.291992 18.000000
2668.173096 30.000000
2669.054443 42.000000
2669.934326 61.000000
2670.814453 43.000000
2671.693848 3.000000
2672.573242 -64.000000
2673.451904 32.000000
2674.328857 -38.000000
2675.206543 -6.000000
2676.083496 7.000000
2676.959717 -105.000000
2677.835449 64.000000
2678.710449 64.000000
2679.585693 19.000000
2680.459961 6.000000
2681.333740 -18.000000
2682.206787 129.000000
2683.079590 111.000000
2683.952148 85.000000
2684.823975 136.000000
2685.695068 96.000000
2686.565918 18.000000
2687.436279 -46.000000
2688.306396 -2.000000
2689.174805 28.000000
2690.043945 72.000000
2690.912354 12.000000
2691.780518 39.000000
2692.647949 35.000000
2693.514160 -11.000000
2694.380859 -41.000000
2695.246582 -35.000000
2696.112305 -39.000000
2696.976563 19.000000
2697.841553 -38.000000
2698.705078 -34.000000
2699.568848 79.000000
2700.431152 -114.000000
2701.293945 53.000000
2702.155762 31.000000
2703.017090 -120.000000
2703.878418 -110.000000
2704.738525 44.000000
2705.598633 -25.000000
2706.458252 50.000000
2707.317627 -40.000000
2708.175293 23.000000
2709.033203 -52.000000
2709.891602 18.000000
2710.748779 -55.000000
2711.605225 4.000000
2712.461182 38.000000
2713.317139 8.000000
2714.172363 97.000000
2715.026855 63.000000
2715.880859 -55.000000
2716.734863 80.000000
2717.587891 -16.000000
2718.441162 34.000000
2719.292725 -66.000000
2720.144775 -6.000000
2720.996582 -11.000000
2721.847168 -8.000000
2722.697754 53.000000
2723.547852 76.000000
2724.397217 44.000000
2725.246582 -3.000000
2726.094727 16.000000
2726.942383 21.000000
2727.790527 -9.000000
2728.637451 -12.000000
2729.484863 -66.000000
2730.330811 -31.000000
2731.176025 50.000000
2732.021729 55.000000
2732.866455 -21.000000
2733.711182 20.000000
2734.554688 49.000000
2735.398438 -40.000000
2736.241455 7.000000
2737.083984 14.000000
2737.925537 40.000000
2738.767578 -31.000000
2739.608643 128.000000
2740.449463 42.000000
2741.290039 57.000000
2742.129395 15.000000
2742.968750 -94.000000
2743.808105 -48.000000
2744.646240 41.000000
2745.483887 -58.000000
2746.321533 -3.000000
2747.158691 -5.000000
2747.995605 79.000000
2748.832031 18.000000
2749.667236 -35.000000
2750.502686 45.000000
2751.337646 15.000000
2752.171875 99.000000
2753.005859 28.000000
2753.839355 30.000000
2754.672852 11.000000
2755.505371 27.000000
2756.337402 -30.000000
2757.168945 8.000000
2758.000488 -17.000000
2758.831055 42.000000
2759.661865 9.000000
2760.491455 41.000000
2761.321045 -24.000000
2762.150391 -6.000000
2762.979004 -60.000000
2763.807129 -82.000000
2764.634766 162.000000
2765.462402 -53.000000
2766.289551 16.000000
2767.115967 65.000000
2767.941895 56.000000
2768.767334 93.000000
2769.592529 -41.000000
2770.417725 -31.000000
2771.241699 -34.000000
2772.065674 68.000000
2772.889648 18.000000
2773.712402 -86.000000
2774.535400 22.000000
2775.357178 -19.000000
2776.178955 -19.000000
2777.000732 20.000000
2777.821533 9.000000
2778.641602 24.000000
2779.461914 46.000000
2780.281738 22.000000
2781.101563 -89.000000
2781.919434 14.000000
2782.738525 -28.000000
2783.556396 -47.000000
2784.374023 -32.000000
2785.191162 2.000000
2786.007813 -20.000000
2786.824219 8.000000
2787.640137 5.000000
2788.455811 20.000000
2789.270508 77.000000
2790.085693 -64.000000
2790.900146 -93.000000
2791.714111 5.000000
2792.527832 24.000000
2793.340332 1.000000
2794.153076 19.000000
2794.965332 -78.000000
2795.777100 42.000000
2796.588135 -20.000000
2797.399902 54.000000
2798.210449 5.000000
2799.020996 76.000000
2799.830078 0.000000
2800.639893 81.000000
2801.448975 -117.000000
2802.257813 -22.000000
2803.066162 -15.000000
2803.873535 16.000000
2804.681396 74.000000
2805.488525 65.000000
2806.295410 100.000000
2807.101074 42.000000
2807.907227 -28.000000
2808.712646 76.000000
2809.518066 71.000000
2810.322754 -56.000000
2811.126465 97.000000
2811.930664 48.000000
2812.734375 -40.000000
2813.537842 -58.000000
2814.339844 77.000000
2815.142578 66.000000
2815.944580 -20.000000
2816.746338 7.000000
2817.547607 72.000000
2818.348389 -83.000000
2819.148682 -65.000000
2819.949219 -76.000000
2820.748779 114.000000
2821.547852 4.000000
2822.346924 18.000000
2823.145752 -39.000000
2823.944092 -4.000000
2824.741455 -124.000000
2825.539063 -96.000000
2826.335938 -8.000000
2827.133057 46.000000
2827.929443 -48.000000
2828.725098 24.000000
2829.520752 7.000000
2830.316162 -228.000000
2831.111084 41.000000
2831.905273 5.000000
2832.699463 -56.000000
2833.493408 45.000000
2834.286865 72.000000
2835.079590 42.000000
2835.872070 -55.000000
2836.664551 19.000000
2837.456787 -18.000000
2838.248535 32.000000
2839.039307 60.000000
2839.830078 2.000000
2840.621094 -54.000000
2841.411133 24.000000
2842.200684 32.000000
2842.990479 57.000000
2843.779297 -96.000000
2844.568115 68.000000
2845.356934 57.000000
2846.144775 28.000000
2846.932129 42.000000
2847.719727 5.000000
2848.506836 -24.000000
2849.293213 -25.000000
2850.079590 -33.000000
2850.865723 53.000000
2851.651367 -70.000000
2852.436035 37.000000
2853.221191 50.000000
2854.006104 -42.000000
2854.790283 -91.000000
2855.574463 -43.000000
2856.357422 13.000000
2857.140625 -57.000000
2857.923584 -51.000000
2858.706055 -87.000000
2859.488281 13.000000
2860.270020 -3.000000
2861.051514 -71.000000
2861.833252 -21.000000
2862.614258 -22.000000
2863.394531 99.000000
2864.174561 79.000000
2864.954590 -15.000000
2865.734375 7.000000
2866.513184 15.000000
2867.292236 -90.000000
2868.070801 83.000000
2868.849121 -26.000000
2869.626953 -89.000000
2870.404541 -26.000000
2871.181885 152.000000
2871.958984 -78.000000
2872.735596 0.000000
2873.511719 46.000000
2874.287842 27.000000
2875.063477 35.000000
2875.838867 37.000000
2876.613770 76.000000
2877.388428 16.000000
2878.163086 18.000000
2878.937500 -95.000000
2879.711182 -21.000000
2880.484131 89.000000
2881.257813 28.000000
2882.030518 75.000000
2882.803223 -22.000000
2883.575195 81.000000
2884.346924 126.000000
2885.119141 81.000000
2885.890137 26.000000
2886.660645 -16.000000
2887.431641 22.000000
2888.202637 -8.000000
2888.972900 73.000000
2889.742188 28.000000
2890.511719 -20.000000
2891.281250 47.000000
2892.050293 40.000000
2892.818848 94.000000
2893.587402 144.000000
2894.354980 -35.000000
2895.123047 -15.000000
2895.890625 84.000000
2896.658203 11.000000
2897.424561 -15.000000
2898.191895 41.000000
2898.958008 -50.000000
2899.724365 -28.000000
2900.489258 75.000000
2901.254639 91.000000
2902.020508 -38.000000
2902.784912 8.000000
2903.549316 -27.000000
2904.313965 -81.000000
2905.077637 66.000000
2905.842041 -9.000000
2906.605713 45.000000
2907.368652 42.000000
2908.131348 30.000000
2908.894531 165.000000
2909.657227 74.000000
2910.418701 -15.000000
2911.180664 -15.000000
spectrumdark 2048
-97.050125 6207.000000
-94.423256 6207.000000
-91.798264 6048.000000
-89.175163 6397.000000
-86.553932 5727.000000
-83.934601 6215.000000
-81.317131 6086.000000
-78.701538 6397.000000
-76.087822 6183.000000
-73.475983 5855.000000
-70.866005 6071.000000
-68.257912 5953.000000
-65.651665 5915.000000
-63.047295 5939.000000
-60.444786 6039.000000
-57.844131 5619.000000
-55.245338 6167.000000
-52.648403 6827.000000
-50.053322 6434.000000
-47.460094 6523.000000
-44.868717 6290.000000
-42.279186 6746.000000
-39.691498 5882.000000
-37.105659 6069.000000
-34.521664 6418.000000
-31.939505 5704.000000
-29.359192 6285.000000
-26.780706 5709.000000
-24.204063 6182.000000
-21.629246 6197.000000
-19.056269 6473.000000
-16.485111 6483.000000
-13.915788 6711.000000
-11.348289 7793.000000
-8.782610 6287.000000
-6.218756 6443.000000
-3.656716 6047.000000
-1.096500 5819.000000
1.461908 6215.000000
4.018496 6919.000000
6.573277 6619.000000
9.126243 5947.000000
11.677407 6739.000000
14.226759 6426.000000
16.774315 6715.000000
19.320059 5994.000000
21.864010 5751.000000
24.406157 6634.000000
26.946507 6776.000000
29.485071 6758.000000
32.021839 6125.000000
34.556805 5758.000000
37.089993 7276.000000
39.621399 6268.000000
42.151012 7096.000000
44.678829 6494.000000
47.204887 7836.000000
49.729156 5632.000000
52.251656 6132.000000
54.772358 6676.000000
57.291306 6256.000000
59.808479 6396.000000
62.323875 6644.000000
64.837494 5604.000000
67.349358 5692.000000
69.859474 6432.000000
72.367798 6544.000000
74.874367 5920.000000
77.379189 6341.000000
79.882256 6340.000000
82.383545 6285.000000
84.883095 6121.000000
87.380890 6357.000000
89.876953 5734.000000
92.371239 7208.000000
94.863785 5751.000000
97.354614 6899.000000
99.843674 7191.000000
102.330986 6396.000000
104.816574 6192.000000
107.300423 6386.000000
109.782524 5763.000000
112.262901 6547.000000
114.741554 6229.000000
117.218483 6404.000000
119.693657 7140.000000
122.167122 6810.000000
124.638855 5895.000000
127.108879 6599.000000
129.577148 6253.000000
132.043747 6264.000000
134.508591 5664.000000
136.971741 6118.000000
139.433151 7258.000000
141.892868 6975.000000
144.350861 6376.000000
146.807159 5992.000000
149.261749 5753.000000
151.714615 6793.000000
154.165802 6387.000000
156.615295 6573.000000
159.063065 6041.000000
161.509125 6579.000000
163.953506 8686.000000
166.396210 6378.000000
168.837219 6830.000000
171.276520 6190.000000
173.714111 7250.000000
176.150070 6596.000000
178.584290 6925.000000
181.016830 7157.000000
183.447723 6605.000000
185.876892 7093.000000
188.304413 6717.000000
190.730255 6291.000000
193.154419 6654.000000
195.576920 7142.000000
197.997726 7350.000000
200.416870 6543.000000
202.834351 5978.000000
205.250137 7633.000000
207.664276 7044.000000
210.076782 6288.000000
212.487610 6079.000000
214.896759 6244.000000
217.304276 7358.000000
219.710083 6129.000000
222.114304 6472.000000
224.516815 6675.000000
226.917709 6916.000000
229.316956 6433.000000
231.714539 6862.000000
234.110458 7225.000000
236.504761 6554.000000
238.897400 5820.000000
241.288422 6795.000000
243.677780 6584.000000
246.065521 6286.000000
248.451614 7025.000000
250.836075 6116.000000
253.218887 7895.000000
255.600128 6608.000000
257.979675 6633.000000
260.357605 6459.000000
262.733887 7509.000000
265.108643 7535.000000
267.481689 7804.000000
269.853149 6138.000000
272.222900 6419.000000
274.591125 5803.000000
276.957703 6347.000000
279.322693 6697.000000
281.686096 5956.000000
284.047791 6191.000000
286.407959 7082.000000
288.766479 5914.000000
291.123413 6462.000000
293.478699 6316.000000
295.832458 5919.000000
298.184509 5969.000000
300.535034 6324.000000
302.883972 6308.000000
305.231262 6808.000000
307.577026 6438.000000
309.921143 6451.000000
312.263672 7328.000000
314.604614 7613.000000
316.943970 7229.000000
319.281738 6936.000000
321.617920 8071.000000
323.952515 6289.000000
326.285522 6427.000000
328.616943 5994.000000
330.946838 6617.000000
333.275085 6339.000000
335.601746 7238.000000
337.926941 6379.000000
340.250488 6180.000000
342.572449 6010.000000
344.892883 7454.000000
347.211731 7641.000000
349.528992 5975.000000
351.844727 5837.000000
354.158875 6921.000000
356.471436 6309.000000
358.782410 6202.000000
361.091919 7062.000000
363.399841 6326.000000
365.706177 5663.000000
368.010925 6410.000000
370.314209 6425.000000
372.615906 6217.000000
374.916077 6324.000000
377.214661 6258.000000
379.511719 5989.000000
381.807251 6118.000000
384.101196 5838.000000
386.393616 5156.000000
388.684509 5580.000000
390.973877 6186.000000
393.261658 6237.000000
395.547913 6472.000000
397.832642 6961.000000
400.115784 6028.000000
402.397522 6389.000000
404.677673 6099.000000
406.956299 7248.000000
409.233337 6391.000000
411.508911 6673.000000
413.782898 6442.000000
416.055481 6354.000000
418.326477 6228.000000
420.595947 6519.000000
422.863892 7054.000000
425.130310 7189.000000
427.395264 6277.000000
429.658691 6312.000000
431.920593 6430.000000
434.180969 5904.000000
436.439819 6582.000000
438.697205 6087.000000
440.953125 5689.000000
443.207520 5761.000000
445.460388 5484.000000
447.711670 6872.000000
449.961609 6019.000000
452.209900 6279.000000
454.456787 5590.000000
456.702209 6512.000000
458.946106 6473.000000
461.188477 6770.000000
463.429321 5599.000000
465.668823 6729.000000
467.906677 5380.000000
470.143127 5890.000000
472.378052 6040.000000
474.611511 7311.000000
476.843567 6658.000000
479.074036 5673.000000
481.303040 6477.000000
483.530579 6324.000000
485.756653 5890.000000
487.981262 6532.000000
490.204407 5859.000000
492.426086 6359.000000
494.646179 6692.000000
496.864929 5693.000000
499.082153 6249.000000
501.297974 5527.000000
503.512207 6094.000000
505.725159 6457.000000
507.936462 6391.000000
510.146362 6891.000000
512.354858 6462.000000
514.561951 6553.000000
516.767456 6362.000000
518.971558 6582.000000
521.174133 6147.000000
523.375305 6461.000000
525.575134 6627.000000
527.773438 6900.000000
529.970215 5301.000000
532.165649 5766.000000
534.359558 5562.000000
536.552124 7559.000000
538.743164 6677.000000
540.932800 6019.000000
543.121033 6884.000000
545.307739 7097.000000
547.492981 6815.000000
549.676941 6203.000000
551.859314 6387.000000
554.040344 6189.000000
556.219849 6015.000000
558.398071 5878.000000
560.574768 5923.000000
562.750061 6395.000000
564.923950 6398.000000
567.096375 5882.000000
569.267395 6009.000000
571.436951 6291.000000
573.605225 5311.000000
575.771973 6377.000000
577.937256 6261.000000
580.101135 6087.000000
582.263733 5734.000000
584.424805 6015.000000
586.584473 5622.000000
588.742798 5747.000000
590.899597 6083.000000
593.055054 6588.000000
595.209106 5743.000000
597.361816 6112.000000
599.513000 7214.000000
601.662842 6731.000000
603.811340 6716.000000
605.958252 6022.000000
608.103943 6449.000000
610.248230 6420.000000
612.391052 6979.000000
614.532410 6073.000000
616.672546 6416.000000
618.811157 7642.000000
620.948486 5696.000000
623.084351 6554.000000
625.218811 6894.000000
627.351807 7172.000000
629.483643 6632.000000
631.614014 6556.000000
633.742981 6740.000000
635.870483 6465.000000
637.996704 6156.000000
640.121399 7253.000000
642.244873 6429.000000
644.367004 6784.000000
646.487671 6846.000000
648.606995 6553.000000
650.724915 5619.000000
652.841492 5651.000000
654.956665 6389.000000
657.070496 6432.000000
659.182861 5750.000000
661.294006 6099.000000
663.403748 5403.000000
665.512024 6090.000000
667.619141 6229.000000
669.724792 6748.000000
671.828979 5931.000000
673.931946 5746.000000
676.033508 6949.000000
678.133728 5282.000000
680.232544 6805.000000
682.330017 6274.000000
684.426208 6957.000000
686.520935 6218.000000
688.614441 7048.000000
690.706604 6562.000000
692.797241 7924.000000
694.886658 6614.000000
696.974792 6381.000000
699.061462 5953.000000
701.146912 6664.000000
703.230835 5109.000000
705.313538 5953.000000
707.394958 5934.000000
709.474915 7558.000000
711.553650 6128.000000
713.630920 5550.000000
715.706909 6590.000000
717.781616 5993.000000
719.855042 7008.000000
721.926941 6285.000000
723.997681 7289.000000
726.067078 5817.000000
728.135071 6439.000000
730.201721 6212.000000
732.267151 7051.000000
734.331238 5766.000000
736.393982 6090.000000
738.455383 6418.000000
740.515503 6553.000000
742.574219 5979.000000
744.631714 6625.000000
746.687927 6508.000000
748.742737 6669.000000
750.796265 6387.000000
752.848389 7487.000000
754.899292 5799.000000
756.948975 6653.000000
758.997192 6310.000000
761.044189 6170.000000
763.089905 7130.000000
765.134216 5315.000000
767.177246 5791.000000
769.219055 14972.000000
771.259521 6868.000000
773.298584 6325.000000
775.336487 6038.000000
777.373047 5966.000000
779.408386 5309.000000
781.442383 5797.000000
783.474976 6886.000000
785.506409 5544.000000
787.536438 11660.000000
789.565186 5967.000000
791.592773 6326.000000
793.619019 6316.000000
795.643860 5801.000000
797.667603 5481.000000
799.689941 6322.000000
801.711060 5865.000000
803.730835 6645.000000
805.749329 4894.000000
807.766602 6687.000000
809.782471 6856.000000
811.797180 5679.000000
813.810547 6410.000000
815.822693 6296.000000
817.833618 6055.000000
819.843201 6525.000000
821.851563 5307.000000
823.858521 5653.000000
825.864258 6044.000000
827.868774 5722.000000
829.872009 5595.000000
831.873962 6454.000000
833.874634 6047.000000
835.874084 5984.000000
837.872192 6277.000000
839.869202 6939.000000
841.864807 6229.000000
843.859253 6018.000000
845.852356 6141.000000
847.844238 6859.000000
849.834778 5575.000000
851.824036 6703.000000
853.812256 6009.000000
855.799072 5742.000000
857.784668 6407.000000
859.768982 7282.000000
861.752197 6294.000000
863.734009 6378.000000
865.714600 5757.000000
867.693909 7722.000000
869.672058 7036.000000
871.648865 6101.000000
873.624390 5940.000000
875.598877 6139.000000
877.571899 5996.000000
879.543884 5376.000000
881.514526 6398.000000
883.484009 6040.000000
885.452148 5567.000000
887.419128 5152.000000
889.384766 6108.000000
891.349243 5789.000000
893.312500 5977.000000
895.274536 6422.000000
897.235291 5765.000000
899.194824 6417.000000
901.153076 6630.000000
903.110229 6355.000000
905.066223 6040.000000
907.020813 6910.000000
908.974182 6518.000000
910.926392 6445.000000
912.877380 6243.000000
914.827087 7136.000000
916.775635 6296.000000
918.722961 6140.000000
920.669006 6050.000000
922.613770 6059.000000
924.557495 6308.000000
926.500061 5961.000000
928.441345 5504.000000
930.381287 6453.000000
932.320129 5678.000000
934.257690 5464.000000
936.194031 5906.000000
938.129211 5869.000000
940.063110 6090.000000
941.995911 5916.000000
943.927490 6776.000000
945.857910 5160.000000
947.787109 6374.000000
949.714966 7013.000000
951.641785 6652.000000
953.567322 5989.000000
955.491577 5364.000000
957.414734 5917.000000
959.336731 6675.000000
961.257446 7292.000000
963.177002 6478.000000
965.095398 5292.000000
967.012756 6359.000000
968.928650 6439.000000
970.843445 6108.000000
972.757019 5952.000000
974.669434 6345.000000
976.580627 6431.000000
978.490662 5414.000000
980.399414 6208.000000
982.307129 6060.000000
984.213623 6335.000000
986.118896 5694.000000
988.023071 6753.000000
989.926025 6184.000000
991.827759 6741.000000
993.728333 6542.000000
995.627747 6545.000000
997.525940 5279.000000
999.422974 6509.000000
1001.318787 6515.000000
1003.213440 7696.000000
1005.106995 5623.000000
1006.999268 7143.000000
1008.890625 6099.000000
1010.780640 5350.000000
1012.669434 6644.000000
1014.557068 6295.000000
1016.443542 6882.000000
1018.328857 6759.000000
1020.213013 5924.000000
1022.095947 5820.000000
1023.977844 6155.000000
1025.858398 5165.000000
1027.737915 5815.000000
1029.616455 6060.000000
1031.493652 5433.000000
1033.369507 6186.000000
1035.244385 5930.000000
1037.118286 6562.000000
1038.990723 6964.000000
1040.862183 6691.000000
1042.732300 5456.000000
1044.601440 5484.000000
1046.469360 5805.000000
1048.336182 7128.000000
1050.201904 6731.000000
1052.066406 6421.000000
1053.929810 6424.000000
1055.791870 6431.000000
1057.652954 5844.000000
1059.512939 6491.000000
1061.371582 6643.000000
1063.229126 5793.000000
1065.085571 6699.000000
1066.940918 5936.000000
1068.795044 5762.000000
1070.648315 6263.000000
1072.500122 6350.000000
1074.350952 6102.000000
1076.200562 6148.000000
1078.048950 5704.000000
1079.896484 7927.000000
1081.742676 5577.000000
1083.587646 6273.000000
1085.431763 5416.000000
1087.274536 5513.000000
1089.116089 6494.000000
1090.956909 5503.000000
1092.796143 5683.000000
1094.634644 6053.000000
1096.471802 5939.000000
1098.307739 6789.000000
1100.142700 6570.000000
1101.976440 5367.000000
1103.809204 5726.000000
1105.640625 6166.000000
1107.471191 7251.000000
1109.300415 6464.000000
1111.128662 6362.000000
1112.955688 7112.000000
1114.781738 5361.000000
1116.606567 6330.000000
1118.430298 7165.000000
1120.252808 6076.000000
1122.074219 5869.000000
1123.894775 5894.000000
1125.713867 6524.000000
1127.532104 7067.000000
1129.348999 6752.000000
1131.165039 6675.000000
1132.979858 6509.000000
1134.793579 5565.000000
1136.606201 5815.000000
1138.417603 5657.000000
1140.228027 6151.000000
1142.037354 6703.000000
1143.845337 6963.000000
1145.652588 5942.000000
1147.458374 5899.000000
1149.263306 5326.000000
1151.067139 5467.000000
1152.869751 6095.000000
1154.671509 6153.000000
1156.471802 6006.000000
1158.271118 6128.000000
1160.069458 5819.000000
1161.866455 5427.000000
1163.662720 5862.000000
1165.457642 6052.000000
1167.251465 6353.000000
1169.044434 7731.000000
1170.836060 5651.000000
1172.626709 6477.000000
1174.416382 5972.000000
1176.204590 5835.000000
1177.991943 7471.000000
1179.778198 6882.000000
1181.563354 5735.000000
1183.347412 5953.000000
1185.130371 7706.000000
1186.912354 5887.000000
1188.693115 5893.000000
1190.472900 6323.000000
1192.251587 6911.000000
1194.029297 6692.000000
1195.805786 7147.000000
1197.581177 6531.000000
1199.355469 6502.000000
1201.128662 6650.000000
1202.901001 6540.000000
1204.671997 6686.000000
1206.442139 5674.000000
1208.211060 6097.000000
1209.978882 6253.000000
1211.745850 5800.000000
1213.511475 5877.000000
1215.276123 6973.000000
1217.039673 6514.000000
1218.802124 5958.000000
1220.563721 6701.000000
1222.324097 5862.000000
1224.083374 6299.000000
1225.841797 6089.000000
1227.598999 7012.000000
1229.355103 6362.000000
1231.110107 5501.000000
1232.864258 5990.000000
1234.617065 5778.000000
1236.368896 5937.000000
1238.119873 5957.000000
1239.869507 4890.000000
1241.618286 6945.000000
1243.365723 6476.000000
1245.112427 6579.000000
1246.857910 6494.000000
1248.602539 6413.000000
1250.345825 6686.000000
1252.088135 6644.000000
1253.829346 5359.000000
1255.569702 5053.000000
1257.308960 5790.000000
1259.046997 6537.000000
1260.784180 7100.000000
1262.520142 6075.000000
1264.255127 6443.000000
1265.989136 7357.000000
1267.722168 5911.000000
1269.453979 6185.000000
1271.184814 6434.000000
1272.914429 7226.000000
1274.643188 5935.000000
1276.370850 5671.000000
1278.097412 5507.000000
1279.823120 5509.000000
1281.547485 6433.000000
1283.270996 5174.000000
1284.993530 6859.000000
1286.715088 6618.000000
1288.435425 6174.000000
1290.154785 6666.000000
1291.873047 7232.000000
1293.590332 6423.000000
1295.306641 5781.000000
1297.021729 6356.000000
1298.735840 6201.000000
1300.448975 5832.000000
1302.161255 6402.000000
1303.872314 8318.000000
1305.582397 5240.000000
1307.291382 6270.000000
1308.999146 6676.000000
1310.706299 7024.000000
1312.411987 5748.000000
1314.116943 6809.000000
1315.820923 6133.000000
1317.523682 5980.000000
1319.225464 6549.000000
1320.926392 5993.000000
1322.625977 9150.000000
1324.324707 30843.000000
1326.022705 5528.000000
1327.719360 6462.000000
1329.414917 7122.000000
1331.109619 6793.000000
1332.803101 5755.000000
1334.495728 5373.000000
1336.187500 7385.000000
1337.877930 6289.000000
1339.567627 6594.000000
1341.256226 6131.000000
1342.943726 7566.000000
1344.630249 5607.000000
1346.315674 6742.000000
1348.000122 5905.000000
1349.683716 7234.000000
1351.366089 6361.000000
1353.047485 5918.000000
1354.728027 6529.000000
1356.407349 6667.000000
1358.086060 5876.000000
1359.763428 6586.000000
1361.439697 5729.000000
1363.114990 5578.000000
1364.789551 6563.000000
1366.462891 6445.000000
1368.135254 6753.000000
1369.806641 5134.000000
1371.477051 6776.000000
1373.146362 6083.000000
1374.814697 5670.000000
1376.482178 5942.000000
1378.148560 6445.000000
1379.813965 6112.000000
1381.478394 5819.000000
1383.141602 5957.000000
1384.804199 5673.000000
1386.465454 6339.000000
1388.125854 6572.000000
1389.785156 6403.000000
1391.443481 6470.000000
1393.101074 6838.000000
1394.757446 6410.000000
1396.412964 6996.000000
1398.067261 6350.000000
1399.720703 5825.000000
1401.373047 6113.000000
1403.024658 6452.000000
1404.675049 7200.000000
1406.324341 6225.000000
1407.972900 7486.000000
1409.620361 7842.000000
1411.266846 6132.000000
1412.912476 6209.000000
1414.557129 5986.000000
1416.200562 7013.000000
1417.843140 7140.000000
1419.484619 6808.000000
1421.125244 6454.000000
1422.764893 6452.000000
1424.403442 6002.000000
1426.041138 6544.000000
1427.677734 6272.000000
1429.313354 6001.000000
1430.948242 6420.000000
1432.582031 5889.000000
1434.214722 6156.000000
1435.846436 5657.000000
1437.477295 6138.000000
1439.107056 6041.000000
1440.735718 7703.000000
1442.363770 6008.000000
1443.990723 6186.000000
1445.616455 6168.000000
1447.241577 6122.000000
1448.865601 6519.000000
1450.488647 6033.000000
1452.110718 6001.000000
1453.731689 7385.000000
1455.351685 6304.000000
1456.970947 6855.000000
1458.588867 5666.000000
1460.206177 16535.000000
1461.822510 5518.000000
1463.437622 7189.000000
1465.051880 6370.000000
1466.665283 5197.000000
1468.277588 5578.000000
1469.889038 6268.000000
1471.499634 6410.000000
1473.109009 6024.000000
1474.717407 5995.000000
1476.324951 6132.000000
1477.931519 6741.000000
1479.537354 5333.000000
1481.141968 6316.000000
1482.745728 5502.000000
1484.348267 6660.000000
1485.950195 5515.000000
1487.550903 5439.000000
1489.150879 5636.000000
1490.749756 6277.000000
1492.347778 6493.000000
1493.944702 6594.000000
1495.540771 6354.000000
1497.135864 6005.000000
1498.729980 5491.000000
1500.323364 6598.000000
1501.915649 5472.000000
1503.506714 6177.000000
1505.097290 6687.000000
1506.686523 6438.000000
1508.275146 6076.000000
1509.862671 6568.000000
1511.449097 6871.000000
1513.034790 6183.000000
1514.619385 6624.000000
1516.203125 6276.000000
1517.785767 6197.000000
1519.367676 6542.000000
1520.948486 6663.000000
1522.528564 6068.000000
1524.107422 6229.000000
1525.685425 6335.000000
1527.262695 6288.000000
1528.838745 5618.000000
1530.414063 5841.000000
1531.988281 6330.000000
1533.561768 5487.000000
1535.134033 5848.000000
1536.705566 6384.000000
1538.276123 6399.000000
1539.845825 6297.000000
1541.414307 5435.000000
1542.982056 6529.000000
1544.548950 5641.000000
1546.114624 6802.000000
1547.679565 5986.000000
1549.243408 5026.000000
1550.806641 7466.000000
1552.368530 6262.000000
1553.929810 5937.000000
1555.489990 5677.000000
1557.049438 5724.000000
1558.607788 5872.000000
1560.165405 6201.000000
1561.721924 7063.000000
1563.277222 5894.000000
1564.831909 6353.000000
1566.385864 5620.000000
1567.938843 6319.000000
1569.490479 5651.000000
1571.041382 5881.000000
1572.591553 6207.000000
1574.140747 6360.000000
1575.688599 5758.000000
1577.235962 5503.000000
1578.782349 5670.000000
1580.327881 5070.000000
1581.872437 6605.000000
1583.415771 6400.000000
1584.958496 6615.000000
1586.500366 6384.000000
1588.041138 6669.000000
1589.580933 5818.000000
1591.119995 6669.000000
1592.657959 5891.000000
1594.195435 6100.000000
1595.731567 5902.000000
1597.266602 6668.000000
1598.801147 6246.000000
1600.334717 5954.000000
1601.867432 5941.000000
1603.398560 6312.000000
1604.929443 6297.000000
1606.459473 5697.000000
1607.988281 6152.000000
1609.515991 6127.000000
1611.043091 5901.000000
1612.569458 5867.000000
1614.094849 6194.000000
1615.619385 5809.000000
1617.142578 5758.000000
1618.665039 5591.000000
1620.186768 6543.000000
1621.707642 6885.000000
1623.227051 15519.000000
1624.745972 6264.000000
1626.264160 6047.000000
1627.781494 5914.000000
1629.297729 6354.000000
1630.812622 6979.000000
1632.327026 6721.000000
1633.840698 5743.000000
1635.353271 6884.000000
1636.864624 5964.000000
1638.375610 6418.000000
1639.885498 6226.000000
1641.394531 6163.000000
1642.902222 5604.000000
1644.409546 6100.000000
1645.916016 7116.000000
1647.421509 6272.000000
1648.926147 6834.000000
1650.429321 6096.000000
1651.931885 6601.000000
1653.434082 6336.000000
1654.934937 6669.000000
1656.434692 7549.000000
1657.933594 5944.000000
1659.432129 6467.000000
1660.929443 6261.000000
1662.426025 5851.000000
1663.921021 6475.000000
1665.415771 6300.000000
1666.909668 5130.000000
1668.402588 5603.000000
1669.894165 20914.000000
1671.385254 6446.000000
1672.875732 6032.000000
1674.365112 5937.000000
1675.853027 6915.000000
1677.340698 6889.000000
1678.827393 6049.000000
1680.313232 5332.000000
1681.798218 6082.000000
1683.281738 6082.000000
1684.765015 6199.000000
1686.247437 5827.000000
1687.728760 6225.000000
1689.208618 6205.000000
1690.688232 5572.000000
1692.167114 6515.000000
1693.645020 5971.000000
1695.121948 6127.000000
1696.597656 5751.000000
1698.072998 6025.000000
1699.547119 6223.000000
1701.020630 5531.000000
1702.492676 5546.000000
1703.964478 6830.000000
1705.435303 6403.000000
1706.905273 7095.000000
1708.373901 5135.000000
1709.842041 5788.000000
1711.309448 6333.000000
1712.775757 5467.000000
1714.241455 5778.000000
1715.705444 6211.000000
1717.169312 6016.000000
1718.632324 6999.000000
1720.094360 6358.000000
1721.555176 6604.000000
1723.015381 5495.000000
1724.474854 6392.000000
1725.933472 6122.000000
1727.391113 5980.000000
1728.847412 6268.000000
1730.303467 6106.000000
1731.758545 6484.000000
1733.212646 6060.000000
1734.665527 6872.000000
1736.118164 5912.000000
1737.569702 6876.000000
1739.020508 6005.000000
1740.470337 6557.000000
1741.918823 5916.000000
1743.366943 7309.000000
1744.814209 6605.000000
1746.260742 6671.000000
1747.705688 6759.000000
1749.150391 6133.000000
1750.594238 5890.000000
1752.037231 5639.000000
1753.478760 6470.000000
1754.920044 6346.000000
1756.360474 19518.000000
1757.799927 6237.000000
1759.238403 5238.000000
1760.675903 6117.000000
1762.112915 7484.000000
1763.548950 5869.000000
1764.984131 7134.000000
1766.417847 6197.000000
1767.851440 6434.000000
1769.284058 6617.000000
1770.715820 5730.000000
1772.146729 5693.000000
1773.576416 6382.000000
1775.005371 6116.000000
1776.433838 6267.000000
1777.861328 6689.000000
1779.287476 6270.000000
1780.713379 5569.000000
1782.138184 6865.000000
1783.562378 5566.000000
1784.985107 6651.000000
1786.407349 6548.000000
1787.828857 6874.000000
1789.249634 5934.000000
1790.669434 6005.000000
1792.087891 6159.000000
1793.505859 6852.000000
1794.923218 5504.000000
1796.339722 6073.000000
1797.754761 6591.000000
1799.169434 5838.000000
1800.583496 6540.000000
1801.996338 6025.000000
1803.408569 6991.000000
1804.819458 7166.000000
1806.229858 7744.000000
1807.639526 6413.000000
1809.048218 5971.000000
1810.455811 5347.000000
1811.862915 6361.000000
1813.269165 6381.000000
1814.674438 6730.000000
1816.078613 5991.000000
1817.482422 5923.000000
1818.885254 6215.000000
1820.287231 5955.000000
1821.688599 5916.000000
1823.088501 6338.000000
1824.487793 6474.000000
1825.886597 6578.000000
1827.284546 7422.000000
1828.681152 5693.000000
1830.077148 6737.000000
1831.472412 5940.000000
1832.867065 8081.000000
1834.260742 5956.000000
1835.653076 6835.000000
1837.044922 6395.000000
1838.436157 5840.000000
1839.826416 7082.000000
1841.215454 5956.000000
1842.604126 6054.000000
1843.991821 6014.000000
1845.378784 5804.000000
1846.764404 6928.000000
1848.149780 5824.000000
1849.534302 6369.000000
1850.918091 6332.000000
1852.300781 6392.000000
1853.682251 5309.000000
1855.063232 6440.000000
1856.443726 6295.000000
1857.823242 5692.000000
1859.201294 5961.000000
1860.579224 6242.000000
1861.956177 7897.000000
1863.332397 6091.000000
1864.707764 6068.000000
1866.081665 5570.000000
1867.455444 5705.000000
1868.828369 6143.000000
1870.200195 6014.000000
1871.571045 6893.000000
1872.941528 5448.000000
1874.310913 6071.000000
1875.679810 5986.000000
1877.047119 7153.000000
1878.414307 6026.000000
1879.780518 6033.000000
1881.145996 6742.000000
1882.510742 7477.000000
1883.873901 6719.000000
1885.236938 6861.000000
1886.599121 6266.000000
1887.960449 6461.000000
1889.320435 5622.000000
1890.680054 5766.000000
1892.039063 6170.000000
1893.397095 6664.000000
1894.754272 7191.000000
1896.110229 5980.000000
1897.465942 7588.000000
1898.820679 5832.000000
1900.174561 5545.000000
1901.527344 5938.000000
1902.879639 5836.000000
1904.231201 5956.000000
1905.581909 6884.000000
1906.931396 6487.000000
1908.280396 6652.000000
1909.628540 5753.000000
1910.976074 6089.000000
1912.322876 6297.000000
1913.668091 6811.000000
1915.013062 6068.000000
1916.357300 5403.000000
1917.700684 6503.000000
1919.042725 5946.000000
1920.384521 6714.000000
1921.725464 6949.000000
1923.065674 6175.000000
1924.404907 6275.000000
1925.743164 6356.000000
1927.080811 6480.000000
1928.417725 6975.000000
1929.753784 6743.000000
1931.088623 5555.000000
1932.423096 6632.000000
1933.756836 7217.000000
1935.089722 6210.000000
1936.421143 5731.000000
1937.752686 6310.000000
1939.082886 6613.000000
1940.412598 5807.000000
1941.741455 6037.000000
1943.069092 5787.000000
1944.396240 5001.000000
1945.722656 5791.000000
1947.048340 6491.000000
1948.372681 5806.000000
1949.696777 6719.000000
1951.020020 6311.000000
1952.342529 6443.000000
1953.663940 5782.000000
1954.984375 7361.000000
1956.304199 5979.000000
1957.623657 5530.000000
1958.942139 6858.000000
1960.259277 5928.000000
1961.576050 5766.000000
1962.892090 6582.000000
1964.207397 6536.000000
1965.521240 6265.000000
1966.834839 5628.000000
1968.147705 6249.000000
1969.459717 6033.000000
1970.771118 6021.000000
1972.081177 6223.000000
1973.390747 5849.000000
1974.699585 6123.000000
1976.007813 6627.000000
1977.314697 6107.000000
1978.620972 7135.000000
1979.926880 5579.000000
1981.231567 6394.000000
1982.535767 5903.000000
1983.838745 5711.000000
1985.141357 7570.000000
1986.442993 6126.000000
1987.744019 6697.000000
1989.043457 6070.000000
1990.343018 6631.000000
1991.641479 5304.000000
1992.939453 6113.000000
1994.235840 6042.000000
1995.532227 5785.000000
1996.827637 5618.000000
1998.122314 6484.000000
1999.416138 5694.000000
2000.708740 6512.000000
2002.000854 5778.000000
2003.292480 7112.000000
2004.583374 6420.000000
2005.872681 6312.000000
2007.161743 6852.000000
2008.450073 5960.000000
2009.737671 5948.000000
2011.024414 6620.000000
2012.310059 5644.000000
2013.595337 6361.000000
2014.879639 5952.000000
2016.163330 5552.000000
2017.445679 6068.000000
2018.727661 6421.000000
2020.009155 6774.000000
2021.289673 5905.000000
2022.569458 6109.000000
2023.848145 6733.000000
2025.126099 5871.000000
2026.403564 5896.000000
2027.680420 6235.000000
2028.955566 5774.000000
2030.230835 6531.000000
2031.505127 6030.000000
2032.778442 5929.000000
2034.050903 5946.000000
2035.322998 6141.000000
2036.593994 6930.000000
2037.864746 6561.000000
2039.134155 5910.000000
2040.402466 6945.000000
2041.670776 6606.000000
2042.938110 5913.000000
2044.204712 5998.000000
2045.470093 5712.000000
2046.734863 5422.000000
2047.999390 5421.000000
2049.262695 5871.000000
2050.525635 6336.000000
2051.786621 6124.000000
2053.048096 6097.000000
2054.308350 5846.000000
2055.567871 6418.000000
2056.826660 6213.000000
2058.084473 6885.000000
2059.341797 6170.000000
2060.598389 5944.000000
2061.853516 6505.000000
2063.108643 5663.000000
2064.362793 5582.000000
2065.616211 5664.000000
2066.868896 6865.000000
2068.120361 6263.000000
2069.371582 6270.000000
2070.622070 5616.000000
2071.871826 5393.000000
2073.120117 6455.000000
2074.368408 6478.000000
2075.615723 7384.000000
2076.862305 5584.000000
2078.108154 6059.000000
2079.352783 6938.000000
2080.596924 7624.000000
2081.840576 5472.000000
2083.083252 6005.000000
2084.324707 6938.000000
2085.565918 5945.000000
2086.806641 6356.000000
2088.046387 6736.000000
2089.284912 7055.000000
2090.522949 6161.000000
2091.760254 5755.000000
2092.997314 6665.000000
2094.232910 6069.000000
2095.467773 6174.000000
2096.702393 6094.000000
2097.936035 5627.000000
2099.168701 6054.000000
2100.400635 6879.000000
2101.632080 6288.000000
2102.862549 6768.000000
2104.092285 6019.000000
2105.321777 5989.000000
2106.549316 5987.000000
2107.777100 5984.000000
2109.004150 6281.000000
2110.230225 5458.000000
2111.454834 6371.000000
2112.679688 6862.000000
2113.903320 7032.000000
2115.126465 6222.000000
2116.348389 7528.000000
2117.570068 5939.000000
2118.790771 6797.000000
2120.010742 6004.000000
2121.230225 6117.000000
2122.448242 6577.000000
2123.666260 7026.000000
2124.883301 5743.000000
2126.099854 5772.000000
2127.314697 6563.000000
2128.529785 6347.000000
2129.743896 6761.000000
2130.957275 5659.000000
2132.169922 6132.000000
2133.381104 5842.000000
2134.592529 6515.000000
2135.802734 6574.000000
2137.012451 5942.000000
2138.220703 6128.000000
2139.428955 5592.000000
2140.636475 5883.000000
2141.842773 7480.000000
2143.048340 5925.000000
2144.253662 5696.000000
2145.458008 5513.000000
2146.661621 6230.000000
2147.864746 6140.000000
2149.066406 6415.000000
2150.267822 5265.000000
2151.468506 6306.000000
2152.668457 6049.000000
2153.867188 5960.000000
2155.065674 6994.000000
2156.263672 6206.000000
2157.460693 6004.000000
2158.656982 5194.000000
2159.852051 5264.000000
2161.046875 6020.000000
2162.240967 5597.000000
2163.434082 6041.000000
2164.626221 6864.000000
2165.818115 5852.000000
2167.009277 6308.000000
2168.199463 6323.000000
2169.388916 6523.000000
2170.577881 6772.000000
2171.765869 5948.000000
2172.953613 5733.000000
2174.139893 5931.000000
2175.325439 6546.000000
2176.510742 6012.000000
2177.695557 5812.000000
2178.879150 6426.000000
2180.062012 7510.000000
2181.243896 6297.000000
2182.425537 5924.000000
2183.606689 6513.000000
2184.786621 5692.000000
2185.965576 5513.000000
2187.144043 6334.000000
2188.322266 6877.000000
2189.499268 7190.000000
2190.675293 6713.000000
2191.851074 6019.000000
2193.026367 5576.000000
2194.200195 6698.000000
2195.373535 6228.000000
2196.546631 6047.000000
2197.718506 6410.000000
2198.889893 7056.000000
2200.060791 6300.000000
2201.229980 6873.000000
2202.399170 7554.000000
2203.567871 6244.000000
2204.735596 5920.000000
2205.902344 5649.000000
2207.068359 7175.000000
2208.233887 6673.000000
2209.399170 5956.000000
2210.562988 6705.000000
2211.726318 5406.000000
2212.888428 6122.000000
2214.050781 6150.000000
2215.211914 6612.000000
2216.372070 6591.000000
2217.531738 6284.000000
2218.691162 6581.000000
2219.849365 6413.000000
2221.006592 6376.000000
2222.163574 6758.000000
2223.319824 6576.000000
2224.475342 6703.000000
2225.630127 6286.000000
2226.783936 6417.000000
2227.936768 6180.000000
2229.090088 6849.000000
2230.241455 6251.000000
2231.392578 6177.000000
2232.542969 6514.000000
2233.692871 7728.000000
2234.841797 6255.000000
2235.990234 5222.000000
2237.137207 6806.000000
2238.284424 7060.000000
2239.430420 6100.000000
2240.576172 7271.000000
2241.720215 7337.000000
2242.864502 6693.000000
2244.007813 6116.000000
2245.150391 5961.000000
2246.291992 5802.000000
2247.433350 5774.000000
2248.573730 6375.000000
2249.713379 6397.000000
2250.852539 5859.000000
2251.990479 5812.000000
2253.128418 6125.000000
2254.265381 5274.000000
2255.401611 6330.000000
2256.536865 6134.000000
2257.671387 7284.000000
2258.805664 6382.000000
2259.939453 5388.000000
2261.071777 6093.000000
2262.203613 6761.000000
2263.334961 6240.000000
2264.465332 6408.000000
2265.595459 8020.000000
2266.724365 6707.000000
2267.852783 6063.000000
2268.980713 5564.000000
2270.107666 6057.000000
2271.233887 5937.000000
2272.359131 6699.000000
2273.484375 6515.000000
2274.608887 6404.000000
2275.732178 5866.000000
2276.854736 6371.000000
2277.976807 5898.000000
2279.098389 7406.000000
2280.219238 6392.000000
2281.338867 6452.000000
2282.458008 7047.000000
2283.576904 7685.000000
2284.695068 7201.000000
2285.812256 5796.000000
2286.928467 6456.000000
2288.044434 6966.000000
2289.159668 6862.000000
2290.274170 7402.000000
2291.387451 5753.000000
2292.500732 6381.000000
2293.613281 5989.000000
2294.725098 5405.000000
2295.836182 6793.000000
2296.946045 6414.000000
2298.055420 6159.000000
2299.164551 6639.000000
2300.272705 6274.000000
2301.379883 6775.000000
2302.486816 5892.000000
2303.593018 6211.000000
2304.698730 6571.000000
2305.802979 6625.000000
2306.906982 5466.000000
2308.010498 5716.000000
2309.113525 6558.000000
2310.215332 7386.000000
2311.316406 7354.000000
2312.416992 6524.000000
2313.517090 5489.000000
2314.616455 6321.000000
2315.714355 6465.000000
2316.812744 6972.000000
2317.909668 8200.000000
2319.006348 6915.000000
2320.102539 5778.000000
2321.197021 6854.000000
2322.291504 7565.000000
2323.385254 5852.000000
2324.478760 6039.000000
2325.570557 6421.000000
2326.662354 7000.000000
2327.753418 6078.000000
2328.843750 6221.000000
2329.933105 6923.000000
2331.022461 6054.000000
2332.110596 6289.000000
2333.198242 6797.000000
2334.285645 6491.000000
2335.371338 6654.000000
2336.456787 7760.000000
2337.541992 6254.000000
2338.626221 6723.000000
2339.709473 5907.000000
2340.792480 6396.000000
2341.874512 7421.000000
2342.956299 5989.000000
2344.037354 7427.000000
2345.117188 6674.000000
2346.196533 5693.000000
2347.275391 6754.000000
2348.353760 6495.000000
2349.430664 6291.000000
2350.507324 6957.000000
2351.583740 6127.000000
2352.659180 6381.000000
2353.733643 5882.000000
2354.807861 6322.000000
2355.881348 6763.000000
2356.954346 6338.000000
2358.026123 7051.000000
2359.097656 6293.000000
2360.168213 6720.000000
2361.238525 7451.000000
2362.307861 7588.000000
2363.376221 6795.000000
2364.444336 6758.000000
2365.511719 7104.000000
2366.578613 7155.000000
2367.644775 6105.000000
2368.709717 6870.000000
2369.774658 7033.000000
2370.838867 6321.000000
2371.902344 6907.000000
2372.964600 5807.000000
2374.026855 6268.000000
2375.088135 6299.000000
2376.149170 5927.000000
2377.208984 6230.000000
2378.268066 7883.000000
2379.327148 6445.000000
2380.385254 7587.000000
2381.442627 6898.000000
2382.499023 8033.000000
2383.555176 7738.000000
2384.610840 6198.000000
2385.665771 6995.000000
2386.719238 6749.000000
2387.772949 6558.000000
2388.825684 6316.000000
2389.877930 6725.000000
2390.929443 6135.000000
2391.979980 6587.000000
2393.030273 6493.000000
2394.079590 6145.000000
2395.128906 6226.000000
2396.176758 6855.000000
2397.224121 6947.000000
2398.271240 6330.000000
2399.317383 6623.000000
2400.362793 6212.000000
2401.407471 6746.000000
2402.452148 7655.000000
2403.495361 7469.000000
2404.538574 6578.000000
2405.580322 5801.000000
2406.622314 6701.000000
2407.663574 7051.000000
2408.703857 6055.000000
2409.743408 6340.000000
2410.781982 6350.000000
2411.820801 5851.000000
2412.858398 6554.000000
2413.895752 6851.000000
2414.931885 7372.000000
2415.967773 6184.000000
2417.002930 6283.000000
2418.037598 6612.000000
2419.070801 7206.000000
2420.104248 6469.000000
2421.136719 6653.000000
2422.168945 6822.000000
2423.199707 7093.000000
2424.230469 6388.000000
2425.260742 6862.000000
2426.289795 6906.000000
2427.318848 6629.000000
2428.346191 7346.000000
2429.374023 6676.000000
2430.400635 7212.000000
2431.427002 6892.000000
2432.451904 7726.000000
2433.477051 6540.000000
2434.501221 7096.000000
2435.525146 6665.000000
2436.547852 5893.000000
2437.569824 6344.000000
2438.591553 6580.000000
2439.612549 6721.000000
2440.633057 6063.000000
2441.652344 6487.000000
2442.671631 6545.000000
2443.689941 8412.000000
2444.708008 6294.000000
2445.724609 6467.000000
2446.741211 6514.000000
2447.757080 5967.000000
2448.772949 7049.000000
2449.787354 6857.000000
2450.801025 5570.000000
2451.814209 7252.000000
2452.827148 5951.000000
2453.839355 7099.000000
2454.850586 6671.000000
2455.861572 7700.000000
2456.871826 6340.000000
2457.881592 7602.000000
2458.890381 5923.000000
2459.898438 5827.000000
2460.906494 6300.000000
2461.913330 7345.000000
2462.919922 5428.000000
2463.925293 7443.000000
2464.930420 6883.000000
2465.935303 5788.000000
2466.938965 6583.000000
2467.942383 6385.000000
2468.944824 7579.000000
2469.947021 7398.000000
2470.948730 6785.000000
2471.949463 6606.000000
2472.949219 6914.000000
2473.948975 6699.000000
2474.947754 5664.000000
2475.946045 6507.000000
2476.943359 6972.000000
2477.940430 6120.000000
2478.937500 6971.000000
2479.933105 5824.000000
2480.928711 7115.000000
2481.922607 6708.000000
2482.916504 8009.000000
2483.909912 6803.000000
2484.902832 6948.000000
2485.894775 7474.000000
2486.885986 7225.000000
2487.876953 6683.000000
2488.867432 5910.000000
2489.856934 6593.000000
2490.845703 6468.000000
2491.834473 5618.000000
2492.822266 6783.000000
2493.808838 6572.000000
2494.795410 8075.000000
2495.781494 6785.000000
2496.766846 7081.000000
2497.751221 8030.000000
2498.735352 6037.000000
2499.719482 6858.000000
2500.702148 5762.000000
2501.684326 7026.000000
2502.666016 6877.000000
2503.646973 7198.000000
2504.627441 6553.000000
2505.607666 5749.000000
2506.586426 6329.000000
2507.564941 7623.000000
2508.542969 6729.000000
2509.520508 7058.000000
2510.497070 6042.000000
2511.473389 5943.000000
2512.448975 6406.000000
2513.424072 6191.000000
2514.398682 6481.000000
2515.372070 7545.000000
2516.345215 6742.000000
2517.318115 6853.000000
2518.290039 6086.000000
2519.261230 6814.000000
2520.231934 6883.000000
2521.202393 7832.000000
2522.172119 8071.000000
2523.140869 6105.000000
2524.108887 6129.000000
2525.076904 7670.000000
2526.043945 6272.000000
2527.010742 5507.000000
2527.976318 7203.000000
2528.941895 6946.000000
2529.906738 7741.000000
2530.871094 6301.000000
2531.834229 6326.000000
2532.797607 5839.000000
2533.760010 5932.000000
2534.722168 6671.000000
2535.683105 6327.000000
2536.643311 6145.000000
2537.603760 6175.000000
2538.563232 6729.000000
2539.521973 6787.000000
2540.479736 6698.000000
2541.437744 6207.000000
2542.395020 6730.000000
2543.351318 6071.000000
2544.307373 7119.000000
2545.262207 6185.000000
2546.217285 7715.000000
2547.171631 7057.000000
2548.125244 6859.000000
2549.077881 7286.000000
2550.030273 6706.000000
2550.982178 6979.000000
2551.933350 6398.000000
2552.883789 7659.000000
2553.833740 7181.000000
2554.783447 7360.000000
2555.732422 6590.000000
2556.680908 6213.000000
2557.628174 7155.000000
2558.575439 6282.000000
2559.521973 6513.000000
2560.468018 6757.000000
2561.413086 7394.000000
2562.357910 6695.000000
2563.302246 7137.000000
2564.246094 6827.000000
2565.189453 6623.000000
2566.131348 6612.000000
2567.073486 6535.000000
2568.014893 6175.000000
2568.955566 7182.000000
2569.895508 7275.000000
2570.835449 5717.000000
2571.774414 6070.000000
2572.713135 7530.000000
2573.650879 7148.000000
2574.588379 5494.000000
2575.525146 6931.000000
2576.461182 6768.000000
2577.396729 7480.000000
2578.331543 6264.000000
2579.266357 5969.000000
2580.200195 7074.000000
2581.133545 7228.000000
2582.066162 5836.000000
2582.998535 6964.000000
2583.930176 5382.000000
2584.861328 7021.000000
2585.791992 6976.000000
2586.721436 6896.000000
2587.650879 7265.000000
2588.579834 6460.000000
2589.508545 7595.000000
2590.435547 7313.000000
2591.362793 5856.000000
2592.289551 6818.000000
2593.215576 6293.000000
2594.141357 5606.000000
2595.065918 7559.000000
2595.990234 7556.000000
2596.914063 5313.000000
2597.837402 7294.000000
2598.759766 6220.000000
2599.681885 6818.000000
2600.603516 8329.000000
2601.524414 6411.000000
2602.444580 5788.000000
2603.364502 6316.000000
2604.283936 6372.000000
2605.203125 6403.000000
2606.121338 5879.000000
2607.038330 5985.000000
2607.955566 7277.000000
2608.872559 5844.000000
2609.788574 7542.000000
2610.703369 6663.000000
2611.618652 6659.000000
2612.533203 6562.000000
2613.446777 6589.000000
2614.360352 6164.000000
2615.272705 7603.000000
2616.185059 7043.000000
2617.096436 6757.000000
2618.007568 5719.000000
2618.917969 7172.000000
2619.828125 6583.000000
2620.737549 6126.000000
2621.646484 6659.000000
2622.554443 6250.000000
2623.462646 6784.000000
2624.369873 6683.000000
2625.276611 7029.000000
2626.182617 5963.000000
2627.088379 6532.000000
2627.993408 6477.000000
2628.898193 7779.000000
2629.802246 6518.000000
2630.705322 6363.000000
2631.608398 6416.000000
2632.510498 5691.000000
2633.412598 6687.000000
2634.314453 6976.000000
2635.214600 6702.000000
2636.114990 6377.000000
2637.014648 6423.000000
2637.914063 6018.000000
2638.812012 6869.000000
2639.710449 6685.000000
2640.608398 6398.000000
2641.505615 6050.000000
2642.401611 6165.000000
2643.297607 6787.000000
2644.193359 6078.000000
2645.088379 6452.000000
2645.983154 6572.000000
2646.876465 7038.000000
2647.769775 6270.000000
2648.662842 6744.000000
2649.555664 6449.000000
2650.446777 7468.000000
2651.338135 6352.000000
2652.229004 7600.000000
2653.119141 7260.000000
2654.009033 6599.000000
2654.897705 7228.000000
2655.786621 6608.000000
2656.675049 6580.000000
2657.562500 7249.000000
2658.448975 6486.000000
2659.335938 7104.000000
2660.222168 6824.000000
2661.107910 6860.000000
2661.992432 6558.000000
2662.876953 6393.000000
2663.761230 6149.000000
2664.644775 7068.000000
2665.527832 7777.000000
2666.410156 7272.000000
2667.291992 6195.000000
2668.173096 6598.000000
2669.054443 6053.000000
2669.934326 6526.000000
2670.814453 7441.000000
2671.693848 7163.000000
2672.573242 6389.000000
2673.451904 6110.000000
2674.328857 6424.000000
2675.206543 6750.000000
2676.083496 6386.000000
2676.959717 8167.000000
2677.835449 7149.000000
2678.710449 6221.000000
2679.585693 7701.000000
2680.459961 6940.000000
2681.333740 7322.000000
2682.206787 6934.000000
2683.079590 6135.000000
2683.952148 6063.000000
2684.823975 6876.000000
2685.695068 6473.000000
2686.565918 6900.000000
2687.436279 7146.000000
2688.306396 6662.000000
2689.174805 6240.000000
2690.043945 7283.000000
2690.912354 7104.000000
2691.780518 6653.000000
2692.647949 6921.000000
2693.514160 5868.000000
2694.380859 7147.000000
2695.246582 7408.000000
2696.112305 7163.000000
2696.976563 7902.000000
2697.841553 6605.000000
2698.705078 7247.000000
2699.568848 5764.000000
2700.431152 7491.000000
2701.293945 6757.000000
2702.155762 5907.000000
2703.017090 6870.000000
2703.878418 6744.000000
2704.738525 7415.000000
2705.598633 7330.000000
2706.458252 6515.000000
2707.317627 6905.000000
2708.175293 7145.000000
2709.033203 6922.000000
2709.891602 7332.000000
2710.748779 6746.000000
2711.605225 5958.000000
2712.461182 6859.000000
2713.317139 6124.000000
2714.172363 6884.000000
2715.026855 6104.000000
2715.880859 6840.000000
2716.734863 7187.000000
2717.587891 6308.000000
2718.441162 6577.000000
2719.292725 7721.000000
2720.144775 6732.000000
2720.996582 6286.000000
2721.847168 6457.000000
2722.697754 6354.000000
2723.547852 7034.000000
2724.397217 7000.000000
2725.246582 6989.000000
2726.094727 6686.000000
2726.942383 6585.000000
2727.790527 6961.000000
2728.637451 6820.000000
2729.484863 5587.000000
2730.330811 7428.000000
2731.176025 6975.000000
2732.021729 6418.000000
2732.866455 6993.000000
2733.711182 7283.000000
2734.554688 6885.000000
2735.398438 7802.000000
2736.241455 7160.000000
2737.083984 6042.000000
2737.925537 6202.000000
2738.767578 6811.000000
2739.608643 6876.000000
2740.449463 5756.000000
2741.290039 5920.000000
2742.129395 7765.000000
2742.968750 6834.000000
2743.808105 6953.000000
2744.646240 6816.000000
2745.483887 7861.000000
2746.321533 6363.000000
2747.158691 7089.000000
2747.995605 6151.000000
2748.832031 5973.000000
2749.667236 6622.000000
2750.502686 6295.000000
2751.337646 6314.000000
2752.171875 6162.000000
2753.005859 6854.000000
2753.839355 6792.000000
2754.672852 7954.000000
2755.505371 6776.000000
2756.337402 7297.000000
2757.168945 6801.000000
2758.000488 7105.000000
2758.831055 7116.000000
2759.661865 7237.000000
2760.491455 7262.000000
2761.321045 6707.000000
2762.150391 7242.000000
2762.979004 6780.000000
2763.807129 6770.000000
2764.634766 6756.000000
2765.462402 6639.000000
2766.289551 7976.000000
2767.115967 5764.000000
2767.941895 7449.000000
2768.767334 6820.000000
2769.592529 7774.000000
2770.417725 7140.000000
2771.241699 6768.000000
2772.065674 6483.000000
2772.889648 7637.000000
2773.712402 6653.000000
2774.535400 6936.000000
2775.357178 6908.000000
2776.178955 6978.000000
2777.000732 6450.000000
2777.821533 7954.000000
2778.641602 6580.000000
2779.461914 6977.000000
2780.281738 7280.000000
2781.101563 6489.000000
2781.919434 5937.000000
2782.738525 8009.000000
2783.556396 6534.000000
2784.374023 6732.000000
2785.191162 7102.000000
2786.007813 7250.000000
2786.824219 7191.000000
2787.640137 6245.000000
2788.455811 5928.000000
2789.270508 6348.000000
2790.085693 7000.000000
2790.900146 7255.000000
2791.714111 6603.000000
2792.527832 7384.000000
2793.340332 8713.000000
2794.153076 6989.000000
2794.965332 7443.000000
2795.777100 7210.000000
2796.588135 7372.000000
2797.399902 6494.000000
2798.210449 7191.000000
2799.020996 6983.000000
2799.830078 7372.000000
2800.639893 8152.000000
2801.448975 7857.000000
2802.257813 6662.000000
2803.066162 7178.000000
2803.873535 6148.000000
2804.681396 6453.000000
2805.488525 6875.000000
2806.295410 6969.000000
2807.101074 7057.000000
2807.907227 6673.000000
2808.712646 6422.000000
2809.518066 7266.000000
2810.322754 6198.000000
2811.126465 7570.000000
2811.930664 7434.000000
2812.734375 6365.000000
2813.537842 6156.000000
2814.339844 6260.000000
2815.142578 7245.000000
2815.944580 7797.000000
2816.746338 6155.000000
2817.547607 6448.000000
2818.348389 7301.000000
2819.148682 6551.000000
2819.949219 6763.000000
2820.748779 8046.000000
2821.547852 7177.000000
2822.346924 6386.000000
2823.145752 6843.000000
2823.944092 6374.000000
2824.741455 7064.000000
2825.539063 7503.000000
2826.335938 6684.000000
2827.133057 7282.000000
2827.929443 8125.000000
2828.725098 6997.000000
2829.520752 7335.000000
2830.316162 7860.000000
2831.111084 7416.000000
2831.905273 6674.000000
2832.699463 6910.000000
2833.493408 5643.000000
2834.286865 6873.000000
2835.079590 7176.000000
2835.872070 8165.000000
2836.664551 7629.000000
2837.456787 7519.000000
2838.248535 6431.000000
2839.039307 6813.000000
2839.830078 8879.000000
2840.621094 7510.000000
2841.411133 6187.000000
2842.200684 7618.000000
2842.990479 7126.000000
2843.779297 7402.000000
2844.568115 7765.000000
2845.356934 7698.000000
2846.144775 7469.000000
2846.932129 7172.000000
2847.719727 7508.000000
2848.506836 7319.000000
2849.293213 6704.000000
2850.079590 7455.000000
2850.865723 7168.000000
2851.651367 7533.000000
2852.436035 7194.000000
2853.221191 6852.000000
2854.006104 7475.000000
2854.790283 7165.000000
2855.574463 6934.000000
2856.357422 8217.000000
2857.140625 6837.000000
2857.923584 6802.000000
2858.706055 7819.000000
2859.488281 6257.000000
2860.270020 6619.000000
2861.051514 7607.000000
2861.833252 7484.000000
2862.614258 7638.000000
2863.394531 6546.000000
2864.174561 6662.000000
2864.954590 8191.000000
2865.734375 7476.000000
2866.513184 8113.000000
2867.292236 7684.000000
2868.070801 6724.000000
2868.849121 7010.000000
2869.626953 7280.000000
2870.404541 6947.000000
2871.181885 7384.000000
2871.958984 7025.000000
2872.735596 6460.000000
2873.511719 7452.000000
2874.287842 7107.000000
2875.063477 8241.000000
2875.838867 7206.000000
2876.613770 6601.000000
2877.388428 8028.000000
2878.163086 6646.000000
2878.937500 7903.000000
2879.711182 6828.000000
2880.484131 7142.000000
2881.257813 6788.000000
2882.030518 7597.000000
2882.803223 7851.000000
2883.575195 8181.000000
2884.346924 6165.000000
2885.119141 6768.000000
2885.890137 6923.000000
2886.660645 6154.000000
2887.431641 8295.000000
2888.202637 7334.000000
2888.972900 7933.000000
2889.742188 7615.000000
2890.511719 7021.000000
2891.281250 7235.000000
2892.050293 7348.000000
2892.818848 7842.000000
2893.587402 7635.000000
2894.354980 6990.000000
2895.123047 6587.000000
2895.890625 7393.000000
2896.658203 8305.000000
2897.424561 7342.000000
2898.191895 6537.000000
2898.958008 7222.000000
2899.724365 6999.000000
2900.489258 8278.000000
2901.254639 6992.000000
2902.020508 6491.000000
2902.784912 7760.000000
2903.549316 7714.000000
2904.313965 8460.000000
2905.077637 6584.000000
2905.842041 8439.000000
2906.605713 6660.000000
2907.368652 8405.000000
2908.131348 6481.000000
2908.894531 9032.000000
2909.657227 6903.000000
2910.418701 6793.000000
2911.180664 6793.000000
