scanname Analyse063
timestamp 2017-02-10 21:24:17
ccdbias 895.909180
ccdgain 3.473401
sigmaread 8.960639
laserwavenum -0.728971
wavenumcorrection -0.206007
scancount 1
totalexposurems 10000
singleexposurems 10000
measurementstate Unknown
scanmode Manual
snr 270.368164 8.104529 6.815516
replacelist 5
374 51884.000000 15066.000000
672 42381.000000 30694.000000
673 40984.000000 5548.000000
754 37192.000000 16298.000000
888 31481.000000 5680.000000
peaks 56
278.511658 0.712664 0.000000 1.457318 0.000186
284.815704 0.712370 0.000000 0.847239 0.000063
293.138885 0.714069 0.000000 0.658085 0.000029
302.614563 0.714891 0.000000 0.151524 0.000022
330.020660 0.731329 0.000000 0.898007 0.000146
342.730072 0.734439 0.000000 0.713087 0.000033
350.783173 0.737943 0.000000 0.569668 0.000022
361.044403 0.741767 0.000000 0.706750 0.000062
386.161560 0.741964 0.000000 1.234461 0.000282
457.700714 0.754524 0.000000 0.327183 0.000045
487.546112 0.768744 0.000000 0.736973 0.000100
534.873901 0.769653 0.000000 0.625215 0.000144
559.855103 0.807339 0.000000 1.244489 0.000221
573.557495 0.813251 0.000000 0.204497 0.000066
583.112793 0.808558 0.000000 0.649070 0.000104
673.404724 0.832701 0.000000 1.278481 0.000253
680.410156 0.833092 0.000000 0.405124 0.000045
715.932007 0.849683 0.000000 5.545329 0.001154
724.584106 0.831573 0.000000 1.158193 0.000050
742.502136 0.853213 0.000000 1.030279 0.000113
752.164856 0.856862 0.000000 1.017400 0.000048
764.949463 0.871016 0.000000 1.368273 0.000449
777.537476 0.875366 0.000000 6.528820 0.001026
832.367310 0.871943 0.000000 0.297086 0.000145
843.117126 0.877316 0.000000 0.978940 0.000050
853.463989 0.901275 0.000000 1.048601 0.000273
869.753662 0.901714 0.000000 0.928537 0.000173
937.773865 0.945539 0.000000 0.766100 0.000407
954.569641 0.928322 0.000000 3.618960 0.001069
1005.284607 0.934099 0.000000 0.671682 0.000084
1013.561768 0.938956 0.000000 1.877392 0.000715
1021.188110 0.940948 0.000000 0.698467 0.000119
1027.854492 0.954134 0.000000 0.589997 0.000244
1044.408813 0.955754 0.000000 4.191259 0.001324
1102.873779 0.904695 0.000000 1.664289 0.000470
1119.943237 0.927721 0.000000 1.695732 0.000341
1125.987549 0.907796 0.000000 0.351946 0.000095
1135.025269 0.910862 0.000000 2.136959 0.000857
1149.764404 0.887594 0.000000 2.497348 0.000940
1173.437500 0.878207 0.000000 1.051652 0.000368
1210.388672 0.886012 0.000000 0.333623 0.000149
1219.182373 0.889617 0.000000 0.652676 0.000059
1236.238525 0.892947 0.000000 1.039613 0.000621
1260.531860 0.902372 0.000000 2.316531 0.000710
1280.816284 0.875251 0.000000 0.953918 0.000261
1316.180664 0.935835 0.000000 10.606922 0.002096
1332.775391 0.905317 0.000000 16.047781 0.006002
1350.936646 0.872257 0.000000 0.995280 0.000301
1386.215576 0.853952 0.000000 0.433229 0.000195
1451.548340 0.898834 0.000000 1.625226 0.000482
1458.656982 0.926195 0.000000 6.210072 0.002899
1490.713013 0.848273 0.000000 2.427583 0.000952
1616.438843 0.831746 0.000000 7.496399 0.002926
1662.364990 0.815671 0.000000 11.310659 0.004768
1680.922241 0.787840 0.000000 6.591434 0.001527
1749.883545 0.745070 0.000000 4.897493 0.002414
finalresult GLS_NoMatch 0
spectrum 2048
-96.872482 45242.000000
-94.245613 45242.000000
-91.620621 45869.000000
-88.997520 45885.000000
-86.376289 46833.000000
-83.756958 46646.000000
-81.139488 46873.000000
-78.523895 46653.000000
-75.910179 46958.000000
-73.298340 47411.000000
-70.688362 47172.000000
-68.080269 47382.000000
-65.474022 47426.000000
-62.869656 47384.000000
-60.267147 47329.000000
-57.666492 47804.000000
-55.067699 47233.000000
-52.470764 46536.000000
-49.875683 47032.000000
-47.282455 46926.000000
-44.691078 47191.000000
-42.101547 46721.000000
-39.513859 47465.000000
-36.928020 47316.000000
-34.344025 46935.000000
-31.761864 47674.000000
-29.181551 47114.000000
-26.603065 47610.000000
-24.026423 47159.000000
-21.451605 47123.000000
-18.878628 46796.000000
-16.307470 46764.000000
-13.738147 46472.000000
-11.170649 45446.000000
-8.604969 46865.000000
-6.041116 46616.000000
-3.479075 46988.000000
-0.918859 47075.000000
1.639549 46568.000000
4.196136 45613.000000
6.750918 45663.000000
9.303884 45869.000000
11.855048 44595.000000
14.404400 44037.000000
16.951956 43009.000000
19.497700 42818.000000
22.041651 42050.000000
24.583797 39090.000000
27.124147 36866.000000
29.662712 33651.000000
32.199478 30228.000000
34.734444 22872.000000
37.267632 14241.000000
39.799038 8533.000000
42.328651 7777.000000
44.856468 7411.000000
47.382526 6443.000000
49.906796 5655.000000
52.429295 4995.000000
54.949997 4594.000000
57.468945 4751.000000
59.986118 5867.000000
62.501514 7757.000000
65.015137 8843.000000
67.527000 8300.000000
70.037117 6178.000000
72.545441 4322.000000
75.052010 3321.000000
77.556831 2947.000000
80.059898 2343.000000
82.561188 2093.000000
85.060738 2047.000000
87.558533 1915.000000
90.054596 2121.000000
92.548882 2410.000000
95.041428 2745.000000
97.532257 2875.000000
100.021317 2361.000000
102.508629 2074.000000
104.994217 1616.000000
107.478065 1550.000000
109.960167 1523.000000
112.440544 1437.000000
114.919197 1321.000000
117.396126 1321.000000
119.871300 1452.000000
122.344765 1430.000000
124.816498 1558.000000
127.286522 1629.000000
129.754791 1742.000000
132.221390 2104.000000
134.686234 2479.000000
137.149384 2913.000000
139.610794 3505.000000
142.070511 4368.000000
144.528503 5396.000000
146.984802 6870.000000
149.439392 14359.000000
151.892258 25589.000000
154.343445 31748.000000
156.792938 35120.000000
159.240707 37428.000000
161.686768 38423.000000
164.131149 37826.000000
166.573853 41540.000000
169.014862 42017.000000
171.454163 43157.000000
173.891754 42449.000000
176.327713 43424.000000
178.761932 43448.000000
181.194473 43459.000000
183.625366 44138.000000
186.054535 43866.000000
188.482056 44456.000000
190.907898 45016.000000
193.332062 44858.000000
195.754562 44621.000000
198.175369 44647.000000
200.594513 45679.000000
203.011993 46349.000000
205.427780 44839.000000
207.841919 45461.000000
210.254425 46266.000000
212.665253 46618.000000
215.074402 46527.000000
217.481918 45394.000000
219.887726 46706.000000
222.291946 46388.000000
224.694458 46272.000000
227.095352 45994.000000
229.494598 46545.000000
231.892181 46179.000000
234.288101 45801.000000
236.682404 46505.000000
239.075043 47219.000000
241.466064 46190.000000
243.855423 46415.000000
246.243164 46695.000000
248.629257 46038.000000
251.013718 46869.000000
253.396530 45081.000000
255.777771 46345.000000
258.157288 46410.000000
260.535248 46508.000000
262.911530 45442.000000
265.286255 45405.000000
267.659332 45115.000000
270.030762 46692.000000
272.400543 46527.000000
274.768768 47112.000000
277.135345 46646.000000
279.500336 46223.000000
281.863708 46844.000000
284.225433 46674.000000
286.585571 45851.000000
288.944092 46929.000000
291.301025 46411.000000
293.656342 46512.000000
296.010071 46920.000000
298.362152 46982.000000
300.712677 46542.000000
303.061615 46535.000000
305.408905 46083.000000
307.754669 46464.000000
310.098755 46436.000000
312.441315 45512.000000
314.782257 45309.000000
317.121582 45710.000000
319.459351 45908.000000
321.795563 44769.000000
324.130127 46617.000000
326.463135 46415.000000
328.794586 46831.000000
331.124451 46220.000000
333.452728 46435.000000
335.779388 45573.000000
338.104553 46477.000000
340.428101 46627.000000
342.750092 46857.000000
345.070526 45294.000000
347.389343 45174.000000
349.706604 46826.000000
352.022339 47062.000000
354.336487 45890.000000
356.649048 46496.000000
358.960052 46564.000000
361.269531 45805.000000
363.577484 46525.000000
365.883820 47164.000000
368.188568 46443.000000
370.491852 46447.000000
372.793518 46617.000000
375.093689 46523.000000
377.392303 46655.000000
379.689362 47102.000000
381.984863 46838.000000
384.278839 47046.000000
386.571228 47591.000000
388.862122 47270.000000
391.151489 46707.000000
393.439270 46648.000000
395.725525 46405.000000
398.010284 45870.000000
400.293427 46791.000000
402.575134 46447.000000
404.855316 46676.000000
407.133911 45649.000000
409.410980 46551.000000
411.686523 46166.000000
413.960541 46459.000000
416.233124 46431.000000
418.504089 46585.000000
420.773560 46406.000000
423.041534 45767.000000
425.307953 45622.000000
427.572876 46565.000000
429.836334 46530.000000
432.098206 46417.000000
434.358612 46766.000000
436.617462 46108.000000
438.874847 46727.000000
441.130737 47140.000000
443.385132 46969.000000
445.638000 47343.000000
447.889313 45909.000000
450.139221 46707.000000
452.387543 46604.000000
454.634430 47149.000000
456.879852 46382.000000
459.123718 46233.000000
461.366089 45967.000000
463.606964 47049.000000
465.846436 46058.000000
468.084320 47231.000000
470.320770 46910.000000
472.555695 46693.000000
474.789154 45534.000000
477.021179 46052.000000
479.251678 47046.000000
481.480682 46292.000000
483.708221 46445.000000
485.934265 46768.000000
488.158875 46205.000000
490.382019 46867.000000
492.603699 46332.000000
494.823822 46070.000000
497.042542 47073.000000
499.259766 46431.000000
501.475616 47213.000000
503.689850 46592.000000
505.902771 46272.000000
508.114105 46215.000000
510.324005 45905.000000
512.532471 46270.000000
514.739563 46152.000000
516.945068 46276.000000
519.149170 46109.000000
521.351746 46478.000000
523.552917 46145.000000
525.752747 45935.000000
527.951050 45773.000000
530.147827 47335.000000
532.343262 46799.000000
534.537170 47043.000000
536.729736 45119.000000
538.920776 45846.000000
541.110413 46611.000000
543.298645 45698.000000
545.485352 45401.000000
547.670593 45817.000000
549.854553 46340.000000
552.036926 46114.000000
554.217957 46300.000000
556.397461 46517.000000
558.575684 46626.000000
560.752380 46504.000000
562.927673 46164.000000
565.101563 46137.000000
567.273987 46610.000000
569.445007 46448.000000
571.614563 46207.000000
573.782837 47223.000000
575.949585 46150.000000
578.114868 46252.000000
580.278748 46448.000000
582.441345 46797.000000
584.602417 46557.000000
586.762085 46875.000000
588.920410 46756.000000
591.077209 46476.000000
593.232666 45953.000000
595.386719 46897.000000
597.539429 46382.000000
599.690613 45304.000000
601.840454 45820.000000
603.988953 45926.000000
606.135864 46478.000000
608.281555 46064.000000
610.425842 46109.000000
612.568665 45520.000000
614.710022 46372.000000
616.850159 46103.000000
618.988770 44765.000000
621.126099 46742.000000
623.261963 45863.000000
625.396423 45608.000000
627.529419 45241.000000
629.661255 45651.000000
631.791626 45748.000000
633.920593 45561.000000
636.048096 45828.000000
638.174316 46085.000000
640.299011 44886.000000
642.422485 45924.000000
644.544617 45527.000000
646.665283 45483.000000
648.784607 45673.000000
650.902527 46611.000000
653.019104 46519.000000
655.134277 45685.000000
657.248108 45731.000000
659.360474 46395.000000
661.471619 46127.000000
663.581360 46930.000000
665.689636 46271.000000
667.796753 45967.000000
669.902405 45485.000000
672.006592 46442.000000
674.109558 46585.000000
676.211121 45258.000000
678.311340 46914.000000
680.410156 45474.000000
682.507629 46077.000000
684.603821 45350.000000
686.698547 46081.000000
688.792053 45267.000000
690.884216 45561.000000
692.974854 44395.000000
695.064270 45523.000000
697.152405 45718.000000
699.239075 46202.000000
701.324524 45486.000000
703.408447 46961.000000
705.491150 46195.000000
707.572571 46239.000000
709.652527 44456.000000
711.731262 45912.000000
713.808533 46498.000000
715.884521 45494.000000
717.959229 45987.000000
720.032654 45071.000000
722.104553 45793.000000
724.175293 44713.000000
726.244690 46220.000000
728.312683 45607.000000
730.379333 45641.000000
732.444763 44894.000000
734.508850 46114.000000
736.571594 45685.000000
738.632996 45615.000000
740.693115 45389.000000
742.751831 45900.000000
744.809326 45292.000000
746.865540 45426.000000
748.920349 45162.000000
750.973877 45570.000000
753.026001 44408.000000
755.076904 46159.000000
757.126587 45243.000000
759.174805 45471.000000
761.221802 45729.000000
763.267517 44819.000000
765.311829 46531.000000
767.354858 46117.000000
769.396667 45525.500000
771.437134 44934.000000
773.476196 45510.000000
775.514099 45757.000000
777.550659 45854.000000
779.585999 46555.000000
781.619995 46164.000000
783.652588 45096.000000
785.684021 46393.000000
787.714050 39801.000000
789.742798 45995.000000
791.770386 45588.000000
793.796631 45529.000000
795.821472 46051.000000
797.845215 46430.000000
799.867554 45539.000000
801.888672 46011.000000
803.908447 45142.000000
805.926941 46950.000000
807.944214 45188.000000
809.960083 45029.000000
811.974792 46093.000000
813.988159 45327.000000
816.000305 45472.000000
818.011230 45680.000000
820.020813 45115.000000
822.029175 46338.000000
824.036133 45874.000000
826.041870 45532.000000
828.046387 45868.000000
830.049622 45911.000000
832.051575 45084.000000
834.052246 45408.000000
836.051697 45656.000000
838.049805 45179.000000
840.046814 44615.000000
842.042419 45292.000000
844.036865 45496.000000
846.029968 45376.000000
848.021851 44606.000000
850.012390 45953.000000
852.001648 44679.000000
853.989868 45528.000000
855.976685 45773.000000
857.962280 45031.000000
859.946594 44323.000000
861.929810 45378.000000
863.911621 45240.000000
865.892212 45821.000000
867.871521 43998.000000
869.849670 44671.000000
871.826477 45539.000000
873.802002 45820.000000
875.776489 45625.000000
877.749512 45755.000000
879.721497 46331.000000
881.692139 45307.000000
883.661621 45547.000000
885.629761 46049.000000
887.596741 46278.000000
889.562378 45350.000000
891.526855 45535.000000
893.490112 45222.000000
895.452148 44718.000000
897.412903 45383.000000
899.372437 44755.000000
901.330688 44459.000000
903.287842 44757.000000
905.243835 45000.000000
907.198425 44038.000000
909.151794 44466.000000
911.104004 44446.000000
913.054993 44494.000000
915.004700 43703.000000
916.953247 44428.000000
918.900574 44403.000000
920.846619 44400.000000
922.791382 44428.000000
924.735107 44070.000000
926.677673 44339.000000
928.618958 44689.000000
930.558899 43769.000000
932.497742 44580.000000
934.435303 44764.000000
936.371643 44269.000000
938.306824 44446.000000
940.240723 44243.000000
942.173523 44375.000000
944.105103 43536.000000
946.035522 45134.000000
947.964722 43904.000000
949.892578 43363.000000
951.819397 43721.000000
953.744934 44436.000000
955.669189 45063.000000
957.592346 44451.000000
959.514343 43710.000000
961.435059 43155.000000
963.354614 43952.000000
965.273010 45074.000000
967.190369 43970.000000
969.106262 43884.000000
971.021057 44086.000000
972.934631 44344.000000
974.847046 43811.000000
976.758240 43737.000000
978.668274 44663.000000
980.577026 43815.000000
982.484741 43917.000000
984.391235 43602.000000
986.296509 44183.000000
988.200684 43026.000000
990.103638 43593.000000
992.005371 42815.000000
993.905945 43064.000000
995.805359 42853.000000
997.703552 44096.000000
999.600586 42795.000000
1001.496399 42811.000000
1003.391052 41539.000000
1005.284607 43506.000000
1007.176880 42035.000000
1009.068237 42938.000000
1010.958252 43674.000000
1012.847046 42405.000000
1014.734680 42680.000000
1016.621155 42074.000000
1018.506470 42249.000000
1020.390625 43092.000000
1022.273560 43135.000000
1024.155518 42784.000000
1026.036133 43945.000000
1027.915649 43262.000000
1029.794189 43025.000000
1031.671387 43763.000000
1033.547241 42995.000000
1035.422119 43351.000000
1037.296021 42588.000000
1039.168457 42298.000000
1041.039917 42605.000000
1042.910034 43807.000000
1044.779175 43786.000000
1046.647095 43516.000000
1048.513916 42320.000000
1050.379639 42583.000000
1052.244141 42786.000000
1054.107544 42807.000000
1055.969604 42735.000000
1057.830688 43316.000000
1059.690674 42622.000000
1061.549316 42495.000000
1063.406860 43286.000000
1065.263306 42343.000000
1067.118652 43093.000000
1068.972778 43177.000000
1070.826050 42599.000000
1072.677856 42500.000000
1074.528687 42637.000000
1076.378296 42558.000000
1078.226685 42899.000000
1080.074219 40586.000000
1081.920410 42837.000000
1083.765381 42081.000000
1085.609497 42744.000000
1087.452271 42394.000000
1089.293823 41248.000000
1091.134644 42062.000000
1092.973877 41514.000000
1094.812378 41060.000000
1096.649536 40961.000000
1098.485474 39876.000000
1100.320435 39929.000000
1102.154175 40872.000000
1103.986938 40444.000000
1105.818359 39891.000000
1107.648926 38749.000000
1109.478149 39398.000000
1111.306396 39340.000000
1113.133423 38556.000000
1114.959473 40289.000000
1116.784302 39327.000000
1118.608032 38556.000000
1120.430542 39600.000000
1122.251953 39813.000000
1124.072510 39911.000000
1125.891602 39206.000000
1127.709839 38840.000000
1129.526733 39024.000000
1131.342773 39082.000000
1133.157593 39334.000000
1134.971313 40096.000000
1136.783936 39908.000000
1138.595337 40088.000000
1140.405762 39652.000000
1142.215088 39011.000000
1144.023071 38684.000000
1145.830322 39591.000000
1147.636108 39457.000000
1149.441040 39952.000000
1151.244873 39862.000000
1153.047485 38932.000000
1154.849243 38962.000000
1156.649536 38918.000000
1158.448853 38700.000000
1160.247192 38809.000000
1162.044189 39091.000000
1163.840454 38564.000000
1165.635376 38233.000000
1167.429199 37920.000000
1169.222168 36403.000000
1171.013794 38271.000000
1172.804443 37392.000000
1174.594116 37841.000000
1176.382324 37991.000000
1178.169678 36266.000000
1179.955933 36961.000000
1181.741089 37849.000000
1183.525146 37498.000000
1185.308105 35691.000000
1187.090088 37412.000000
1188.870850 37242.000000
1190.650635 36730.000000
1192.429321 36047.000000
1194.207031 36078.000000
1195.983521 35464.000000
1197.758911 35779.000000
1199.533203 35640.000000
1201.306396 35258.000000
1203.078735 35335.000000
1204.849731 35027.000000
1206.619873 35911.000000
1208.388794 35407.000000
1210.156616 35244.000000
1211.923584 35721.000000
1213.689209 35650.000000
1215.453857 34577.000000
1217.217407 35019.000000
1218.979858 35513.000000
1220.741455 34714.000000
1222.501831 35557.000000
1224.261108 35210.000000
1226.019531 35547.000000
1227.776733 34649.000000
1229.532837 35283.000000
1231.287842 36153.000000
1233.041992 35815.000000
1234.794800 36107.000000
1236.546631 36058.000000
1238.297607 36149.000000
1240.047241 37219.000000
1241.796021 35205.000000
1243.543457 35819.000000
1245.290161 35587.000000
1247.035645 35658.000000
1248.780273 35578.000000
1250.523560 35050.000000
1252.265869 34969.000000
1254.007080 35882.000000
1255.747437 35977.000000
1257.486694 35321.000000
1259.224731 34647.000000
1260.961914 34222.000000
1262.697876 35332.000000
1264.432861 35369.000000
1266.166870 34683.000000
1267.899902 36098.000000
1269.631714 35828.000000
1271.362549 35684.000000
1273.092163 34983.000000
1274.820923 36175.000000
1276.548584 36217.000000
1278.275146 36316.000000
1280.000854 36309.000000
1281.725220 35450.000000
1283.448730 36663.000000
1285.171265 34926.000000
1286.892822 35143.000000
1288.613159 35446.000000
1290.332520 34856.000000
1292.050781 34215.000000
1293.768066 34868.000000
1295.484375 35291.000000
1297.199463 34777.000000
1298.913574 34777.000000
1300.626709 34986.000000
1302.338989 34248.000000
1304.050049 32287.000000
1305.760132 35070.000000
1307.469116 33967.000000
1309.176880 33836.000000
1310.884033 33560.000000
1312.589722 34853.000000
1314.294678 34076.000000
1315.998657 34997.000000
1317.701416 35544.000000
1319.403198 35291.000000
1321.104126 36061.000000
1322.803711 33455.000000
1324.502441 34445.500000
1326.200439 21739.000000
1327.897095 31791.000000
1329.592651 31130.000000
1331.287354 31282.000000
1332.980835 32257.000000
1334.673462 32487.000000
1336.365234 30614.000000
1338.055664 31680.000000
1339.745361 31296.000000
1341.433960 31731.000000
1343.121460 30402.000000
1344.807983 32048.000000
1346.493408 31100.000000
1348.177856 32036.000000
1349.861450 30951.000000
1351.543823 31920.000000
1353.225220 32388.000000
1354.905762 32028.000000
1356.585083 32080.000000
1358.263794 32793.000000
1359.941162 32272.000000
1361.617432 32977.000000
1363.292725 33260.000000
1364.967285 32343.000000
1366.640625 32338.000000
1368.312988 31892.000000
1369.984375 33322.000000
1371.654785 31836.000000
1373.324097 32290.000000
1374.992432 32621.000000
1376.659912 32261.000000
1378.326294 31864.000000
1379.991699 31931.000000
1381.656128 32103.000000
1383.319336 31901.000000
1384.981934 31991.000000
1386.643188 31359.000000
1388.303589 31161.000000
1389.962891 31301.000000
1391.621216 31074.000000
1393.278809 30737.000000
1394.935181 31009.000000
1396.590698 30414.000000
1398.244995 31015.000000
1399.898438 31408.000000
1401.550781 31058.000000
1403.202393 30678.000000
1404.852783 29744.000000
1406.502075 30349.000000
1408.150635 28844.000000
1409.798096 28068.000000
1411.444580 29549.000000
1413.090210 29216.000000
1414.734863 29510.000000
1416.378296 28496.000000
1418.020874 28335.000000
1419.662354 28470.000000
1421.302979 28739.000000
1422.942627 28556.000000
1424.581177 28845.000000
1426.218872 28154.000000
1427.855469 28367.000000
1429.491089 28494.000000
1431.125977 28089.000000
1432.759766 28643.000000
1434.392456 28441.000000
1436.024170 29046.000000
1437.655029 28769.000000
1439.284790 29058.000000
1440.913452 27530.000000
1442.541504 29299.000000
1444.168457 29220.000000
1445.794189 29394.000000
1447.419312 29704.000000
1449.043335 29612.000000
1450.666382 30358.000000
1452.288452 30623.000000
1453.909424 29552.000000
1455.529419 30656.000000
1457.148682 30095.000000
1458.766602 31409.000000
1460.383911 31188.500000
1462.000244 30968.000000
1463.615356 27901.000000
1465.229614 28809.000000
1466.843018 29690.000000
1468.455322 29272.000000
1470.066772 28753.000000
1471.677368 28429.000000
1473.286743 28769.000000
1474.895142 28676.000000
1476.502686 28485.000000
1478.109253 27822.000000
1479.715088 28930.000000
1481.319702 27701.000000
1482.923462 28271.000000
1484.526001 26730.000000
1486.127930 27453.000000
1487.728638 27301.000000
1489.328613 27230.000000
1490.927490 26847.000000
1492.525513 26900.000000
1494.122437 26846.000000
1495.718506 27411.000000
1497.313599 27841.000000
1498.907715 28361.000000
1500.501099 27203.000000
1502.093384 28093.000000
1503.684448 27394.000000
1505.275024 26710.000000
1506.864258 26841.000000
1508.452881 27038.000000
1510.040405 26563.000000
1511.626831 26100.000000
1513.212524 26587.000000
1514.797119 26255.000000
1516.380859 26517.000000
1517.963501 26591.000000
1519.545410 26041.000000
1521.126221 25950.000000
1522.706299 26138.000000
1524.285156 25707.000000
1525.863159 25421.000000
1527.440430 25193.000000
1529.016479 25581.000000
1530.591797 25280.000000
1532.166016 24963.000000
1533.739502 25433.000000
1535.311768 25209.000000
1536.883301 25014.000000
1538.453857 24788.000000
1540.023560 24702.000000
1541.592041 25175.000000
1543.159790 24378.000000
1544.726685 25008.000000
1546.292358 24084.000000
1547.857300 24476.000000
1549.421143 25219.000000
1550.984375 23672.000000
1552.546265 24297.000000
1554.107544 24380.000000
1555.667725 24419.000000
1557.227173 24154.000000
1558.785522 24269.000000
1560.343140 24063.000000
1561.899658 23696.000000
1563.454956 24150.000000
1565.009644 23904.000000
1566.563599 24359.000000
1568.116577 23943.000000
1569.668213 24272.000000
1571.219116 24128.000000
1572.769287 24156.000000
1574.318481 24085.000000
1575.866333 24214.000000
1577.413696 24256.000000
1578.960083 24275.000000
1580.505615 24873.000000
1582.050171 24186.000000
1583.593506 24287.000000
1585.136230 24083.000000
1586.678101 24078.000000
1588.218872 24030.000000
1589.758667 24517.000000
1591.297729 23797.000000
1592.835693 24078.000000
1594.373169 23932.000000
1595.909302 24239.000000
1597.444336 23749.000000
1598.978882 23593.000000
1600.512451 23653.000000
1602.045166 23907.000000
1603.576294 24015.000000
1605.107178 23810.000000
1606.637207 24102.000000
1608.166016 23659.000000
1609.693726 23754.000000
1611.220825 23914.000000
1612.747192 24128.000000
1614.272583 23776.000000
1615.797119 23958.000000
1617.320313 24229.000000
1618.842773 24953.000000
1620.364502 25200.000000
1621.885376 25752.000000
1623.404785 17972.000000
1624.923706 23854.000000
1626.441895 23506.000000
1627.959229 23455.000000
1629.475464 23391.000000
1630.990356 23076.000000
1632.504761 22853.000000
1634.018433 23232.000000
1635.531006 22815.000000
1637.042358 23202.000000
1638.553345 22805.000000
1640.063232 22934.000000
1641.572266 22887.000000
1643.079956 22775.000000
1644.587280 22604.000000
1646.093750 22290.000000
1647.599243 22601.000000
1649.103882 22178.000000
1650.607056 22366.000000
1652.109619 22197.000000
1653.611816 22124.000000
1655.112671 22027.000000
1656.612427 21360.000000
1658.111328 21708.000000
1659.609863 21645.000000
1661.107178 21564.000000
1662.603760 21634.000000
1664.098755 21427.000000
1665.593506 21269.000000
1667.087402 22873.000000
1668.580322 17726.500000
1670.071899 12580.000000
1671.562988 20621.000000
1673.053467 20642.000000
1674.542847 20586.000000
1676.030762 20414.000000
1677.518433 20416.000000
1679.005127 20751.000000
1680.490967 20963.000000
1681.975952 20396.000000
1683.459473 19919.000000
1684.942749 19852.000000
1686.425171 20074.000000
1687.906494 20017.000000
1689.386353 20015.000000
1690.865967 20038.000000
1692.344849 19944.000000
1693.822754 19979.000000
1695.299683 19850.000000
1696.775391 19895.000000
1698.250732 19673.000000
1699.724854 19612.000000
1701.198364 19646.000000
1702.670410 19756.000000
1704.142212 19661.000000
1705.613037 19689.000000
1707.083008 19588.000000
1708.551636 19696.000000
1710.019775 19739.000000
1711.487183 19670.000000
1712.953491 19750.000000
1714.419189 19829.000000
1715.883179 19739.000000
1717.347046 19687.000000
1718.810059 19543.000000
1720.272095 19656.000000
1721.732910 19541.000000
1723.193115 19791.000000
1724.652588 19773.000000
1726.111206 19722.000000
1727.568848 19641.000000
1729.025146 19607.000000
1730.481201 19673.000000
1731.936279 19511.000000
1733.390381 19588.000000
1734.843262 19330.000000
1736.295898 19247.000000
1737.747437 19154.000000
1739.198242 19262.000000
1740.648071 19072.000000
1742.096558 19197.000000
1743.544678 18950.000000
1744.991943 18836.000000
1746.438477 18816.000000
1747.883423 18840.000000
1749.328125 18654.000000
1750.771973 18603.000000
1752.214966 18763.000000
1753.656494 18965.000000
1755.097778 22572.000000
1756.538208 13191.000000
1757.977661 18398.000000
1759.416138 18347.000000
1760.853638 18210.000000
1762.290649 17884.000000
1763.726685 18038.000000
1765.161865 18057.000000
1766.595581 18043.000000
1768.029175 18337.000000
1769.461792 18033.000000
1770.893555 18395.000000
1772.324463 18342.000000
1773.754150 18013.000000
1775.183105 17587.000000
1776.611572 17482.000000
1778.039063 16738.000000
1779.465210 16091.000000
1780.891113 17074.000000
1782.315918 17054.000000
1783.740112 17155.000000
1785.162842 17044.000000
1786.585083 17013.000000
1788.006592 16872.000000
1789.427368 16821.000000
1790.847168 16589.000000
1792.265625 16563.000000
1793.683594 16585.000000
1795.100952 16756.000000
1796.517456 16521.000000
1797.932495 16419.000000
1799.347168 16326.000000
1800.761230 16610.000000
1802.174072 16608.000000
1803.586304 16405.000000
1804.997192 16177.000000
1806.407593 16195.000000
1807.817261 16235.000000
1809.225952 16344.000000
1810.633545 16366.000000
1812.040649 16191.000000
1813.446899 16422.000000
1814.852173 16359.000000
1816.256348 16525.000000
1817.660156 16444.000000
1819.062988 16522.000000
1820.464966 16501.000000
1821.866333 16359.000000
1823.266235 16374.000000
1824.665527 16360.000000
1826.064331 16276.000000
1827.462280 16171.000000
1828.858887 16253.000000
1830.254883 16276.000000
1831.650146 16204.000000
1833.044800 16104.000000
1834.438477 16138.000000
1835.830811 16034.000000
1837.222656 16068.000000
1838.613892 16129.000000
1840.004150 16051.000000
1841.393188 16061.000000
1842.781860 16052.000000
1844.169556 16047.000000
1845.556519 15953.000000
1846.942139 15829.000000
1848.327515 15799.000000
1849.712036 15852.000000
1851.095825 15818.000000
1852.478516 15661.000000
1853.859985 15366.000000
1855.240967 15393.000000
1856.621460 15176.000000
1858.000977 15160.000000
1859.379028 15297.000000
1860.756958 15272.000000
1862.133911 15001.000000
1863.510132 15116.000000
1864.885498 14876.000000
1866.259399 14911.000000
1867.633179 14904.000000
1869.006104 14774.000000
1870.377930 14625.000000
1871.748779 14584.000000
1873.119263 14565.000000
1874.488647 14604.000000
1875.857544 14433.000000
1877.224854 14335.000000
1878.592041 14325.000000
1879.958252 14462.000000
1881.323730 14132.000000
1882.688477 14086.000000
1884.051636 14198.000000
1885.414673 14142.000000
1886.776855 14199.000000
1888.138184 14040.000000
1889.498169 13991.000000
1890.857788 13949.000000
1892.216797 13980.000000
1893.574829 13922.000000
1894.932007 13713.000000
1896.287964 13855.000000
1897.643677 13790.000000
1898.998413 13845.000000
1900.352295 13808.000000
1901.705078 13946.000000
1903.057373 13933.000000
1904.408936 13877.000000
1905.759644 13926.000000
1907.109131 13900.000000
1908.458130 13799.000000
1909.806274 13969.000000
1911.153809 13767.000000
1912.500610 13680.000000
1913.845825 13733.000000
1915.190796 13913.000000
1916.535034 13910.000000
1917.878418 14003.000000
1919.220459 13811.000000
1920.562256 13767.000000
1921.903198 13751.000000
1923.243408 13756.000000
1924.582642 13730.000000
1925.920898 13777.000000
1927.258545 13766.000000
1928.595459 13659.000000
1929.931519 13712.000000
1931.266357 13760.000000
1932.600830 13578.000000
1933.934570 13548.000000
1935.267456 13506.000000
1936.598877 13443.000000
1937.930420 13311.000000
1939.260620 13328.000000
1940.590332 13487.000000
1941.919189 13416.000000
1943.246826 13381.000000
1944.573975 13258.000000
1945.900391 13288.000000
1947.226074 13370.000000
1948.550415 13105.000000
1949.874512 13158.000000
1951.197754 13107.000000
1952.520264 13168.000000
1953.841675 12985.000000
1955.162109 12922.000000
1956.481934 12980.000000
1957.801392 12983.000000
1959.119873 12949.000000
1960.437012 12838.000000
1961.753784 12776.000000
1963.069824 12607.000000
1964.385132 12702.000000
1965.698975 12610.000000
1967.012573 12669.000000
1968.325439 12620.000000
1969.637451 12593.000000
1970.948853 12624.000000
1972.258911 12544.000000
1973.568481 12518.000000
1974.877319 12256.000000
1976.185547 12209.000000
1977.492432 12232.000000
1978.798706 12140.000000
1980.104614 12209.000000
1981.409302 12251.000000
1982.713501 12242.000000
1984.016479 12088.000000
1985.319092 12117.000000
1986.620728 12167.000000
1987.921753 11818.000000
1989.221191 11787.000000
1990.520752 11688.000000
1991.819214 11747.000000
1993.117188 11651.000000
1994.413574 11584.000000
1995.709961 11522.000000
1997.005371 11579.000000
1998.300049 11386.000000
1999.593872 11513.000000
2000.886475 11279.000000
2002.178589 11275.000000
2003.470215 11247.000000
2004.761108 11331.000000
2006.050415 11125.000000
2007.339478 11245.000000
2008.627808 11170.000000
2009.915405 11195.000000
2011.202148 11049.000000
2012.487793 11023.000000
2013.773071 11122.000000
2015.057373 11007.000000
2016.341064 11245.000000
2017.623413 10929.000000
2018.905396 10974.000000
2020.186890 11047.000000
2021.467407 11018.000000
2022.747192 10966.000000
2024.025879 10978.000000
2025.303833 10989.000000
2026.581299 11026.000000
2027.858154 10984.000000
2029.133301 11140.000000
2030.408569 11188.000000
2031.682861 11065.000000
2032.956177 11221.000000
2034.228638 11053.000000
2035.500732 11120.000000
2036.771729 11168.000000
2038.042480 11058.000000
2039.311890 11007.000000
2040.580200 11102.000000
2041.848511 10979.000000
2043.115845 10972.000000
2044.382446 10939.000000
2045.647827 10943.000000
2046.912598 11013.000000
2048.177002 10854.000000
2049.440430 10916.000000
2050.703369 10741.000000
2051.964355 10845.000000
2053.225830 10550.000000
2054.486084 10701.000000
2055.745605 10573.000000
2057.004395 10629.000000
2058.262207 10541.000000
2059.519531 10497.000000
2060.776123 10415.000000
2062.031250 10451.000000
2063.286377 10390.000000
2064.540527 10534.000000
2065.793945 10498.000000
2067.046631 10490.000000
2068.298096 10402.000000
2069.549316 10352.000000
2070.799805 10417.000000
2072.049561 10456.000000
2073.297852 10041.000000
2074.546143 10291.000000
2075.793457 10199.000000
2077.040039 10078.000000
2078.285889 10048.000000
2079.530518 10145.000000
2080.774658 10090.000000
2082.018311 9979.000000
2083.260986 9944.000000
2084.502441 9900.000000
2085.743652 9974.000000
2086.984375 9897.000000
2088.224121 9785.000000
2089.462646 9843.000000
2090.700684 9708.000000
2091.937988 9612.000000
2093.175049 9546.000000
2094.410645 9646.000000
2095.645508 9618.000000
2096.880127 9708.000000
2098.113770 9780.000000
2099.346436 9532.000000
2100.578369 9384.000000
2101.809814 9583.000000
2103.040283 9468.000000
2104.270020 9465.000000
2105.499512 9524.000000
2106.727051 9219.000000
2107.954834 9195.000000
2109.181885 9120.000000
2110.407959 9202.000000
2111.632568 9239.000000
2112.857422 9133.000000
2114.081055 9134.000000
2115.304199 9179.000000
2116.526123 9147.000000
2117.747803 9219.000000
2118.968506 9126.000000
2120.188477 9168.000000
2121.407959 9211.000000
2122.625977 9314.000000
2123.843994 9218.000000
2125.061035 9243.000000
2126.277588 9132.000000
2127.492432 9162.000000
2128.707520 9337.000000
2129.921631 9136.000000
2131.135010 9206.000000
2132.347656 9076.000000
2133.558838 9116.000000
2134.770264 9223.000000
2135.980469 9152.000000
2137.190186 9035.000000
2138.398438 9140.000000
2139.606689 9140.000000
2140.814209 9089.000000
2142.020508 8667.000000
2143.226074 8965.000000
2144.431396 8895.000000
2145.635742 9020.000000
2146.839355 8890.000000
2148.042480 8978.000000
2149.244141 8914.000000
2150.445557 9010.000000
2151.646240 8747.000000
2152.846191 8744.000000
2154.044922 8844.000000
2155.243408 8900.000000
2156.441406 8752.000000
2157.638428 8614.000000
2158.834717 8549.000000
2160.029785 8596.000000
2161.224609 8428.000000
2162.418701 8407.000000
2163.611816 8380.000000
2164.803955 8405.000000
2165.995850 8241.000000
2167.187012 8229.000000
2168.377197 8145.000000
2169.566650 8065.000000
2170.755615 7978.000000
2171.943604 7966.000000
2173.131348 7874.000000
2174.317627 7923.000000
2175.503174 7770.000000
2176.688477 7772.000000
2177.873291 7699.000000
2179.056885 7708.000000
2180.239746 7798.000000
2181.421631 7860.000000
2182.603271 7796.000000
2183.784424 7722.000000
2184.964355 7748.000000
2186.143311 7764.000000
2187.321777 7672.000000
2188.500000 7601.000000
2189.677002 7712.000000
2190.853027 7616.000000
2192.028809 7652.000000
2193.204102 7700.000000
2194.377930 7701.000000
2195.551270 7651.000000
2196.724365 7733.000000
2197.896240 7752.000000
2199.067627 7708.000000
2200.238525 7761.000000
2201.407715 7738.000000
2202.576904 7670.000000
2203.745605 7616.000000
2204.913330 7860.000000
2206.080078 7690.000000
2207.246094 7689.000000
2208.411621 7612.000000
2209.576904 7636.000000
2210.740723 7517.000000
2211.904053 7620.000000
2213.066162 7590.000000
2214.228516 7533.000000
2215.389648 7584.000000
2216.549805 7494.000000
2217.709473 7428.000000
2218.868896 7444.000000
2220.027100 7342.000000
2221.184326 7308.000000
2222.341309 7336.000000
2223.497559 7421.000000
2224.653076 7405.000000
2225.807861 7373.000000
2226.961670 7309.000000
2228.114502 7343.000000
2229.267822 7254.000000
2230.419189 7223.000000
2231.570313 7225.000000
2232.720703 7154.000000
2233.870605 7075.000000
2235.019531 7133.000000
2236.167969 7155.000000
2237.314941 6979.000000
2238.462158 7001.000000
2239.608154 6826.000000
2240.753906 6825.000000
2241.897949 6779.000000
2243.042236 6827.000000
2244.185547 6727.000000
2245.328125 6659.000000
2246.469727 6587.000000
2247.611084 6599.000000
2248.751465 6651.000000
2249.891113 6609.000000
2251.030273 6627.000000
2252.168213 6542.000000
2253.306152 6486.000000
2254.443115 6438.000000
2255.579346 6371.000000
2256.714600 6455.000000
2257.849121 6480.000000
2258.983398 6504.000000
2260.117188 6696.000000
2261.249512 6546.000000
2262.381348 6563.000000
2263.512695 6483.000000
2264.643066 6287.000000
2265.773193 6204.000000
2266.902100 6192.000000
2268.030518 6157.000000
2269.158447 6189.000000
2270.285400 6133.000000
2271.411621 6064.000000
2272.536865 6100.000000
2273.662109 6246.000000
2274.786621 6125.000000
2275.909912 6217.000000
2277.032471 6149.000000
2278.154541 6136.000000
2279.276123 6192.000000
2280.396973 6187.000000
2281.516602 6074.000000
2282.635742 6022.000000
2283.754639 5956.000000
2284.872803 5879.000000
2285.989990 6006.000000
2287.106201 5908.000000
2288.222168 5953.000000
2289.337402 6016.000000
2290.451904 6011.000000
2291.565186 6236.000000
2292.678467 5917.000000
2293.791016 6079.000000
2294.902832 5996.000000
2296.013916 6058.000000
2297.123779 6096.000000
2298.233154 6085.000000
2299.342285 6078.000000
2300.450439 6168.000000
2301.557617 6031.000000
2302.664551 6055.000000
2303.770752 6077.000000
2304.876465 6040.000000
2305.980713 6087.000000
2307.084717 5991.000000
2308.188232 5941.000000
2309.291260 5811.000000
2310.393066 5867.000000
2311.494141 5849.000000
2312.594727 5742.000000
2313.694824 5781.000000
2314.794189 5825.000000
2315.892090 5777.000000
2316.990479 5771.000000
2318.087402 5808.000000
2319.184082 5775.000000
2320.280273 5762.000000
2321.374756 5629.000000
2322.469238 5327.000000
2323.562988 5516.000000
2324.656494 5623.000000
2325.748291 5532.000000
2326.840088 5646.000000
2327.931152 5543.000000
2329.021484 5741.000000
2330.110840 5535.000000
2331.200195 5524.000000
2332.288330 5635.000000
2333.375977 5554.000000
2334.463379 5589.000000
2335.549072 5442.000000
2336.634521 5399.000000
2337.719727 5334.000000
2338.803955 5331.000000
2339.887207 5367.000000
2340.970215 5327.000000
2342.052246 5250.000000
2343.134033 5276.000000
2344.215088 5190.000000
2345.294922 5214.000000
2346.374268 5177.000000
2347.453125 5060.000000
2348.531494 5109.000000
2349.608398 5136.000000
2350.685059 5052.000000
2351.761475 4962.000000
2352.836914 4980.000000
2353.911377 5002.000000
2354.985596 4989.000000
2356.059082 5005.000000
2357.132080 4979.000000
2358.203857 4851.000000
2359.275391 4900.000000
2360.345947 4875.000000
2361.416260 4822.000000
2362.485596 4866.000000
2363.553955 4794.000000
2364.622070 4792.000000
2365.689453 4727.000000
2366.756348 4755.000000
2367.822510 4759.000000
2368.887451 4669.000000
2369.952393 4709.000000
2371.016602 4731.000000
2372.080078 4677.000000
2373.142334 4714.000000
2374.204590 4717.000000
2375.265869 4646.000000
2376.326904 4610.000000
2377.386719 4689.000000
2378.445801 4740.000000
2379.504883 4682.000000
2380.562988 4693.000000
2381.620361 4579.000000
2382.676758 4519.000000
2383.732910 4624.000000
2384.788574 4600.000000
2385.843506 4637.000000
2386.896973 4565.000000
2387.950684 4430.000000
2389.003418 4521.000000
2390.055664 4573.000000
2391.107178 4578.000000
2392.157715 4582.000000
2393.208008 4652.000000
2394.257324 4469.000000
2395.306641 4639.000000
2396.354492 4543.000000
2397.401855 4444.000000
2398.448975 4404.000000
2399.495117 4435.000000
2400.540527 4467.000000
2401.585205 4494.000000
2402.629883 4413.000000
2403.673096 4392.000000
2404.716309 4442.000000
2405.758057 4531.000000
2406.800049 4419.000000
2407.841309 4503.000000
2408.881592 4444.000000
2409.921143 4453.000000
2410.959717 4539.000000
2411.998535 4469.000000
2413.036133 4366.000000
2414.073486 4389.000000
2415.109619 4478.000000
2416.145508 4477.000000
2417.180664 4427.000000
2418.215332 4376.000000
2419.248535 4435.000000
2420.281982 4304.000000
2421.314453 4325.000000
2422.346680 4262.000000
2423.377441 4232.000000
2424.408203 4303.000000
2425.438477 4299.000000
2426.467529 4295.000000
2427.496582 4269.000000
2428.523926 4228.000000
2429.551758 4169.000000
2430.578369 4141.000000
2431.604736 4169.000000
2432.629639 4142.000000
2433.654785 4156.000000
2434.678955 4005.000000
2435.702881 4019.000000
2436.725586 3997.000000
2437.747559 3976.000000
2438.769287 3967.000000
2439.790283 3990.000000
2440.810791 3966.000000
2441.830078 3866.000000
2442.849365 3827.000000
2443.867676 3742.000000
2444.885742 3825.000000
2445.902344 3941.000000
2446.918945 3851.000000
2447.934814 3853.000000
2448.950684 3821.000000
2449.965088 3722.000000
2450.978760 3754.000000
2451.991943 3742.000000
2453.004883 3745.000000
2454.017090 3834.000000
2455.028320 3787.000000
2456.039307 3788.000000
2457.049561 3809.000000
2458.059326 3553.000000
2459.068115 3688.000000
2460.076172 3738.000000
2461.084229 3680.000000
2462.091064 3615.000000
2463.097656 3578.000000
2464.103027 3581.000000
2465.108154 3583.000000
2466.113037 3500.000000
2467.116699 3607.000000
2468.120117 3688.000000
2469.122559 3470.000000
2470.124756 3642.000000
2471.126465 3561.000000
2472.127197 3529.000000
2473.126953 3507.000000
2474.126709 3476.000000
2475.125488 3517.000000
2476.123779 3469.000000
2477.121094 3434.000000
2478.118164 3414.000000
2479.115234 3461.000000
2480.110840 3561.000000
2481.106445 3410.000000
2482.100342 3492.000000
2483.094238 3640.000000
2484.087646 3418.000000
2485.080566 3482.000000
2486.072510 3552.000000
2487.063721 3545.000000
2488.054688 3528.000000
2489.045166 3375.000000
2490.034668 3508.000000
2491.023438 3520.000000
2492.012207 3438.000000
2493.000000 3524.000000
2493.986572 3422.000000
2494.973145 3300.000000
2495.959229 3363.000000
2496.944580 3343.000000
2497.928955 3457.000000
2498.913086 3439.000000
2499.897217 3352.000000
2500.879883 3422.000000
2501.862061 3409.000000
2502.843750 3350.000000
2503.824707 3401.000000
2504.805176 3420.000000
2505.785400 3276.000000
2506.764160 3453.000000
2507.742676 3260.000000
2508.720703 3266.000000
2509.698242 3209.000000
2510.674805 3292.000000
2511.651123 3429.000000
2512.626709 3309.000000
2513.601807 3313.000000
2514.576416 3283.000000
2515.549805 3329.000000
2516.522949 3373.000000
2517.495850 3177.000000
2518.467773 3191.000000
2519.438965 3227.000000
2520.409668 3158.000000
2521.380127 3178.000000
2522.349854 3126.000000
2523.318604 3069.000000
2524.286621 3070.000000
2525.254639 3076.000000
2526.221680 3120.000000
2527.188477 3080.000000
2528.154053 3051.000000
2529.119629 3180.000000
2530.084473 3076.000000
2531.048828 2960.000000
2532.011963 2896.000000
2532.975342 2978.000000
2533.937744 3019.000000
2534.899902 3064.000000
2535.860840 3031.000000
2536.821045 2996.000000
2537.781494 3011.000000
2538.740967 3110.000000
2539.699707 3095.000000
2540.657471 3022.000000
2541.615479 3001.000000
2542.572754 2846.000000
2543.529053 2933.000000
2544.485107 2819.000000
2545.439941 2880.000000
2546.395020 2827.000000
2547.349365 2820.000000
2548.302979 2594.000000
2549.255615 2909.000000
2550.208008 2820.000000
2551.159912 2846.000000
2552.111084 2856.000000
2553.061523 2920.000000
2554.011475 2730.000000
2554.961182 2812.000000
2555.910156 2784.000000
2556.858643 2832.000000
2557.805908 2783.000000
2558.753174 2764.000000
2559.699707 2741.000000
2560.645752 2729.000000
2561.590820 2759.000000
2562.535645 2697.000000
2563.479980 2656.000000
2564.423828 2657.000000
2565.367188 2562.000000
2566.309082 2718.000000
2567.251221 2626.000000
2568.192627 2627.000000
2569.133301 2494.000000
2570.073242 2651.000000
2571.013184 2661.000000
2571.952148 2684.000000
2572.890869 2514.000000
2573.828613 2647.000000
2574.766113 2642.000000
2575.702881 2706.000000
2576.638916 2681.000000
2577.574463 2656.000000
2578.509277 2582.000000
2579.444092 2655.000000
2580.377930 2636.000000
2581.311279 2671.000000
2582.243896 2627.000000
2583.176270 2637.000000
2584.107910 2562.000000
2585.039063 2552.000000
2585.969727 2622.000000
2586.899170 2538.000000
2587.828613 2481.000000
2588.757568 2516.000000
2589.686279 2584.000000
2590.613281 2485.000000
2591.540527 2535.000000
2592.467285 2546.000000
2593.393311 2532.000000
2594.319092 2404.000000
2595.243652 2626.000000
2596.167969 2506.000000
2597.091797 2509.000000
2598.015137 2476.000000
2598.937500 2460.000000
2599.859619 2460.000000
2600.781250 2424.000000
2601.702148 2382.000000
2602.622314 2511.000000
2603.542236 2460.000000
2604.461670 2427.000000
2605.380859 2512.000000
2606.299072 2469.000000
2607.216064 2393.000000
2608.133301 2396.000000
2609.050293 2445.000000
2609.966309 2453.000000
2610.881104 2377.000000
2611.796387 2429.000000
2612.710938 2403.000000
2613.624512 2370.000000
2614.538086 2326.000000
2615.450439 2375.000000
2616.362793 2322.000000
2617.274170 2414.000000
2618.185303 2335.000000
2619.095703 2344.000000
2620.005859 2381.000000
2620.915283 2281.000000
2621.824219 2336.000000
2622.732178 2253.000000
2623.640381 2249.000000
2624.547607 2238.000000
2625.454346 2274.000000
2626.360352 2217.000000
2627.266113 2205.000000
2628.171143 2298.000000
2629.075928 2212.000000
2629.979980 2184.000000
2630.883057 2198.000000
2631.786133 2253.000000
2632.688232 2197.000000
2633.590332 2179.000000
2634.492188 2232.000000
2635.392334 2156.000000
2636.292725 2167.000000
2637.192383 2194.000000
2638.091797 2129.000000
2638.989746 2177.000000
2639.888184 2076.000000
2640.786133 2146.000000
2641.683350 2107.000000
2642.579346 2143.000000
2643.475342 2063.000000
2644.371094 2133.000000
2645.266113 2040.000000
2646.160889 2062.000000
2647.054199 1923.000000
2647.947510 2058.000000
2648.840576 2099.000000
2649.733398 2044.000000
2650.624512 2020.000000
2651.515869 2039.000000
2652.406738 2020.000000
2653.296875 1986.000000
2654.186768 1940.000000
2655.075439 2015.000000
2655.964355 1927.000000
2656.852783 1968.000000
2657.740234 2045.000000
2658.626709 2000.000000
2659.513672 1930.000000
2660.399902 2018.000000
2661.285645 1925.000000
2662.170166 2042.000000
2663.054688 2044.000000
2663.938965 1972.000000
2664.822510 2037.000000
2665.705566 1941.000000
2666.587891 2115.000000
2667.469727 1923.000000
2668.350830 1995.000000
2669.232178 2034.000000
2670.112061 1855.000000
2670.992188 2010.000000
2671.871582 1926.000000
2672.750977 1941.000000
2673.629639 1963.000000
2674.506592 1930.000000
2675.384277 1961.000000
2676.261230 2017.000000
2677.137451 1863.000000
2678.013184 1882.000000
2678.888184 2019.000000
2679.763428 1882.000000
2680.637695 1894.000000
2681.511475 1939.000000
2682.384521 1968.000000
2683.257324 1951.000000
2684.129883 1877.000000
2685.001709 1884.000000
2685.872803 1769.000000
2686.743652 1872.000000
2687.614014 1753.000000
2688.484131 1850.000000
2689.352539 1827.000000
2690.221680 1770.000000
2691.090088 1864.000000
2691.958252 1818.000000
2692.825684 1800.000000
2693.691895 1778.000000
2694.558594 1773.000000
2695.424316 1841.000000
2696.290039 1892.000000
2697.154297 1828.000000
2698.019287 1792.000000
2698.882813 1667.000000
2699.746582 1762.000000
2700.608887 1851.000000
2701.471680 1853.000000
2702.333496 1756.000000
2703.194824 1758.000000
2704.056152 1687.000000
2704.916260 1751.000000
2705.776367 1773.000000
2706.635986 1635.000000
2707.495361 1688.000000
2708.353027 1737.000000
2709.210938 1598.000000
2710.069336 1778.000000
2710.926514 1718.000000
2711.782959 1616.000000
2712.638916 1658.000000
2713.494873 1712.000000
2714.350098 1672.000000
2715.204590 1664.000000
2716.058594 1723.000000
2716.912598 1583.000000
2717.765625 1568.000000
2718.618896 1631.000000
2719.470459 1579.000000
2720.322510 1549.000000
2721.174316 1681.000000
2722.024902 1680.000000
2722.875488 1658.000000
2723.725586 1629.000000
2724.574951 1622.000000
2725.424316 1651.000000
2726.272461 1708.000000
2727.120117 1641.000000
2727.968262 1650.000000
2728.815186 1632.000000
2729.662598 1590.000000
2730.508545 1580.000000
2731.353760 1602.000000
2732.199463 1616.000000
2733.044189 1672.000000
2733.888916 1596.000000
2734.732422 1556.000000
2735.576172 1604.000000
2736.419189 1620.000000
2737.261719 1599.000000
2738.103271 1515.000000
2738.945313 1592.000000
2739.786377 1616.000000
2740.627197 1596.000000
2741.467773 1667.000000
2742.307129 1453.000000
2743.146484 1524.000000
2743.985840 1583.000000
2744.823975 1556.000000
2745.661621 1522.000000
2746.499268 1530.000000
2747.336426 1488.000000
2748.173340 1509.000000
2749.009766 1624.000000
2749.844971 1568.000000
2750.680420 1653.000000
2751.515381 1472.000000
2752.349609 1550.000000
2753.183594 1567.000000
2754.017090 1492.000000
2754.850586 1546.000000
2755.683105 1475.000000
2756.515137 1544.000000
2757.346680 1570.000000
2758.178223 1532.000000
2759.008789 1575.000000
2759.839600 1518.000000
2760.669189 1452.000000
2761.498779 1507.000000
2762.328125 1457.000000
2763.156738 1485.000000
2763.984863 1467.000000
2764.812500 1420.000000
2765.640137 1421.000000
2766.467285 1611.000000
2767.293701 1382.000000
2768.119629 1471.000000
2768.945068 1328.000000
2769.770264 1394.000000
2770.595459 1485.000000
2771.419434 1315.000000
2772.243408 1398.000000
2773.067383 1447.000000
2773.890137 1368.000000
2774.713135 1210.000000
2775.534912 1351.000000
2776.356689 1379.000000
2777.178467 1362.000000
2777.999268 1431.000000
2778.819336 1407.000000
2779.639648 1347.000000
2780.459473 1329.000000
2781.279297 1327.000000
2782.097168 1322.000000
2782.916260 1366.000000
2783.734131 1378.000000
2784.551758 1331.000000
2785.368896 1350.000000
2786.185547 1299.000000
2787.001953 1308.000000
2787.817871 1296.000000
2788.633545 1338.000000
2789.448242 1312.000000
2790.263428 1254.000000
2791.077881 1285.000000
2791.891846 1325.000000
2792.705566 1248.000000
2793.518066 1204.000000
2794.330811 1249.000000
2795.143066 1282.000000
2795.954834 1205.000000
2796.765869 1264.000000
2797.577637 1268.000000
2798.388184 1218.000000
2799.198730 1161.000000
2800.007813 1233.000000
2800.817627 1195.000000
2801.626709 1240.000000
2802.435547 1385.000000
2803.243896 1303.000000
2804.051270 1214.000000
2804.859131 1158.000000
2805.666260 1177.000000
2806.473145 1267.000000
2807.278809 1194.000000
2808.084961 1229.000000
2808.890381 1223.000000
2809.695801 1290.000000
2810.500488 1151.000000
2811.304199 1176.000000
2812.108398 1093.000000
2812.912109 1297.000000
2813.715576 1304.000000
2814.517578 1230.000000
2815.320313 1231.000000
2816.122314 1261.000000
2816.924072 1242.000000
2817.725342 1213.000000
2818.526123 1131.000000
2819.326416 1199.000000
2820.126953 1154.000000
2820.926514 1200.000000
2821.725586 1149.000000
2822.524658 1201.000000
2823.323486 1091.000000
2824.121826 1265.000000
2824.919189 1155.000000
2825.716797 1250.000000
2826.513672 1174.000000
2827.310791 1257.000000
2828.107178 1127.000000
2828.902832 1201.000000
2829.698486 1221.000000
2830.493896 1164.000000
2831.288818 1215.000000
2832.083008 1254.000000
2832.877197 1173.000000
2833.671143 1143.000000
2834.464600 1144.000000
2835.257324 1198.000000
2836.049805 1128.000000
2836.842285 1102.000000
2837.634521 1179.000000
2838.426270 1253.000000
2839.217041 1193.000000
2840.007813 1175.000000
2840.798828 1017.000000
2841.588867 1142.000000
2842.378418 1174.000000
2843.168213 1214.000000
2843.957031 1145.000000
2844.745850 1065.000000
2845.534668 1040.000000
2846.322510 1151.000000
2847.109863 1132.000000
2847.897461 1223.000000
2848.684570 1130.000000
2849.470947 1157.000000
2850.257324 1179.000000
2851.043457 1157.000000
2851.829102 1141.000000
2852.613770 1080.000000
2853.398926 1122.000000
2854.183838 1077.000000
2854.968018 1206.000000
2855.752197 1146.000000
2856.535156 1135.000000
2857.318359 1123.000000
2858.101318 1105.000000
2858.883789 1080.000000
2859.666016 1132.000000
2860.447754 1114.000000
2861.229248 1050.000000
2862.010986 1058.000000
2862.791992 1052.000000
2863.572266 1143.000000
2864.352295 1103.000000
2865.132324 1036.000000
2865.912109 1228.000000
2866.690918 1139.000000
2867.469971 1113.000000
2868.248535 1146.000000
2869.026855 1132.000000
2869.804688 1248.000000
2870.582275 1323.000000
2871.359619 1287.000000
2872.136719 1212.000000
2872.913330 1229.000000
2873.689453 1232.000000
2874.465576 1178.000000
2875.241211 1217.000000
2876.016602 1277.000000
2876.791504 1387.000000
2877.566162 1508.000000
2878.340820 1371.000000
2879.115234 1387.000000
2879.888916 1410.000000
2880.661865 1369.000000
2881.435547 1293.000000
2882.208252 1322.000000
2882.980957 1306.000000
2883.752930 1476.000000
2884.524658 1314.000000
2885.296875 1326.000000
2886.067871 1369.000000
2886.838379 1353.000000
2887.609375 1308.000000
2888.380371 1463.000000
2889.150635 1351.000000
2889.919922 1335.000000
2890.689453 1466.000000
2891.458984 1199.000000
2892.228027 1354.000000
2892.996582 1266.000000
2893.765137 1251.000000
2894.532715 1339.000000
2895.300781 1259.000000
2896.068359 1336.000000
2896.835938 1279.000000
2897.602295 1202.000000
2898.369629 1335.000000
2899.135742 1267.000000
2899.902100 1201.000000
2900.666992 1230.000000
2901.432373 1193.000000
2902.198242 1123.000000
2902.962646 1258.000000
2903.727051 1173.000000
2904.491699 1237.000000
2905.255371 1157.000000
2906.019775 1190.000000
2906.783447 1157.000000
2907.546387 1046.000000
2908.309082 1135.000000
2909.072266 1314.000000
2909.834961 1120.000000
2910.596436 1138.000000
2911.358398 1138.000000
spectrumdark 2048
-96.872482 6173.000000
-94.245613 6173.000000
-91.620621 6031.000000
-88.997520 6451.000000
-86.376289 5778.000000
-83.756958 6192.000000
-81.139488 6094.000000
-78.523895 6415.000000
-75.910179 6235.000000
-73.298340 5856.000000
-70.688362 6108.000000
-68.080269 5912.000000
-65.474022 5923.000000
-62.869656 6003.000000
-60.267147 6125.000000
-57.666492 5617.000000
-55.067699 6212.000000
-52.470764 6850.000000
-49.875683 6422.000000
-47.282455 6478.000000
-44.691078 6247.000000
-42.101547 6685.000000
-39.513859 5900.000000
-36.928020 6061.000000
-34.344025 6473.000000
-31.761864 5699.000000
-29.181551 6243.000000
-26.603065 5693.000000
-24.026423 6139.000000
-21.451605 6178.000000
-18.878628 6470.000000
-16.307470 6458.000000
-13.738147 6706.000000
-11.170649 7690.000000
-8.604969 6257.000000
-6.041116 6445.000000
-3.479075 5973.000000
-0.918859 5725.000000
1.639549 6105.000000
4.196136 6899.000000
6.750918 6651.000000
9.303884 5986.000000
11.855048 6662.000000
14.404400 6450.000000
16.951956 6591.000000
19.497700 6018.000000
22.041651 5740.000000
24.583797 6680.000000
27.124147 6768.000000
29.662712 6834.000000
32.199478 6156.000000
34.734444 5748.000000
37.267632 7144.000000
39.799038 6272.000000
42.328651 7061.000000
44.856468 6505.000000
47.382526 7857.000000
49.906796 5640.000000
52.429295 6232.000000
54.949997 6771.000000
57.468945 6318.000000
59.986118 6418.000000
62.501514 6625.000000
65.015137 5588.000000
67.527000 5674.000000
70.037117 6621.000000
72.545441 6489.000000
75.052010 5899.000000
77.556831 6272.000000
80.059898 6393.000000
82.561188 6246.000000
85.060738 6151.000000
87.558533 6334.000000
90.054596 5681.000000
92.548882 7214.000000
95.041428 5773.000000
97.532257 6882.000000
100.021317 7181.000000
102.508629 6326.000000
104.994217 6136.000000
107.478065 6399.000000
109.960167 5708.000000
112.440544 6571.000000
114.919197 6140.000000
117.396126 6428.000000
119.871300 7166.000000
122.344765 6805.000000
124.816498 5818.000000
127.286522 6693.000000
129.754791 6260.000000
132.221390 6296.000000
134.686234 5651.000000
137.149384 6160.000000
139.610794 7231.000000
142.070511 6817.000000
144.528503 6357.000000
146.984802 5987.000000
149.439392 5784.000000
151.892258 6775.000000
154.343445 6354.000000
156.792938 6578.000000
159.240707 5978.000000
161.686768 6588.000000
164.131149 8655.000000
166.573853 6409.000000
169.014862 6788.000000
171.454163 6164.000000
173.891754 7241.000000
176.327713 6603.000000
178.761932 6895.000000
181.194473 7108.000000
183.625366 6637.000000
186.054535 7122.000000
188.482056 6714.000000
190.907898 6350.000000
193.332062 6669.000000
195.754562 7154.000000
198.175369 7345.000000
200.594513 6473.000000
203.011993 5980.000000
205.427780 7587.000000
207.841919 7069.000000
210.254425 6331.000000
212.665253 6051.000000
215.074402 6244.000000
217.481918 7406.000000
219.887726 6178.000000
222.291946 6495.000000
224.694458 6650.000000
227.095352 6916.000000
229.494598 6408.000000
231.892181 6833.000000
234.288101 7210.000000
236.682404 6472.000000
239.075043 5813.000000
241.466064 6805.000000
243.855423 6570.000000
246.243164 6316.000000
248.629257 6944.000000
251.013718 6119.000000
253.396530 7882.000000
255.777771 6613.000000
258.157288 6573.000000
260.535248 6472.000000
262.911530 7526.000000
265.286255 7553.000000
267.659332 7842.000000
270.030762 6242.000000
272.400543 6397.000000
274.768768 5801.000000
277.135345 6311.000000
279.500336 6700.000000
281.863708 6029.000000
284.225433 6194.000000
286.585571 7043.000000
288.944092 5930.000000
291.301025 6492.000000
293.656342 6378.000000
296.010071 5929.000000
298.362152 5938.000000
300.712677 6336.000000
303.061615 6356.000000
305.408905 6749.000000
307.754669 6355.000000
310.098755 6420.000000
312.441315 7324.000000
314.782257 7549.000000
317.121582 7134.000000
319.459351 6919.000000
321.795563 8056.000000
324.130127 6216.000000
326.463135 6410.000000
328.794586 5985.000000
331.124451 6570.000000
333.452728 6384.000000
335.779388 7249.000000
338.104553 6349.000000
340.428101 6194.000000
342.750092 5964.000000
345.070526 7533.000000
347.389343 7651.000000
349.706604 5963.000000
352.022339 5756.000000
354.336487 6945.000000
356.649048 6330.000000
358.960052 6247.000000
361.269531 7034.000000
363.577484 6324.000000
365.883820 5703.000000
368.188568 6421.000000
370.491852 6407.000000
372.793518 6217.000000
375.093689 6332.000000
377.392303 6227.000000
379.689362 5758.000000
381.984863 6071.000000
384.278839 5834.000000
386.571228 5212.000000
388.862122 5610.000000
391.151489 6157.000000
393.439270 6210.000000
395.725525 6480.000000
398.010284 7016.000000
400.293427 6117.000000
402.575134 6466.000000
404.855316 6176.000000
407.133911 7201.000000
409.410980 6349.000000
411.686523 6694.000000
413.960541 6436.000000
416.233124 6421.000000
418.504089 6295.000000
420.773560 6407.000000
423.041534 7089.000000
425.307953 7225.000000
427.572876 6263.000000
429.836334 6287.000000
432.098206 6398.000000
434.358612 6019.000000
436.617462 6658.000000
438.874847 6130.000000
441.130737 5654.000000
443.385132 5793.000000
445.638000 5459.000000
447.889313 6856.000000
450.139221 6064.000000
452.387543 6204.000000
454.634430 5591.000000
456.879852 6406.000000
459.123718 6489.000000
461.366089 6744.000000
463.606964 5644.000000
465.846436 6687.000000
468.084320 5493.000000
470.320770 5839.000000
472.555695 6033.000000
474.789154 7221.000000
477.021179 6687.000000
479.251678 5679.000000
481.480682 6403.000000
483.708221 6303.000000
485.934265 5951.000000
488.158875 6518.000000
490.382019 5867.000000
492.603699 6386.000000
494.823822 6639.000000
497.042542 5626.000000
499.259766 6292.000000
501.475616 5495.000000
503.689850 6117.000000
505.902771 6411.000000
508.114105 6448.000000
510.324005 6817.000000
512.532471 6442.000000
514.739563 6554.000000
516.945068 6398.000000
519.149170 6581.000000
521.351746 6198.000000
523.552917 6524.000000
525.752747 6689.000000
527.951050 6892.000000
530.147827 5306.000000
532.343262 5805.000000
534.537170 5552.000000
536.729736 7486.000000
538.920776 6721.000000
541.110413 5988.000000
543.298645 6867.000000
545.485352 7165.000000
547.670593 6765.000000
549.854553 6203.000000
552.036926 6388.000000
554.217957 6202.000000
556.397461 5995.000000
558.575684 5850.000000
560.752380 6002.000000
562.927673 6344.000000
565.101563 6368.000000
567.273987 5891.000000
569.445007 6065.000000
571.614563 6293.000000
573.782837 5269.000000
575.949585 6368.000000
578.114868 6294.000000
580.278748 6091.000000
582.441345 5747.000000
584.602417 5999.000000
586.762085 5661.000000
588.920410 5768.000000
591.077209 6086.000000
593.232666 6551.000000
595.386719 5675.000000
597.539429 6106.000000
599.690613 7209.000000
601.840454 6729.000000
603.988953 6642.000000
606.135864 6014.000000
608.281555 6460.000000
610.425842 6414.000000
612.568665 6987.000000
614.710022 6141.000000
616.850159 6357.000000
618.988770 7648.000000
621.126099 5697.000000
623.261963 6543.000000
625.396423 6798.000000
627.529419 7131.000000
629.661255 6716.000000
631.791626 6559.000000
633.920593 6751.000000
636.048096 6468.000000
638.174316 6227.000000
640.299011 7385.000000
642.422485 6363.000000
644.544617 6746.000000
646.665283 6789.000000
648.784607 6551.000000
650.902527 5623.000000
653.019104 5711.000000
655.134277 6489.000000
657.248108 6446.000000
659.360474 5850.000000
661.471619 6106.000000
663.581360 5323.000000
665.689636 5978.000000
667.796753 6288.000000
669.902405 6737.000000
672.006592 5821.000000
674.109558 5714.000000
676.211121 6977.000000
678.311340 5304.000000
680.410156 6762.000000
682.507629 6190.000000
684.603821 6928.000000
686.698547 6178.000000
688.792053 6957.000000
690.884216 6664.000000
692.974854 7856.000000
695.064270 6665.000000
697.152405 6453.000000
699.239075 6006.000000
701.324524 6657.000000
703.408447 5145.000000
705.491150 5914.000000
707.572571 5875.000000
709.652527 7624.000000
711.731262 6147.000000
713.808533 5518.000000
715.884521 6568.000000
717.959229 6038.000000
720.032654 6977.000000
722.104553 6226.000000
724.175293 7308.000000
726.244690 5768.000000
728.312683 6388.000000
730.379333 6319.000000
732.444763 7065.000000
734.508850 5813.000000
736.571594 6176.000000
738.632996 6328.000000
740.693115 6499.000000
742.751831 5979.000000
744.809326 6563.000000
746.865540 6413.000000
748.920349 6733.000000
750.973877 6294.000000
753.026001 7471.000000
755.076904 5723.000000
757.126587 6635.000000
759.174805 6343.000000
761.221802 6132.000000
763.267517 7011.000000
765.311829 5334.000000
767.354858 5767.000000
769.396667 6381.500000
771.437134 6996.000000
773.476196 6374.000000
775.514099 6097.000000
777.550659 5995.000000
779.585999 5305.000000
781.619995 5729.000000
783.652588 6821.000000
785.684021 5547.000000
787.714050 12130.000000
789.742798 5974.000000
791.770386 6307.000000
793.796631 6326.000000
795.821472 5810.000000
797.845215 5457.000000
799.867554 6360.000000
801.888672 5871.000000
803.908447 6717.000000
805.926941 4892.000000
807.944214 6647.000000
809.960083 6785.000000
811.974792 5683.000000
813.988159 6411.000000
816.000305 6236.000000
818.011230 6027.000000
820.020813 6518.000000
822.029175 5271.000000
824.036133 5674.000000
826.041870 6024.000000
828.046387 5691.000000
830.049622 5604.000000
832.051575 6438.000000
834.052246 6105.000000
836.051697 5872.000000
838.049805 6315.000000
840.046814 6896.000000
842.042419 6204.000000
844.036865 6006.000000
846.029968 6129.000000
848.021851 6866.000000
850.012390 5549.000000
852.001648 6801.000000
853.989868 5980.000000
855.976685 5690.000000
857.962280 6437.000000
859.946594 7246.000000
861.929810 6238.000000
863.911621 6345.000000
865.892212 5809.000000
867.871521 7650.000000
869.849670 7012.000000
871.826477 6177.000000
873.802002 5919.000000
875.776489 6139.000000
877.749512 6009.000000
879.721497 5424.000000
881.692139 6386.000000
883.661621 6067.000000
885.629761 5527.000000
887.596741 5166.000000
889.562378 6052.000000
891.526855 5788.000000
893.490112 6015.000000
895.452148 6450.000000
897.412903 5797.000000
899.372437 6397.000000
901.330688 6632.000000
903.287842 6318.000000
905.243835 6052.000000
907.198425 6894.000000
909.151794 6459.000000
911.104004 6405.000000
913.054993 6312.000000
915.004700 7033.000000
916.953247 6248.000000
918.900574 6179.000000
920.846619 6131.000000
922.791382 6056.000000
924.735107 6291.000000
926.677673 5981.000000
928.618958 5611.000000
930.558899 6442.000000
932.497742 5645.000000
934.435303 5447.000000
936.371643 5959.000000
938.306824 5802.000000
940.240723 6000.000000
942.173523 5915.000000
944.105103 6779.000000
946.035522 5222.000000
947.964722 6441.000000
949.892578 7012.000000
951.819397 6651.000000
953.744934 5926.000000
955.669189 5337.000000
957.592346 5959.000000
959.514343 6712.000000
961.435059 7270.000000
963.354614 6457.000000
965.273010 5303.000000
967.190369 6374.000000
969.106262 6429.000000
971.021057 6200.000000
972.934631 5914.000000
974.847046 6403.000000
976.758240 6464.000000
978.668274 5495.000000
980.577026 6213.000000
982.484741 6112.000000
984.391235 6367.000000
986.296509 5672.000000
988.200684 6759.000000
990.103638 6119.000000
992.005371 6788.000000
993.905945 6494.000000
995.805359 6605.000000
997.703552 5243.000000
999.600586 6502.000000
1001.496399 6432.000000
1003.391052 7601.000000
1005.284607 5582.000000
1007.176880 7035.000000
1009.068237 6088.000000
1010.958252 5284.000000
1012.847046 6575.000000
1014.734680 6309.000000
1016.621155 6874.000000
1018.506470 6740.000000
1020.390625 5896.000000
1022.273560 5866.000000
1024.155518 6251.000000
1026.036133 5144.000000
1027.915649 5840.000000
1029.794189 6096.000000
1031.671387 5348.000000
1033.547241 6207.000000
1035.422119 5876.000000
1037.296021 6628.000000
1039.168457 6976.000000
1041.039917 6661.000000
1042.910034 5470.000000
1044.779175 5440.000000
1046.647095 5720.000000
1048.513916 6957.000000
1050.379639 6686.000000
1052.244141 6465.000000
1054.107544 6421.000000
1055.969604 6437.000000
1057.830688 5838.000000
1059.690674 6493.000000
1061.549316 6575.000000
1063.406860 5779.000000
1065.263306 6654.000000
1067.118652 5892.000000
1068.972778 5750.000000
1070.826050 6290.000000
1072.677856 6335.000000
1074.528687 6153.000000
1076.378296 6153.000000
1078.226685 5764.000000
1080.074219 7953.000000
1081.920410 5606.000000
1083.765381 6191.000000
1085.609497 5378.000000
1087.452271 5528.000000
1089.293823 6498.000000
1091.134644 5497.000000
1092.973877 5771.000000
1094.812378 6000.000000
1096.649536 5996.000000
1098.485474 6801.000000
1100.320435 6546.000000
1102.154175 5354.000000
1103.986938 5648.000000
1105.818359 6180.000000
1107.648926 7270.000000
1109.478149 6560.000000
1111.306396 6425.000000
1113.133423 7137.000000
1114.959473 5405.000000
1116.784302 6308.000000
1118.608032 7161.000000
1120.430542 6071.000000
1122.251953 5862.000000
1124.072510 5814.000000
1125.891602 6533.000000
1127.709839 6991.000000
1129.526733 6794.000000
1131.342773 6684.000000
1133.157593 6432.000000
1134.971313 5627.000000
1136.783936 5818.000000
1138.595337 5648.000000
1140.405762 6084.000000
1142.215088 6709.000000
1144.023071 6922.000000
1145.830322 5933.000000
1147.636108 5916.000000
1149.441040 5341.000000
1151.244873 5330.000000
1153.047485 6185.000000
1154.849243 6118.000000
1156.649536 5992.000000
1158.448853 6115.000000
1160.247192 5860.000000
1162.044189 5443.000000
1163.840454 5857.000000
1165.635376 6088.000000
1167.429199 6350.000000
1169.222168 7728.000000
1171.013794 5770.000000
1172.804443 6462.000000
1174.594116 5945.000000
1176.382324 5765.000000
1178.169678 7469.000000
1179.955933 6709.000000
1181.741089 5684.000000
1183.525146 5898.000000
1185.308105 7674.000000
1187.090088 5862.000000
1188.870850 5843.000000
1190.650635 6284.000000
1192.429321 6853.000000
1194.207031 6681.000000
1195.983521 7105.000000
1197.758911 6571.000000
1199.533203 6428.000000
1201.306396 6702.000000
1203.078735 6495.000000
1204.849731 6627.000000
1206.619873 5686.000000
1208.388794 6085.000000
1210.156616 6288.000000
1211.923584 5771.000000
1213.689209 5862.000000
1215.453857 6969.000000
1217.217407 6482.000000
1218.979858 5896.000000
1220.741455 6719.000000
1222.501831 5864.000000
1224.261108 6222.000000
1226.019531 6004.000000
1227.776733 7037.000000
1229.532837 6415.000000
1231.287842 5545.000000
1233.041992 5993.000000
1234.794800 5792.000000
1236.546631 5963.000000
1238.297607 5911.000000
1240.047241 4914.000000
1241.796021 6983.000000
1243.543457 6472.000000
1245.290161 6623.000000
1247.035645 6407.000000
1248.780273 6380.000000
1250.523560 6718.000000
1252.265869 6601.000000
1254.007080 5379.000000
1255.747437 5070.000000
1257.486694 5788.000000
1259.224731 6565.000000
1260.961914 7095.000000
1262.697876 6135.000000
1264.432861 6353.000000
1266.166870 7264.000000
1267.899902 5942.000000
1269.631714 6198.000000
1271.362549 6470.000000
1273.092163 7170.000000
1274.820923 5884.000000
1276.548584 5668.000000
1278.275146 5553.000000
1280.000854 5508.000000
1281.725220 6412.000000
1283.448730 5152.000000
1285.171265 6844.000000
1286.892822 6607.000000
1288.613159 6180.000000
1290.332520 6676.000000
1292.050781 7220.000000
1293.768066 6417.000000
1295.484375 5766.000000
1297.199463 6240.000000
1298.913574 6128.000000
1300.626709 5765.000000
1302.338989 6450.000000
1304.050049 8352.000000
1305.760132 5237.000000
1307.469116 6268.000000
1309.176880 6655.000000
1310.884033 6976.000000
1312.589722 5745.000000
1314.294678 6858.000000
1315.998657 6165.000000
1317.701416 5930.000000
1319.403198 6521.000000
1321.104126 6019.000000
1322.803711 8861.000000
1324.502441 7204.500000
1326.200439 18596.000000
1327.897095 6498.000000
1329.592651 7114.000000
1331.287354 6799.000000
1332.980835 5657.000000
1334.673462 5357.000000
1336.365234 7349.000000
1338.055664 6264.000000
1339.745361 6590.000000
1341.433960 6090.000000
1343.121460 7486.000000
1344.807983 5715.000000
1346.493408 6761.000000
1348.177856 5932.000000
1349.861450 7184.000000
1351.543823 6365.000000
1353.225220 5995.000000
1354.905762 6562.000000
1356.585083 6644.000000
1358.263794 5889.000000
1359.941162 6551.000000
1361.617432 5770.000000
1363.292725 5501.000000
1364.967285 6517.000000
1366.640625 6495.000000
1368.312988 6806.000000
1369.984375 5168.000000
1371.654785 6686.000000
1373.324097 6166.000000
1374.992432 5646.000000
1376.659912 5928.000000
1378.326294 6352.000000
1379.991699 6141.000000
1381.656128 5821.000000
1383.319336 5877.000000
1384.981934 5716.000000
1386.643188 6341.000000
1388.303589 6555.000000
1389.962891 6331.000000
1391.621216 6502.000000
1393.278809 6817.000000
1394.935181 6491.000000
1396.590698 7043.000000
1398.244995 6338.000000
1399.898438 5797.000000
1401.550781 6099.000000
1403.202393 6431.000000
1404.852783 7147.000000
1406.502075 6201.000000
1408.150635 7427.000000
1409.798096 7950.000000
1411.444580 6150.000000
1413.090210 6222.000000
1414.734863 5955.000000
1416.378296 6983.000000
1418.020874 7109.000000
1419.662354 6800.000000
1421.302979 6397.000000
1422.942627 6415.000000
1424.581177 5970.000000
1426.218872 6546.000000
1427.855469 6293.000000
1429.491089 6002.000000
1431.125977 6346.000000
1432.759766 5840.000000
1434.392456 6112.000000
1436.024170 5598.000000
1437.655029 6100.000000
1439.284790 6009.000000
1440.913452 7764.000000
1442.541504 5960.000000
1444.168457 6161.000000
1445.794189 6196.000000
1447.419312 6150.000000
1449.043335 6533.000000
1450.666382 5985.000000
1452.288452 5971.000000
1453.909424 7328.000000
1455.529419 6265.000000
1457.148682 6827.000000
1458.766602 5638.000000
1460.383911 5547.500000
1462.000244 5457.000000
1463.615356 7182.000000
1465.229614 6203.000000
1466.843018 5136.000000
1468.455322 5576.000000
1470.066772 6210.000000
1471.677368 6421.000000
1473.286743 5947.000000
1474.895142 5985.000000
1476.502686 6140.000000
1478.109253 6716.000000
1479.715088 5303.000000
1481.319702 6267.000000
1482.923462 5439.000000
1484.526001 6697.000000
1486.127930 5508.000000
1487.728638 5494.000000
1489.328613 5627.000000
1490.927490 6294.000000
1492.525513 6438.000000
1494.122437 6656.000000
1495.718506 6300.000000
1497.313599 5950.000000
1498.907715 5397.000000
1500.501099 6537.000000
1502.093384 5496.000000
1503.684448 6140.000000
1505.275024 6789.000000
1506.864258 6455.000000
1508.452881 6131.000000
1510.040405 6484.000000
1511.626831 6869.000000
1513.212524 6239.000000
1514.797119 6546.000000
1516.380859 6198.000000
1517.963501 6096.000000
1519.545410 6634.000000
1521.126221 6618.000000
1522.706299 6024.000000
1524.285156 6224.000000
1525.863159 6341.000000
1527.440430 6329.000000
1529.016479 5624.000000
1530.591797 5900.000000
1532.166016 6324.000000
1533.739502 5483.000000
1535.311768 5931.000000
1536.883301 6397.000000
1538.453857 6469.000000
1540.023560 6285.000000
1541.592041 5426.000000
1543.159790 6530.000000
1544.726685 5611.000000
1546.292358 6794.000000
1547.857300 5946.000000
1549.421143 4984.000000
1550.984375 7484.000000
1552.546265 6366.000000
1554.107544 5937.000000
1555.667725 5641.000000
1557.227173 5761.000000
1558.785522 5876.000000
1560.343140 6324.000000
1561.899658 6990.000000
1563.454956 5895.000000
1565.009644 6314.000000
1566.563599 5580.000000
1568.116577 6316.000000
1569.668213 5689.000000
1571.219116 6155.000000
1572.769287 6188.000000
1574.318481 6281.000000
1575.866333 5769.000000
1577.413696 5470.000000
1578.960083 5643.000000
1580.505615 5092.000000
1582.050171 6615.000000
1583.593506 6347.000000
1585.136230 6585.000000
1586.678101 6466.000000
1588.218872 6620.000000
1589.758667 5766.000000
1591.297729 6703.000000
1592.835693 5942.000000
1594.373169 6096.000000
1595.909302 5889.000000
1597.444336 6689.000000
1598.978882 6211.000000
1600.512451 6004.000000
1602.045166 5913.000000
1603.576294 6174.000000
1605.107178 6291.000000
1606.637207 5790.000000
1608.166016 6116.000000
1609.693726 6067.000000
1611.220825 5961.000000
1612.747192 5790.000000
1614.272583 6241.000000
1615.797119 5788.000000
1617.320313 5738.000000
1618.842773 5622.000000
1620.364502 6536.000000
1621.885376 6950.000000
1623.404785 15552.000000
1624.923706 6189.000000
1626.441895 6037.000000
1627.959229 5893.000000
1629.475464 6401.000000
1630.990356 7016.000000
1632.504761 6798.000000
1634.018433 5747.000000
1635.531006 6874.000000
1637.042358 5942.000000
1638.553345 6456.000000
1640.063232 6240.000000
1641.572266 6151.000000
1643.079956 5640.000000
1644.587280 6109.000000
1646.093750 7068.000000
1647.599243 6220.000000
1649.103882 6811.000000
1650.607056 6093.000000
1652.109619 6550.000000
1653.611816 6272.000000
1655.112671 6616.000000
1656.612427 7591.000000
1658.111328 5923.000000
1659.609863 6497.000000
1661.107178 6224.000000
1662.603760 5917.000000
1664.098755 6483.000000
1665.593506 6334.000000
1667.087402 5183.000000
1668.580322 13197.000000
1670.071899 21211.000000
1671.562988 6439.000000
1673.053467 6049.000000
1674.542847 5910.000000
1676.030762 6872.000000
1677.518433 6826.000000
1679.005127 5994.000000
1680.490967 5287.000000
1681.975952 6080.000000
1683.459473 6185.000000
1684.942749 6144.000000
1686.425171 5860.000000
1687.906494 6223.000000
1689.386353 6133.000000
1690.865967 5431.000000
1692.344849 6512.000000
1693.822754 5957.000000
1695.299683 6043.000000
1696.775391 5734.000000
1698.250732 6002.000000
1699.724854 6297.000000
1701.198364 5522.000000
1702.670410 5551.000000
1704.142212 6849.000000
1705.613037 6497.000000
1707.083008 7067.000000
1708.551636 5137.000000
1710.019775 5791.000000
1711.487183 6414.000000
1712.953491 5454.000000
1714.419189 5730.000000
1715.883179 6175.000000
1717.347046 6002.000000
1718.810059 6933.000000
1720.272095 6289.000000
1721.732910 6665.000000
1723.193115 5422.000000
1724.652588 6357.000000
1726.111206 6091.000000
1727.568848 5990.000000
1729.025146 6206.000000
1730.481201 6065.000000
1731.936279 6418.000000
1733.390381 6003.000000
1734.843262 6856.000000
1736.295898 5996.000000
1737.747437 6846.000000
1739.198242 5980.000000
1740.648071 6550.000000
1742.096558 5896.000000
1743.544678 7280.000000
1744.991943 6512.000000
1746.438477 6648.000000
1747.883423 6717.000000
1749.328125 6145.000000
1750.771973 5985.000000
1752.214966 5501.000000
1753.656494 6508.000000
1755.097778 6363.000000
1756.538208 19455.000000
1757.977661 6286.000000
1759.416138 5350.000000
1760.853638 6053.000000
1762.290649 7566.000000
1763.726685 5823.000000
1765.161865 7068.000000
1766.595581 6200.000000
1768.029175 6490.000000
1769.461792 6676.000000
1770.893555 5779.000000
1772.324463 5673.000000
1773.754150 6349.000000
1775.183105 6124.000000
1776.611572 6204.000000
1778.039063 6706.000000
1779.465210 6231.000000
1780.891113 5607.000000
1782.315918 6877.000000
1783.740112 5569.000000
1785.162842 6621.000000
1786.585083 6515.000000
1788.006592 6859.000000
1789.427368 5946.000000
1790.847168 6155.000000
1792.265625 6231.000000
1793.683594 6851.000000
1795.100952 5526.000000
1796.517456 6001.000000
1797.932495 6478.000000
1799.347168 5870.000000
1800.761230 6518.000000
1802.174072 5925.000000
1803.586304 6927.000000
1804.997192 7137.000000
1806.407593 7769.000000
1807.817261 6413.000000
1809.225952 5919.000000
1810.633545 5350.000000
1812.040649 6382.000000
1813.446899 6354.000000
1814.852173 6706.000000
1816.256348 5922.000000
1817.660156 5920.000000
1819.062988 6176.000000
1820.464966 5976.000000
1821.866333 5828.000000
1823.266235 6296.000000
1824.665527 6473.000000
1826.064331 6536.000000
1827.462280 7400.000000
1828.858887 5717.000000
1830.254883 6697.000000
1831.650146 5910.000000
1833.044800 8208.000000
1834.438477 5984.000000
1835.830811 6867.000000
1837.222656 6394.000000
1838.613892 5812.000000
1840.004150 7077.000000
1841.393188 6004.000000
1842.781860 6014.000000
1844.169556 5993.000000
1845.556519 5813.000000
1846.942139 6923.000000
1848.327515 5852.000000
1849.712036 6352.000000
1851.095825 6250.000000
1852.478516 6347.000000
1853.859985 5375.000000
1855.240967 6497.000000
1856.621460 6304.000000
1858.000977 5704.000000
1859.379028 5911.000000
1860.756958 6187.000000
1862.133911 7871.000000
1863.510132 6053.000000
1864.885498 6101.000000
1866.259399 5626.000000
1867.633179 5722.000000
1869.006104 6122.000000
1870.377930 5978.000000
1871.748779 6883.000000
1873.119263 5381.000000
1874.488647 5996.000000
1875.857544 6024.000000
1877.224854 7164.000000
1878.592041 6010.000000
1879.958252 5950.000000
1881.323730 6816.000000
1882.688477 7489.000000
1884.051636 6757.000000
1885.414673 6969.000000
1886.776855 6309.000000
1888.138184 6489.000000
1889.498169 5607.000000
1890.857788 5794.000000
1892.216797 6114.000000
1893.574829 6647.000000
1894.932007 7266.000000
1896.287964 5894.000000
1897.643677 7557.000000
1898.998413 5808.000000
1900.352295 5583.000000
1901.705078 5892.000000
1903.057373 5897.000000
1904.408936 5902.000000
1905.759644 6836.000000
1907.109131 6511.000000
1908.458130 6673.000000
1909.806274 5787.000000
1911.153809 6100.000000
1912.500610 6272.000000
1913.845825 6806.000000
1915.190796 6019.000000
1916.535034 5410.000000
1917.878418 6428.000000
1919.220459 5953.000000
1920.562256 6684.000000
1921.903198 6950.000000
1923.243408 6153.000000
1924.582642 6273.000000
1925.920898 6303.000000
1927.258545 6453.000000
1928.595459 6996.000000
1929.931519 6674.000000
1931.266357 5539.000000
1932.600830 6719.000000
1933.934570 7266.000000
1935.267456 6236.000000
1936.598877 5741.000000
1937.930420 6331.000000
1939.260620 6611.000000
1940.590332 5745.000000
1941.919189 6061.000000
1943.246826 5783.000000
1944.573975 5026.000000
1945.900391 5862.000000
1947.226074 6438.000000
1948.550415 5746.000000
1949.874512 6627.000000
1951.197754 6333.000000
1952.520264 6380.000000
1953.841675 5788.000000
1955.162109 7436.000000
1956.481934 6034.000000
1957.801392 5562.000000
1959.119873 6740.000000
1960.437012 5852.000000
1961.753784 5829.000000
1963.069824 6553.000000
1964.385132 6484.000000
1965.698975 6257.000000
1967.012573 5624.000000
1968.325439 6215.000000
1969.637451 6007.000000
1970.948853 6032.000000
1972.258911 6215.000000
1973.568481 5845.000000
1974.877319 6090.000000
1976.185547 6567.000000
1977.492432 6100.000000
1978.798706 7227.000000
1980.104614 5550.000000
1981.409302 6337.000000
1982.713501 5879.000000
1984.016479 5684.000000
1985.319092 7518.000000
1986.620728 6084.000000
1987.921753 6831.000000
1989.221191 6047.000000
1990.520752 6601.000000
1991.819214 5252.000000
1993.117188 6028.000000
1994.413574 6119.000000
1995.709961 5790.000000
1997.005371 5539.000000
1998.300049 6605.000000
1999.593872 5673.000000
2000.886475 6535.000000
2002.178589 5725.000000
2003.470215 7142.000000
2004.761108 6315.000000
2006.050415 6387.000000
2007.339478 6815.000000
2008.627808 6015.000000
2009.915405 6016.000000
2011.202148 6855.000000
2012.487793 5626.000000
2013.773071 6330.000000
2015.057373 6011.000000
2016.341064 5557.000000
2017.623413 6035.000000
2018.905396 6500.000000
2020.186890 6753.000000
2021.467407 5911.000000
2022.747192 5974.000000
2024.025879 6714.000000
2025.303833 5848.000000
2026.581299 5946.000000
2027.858154 6295.000000
2029.133301 5700.000000
2030.408569 6580.000000
2031.682861 6041.000000
2032.956177 5928.000000
2034.228638 5910.000000
2035.500732 6128.000000
2036.771729 6856.000000
2038.042480 6570.000000
2039.311890 6024.000000
2040.580200 6800.000000
2041.848511 6601.000000
2043.115845 5964.000000
2044.382446 5989.000000
2045.647827 5608.000000
2046.912598 5828.000000
2048.177002 5387.000000
2049.440430 5760.000000
2050.703369 6403.000000
2051.964355 6101.000000
2053.225830 6144.000000
2054.486084 5842.000000
2055.745605 6424.000000
2057.004395 6219.000000
2058.262207 6863.000000
2059.519531 6164.000000
2060.776123 6028.000000
2062.031250 6524.000000
2063.286377 5614.000000
2064.540527 5607.000000
2065.793945 5601.000000
2067.046631 6777.000000
2068.298096 6252.000000
2069.549316 6244.000000
2070.799805 5578.000000
2072.049561 5427.000000
2073.297852 6462.000000
2074.546143 6409.000000
2075.793457 7413.000000
2077.040039 5645.000000
2078.285889 6050.000000
2079.530518 6913.000000
2080.774658 7586.000000
2082.018311 5490.000000
2083.260986 6011.000000
2084.502441 6993.000000
2085.743652 5911.000000
2086.984375 6332.000000
2088.224121 6761.000000
2089.462646 7055.000000
2090.700684 6183.000000
2091.937988 5818.000000
2093.175049 6692.000000
2094.410645 6046.000000
2095.645508 6234.000000
2096.880127 6102.000000
2098.113770 5604.000000
2099.346436 6089.000000
2100.578369 6845.000000
2101.809814 6389.000000
2103.040283 6757.000000
2104.270020 5984.000000
2105.499512 5923.000000
2106.727051 6031.000000
2107.954834 5930.000000
2109.181885 6314.000000
2110.407959 5525.000000
2111.632568 6335.000000
2112.857422 6979.000000
2114.081055 7077.000000
2115.304199 6181.000000
2116.526123 7495.000000
2117.747803 5978.000000
2118.968506 6803.000000
2120.188477 6039.000000
2121.407959 6138.000000
2122.625977 6562.000000
2123.843994 6976.000000
2125.061035 5711.000000
2126.277588 5819.000000
2127.492432 6537.000000
2128.707520 6296.000000
2129.921631 6949.000000
2131.135010 5667.000000
2132.347656 6006.000000
2133.558838 5811.000000
2134.770264 6404.000000
2135.980469 6814.000000
2137.190186 5963.000000
2138.398438 6133.000000
2139.606689 5591.000000
2140.814209 5885.000000
2142.020508 7653.000000
2143.226074 5887.000000
2144.431396 5699.000000
2145.635742 5563.000000
2146.839355 6367.000000
2148.042480 6206.000000
2149.244141 6559.000000
2150.445557 5303.000000
2151.646240 6227.000000
2152.846191 6146.000000
2154.044922 5916.000000
2155.243408 6891.000000
2156.441406 6162.000000
2157.638428 5970.000000
2158.834717 5180.000000
2160.029785 5248.000000
2161.224609 6102.000000
2162.418701 5529.000000
2163.611816 6080.000000
2164.803955 6821.000000
2165.995850 5924.000000
2167.187012 6320.000000
2168.377197 6219.000000
2169.566650 6504.000000
2170.755615 6786.000000
2171.943604 5941.000000
2173.131348 5760.000000
2174.317627 5902.000000
2175.503174 6509.000000
2176.688477 5980.000000
2177.873291 5871.000000
2179.056885 6353.000000
2180.239746 7484.000000
2181.421631 6271.000000
2182.603271 5936.000000
2183.784424 6527.000000
2184.964355 5711.000000
2186.143311 5525.000000
2187.321777 6382.000000
2188.500000 6864.000000
2189.677002 7154.000000
2190.853027 6807.000000
2192.028809 6078.000000
2193.204102 5585.000000
2194.377930 6641.000000
2195.551270 6141.000000
2196.724365 6114.000000
2197.896240 6353.000000
2199.067627 7002.000000
2200.238525 6315.000000
2201.407715 6899.000000
2202.576904 7529.000000
2203.745605 6314.000000
2204.913330 5837.000000
2206.080078 5626.000000
2207.246094 7134.000000
2208.411621 6683.000000
2209.576904 6021.000000
2210.740723 6738.000000
2211.904053 5376.000000
2213.066162 6121.000000
2214.228516 6198.000000
2215.389648 6570.000000
2216.549805 6644.000000
2217.709473 6301.000000
2218.868896 6539.000000
2220.027100 6360.000000
2221.184326 6316.000000
2222.341309 6757.000000
2223.497559 6538.000000
2224.653076 6742.000000
2225.807861 6220.000000
2226.961670 6376.000000
2228.114502 6011.000000
2229.267822 6836.000000
2230.419189 6164.000000
2231.570313 6105.000000
2232.720703 6517.000000
2233.870605 7574.000000
2235.019531 6248.000000
2236.167969 5164.000000
2237.314941 6878.000000
2238.462158 7022.000000
2239.608154 6089.000000
2240.753906 7253.000000
2241.897949 7332.000000
2243.042236 6680.000000
2244.185547 6140.000000
2245.328125 6015.000000
2246.469727 5802.000000
2247.611084 5816.000000
2248.751465 6348.000000
2249.891113 6381.000000
2251.030273 5794.000000
2252.168213 5813.000000
2253.306152 6184.000000
2254.443115 5269.000000
2255.579346 6302.000000
2256.714600 6108.000000
2257.849121 7226.000000
2258.983398 6329.000000
2260.117188 5394.000000
2261.249512 6200.000000
2262.381348 6836.000000
2263.512695 6201.000000
2264.643066 6507.000000
2265.773193 8065.000000
2266.902100 6664.000000
2268.030518 6057.000000
2269.158447 5523.000000
2270.285400 6087.000000
2271.411621 5934.000000
2272.536865 6780.000000
2273.662109 6435.000000
2274.786621 6355.000000
2275.909912 5931.000000
2277.032471 6420.000000
2278.154541 5937.000000
2279.276123 7370.000000
2280.396973 6378.000000
2281.516602 6470.000000
2282.635742 7168.000000
2283.754639 7603.000000
2284.872803 7193.000000
2285.989990 5873.000000
2287.106201 6425.000000
2288.222168 7048.000000
2289.337402 6886.000000
2290.451904 7326.000000
2291.565186 5662.000000
2292.678467 6386.000000
2293.791016 6012.000000
2294.902832 5385.000000
2296.013916 6728.000000
2297.123779 6384.000000
2298.233154 6153.000000
2299.342285 6653.000000
2300.450439 6255.000000
2301.557617 6737.000000
2302.664551 5865.000000
2303.770752 6267.000000
2304.876465 6578.000000
2305.980713 6511.000000
2307.084717 5410.000000
2308.188232 5707.000000
2309.291260 6534.000000
2310.393066 7389.000000
2311.494141 7339.000000
2312.594727 6580.000000
2313.694824 5471.000000
2314.794189 6329.000000
2315.892090 6615.000000
2316.990479 6966.000000
2318.087402 8204.000000
2319.184082 6802.000000
2320.280273 5751.000000
2321.374756 6879.000000
2322.469238 7612.000000
2323.562988 5856.000000
2324.656494 6004.000000
2325.748291 6402.000000
2326.840088 6886.000000
2327.931152 6100.000000
2329.021484 6196.000000
2330.110840 6936.000000
2331.200195 6036.000000
2332.288330 6313.000000
2333.375977 6816.000000
2334.463379 6485.000000
2335.549072 6721.000000
2336.634521 7713.000000
2337.719727 6371.000000
2338.803955 6709.000000
2339.887207 5890.000000
2340.970215 6343.000000
2342.052246 7075.000000
2343.134033 6014.000000
2344.215088 7390.000000
2345.294922 6584.000000
2346.374268 5663.000000
2347.453125 6770.000000
2348.531494 6544.000000
2349.608398 6268.000000
2350.685059 6961.000000
2351.761475 6059.000000
2352.836914 6429.000000
2353.911377 5880.000000
2354.985596 6284.000000
2356.059082 6778.000000
2357.132080 6247.000000
2358.203857 7063.000000
2359.275391 6288.000000
2360.345947 6804.000000
2361.416260 7469.000000
2362.485596 7530.000000
2363.553955 6754.000000
2364.622070 6689.000000
2365.689453 7064.000000
2366.756348 7095.000000
2367.822510 6097.000000
2368.887451 6896.000000
2369.952393 6946.000000
2371.016602 6280.000000
2372.080078 6915.000000
2373.142334 5686.000000
2374.204590 6265.000000
2375.265869 6332.000000
2376.326904 5957.000000
2377.386719 6263.000000
2378.445801 7836.000000
2379.504883 6423.000000
2380.562988 7572.000000
2381.620361 6895.000000
2382.676758 8078.000000
2383.732910 7776.000000
2384.788574 6183.000000
2385.843506 6989.000000
2386.896973 6751.000000
2387.950684 6533.000000
2389.003418 6288.000000
2390.055664 6694.000000
2391.107178 6131.000000
2392.157715 6619.000000
2393.208008 6474.000000
2394.257324 6249.000000
2395.306641 6168.000000
2396.354492 6827.000000
2397.401855 7006.000000
2398.448975 6300.000000
2399.495117 6682.000000
2400.540527 6180.000000
2401.585205 6691.000000
2402.629883 7716.000000
2403.673096 7440.000000
2404.716309 6556.000000
2405.758057 5700.000000
2406.800049 6663.000000
2407.841309 7084.000000
2408.881592 6109.000000
2409.921143 6420.000000
2410.959717 6260.000000
2411.998535 6055.000000
2413.036133 6492.000000
2414.073486 6846.000000
2415.109619 7256.000000
2416.145508 6141.000000
2417.180664 6210.000000
2418.215332 6616.000000
2419.248535 7240.000000
2420.281982 6488.000000
2421.314453 6683.000000
2422.346680 6848.000000
2423.377441 7013.000000
2424.408203 6400.000000
2425.438477 6797.000000
2426.467529 6770.000000
2427.496582 6596.000000
2428.523926 7354.000000
2429.551758 6713.000000
2430.578369 7243.000000
2431.604736 6885.000000
2432.629639 7717.000000
2433.654785 6556.000000
2434.678955 7099.000000
2435.702881 6646.000000
2436.725586 5823.000000
2437.747559 6343.000000
2438.769287 6649.000000
2439.790283 6626.000000
2440.810791 6008.000000
2441.830078 6511.000000
2442.849365 6591.000000
2443.867676 8439.000000
2444.885742 6272.000000
2445.902344 6452.000000
2446.918945 6531.000000
2447.934814 5971.000000
2448.950684 7014.000000
2449.965088 6888.000000
2450.978760 5565.000000
2451.991943 7251.000000
2453.004883 5923.000000
2454.017090 7136.000000
2455.028320 6649.000000
2456.039307 7647.000000
2457.049561 6318.000000
2458.059326 7663.000000
2459.068115 5876.000000
2460.076172 5938.000000
2461.084229 6318.000000
2462.091064 7380.000000
2463.097656 5446.000000
2464.103027 7396.000000
2465.108154 6877.000000
2466.113037 5873.000000
2467.116699 6476.000000
2468.120117 6341.000000
2469.122559 7641.000000
2470.124756 7331.000000
2471.126465 6882.000000
2472.127197 6537.000000
2473.126953 7003.000000
2474.126709 6743.000000
2475.125488 5630.000000
2476.123779 6557.000000
2477.121094 7027.000000
2478.118164 6118.000000
2479.115234 6982.000000
2480.110840 5761.000000
2481.106445 7158.000000
2482.100342 6663.000000
2483.094238 8029.000000
2484.087646 6893.000000
2485.080566 6738.000000
2486.072510 7448.000000
2487.063721 7190.000000
2488.054688 6631.000000
2489.045166 5879.000000
2490.034668 6560.000000
2491.023438 6489.000000
2492.012207 5676.000000
2493.000000 6750.000000
2493.986572 6579.000000
2494.973145 8040.000000
2495.959229 6731.000000
2496.944580 7057.000000
2497.928955 8036.000000
2498.913086 6003.000000
2499.897217 6872.000000
2500.879883 5742.000000
2501.862061 6975.000000
2502.843750 6885.000000
2503.824707 7223.000000
2504.805176 6481.000000
2505.785400 5736.000000
2506.764160 6243.000000
2507.742676 7687.000000
2508.720703 6762.000000
2509.698242 7102.000000
2510.674805 6064.000000
2511.651123 5859.000000
2512.626709 6390.000000
2513.601807 6168.000000
2514.576416 6492.000000
2515.549805 7520.000000
2516.522949 6699.000000
2517.495850 6913.000000
2518.467773 6076.000000
2519.438965 6804.000000
2520.409668 6933.000000
2521.380127 7770.000000
2522.349854 8039.000000
2523.318604 6141.000000
2524.286621 6161.000000
2525.254639 7794.000000
2526.221680 6281.000000
2527.188477 5507.000000
2528.154053 7242.000000
2529.119629 6971.000000
2530.084473 7724.000000
2531.048828 6382.000000
2532.011963 6387.000000
2532.975342 5861.000000
2533.937744 5955.000000
2534.899902 6672.000000
2535.860840 6381.000000
2536.821045 6114.000000
2537.781494 6095.000000
2538.740967 6726.000000
2539.699707 6849.000000
2540.657471 6679.000000
2541.615479 6172.000000
2542.572754 6766.000000
2543.529053 6088.000000
2544.485107 7114.000000
2545.439941 6227.000000
2546.395020 7660.000000
2547.349365 7028.000000
2548.302979 6965.000000
2549.255615 7153.000000
2550.208008 6698.000000
2551.159912 6881.000000
2552.111084 6308.000000
2553.061523 7534.000000
2554.011475 7322.000000
2554.961182 7365.000000
2555.910156 6614.000000
2556.858643 6168.000000
2557.805908 7093.000000
2558.753174 6257.000000
2559.699707 6530.000000
2560.645752 6744.000000
2561.590820 7361.000000
2562.535645 6719.000000
2563.479980 7182.000000
2564.423828 6861.000000
2565.367188 6660.000000
2566.309082 6531.000000
2567.251221 6570.000000
2568.192627 6169.000000
2569.133301 7163.000000
2570.073242 7237.000000
2571.013184 5630.000000
2571.952148 6121.000000
2572.890869 7539.000000
2573.828613 7139.000000
2574.766113 5439.000000
2575.702881 6948.000000
2576.638916 6698.000000
2577.574463 7450.000000
2578.509277 6278.000000
2579.444092 5963.000000
2580.377930 7053.000000
2581.311279 6980.000000
2582.243896 5877.000000
2583.176270 6880.000000
2584.107910 5423.000000
2585.039063 7043.000000
2585.969727 6944.000000
2586.899170 6878.000000
2587.828613 7269.000000
2588.757568 6507.000000
2589.686279 7570.000000
2590.613281 7400.000000
2591.540527 5917.000000
2592.467285 6826.000000
2593.393311 6290.000000
2594.319092 5648.000000
2595.243652 7532.000000
2596.167969 7574.000000
2597.091797 5356.000000
2598.015137 7296.000000
2598.937500 6261.000000
2599.859619 6825.000000
2600.781250 8357.000000
2601.702148 6416.000000
2602.622314 5769.000000
2603.542236 6371.000000
2604.461670 6395.000000
2605.380859 6359.000000
2606.299072 5816.000000
2607.216064 5959.000000
2608.133301 7247.000000
2609.050293 5851.000000
2609.966309 7546.000000
2610.881104 6617.000000
2611.796387 6639.000000
2612.710938 6515.000000
2613.624512 6554.000000
2614.538086 6149.000000
2615.450439 7594.000000
2616.362793 7035.000000
2617.274170 6750.000000
2618.185303 5665.000000
2619.095703 7174.000000
2620.005859 6569.000000
2620.915283 6118.000000
2621.824219 6580.000000
2622.732178 6259.000000
2623.640381 6804.000000
2624.547607 6583.000000
2625.454346 6981.000000
2626.360352 6052.000000
2627.266113 6615.000000
2628.171143 6433.000000
2629.075928 7771.000000
2629.979980 6467.000000
2630.883057 6349.000000
2631.786133 6395.000000
2632.688232 5570.000000
2633.590332 6739.000000
2634.492188 6935.000000
2635.392334 6710.000000
2636.292725 6370.000000
2637.192383 6373.000000
2638.091797 5959.000000
2638.989746 6854.000000
2639.888184 6740.000000
2640.786133 6357.000000
2641.683350 6111.000000
2642.579346 6150.000000
2643.475342 6976.000000
2644.371094 5984.000000
2645.266113 6450.000000
2646.160889 6539.000000
2647.054199 7148.000000
2647.947510 6260.000000
2648.840576 6724.000000
2649.733398 6408.000000
2650.624512 7430.000000
2651.515869 6432.000000
2652.406738 7556.000000
2653.296875 7312.000000
2654.186768 6556.000000
2655.075439 7233.000000
2655.964355 6632.000000
2656.852783 6584.000000
2657.740234 7268.000000
2658.626709 6413.000000
2659.513672 7110.000000
2660.399902 6760.000000
2661.285645 6792.000000
2662.170166 6501.000000
2663.054688 6326.000000
2663.938965 6156.000000
2664.822510 7032.000000
2665.705566 7713.000000
2666.587891 7219.000000
2667.469727 6221.000000
2668.350830 6601.000000
2669.232178 6004.000000
2670.112061 6610.000000
2670.992188 7366.000000
2671.871582 7215.000000
2672.750977 6195.000000
2673.629639 6157.000000
2674.506592 6444.000000
2675.384277 6748.000000
2676.261230 6326.000000
2677.137451 8110.000000
2678.013184 7179.000000
2678.888184 6173.000000
2679.763428 7749.000000
2680.637695 7001.000000
2681.511475 7280.000000
2682.384521 6926.000000
2683.257324 6162.000000
2684.129883 6098.000000
2685.001709 6975.000000
2685.872803 6549.000000
2686.743652 6825.000000
2687.614014 7125.000000
2688.484131 6641.000000
2689.352539 6283.000000
2690.221680 7403.000000
2691.090088 7066.000000
2691.958252 6642.000000
2692.825684 6930.000000
2693.691895 5874.000000
2694.558594 7142.000000
2695.424316 7372.000000
2696.290039 7093.000000
2697.154297 7877.000000
2698.019287 6565.000000
2698.882813 7264.000000
2699.746582 5853.000000
2700.608887 7411.000000
2701.471680 6786.000000
2702.333496 5863.000000
2703.194824 6856.000000
2704.056152 6771.000000
2704.916260 7382.000000
2705.776367 7329.000000
2706.635986 6651.000000
2707.495361 6816.000000
2708.353027 7119.000000
2709.210938 6909.000000
2710.069336 7194.000000
2710.926514 6731.000000
2711.782959 5981.000000
2712.638916 6891.000000
2713.494873 6046.000000
2714.350098 6912.000000
2715.204590 6134.000000
2716.058594 6795.000000
2716.912598 7327.000000
2717.765625 6332.000000
2718.618896 6637.000000
2719.470459 7753.000000
2720.322510 6747.000000
2721.174316 6243.000000
2722.024902 6465.000000
2722.875488 6690.000000
2723.725586 7143.000000
2724.574951 6974.000000
2725.424316 6942.000000
2726.272461 6586.000000
2727.120117 6556.000000
2727.968262 7018.000000
2728.815186 6865.000000
2729.662598 5520.000000
2730.508545 7468.000000
2731.353760 7012.000000
2732.199463 6416.000000
2733.044189 6922.000000
2733.888916 7376.000000
2734.732422 6861.000000
2735.576172 7745.000000
2736.419189 7045.000000
2737.261719 5989.000000
2738.103271 6265.000000
2738.945313 6806.000000
2739.786377 6903.000000
2740.627197 5723.000000
2741.467773 5930.000000
2742.307129 7751.000000
2743.146484 6829.000000
2743.985840 6879.000000
2744.823975 6795.000000
2745.661621 7880.000000
2746.499268 6282.000000
2747.336426 7142.000000
2748.173340 6163.000000
2749.009766 5991.000000
2749.844971 6556.000000
2750.680420 6208.000000
2751.515381 6328.000000
2752.349609 6167.000000
2753.183594 6879.000000
2754.017090 6785.000000
2754.850586 7880.000000
2755.683105 6761.000000
2756.515137 7255.000000
2757.346680 6750.000000
2758.178223 7075.000000
2759.008789 7105.000000
2759.839600 7279.000000
2760.669189 7283.000000
2761.498779 6621.000000
2762.328125 7242.000000
2763.156738 6767.000000
2763.984863 6763.000000
2764.812500 6810.000000
2765.640137 6623.000000
2766.467285 7924.000000
2767.293701 5799.000000
2768.119629 7466.000000
2768.945068 6896.000000
2769.770264 7823.000000
2770.595459 7049.000000
2771.419434 6847.000000
2772.243408 6544.000000
2773.067383 7641.000000
2773.890137 6615.000000
2774.713135 6918.000000
2775.534912 6858.000000
2776.356689 6897.000000
2777.178467 6482.000000
2777.999268 7931.000000
2778.819336 6477.000000
2779.639648 6936.000000
2780.459473 7231.000000
2781.279297 6429.000000
2782.097168 5926.000000
2782.916260 7990.000000
2783.734131 6489.000000
2784.551758 6694.000000
2785.368896 7207.000000
2786.185547 7233.000000
2787.001953 7205.000000
2787.817871 6251.000000
2788.633545 5868.000000
2789.448242 6386.000000
2790.263428 6971.000000
2791.077881 7062.000000
2791.891846 6526.000000
2792.705566 7360.000000
2793.518066 8756.000000
2794.330811 6946.000000
2795.143066 7405.000000
2795.954834 7189.000000
2796.765869 7336.000000
2797.577637 6492.000000
2798.388184 7197.000000
2799.198730 7018.000000
2800.007813 7391.000000
2800.817627 8193.000000
2801.626709 7748.000000
2802.435547 6578.000000
2803.243896 7160.000000
2804.051270 6162.000000
2804.859131 6487.000000
2805.666260 6936.000000
2806.473145 6948.000000
2807.278809 7241.000000
2808.084961 6612.000000
2808.890381 6471.000000
2809.695801 7244.000000
2810.500488 6212.000000
2811.304199 7606.000000
2812.108398 7537.000000
2812.912109 6311.000000
2813.715576 6065.000000
2814.517578 6572.000000
2815.320313 7289.000000
2816.122314 7743.000000
2816.924072 6107.000000
2817.725342 6510.000000
2818.526123 7317.000000
2819.326416 6478.000000
2820.126953 6642.000000
2820.926514 8003.000000
2821.725586 7165.000000
2822.524658 6447.000000
2823.323486 6876.000000
2824.121826 6312.000000
2824.919189 7035.000000
2825.716797 6975.000000
2826.513672 6671.000000
2827.310791 7357.000000
2828.107178 8148.000000
2828.902832 6959.000000
2829.698486 7322.000000
2830.493896 7571.000000
2831.288818 7454.000000
2832.083008 6588.000000
2832.877197 6811.000000
2833.671143 5688.000000
2834.464600 6851.000000
2835.257324 7145.000000
2836.049805 8192.000000
2836.842285 7679.000000
2837.634521 7744.000000
2838.426270 6374.000000
2839.217041 6770.000000
2840.007813 8821.000000
2840.798828 7510.000000
2841.588867 6240.000000
2842.378418 7705.000000
2843.168213 7125.000000
2843.957031 7351.000000
2844.745850 7833.000000
2845.534668 7725.000000
2846.322510 7491.000000
2847.109863 7163.000000
2847.897461 7418.000000
2848.684570 7295.000000
2849.470947 6634.000000
2850.257324 7406.000000
2851.043457 7194.000000
2851.829102 7517.000000
2852.613770 7170.000000
2853.398926 6937.000000
2854.183838 7445.000000
2854.968018 7072.000000
2855.752197 6918.000000
2856.535156 8181.000000
2857.318359 6823.000000
2858.101318 6759.000000
2858.883789 7792.000000
2859.666016 6285.000000
2860.447754 6594.000000
2861.229248 7599.000000
2862.010986 7491.000000
2862.791992 7624.000000
2863.572266 6519.000000
2864.352295 6857.000000
2865.132324 8254.000000
2865.912109 7455.000000
2866.690918 8141.000000
2867.469971 7667.000000
2868.248535 6823.000000
2869.026855 7012.000000
2869.804688 7142.000000
2870.582275 6898.000000
2871.359619 7414.000000
2872.136719 6939.000000
2872.913330 6460.000000
2873.689453 7472.000000
2874.465576 7224.000000
2875.241211 8293.000000
2876.016602 7234.000000
2876.791504 6580.000000
2877.566162 7945.000000
2878.340820 6641.000000
2879.115234 7850.000000
2879.888916 6764.000000
2880.661865 7197.000000
2881.435547 6798.000000
2882.208252 7595.000000
2882.980957 7945.000000
2883.752930 8156.000000
2884.524658 6230.000000
2885.296875 6757.000000
2886.067871 6910.000000
2886.838379 6162.000000
2887.609375 8269.000000
2888.380371 7297.000000
2889.150635 7971.000000
2889.919922 7620.000000
2890.689453 6872.000000
2891.458984 7343.000000
2892.228027 7319.000000
2892.996582 7927.000000
2893.765137 7700.000000
2894.532715 7005.000000
2895.300781 6618.000000
2896.068359 7375.000000
2896.835938 8275.000000
2897.602295 7400.000000
2898.369629 6414.000000
2899.135742 7232.000000
2899.902100 7034.000000
2900.666992 8303.000000
2901.432373 7012.000000
2902.198242 6532.000000
2902.962646 7764.000000
2903.727051 7745.000000
2904.491699 8418.000000
2905.255371 6649.000000
2906.019775 8432.000000
2906.783447 6712.000000
2907.546387 8423.000000
2908.309082 6556.000000
2909.072266 8975.000000
2909.834961 6988.000000
2910.596436 6796.000000
2911.358398 6796.000000
