scanname Analyse076
timestamp 2017-02-10 21:48:15
ccdbias 890.107422
ccdgain 3.473401
sigmaread 8.960639
laserwavenum -0.310499
wavenumcorrection 0.212465
scancount 1
totalexposurems 10000
singleexposurems 10000
measurementstate Unknown
scanmode Manual
snr 343.038300 9.741974 8.192916
replacelist 5
672 53999.000000 30859.000000
754 53964.000000 14110.000000
858 54003.000000 15562.000000
889 53981.000000 21010.000000
948 53998.000000 19451.000000
peaks 118
277.988892 0.728061 0.000000 1.478359 0.000189
284.633453 0.727913 0.000000 0.831742 0.000063
293.767242 0.730145 0.000000 0.618669 0.000029
302.919861 0.731205 0.000000 0.157502 0.000023
330.135254 0.749269 0.000000 0.857305 0.000144
342.123810 0.752313 0.000000 0.778138 0.000035
349.415833 0.755682 0.000000 0.671216 0.000025
360.411713 0.758842 0.000000 0.644806 0.000059
385.831238 0.758698 0.000000 1.358585 0.000300
417.438538 0.739490 0.000000 0.933051 0.000248
463.583282 0.777925 0.000000 0.502513 0.000040
487.216644 0.788856 0.000000 0.866891 0.000111
534.752136 0.791721 0.000000 0.692917 0.000153
559.376709 0.832395 0.000000 1.315994 0.000232
573.045837 0.838186 0.000000 0.263998 0.000072
582.241333 0.832818 0.000000 0.599001 0.000101
659.783081 0.865271 0.000000 0.894676 0.000137
673.014832 0.863204 0.000000 1.358482 0.000267
715.500061 0.884080 0.000000 5.535787 0.001171
724.677368 0.866409 0.000000 1.244807 0.000053
742.929749 0.891455 0.000000 1.015205 0.000114
756.900146 0.915861 0.000000 5.903869 0.000682
778.908752 0.918547 0.000000 8.418367 0.001323
832.902100 0.919625 0.000000 0.350412 0.000156
843.084167 0.924931 0.000000 1.139799 0.000056
853.251343 0.950437 0.000000 1.062111 0.000281
868.508545 0.945968 0.000000 0.732595 0.000153
937.317444 1.024764 0.000000 0.772692 0.000423
953.968201 1.001782 0.000000 3.317377 0.001031
1013.330994 1.048538 0.000000 2.068473 0.000796
1026.587891 1.061442 0.000000 0.705728 0.000277
1033.861572 1.050734 0.000000 0.768395 0.000099
1044.006714 1.058292 0.000000 4.215609 0.001387
1104.254028 1.080824 0.000000 2.309818 0.000641
1117.392944 1.122170 0.000000 2.375972 0.000683
1134.316284 1.098662 0.000000 1.927989 0.000865
1149.996460 1.081580 0.000000 2.376739 0.000983
1174.346313 1.115219 0.000000 1.489045 0.000506
1187.391357 1.121352 0.000000 0.882084 0.000073
1210.461426 1.197328 0.000000 0.958182 0.000281
1222.290771 1.210340 0.000000 1.543542 0.000581
1231.662354 1.191652 0.000000 1.057347 0.000306
1259.719482 1.231528 0.000000 3.130162 0.001469
1281.035400 1.173787 0.000000 0.327862 0.000462
1312.397339 1.239277 0.000000 1.759871 0.000697
1330.176270 1.302721 0.000000 2.629500 0.001446
1347.693115 1.315225 0.000000 0.931482 0.000800
1389.739380 1.296610 0.000000 0.603488 0.000267
1414.417480 1.380837 0.000000 2.816647 0.001729
1428.957031 1.405344 0.000000 1.334632 0.000186
1433.912354 1.439151 0.000000 1.815932 0.000897
1446.983154 1.432260 0.000000 1.586372 0.000571
1459.739502 1.428970 0.000000 2.084938 0.001485
1489.696045 1.507904 0.000000 4.044860 0.002556
1517.725586 1.454587 0.000000 0.292165 0.000165
1532.819580 1.545808 0.000000 0.946053 0.001067
1547.906738 1.568220 0.000000 0.433086 0.000310
1558.042603 1.594315 0.000000 1.449452 0.000932
1563.617676 1.586784 0.000000 0.764118 0.000161
1577.773315 1.586978 0.000000 1.467812 0.001439
1606.684326 1.582278 0.000000 0.275957 0.000076
1616.364136 1.597561 0.000000 2.012970 0.001831
1655.403931 1.659759 0.000000 0.148527 0.000089
1671.198364 1.778113 0.000000 1.545354 0.001174
1687.912598 1.805316 0.000000 0.751283 0.000524
1698.861328 1.823487 0.000000 1.174762 0.001605
1711.486572 1.798182 0.000000 0.856575 0.000862
1762.317383 1.867732 0.000000 0.962376 0.000673
1778.648926 2.003179 0.000000 5.667306 0.005710
1796.443481 2.009005 0.000000 0.721856 0.000627
1810.253540 2.035945 0.000000 3.063023 0.003695
1856.329468 2.092114 0.000000 2.136191 0.002061
1868.114502 2.160562 0.000000 2.123497 0.003127
1876.608398 2.177222 0.000000 0.517288 0.000617
1890.083618 2.243272 0.000000 1.611722 0.002803
1901.850464 2.248711 0.000000 1.654665 0.001924
1912.912109 2.227921 0.000000 0.691446 0.000756
1943.385498 2.280431 0.000000 0.960874 0.000673
1978.785156 2.415256 0.000000 0.672395 0.000431
1992.463379 2.525415 0.000000 1.239550 0.002932
2014.610352 2.606916 0.000000 1.054782 0.001834
2024.674561 2.614604 0.000000 1.556169 0.002384
2046.856934 2.598846 0.000000 0.274487 0.001823
2063.536377 2.673043 0.000000 0.305447 0.001958
2100.007080 2.800918 0.000000 0.074637 0.000268
2108.984619 2.911951 0.000000 1.606394 0.004453
2132.015869 2.911722 0.000000 2.334331 0.005836
2143.038330 2.920528 0.000000 0.550358 0.001091
2161.193359 3.053336 0.000000 1.750816 0.005111
2175.506836 3.223961 0.000000 2.405430 0.004694
2185.066895 3.230991 0.000000 1.237284 0.004622
2193.613281 3.228419 0.000000 1.826223 0.003943
2211.834229 3.215228 0.000000 0.925367 0.004075
2253.047363 3.584282 0.000000 1.268564 0.005562
2270.279053 3.709670 0.000000 3.017257 0.007200
2286.434570 3.729254 0.000000 3.289920 0.011561
2293.663818 3.676430 0.000000 1.371636 0.004155
2306.776367 3.655016 0.000000 0.881833 0.003200
2313.153076 3.665174 0.000000 0.612361 0.000513
2325.467041 3.800189 0.000000 0.911158 0.005496
2340.186035 3.889007 0.000000 0.689537 0.005107
2356.244385 4.051190 0.000000 0.613326 0.001456
2373.422119 4.224785 0.000000 1.742463 0.006281
2388.013428 4.213955 0.000000 1.287200 0.005225
2406.022461 4.197443 0.000000 0.913362 0.006913
2437.051025 4.182305 0.000000 0.515653 0.001160
2448.826416 4.215770 0.000000 1.702322 0.003616
2464.541504 4.216496 0.000000 1.316958 0.004402
2475.654541 4.238191 0.000000 0.987540 0.005482
2488.828125 4.175260 0.000000 0.826268 0.003386
2504.182129 4.124448 0.000000 1.170175 0.009800
2534.812988 4.116703 0.000000 0.702138 0.005134
2546.044189 4.075000 0.000000 0.711787 0.001373
2557.640137 4.036422 0.000000 0.418062 0.002890
2568.845703 4.029689 0.000000 0.550541 0.001253
2581.678955 4.014649 0.000000 0.734417 0.003982
2592.828125 3.969162 0.000000 0.914826 0.002374
2606.587646 3.980358 0.000000 0.995126 0.003540
finalresult GLS_NoMatch 0
spectrum 2048
-97.290955 47726.000000
-94.664085 47726.000000
-92.039093 47911.000000
-89.415993 47522.000000
-86.794762 48143.000000
-84.175430 47765.000000
-81.557961 47877.000000
-78.942368 47475.000000
-76.328651 47792.000000
-73.716812 48105.000000
-71.106834 47858.000000
-68.498741 48065.000000
-65.892494 48007.000000
-63.288128 47937.000000
-60.685619 47829.000000
-58.084965 48253.000000
-55.486172 47702.000000
-52.889236 47122.000000
-50.294155 47479.000000
-47.700928 47406.000000
-45.109550 47738.000000
-42.520020 47284.000000
-39.932331 48103.000000
-37.346493 47911.000000
-34.762497 47499.000000
-32.180336 48269.000000
-29.600023 47639.000000
-27.021538 48358.000000
-24.444895 47799.000000
-21.870077 47782.000000
-19.297100 47529.000000
-16.725943 47510.000000
-14.156619 47219.000000
-11.589121 46115.000000
-9.023441 47695.000000
-6.459588 47507.000000
-3.897547 47968.000000
-1.337331 48086.000000
1.221077 47806.000000
3.777664 47079.000000
6.332446 47301.000000
8.885411 47988.000000
11.436576 47329.000000
13.985928 47492.000000
16.533484 47338.000000
19.079227 48005.000000
21.623178 48352.000000
24.165325 47325.000000
26.705675 47172.000000
29.244240 47127.000000
31.781008 47862.000000
34.315971 48189.000000
36.849159 46659.000000
39.380566 47639.000000
41.910179 46889.000000
44.437996 47564.000000
46.964054 46181.000000
49.488323 48298.000000
52.010822 47705.000000
54.531525 47274.000000
57.050472 47721.000000
59.567646 47527.000000
62.083042 47356.000000
64.596664 48315.000000
67.108528 48304.000000
69.618645 47431.000000
72.126968 47425.000000
74.633537 48033.000000
77.138359 47653.000000
79.641426 47551.000000
82.142715 47674.000000
84.642265 47809.000000
87.140060 47646.000000
89.636124 48278.000000
92.130409 46786.000000
94.622955 48228.000000
97.113785 47055.000000
99.602844 46765.000000
102.090157 47617.000000
104.575745 47796.000000
107.059593 47583.000000
109.541695 48186.000000
112.022072 47426.000000
114.500725 47742.000000
116.977654 47540.000000
119.452827 46765.000000
121.926292 47169.000000
124.398026 48120.000000
126.868050 47224.000000
129.336319 47697.000000
131.802917 47687.000000
134.267761 48375.000000
136.730911 47772.000000
139.192322 46652.000000
141.652039 47198.000000
144.110031 47610.000000
146.566330 47987.000000
149.020920 48120.000000
151.473785 47108.000000
153.924973 47653.000000
156.374466 47360.000000
158.822235 47897.000000
161.268295 47404.000000
163.712677 45261.000000
166.155380 47619.000000
168.596390 47251.000000
171.035690 47741.000000
173.473282 46791.000000
175.909241 47345.000000
178.343460 47075.000000
180.776001 46854.000000
183.206894 47330.000000
185.636063 47143.000000
188.063583 47262.000000
190.489426 47637.000000
192.913589 47268.000000
195.336090 46795.000000
197.756897 46617.000000
200.176041 47456.000000
202.593521 47959.000000
205.009308 46345.000000
207.423447 46917.000000
209.835953 47565.000000
212.246780 47827.000000
214.655930 47702.000000
217.063446 46561.000000
219.469254 47802.000000
221.873474 47434.000000
224.275986 47206.000000
226.676880 47053.000000
229.076126 47463.000000
231.473709 47125.000000
233.869629 46644.000000
236.263931 47536.000000
238.656570 48082.000000
241.047592 47142.000000
243.436951 47394.000000
245.824692 47629.000000
248.210785 46944.000000
250.595245 47819.000000
252.978058 46053.000000
255.359299 47335.000000
257.738831 47338.000000
260.116791 47507.000000
262.493073 46422.000000
264.867798 46351.000000
267.240875 46094.000000
269.612305 47785.000000
271.982086 47542.000000
274.350311 48100.000000
276.716888 47674.000000
279.081879 47204.000000
281.445251 47834.000000
283.806976 47724.000000
286.167114 46795.000000
288.525635 48017.000000
290.882568 47401.000000
293.237885 47577.000000
295.591614 48079.000000
297.943695 47987.000000
300.294220 47633.000000
302.643158 47545.000000
304.990448 47102.000000
307.336212 47573.000000
309.680298 47482.000000
312.022858 46563.000000
314.363800 46422.000000
316.703125 46764.000000
319.040894 46934.000000
321.377106 45892.000000
323.711670 47687.000000
326.044678 47480.000000
328.376129 47991.000000
330.705994 47363.000000
333.034271 47600.000000
335.360931 46763.000000
337.686096 47653.000000
340.009644 47678.000000
342.331635 47911.000000
344.652069 46428.000000
346.970886 46267.000000
349.288147 47974.000000
351.603882 48139.000000
353.918030 47030.000000
356.230591 47609.000000
358.541595 47478.000000
360.851074 46993.000000
363.159027 47571.000000
365.465363 48247.000000
367.770111 47519.000000
370.073395 47480.000000
372.375061 47733.000000
374.675232 47667.000000
376.973846 47650.000000
379.270905 48267.000000
381.566406 47852.000000
383.860382 48102.000000
386.152771 48698.000000
388.443665 48347.000000
390.733032 47722.000000
393.020813 47671.000000
395.307068 47432.000000
397.591827 46940.000000
399.874969 47966.000000
402.156677 47600.000000
404.436859 47883.000000
406.715454 46716.000000
408.992523 47579.000000
411.268066 47351.000000
413.542084 47587.000000
415.814667 47745.000000
418.085632 47692.000000
420.355103 47634.000000
422.623077 46826.000000
424.889496 46769.000000
427.154419 47646.000000
429.417877 47635.000000
431.679749 47472.000000
433.940155 47960.000000
436.199005 47302.000000
438.456390 47792.000000
440.712280 48302.000000
442.966675 48132.000000
445.219543 48445.000000
447.470856 47084.000000
449.720764 47803.000000
451.969086 47611.000000
454.215973 48260.000000
456.461395 47467.000000
458.705261 47547.000000
460.947632 47211.000000
463.188507 48309.000000
465.427979 47272.000000
467.665863 48590.000000
469.902313 48058.000000
472.137238 47901.000000
474.370697 46558.000000
476.602722 47264.000000
478.833221 48183.000000
481.062225 47551.000000
483.289764 47698.000000
485.515808 47960.000000
487.740417 47385.000000
489.963562 48014.000000
492.185242 47514.000000
494.405365 47339.000000
496.624084 48260.000000
498.841309 47686.000000
501.057159 48440.000000
503.271393 47840.000000
505.484314 47567.000000
507.695648 47541.000000
509.905548 47088.000000
512.114014 47500.000000
514.321106 47312.000000
516.526611 47479.000000
518.730713 47397.000000
520.933289 47820.000000
523.134460 47367.000000
525.334290 47227.000000
527.532593 46955.000000
529.729370 48685.000000
531.924805 48113.000000
534.118713 48338.000000
536.311279 46474.000000
538.502319 47239.000000
540.691956 47922.000000
542.880188 47027.000000
545.066895 46849.000000
547.252136 47140.000000
549.436096 47750.000000
551.618469 47541.000000
553.799500 47798.000000
555.979004 47950.000000
558.157227 48065.000000
560.333923 47979.000000
562.509216 47563.000000
564.683105 47485.000000
566.855530 48075.000000
569.026550 47925.000000
571.196106 47606.000000
573.364380 48714.000000
575.531128 47503.000000
577.696411 47653.000000
579.860291 47837.000000
582.022888 48208.000000
584.183960 47972.000000
586.343628 48350.000000
588.501953 48170.000000
590.658752 47790.000000
592.814209 47295.000000
594.968262 48148.000000
597.120972 47861.000000
599.272156 46696.000000
601.421997 47220.000000
603.570496 47293.000000
605.717407 47867.000000
607.863098 47498.000000
610.007385 47491.000000
612.150208 47004.000000
614.291565 47775.000000
616.431702 47502.000000
618.570313 46259.000000
620.707642 48258.000000
622.843506 47353.000000
624.977966 47137.000000
627.110962 46832.000000
629.242798 47282.000000
631.373169 47428.000000
633.502136 47227.000000
635.629639 47506.000000
637.755859 47804.000000
639.880554 46627.000000
642.004028 47504.000000
644.126160 47114.000000
646.246826 47180.000000
648.366150 47400.000000
650.484070 48403.000000
652.600647 48320.000000
654.715820 47536.000000
656.829651 47408.000000
658.942017 48173.000000
661.053162 47838.000000
663.162903 48529.000000
665.271179 47307.000000
667.378296 47685.000000
669.483948 47137.000000
671.588135 48052.000000
673.691101 48281.000000
675.792664 46946.000000
677.892883 48633.000000
679.991699 47243.000000
682.089172 47672.000000
684.185364 46981.000000
686.280090 47744.000000
688.373596 46978.000000
690.465759 47373.000000
692.556396 45983.000000
694.645813 47350.000000
696.733948 47491.000000
698.820618 47979.000000
700.906067 47270.000000
702.989990 48834.000000
705.072693 48073.000000
707.154114 48058.000000
709.234070 46354.000000
711.312805 47740.000000
713.390076 48432.000000
715.466064 47379.000000
717.540771 47799.000000
719.614197 46921.000000
721.686096 47704.000000
723.756836 46551.000000
725.826233 48202.000000
727.894226 47510.000000
729.960876 47602.000000
732.026306 46887.000000
734.090393 48154.000000
736.153137 47815.000000
738.214539 47371.000000
740.274658 47388.000000
742.333374 47930.000000
744.390869 47392.000000
746.447083 47510.000000
748.501892 47273.000000
750.555420 47543.000000
752.607544 46488.000000
754.658447 48217.000000
756.708130 47244.000000
758.756348 47622.000000
760.803345 47739.000000
762.849060 46916.000000
764.893372 48598.000000
766.936401 48188.000000
768.978210 39037.000000
771.018677 46945.000000
773.057739 47644.000000
775.095642 47884.000000
777.132202 48025.000000
779.167542 48586.000000
781.201538 48210.000000
783.234131 47028.000000
785.265564 48416.000000
787.295593 41827.000000
789.324341 48001.000000
791.351929 47660.000000
793.378174 47593.000000
795.403015 48149.000000
797.426758 48402.000000
799.449097 47586.000000
801.470215 48080.000000
803.489990 47262.000000
805.508484 49145.000000
807.525757 47376.000000
809.541626 47140.000000
811.556335 48240.000000
813.569702 47540.000000
815.581848 47706.000000
817.592773 47848.000000
819.602356 47403.000000
821.610718 48725.000000
823.617676 48208.000000
825.623413 47965.000000
827.627930 48228.000000
829.631165 48342.000000
831.633118 47545.000000
833.633789 47936.000000
835.633240 48042.000000
837.631348 47676.000000
839.628357 46971.000000
841.623962 47710.000000
843.618408 47967.000000
845.611511 47760.000000
847.603394 47132.000000
849.593933 48335.000000
851.583191 47164.000000
853.571411 48030.000000
855.558228 48228.000000
857.543823 47556.000000
859.528137 46786.000000
861.511353 47708.000000
863.493164 47504.000000
865.473755 48132.000000
867.453064 46252.000000
869.431213 46933.000000
871.408020 47795.000000
873.383545 47988.000000
875.358032 47780.000000
877.331055 47939.000000
879.303040 48574.000000
881.273682 47569.000000
883.243164 47933.000000
885.211304 48368.000000
887.178284 48803.000000
889.143921 47912.000000
891.108398 48198.000000
893.071655 47982.000000
895.033691 47484.000000
896.994446 48158.000000
898.953979 47619.000000
900.912231 47296.000000
902.869385 47620.000000
904.825378 47945.000000
906.779968 47096.000000
908.733337 47450.000000
910.685547 47557.000000
912.636536 47564.000000
914.586243 46822.000000
916.534790 47683.000000
918.482117 47831.000000
920.428162 47905.000000
922.372925 47913.000000
924.316650 47627.000000
926.259216 48114.000000
928.200500 48347.000000
930.140442 47546.000000
932.079285 48267.000000
934.016846 48485.000000
935.953186 48093.000000
937.888367 48153.000000
939.822266 47931.000000
941.755066 48105.000000
943.686646 47221.000000
945.617065 48831.000000
947.546265 47590.000000
949.474121 46973.000000
951.400940 47333.000000
953.326477 47971.000000
955.250732 48585.000000
957.173889 47933.000000
959.095886 47266.000000
961.016602 46715.000000
962.936157 47583.000000
964.854553 48589.000000
966.771912 47502.000000
968.687805 47560.000000
970.602600 47802.000000
972.516174 48039.000000
974.428589 47590.000000
976.339783 47491.000000
978.249817 48477.000000
980.158569 47719.000000
982.066284 47850.000000
983.972778 47584.000000
985.878052 48302.000000
987.782227 47157.000000
989.685181 47725.000000
991.586914 47191.000000
993.487488 47564.000000
995.386902 47391.000000
997.285095 48666.000000
999.182129 47455.000000
1001.077942 47502.000000
1002.972595 46339.000000
1004.866150 48442.000000
1006.758423 46864.000000
1008.649780 47878.000000
1010.539795 48705.000000
1012.428589 47379.000000
1014.316223 47692.000000
1016.202698 46991.000000
1018.088013 47259.000000
1019.972168 47915.000000
1021.855103 48071.000000
1023.737000 47856.000000
1025.617554 48826.000000
1027.497070 48078.000000
1029.375610 47842.000000
1031.252808 48586.000000
1033.128662 47704.000000
1035.003540 48083.000000
1036.877441 47343.000000
1038.749878 46933.000000
1040.621338 47217.000000
1042.491455 48476.000000
1044.360596 48483.000000
1046.228516 48226.000000
1048.095337 46954.000000
1049.961060 47274.000000
1051.825562 47492.000000
1053.688965 47534.000000
1055.551025 47560.000000
1057.412109 47977.000000
1059.272095 47525.000000
1061.130737 47288.000000
1062.988281 48152.000000
1064.844727 47272.000000
1066.700073 48023.000000
1068.554199 48177.000000
1070.407471 47644.000000
1072.259277 47677.000000
1074.110107 47793.000000
1075.959717 47814.000000
1077.808105 48219.000000
1079.655640 46055.000000
1081.501831 48347.000000
1083.346802 47738.000000
1085.190918 48544.000000
1087.033691 48398.000000
1088.875244 47418.000000
1090.716064 48549.000000
1092.555298 48196.000000
1094.393799 47904.000000
1096.230957 47905.000000
1098.066895 47128.000000
1099.901855 47326.000000
1101.735596 48589.000000
1103.568359 48337.000000
1105.399780 47835.000000
1107.230347 46697.000000
1109.059570 47443.000000
1110.887817 47557.000000
1112.714844 46950.000000
1114.540894 48582.000000
1116.365723 47667.000000
1118.189453 46819.000000
1120.011963 47847.000000
1121.833374 48143.000000
1123.653931 48096.000000
1125.473022 47462.000000
1127.291260 46946.000000
1129.108154 47158.000000
1130.924194 47330.000000
1132.739014 47444.000000
1134.552734 48432.000000
1136.365356 48127.000000
1138.176758 48336.000000
1139.987183 47900.000000
1141.796509 47300.000000
1143.604492 47020.000000
1145.411743 48114.000000
1147.217529 48063.000000
1149.022461 48527.000000
1150.826294 48585.000000
1152.628906 47872.000000
1154.430664 47864.000000
1156.230957 47922.000000
1158.030273 47870.000000
1159.828613 48102.000000
1161.625610 48651.000000
1163.421875 48107.000000
1165.216797 47885.000000
1167.010620 47608.000000
1168.803589 46275.000000
1170.595215 48257.000000
1172.385864 47458.000000
1174.175537 48027.000000
1175.963745 48055.000000
1177.751099 46586.000000
1179.537354 47127.000000
1181.322510 48204.000000
1183.106567 47974.000000
1184.889526 46331.000000
1186.671509 48132.000000
1188.452271 48138.000000
1190.232056 47677.000000
1192.010742 47069.000000
1193.788452 47329.000000
1195.564941 46800.000000
1197.340332 47351.000000
1199.114624 47533.000000
1200.887817 47310.000000
1202.660156 47591.000000
1204.431152 47271.000000
1206.201294 48327.000000
1207.970215 47834.000000
1209.738037 47644.000000
1211.505005 48155.000000
1213.270630 48031.000000
1215.035278 47007.000000
1216.798828 47435.000000
1218.561279 48068.000000
1220.322876 47246.000000
1222.083252 48077.000000
1223.842529 47659.000000
1225.600952 47906.000000
1227.358154 46937.000000
1229.114258 47516.000000
1230.869263 48426.000000
1232.623413 47995.000000
1234.376221 48217.000000
1236.128052 47919.000000
1237.879028 47956.000000
1239.628662 49017.000000
1241.377441 46962.000000
1243.124878 47515.000000
1244.871582 47441.000000
1246.617065 47511.000000
1248.361694 47534.000000
1250.104980 47204.000000
1251.847290 47411.000000
1253.588501 48590.000000
1255.328857 48921.000000
1257.068115 48220.000000
1258.806152 47453.000000
1260.543335 46854.000000
1262.279297 47848.000000
1264.014282 47465.000000
1265.748291 46663.000000
1267.481323 48055.000000
1269.213135 47765.000000
1270.943970 47572.000000
1272.673584 46723.000000
1274.402344 48091.000000
1276.130005 48265.000000
1277.856567 48454.000000
1279.582275 48464.000000
1281.306641 47519.000000
1283.030151 48743.000000
1284.752686 47098.000000
1286.474243 47316.000000
1288.194580 47840.000000
1289.913940 47331.000000
1291.632202 46702.000000
1293.349487 47508.000000
1295.065796 48264.000000
1296.780884 47624.000000
1298.494995 47873.000000
1300.208130 48248.000000
1301.920410 47563.000000
1303.631470 45623.000000
1305.341553 48792.000000
1307.050537 47702.000000
1308.758301 47344.000000
1310.465454 46923.000000
1312.171143 48183.000000
1313.876099 47036.000000
1315.580078 47756.000000
1317.282837 48032.000000
1318.984619 47495.000000
1320.685547 48010.000000
1322.385132 45036.000000
1324.083862 46728.500000
1325.781860 48421.000000
1327.478516 47518.000000
1329.174072 46820.000000
1330.868774 47131.000000
1332.562256 48167.000000
1334.254883 48502.000000
1335.946655 46627.000000
1337.637085 47771.000000
1339.326782 47454.000000
1341.015381 47850.000000
1342.702881 46347.000000
1344.389404 48345.000000
1346.074829 47325.000000
1347.759277 48087.000000
1349.442871 46755.000000
1351.125244 47653.000000
1352.806641 48074.000000
1354.487183 47418.000000
1356.166504 47251.000000
1357.845215 48066.000000
1359.522583 47462.000000
1361.198853 48288.000000
1362.874146 48384.000000
1364.548706 47414.000000
1366.222046 47552.000000
1367.894409 47195.000000
1369.565796 48884.000000
1371.236206 47264.000000
1372.905518 47880.000000
1374.573853 48283.000000
1376.241333 48054.000000
1377.907715 47511.000000
1379.573120 47960.000000
1381.237549 48148.000000
1382.900757 47997.000000
1384.563354 48287.000000
1386.224609 47635.000000
1387.885010 47396.000000
1389.544312 47556.000000
1391.202637 47510.000000
1392.860229 47201.000000
1394.516602 47514.000000
1396.172119 47020.000000
1397.826416 47724.000000
1399.479858 48176.000000
1401.132202 47910.000000
1402.783813 47632.000000
1404.434204 46784.000000
1406.083496 47748.000000
1407.732056 46484.000000
1409.379517 46045.000000
1411.026001 47760.000000
1412.671631 47764.000000
1414.316284 48017.000000
1415.959717 46871.000000
1417.602295 46890.000000
1419.243774 47176.000000
1420.884399 47499.000000
1422.524048 47502.000000
1424.162598 48071.000000
1425.800293 47368.000000
1427.436890 47643.000000
1429.072510 47899.000000
1430.707397 47644.000000
1432.341187 48211.000000
1433.973877 47880.000000
1435.605591 48342.000000
1437.236450 47839.000000
1438.866211 48020.000000
1440.494873 46046.000000
1442.122925 48007.000000
1443.749878 47828.000000
1445.375610 47818.000000
1447.000732 47871.000000
1448.624756 47484.000000
1450.247803 48011.000000
1451.869873 47963.000000
1453.490845 46752.000000
1455.110840 47722.000000
1456.730103 47104.000000
1458.348022 48282.000000
1459.965332 48376.500000
1461.581665 48471.000000
1463.196777 46720.000000
1464.811035 47731.000000
1466.424438 48787.000000
1468.036743 48403.000000
1469.648193 47786.000000
1471.258789 47655.000000
1472.868164 48018.000000
1474.476563 48074.000000
1476.084106 47799.000000
1477.690674 47319.000000
1479.296509 48638.000000
1480.901123 47635.000000
1482.504883 48528.000000
1484.107422 47242.000000
1485.709351 48445.000000
1487.310059 48419.000000
1488.910034 48382.000000
1490.508911 47712.000000
1492.106934 47492.000000
1493.703857 47374.000000
1495.299927 47654.000000
1496.895020 48008.000000
1498.489136 48528.000000
1500.082520 47488.000000
1501.674805 48447.000000
1503.265869 47788.000000
1504.856445 47175.000000
1506.445679 47524.000000
1508.034302 47869.000000
1509.621826 47451.000000
1511.208252 47159.000000
1512.793945 47837.000000
1514.378540 47421.000000
1515.962280 47834.000000
1517.544922 47846.000000
1519.126831 47479.000000
1520.707642 47319.000000
1522.287720 47934.000000
1523.866577 47839.000000
1525.444580 47680.000000
1527.021851 47673.000000
1528.597900 48299.000000
1530.173218 48136.000000
1531.747437 47757.000000
1533.320923 48509.000000
1534.893188 48066.000000
1536.464722 47653.000000
1538.035278 47575.000000
1539.604980 47682.000000
1541.173462 48562.000000
1542.741211 47389.000000
1544.308105 48355.000000
1545.873779 47146.000000
1547.438721 47996.000000
1549.002563 48960.000000
1550.565796 46553.000000
1552.127686 47685.000000
1553.688965 47985.000000
1555.249146 48273.000000
1556.808594 48207.000000
1558.366943 48150.000000
1559.924561 47682.000000
1561.481079 46965.000000
1563.036377 48133.000000
1564.591064 47646.000000
1566.145020 48320.000000
1567.697998 47632.000000
1569.249634 48286.000000
1570.800537 48125.000000
1572.350708 47715.000000
1573.899902 47704.000000
1575.447754 48212.000000
1576.995117 48536.000000
1578.541504 48238.000000
1580.087036 48922.000000
1581.631592 47337.000000
1583.174927 47651.000000
1584.717651 47400.000000
1586.259521 47581.000000
1587.800293 47287.000000
1589.340088 48269.000000
1590.879150 47378.000000
1592.417114 48128.000000
1593.954590 47862.000000
1595.490723 48115.000000
1597.025757 47270.000000
1598.560303 47748.000000
1600.093872 48028.000000
1601.626587 47989.000000
1603.157715 47730.000000
1604.688599 47816.000000
1606.218628 48223.000000
1607.747437 47940.000000
1609.275146 47907.000000
1610.802246 48052.000000
1612.328613 48064.000000
1613.854004 47747.000000
1615.378540 48188.000000
1616.901733 48230.000000
1618.424194 48429.000000
1619.945923 47453.000000
1621.466797 47137.000000
1622.986206 47488.500000
1624.505127 47840.000000
1626.023315 47906.000000
1627.540649 48062.000000
1629.056885 47610.000000
1630.571777 47006.000000
1632.086182 47240.000000
1633.599854 48231.000000
1635.112427 47236.000000
1636.623779 48032.000000
1638.134766 47537.000000
1639.644653 47757.000000
1641.153687 47790.000000
1642.661377 48307.000000
1644.168701 47844.000000
1645.675171 46942.000000
1647.180664 47790.000000
1648.685303 47216.000000
1650.188477 47802.000000
1651.691040 47407.000000
1653.193237 47680.000000
1654.694092 47412.000000
1656.193848 46392.000000
1657.692749 48035.000000
1659.191284 47487.000000
1660.688599 47819.000000
1662.185181 48059.000000
1663.680176 47549.000000
1665.174927 47663.000000
1666.668823 48835.000000
1668.161743 48425.000000
1669.653320 47991.500000
1671.144409 47558.000000
1672.634888 47933.000000
1674.124268 48069.000000
1675.612183 47053.000000
1677.099854 47158.000000
1678.586548 47969.000000
1680.072388 48678.000000
1681.557373 47922.000000
1683.040894 47851.000000
1684.524170 47600.000000
1686.006592 48090.000000
1687.487915 47719.000000
1688.967773 47821.000000
1690.447388 48546.000000
1691.926270 47445.000000
1693.404175 48007.000000
1694.881104 47917.000000
1696.356812 48338.000000
1697.832153 47968.000000
1699.306274 47758.000000
1700.779785 48503.000000
1702.251831 48419.000000
1703.723633 47077.000000
1705.194458 47632.000000
1706.664429 46968.000000
1708.133057 48853.000000
1709.601196 48291.000000
1711.068604 47717.000000
1712.534912 48424.000000
1714.000610 48227.000000
1715.464600 47858.000000
1716.928467 48058.000000
1718.391479 47145.000000
1719.853516 47691.000000
1721.314331 47506.000000
1722.774536 48621.000000
1724.234009 48392.000000
1725.692627 47925.000000
1727.150269 48011.000000
1728.606567 47721.000000
1730.062622 48010.000000
1731.517700 47576.000000
1732.971802 48087.000000
1734.424683 47118.000000
1735.877319 47978.000000
1737.328857 47264.000000
1738.779663 48073.000000
1740.229492 47425.000000
1741.677979 48144.000000
1743.126099 46617.000000
1744.573364 47500.000000
1746.019897 47357.000000
1747.464844 47286.000000
1748.909546 47780.000000
1750.353394 48186.000000
1751.796387 48456.000000
1753.237915 47414.000000
1754.679199 47663.000000
1756.119629 47699.500000
1757.559082 47736.000000
1758.997559 48744.000000
1760.435059 48023.000000
1761.872070 46503.000000
1763.308105 48157.000000
1764.743286 46944.000000
1766.177002 47865.000000
1767.610596 47571.000000
1769.043213 47333.000000
1770.474976 48279.000000
1771.905884 48255.000000
1773.335571 47613.000000
1774.764526 47838.000000
1776.192993 47742.000000
1777.620483 47279.000000
1779.046631 47787.000000
1780.472534 48370.000000
1781.897339 47084.000000
1783.321533 48435.000000
1784.744263 47374.000000
1786.166504 47466.000000
1787.588013 47107.000000
1789.008789 48052.000000
1790.428589 47835.000000
1791.847046 47764.000000
1793.265015 47148.000000
1794.682373 48469.000000
1796.098877 47963.000000
1797.513916 47505.000000
1798.928589 48184.000000
1800.342651 47413.000000
1801.755493 48078.000000
1803.167725 47019.000000
1804.578613 46986.000000
1805.989014 46279.000000
1807.398682 47614.000000
1808.807373 48021.000000
1810.214966 48585.000000
1811.622070 47552.000000
1813.028320 47622.000000
1814.433594 47408.000000
1815.837769 48030.000000
1817.241577 48050.000000
1818.644409 47769.000000
1820.046387 47956.000000
1821.447754 48156.000000
1822.847656 47700.000000
1824.246948 47528.000000
1825.645752 47447.000000
1827.043701 46564.000000
1828.440308 48368.000000
1829.836304 47316.000000
1831.231567 48117.000000
1832.626221 45877.000000
1834.019897 47948.000000
1835.412231 47160.000000
1836.804077 47689.000000
1838.195313 48093.000000
1839.585571 46894.000000
1840.974609 48020.000000
1842.363281 47941.000000
1843.750977 48073.000000
1845.137939 48231.000000
1846.523560 47119.000000
1847.908936 48155.000000
1849.293457 47665.000000
1850.677246 47751.000000
1852.059937 47715.000000
1853.441406 48650.000000
1854.822388 47525.000000
1856.202881 47747.000000
1857.582397 48294.000000
1858.960449 48127.000000
1860.338379 47720.000000
1861.715332 46254.000000
1863.091553 47899.000000
1864.466919 48032.000000
1865.840820 48421.000000
1867.214600 48344.000000
1868.587524 47820.000000
1869.959351 48013.000000
1871.330200 47087.000000
1872.700684 48609.000000
1874.070068 48029.000000
1875.438965 47973.000000
1876.806274 46850.000000
1878.173462 48006.000000
1879.539673 48026.000000
1880.905151 47291.000000
1882.269897 46607.000000
1883.633057 47239.000000
1884.996094 47092.000000
1886.358276 47804.000000
1887.719604 47527.000000
1889.079590 48393.000000
1890.439209 48283.000000
1891.798218 47945.000000
1893.156250 47392.000000
1894.513428 46731.000000
1895.869385 48105.000000
1897.225098 46437.000000
1898.579834 48233.000000
1899.933716 48424.000000
1901.286499 48131.000000
1902.638794 48157.000000
1903.990356 48065.000000
1905.341064 47230.000000
1906.690552 47456.000000
1908.039551 47338.000000
1909.387695 48253.000000
1910.735229 47922.000000
1912.082031 47776.000000
1913.427246 47271.000000
1914.772217 47907.000000
1916.116455 48627.000000
1917.459839 47576.000000
1918.801880 48003.000000
1920.143677 47387.000000
1921.484619 47135.000000
1922.824829 47874.000000
1924.164063 47724.000000
1925.502319 47690.000000
1926.839966 47498.000000
1928.176880 46979.000000
1929.512939 47287.000000
1930.847778 48449.000000
1932.182251 47368.000000
1933.515991 46747.000000
1934.848877 47814.000000
1936.180298 48259.000000
1937.511841 47722.000000
1938.842041 47440.000000
1940.171753 48283.000000
1941.500610 47920.000000
1942.828247 48175.000000
1944.155396 49007.000000
1945.481812 48172.000000
1946.807495 47514.000000
1948.131836 48260.000000
1949.455933 47405.000000
1950.779175 47762.000000
1952.101685 47603.000000
1953.423096 48216.000000
1954.743530 46651.000000
1956.063354 48013.000000
1957.382813 48480.000000
1958.701294 47237.000000
1960.018433 48093.000000
1961.335205 48201.000000
1962.651245 47518.000000
1963.966553 47460.000000
1965.280396 47827.000000
1966.593994 48393.000000
1967.906860 47810.000000
1969.218872 48076.000000
1970.530273 47975.000000
1971.840332 47754.000000
1973.149902 48183.000000
1974.458740 47881.000000
1975.766968 47447.000000
1977.073853 47962.000000
1978.380127 46787.000000
1979.686035 48519.000000
1980.990723 47650.000000
1982.294922 48058.000000
1983.597900 48395.000000
1984.900513 46455.000000
1986.202148 47958.000000
1987.503174 47272.000000
1988.802612 47952.000000
1990.102173 47498.000000
1991.400635 48713.000000
1992.698608 47987.000000
1993.994995 47915.000000
1995.291382 48199.000000
1996.586792 48495.000000
1997.881470 47538.000000
1999.175293 48302.000000
2000.467896 47437.000000
2001.760010 48266.000000
2003.051636 46917.000000
2004.342529 47553.000000
2005.631836 47807.000000
2006.920898 47214.000000
2008.209229 48088.000000
2009.496826 48027.000000
2010.783569 47439.000000
2012.069214 48453.000000
2013.354492 47699.000000
2014.638794 48021.000000
2015.922485 48482.000000
2017.204834 48010.000000
2018.486816 47525.000000
2019.768311 47294.000000
2021.048828 48178.000000
2022.328613 48019.000000
2023.607300 47275.000000
2024.885254 48185.000000
2026.162720 48124.000000
2027.439575 47680.000000
2028.714722 48278.000000
2029.989990 47354.000000
2031.264282 47978.000000
2032.537598 48067.000000
2033.810059 48112.000000
2035.082153 47819.000000
2036.353149 47020.000000
2037.623901 47467.000000
2038.893311 47979.000000
2040.161621 47304.000000
2041.429932 47382.000000
2042.697266 48144.000000
2043.963867 47997.000000
2045.229248 48303.000000
2046.494019 48073.000000
2047.758545 48567.000000
2049.021973 48187.000000
2050.284912 47570.000000
2051.545898 47873.000000
2052.807373 47941.000000
2054.067627 48151.000000
2055.327148 47574.000000
2056.585938 47840.000000
2057.843750 47127.000000
2059.101074 47894.000000
2060.357666 48070.000000
2061.612793 47547.000000
2062.867920 48440.000000
2064.122070 48417.000000
2065.375488 48391.000000
2066.628174 47167.000000
2067.879639 47711.000000
2069.130859 47628.000000
2070.381348 48358.000000
2071.631104 48615.000000
2072.879395 47478.000000
2074.127686 47538.000000
2075.375000 46612.000000
2076.621582 48403.000000
2077.867432 48025.000000
2079.112061 47065.000000
2080.356201 46424.000000
2081.599854 48481.000000
2082.842529 48030.000000
2084.083984 47145.000000
2085.325195 48070.000000
2086.565918 47684.000000
2087.805664 47225.000000
2089.044189 46937.000000
2090.282227 47806.000000
2091.519531 48263.000000
2092.756592 47432.000000
2093.992188 47954.000000
2095.227051 47874.000000
2096.461670 47937.000000
2097.695313 48399.000000
2098.927979 47905.000000
2100.159912 47185.000000
2101.391357 47547.000000
2102.621826 47246.000000
2103.851563 48021.000000
2105.081055 48007.000000
2106.308594 48034.000000
2107.536377 48050.000000
2108.763428 47728.000000
2109.989502 48521.000000
2111.214111 47502.000000
2112.438965 47059.000000
2113.662598 46869.000000
2114.885742 47807.000000
2116.107666 46473.000000
2117.329346 48011.000000
2118.550049 47166.000000
2119.770020 47990.000000
2120.989502 47867.000000
2122.207520 47469.000000
2123.425537 46934.000000
2124.642578 48191.000000
2125.859131 48123.000000
2127.073975 47399.000000
2128.289063 47626.000000
2129.503174 47028.000000
2130.716553 48306.000000
2131.929199 47843.000000
2133.140381 48190.000000
2134.351807 47471.000000
2135.562012 47232.000000
2136.771729 47984.000000
2137.979980 47789.000000
2139.188232 48280.000000
2140.395752 48073.000000
2141.602051 46483.000000
2142.807617 48025.000000
2144.012939 48326.000000
2145.217285 48432.000000
2146.420898 47614.000000
2147.624023 47803.000000
2148.825684 47342.000000
2150.027100 48680.000000
2151.227783 47700.000000
2152.427734 47959.000000
2153.626465 48006.000000
2154.824951 46895.000000
2156.022949 47700.000000
2157.219971 47921.000000
2158.416260 48787.000000
2159.611328 48572.000000
2160.806152 47767.000000
2162.000244 48392.000000
2163.193359 47874.000000
2164.385498 46990.000000
2165.577393 47980.000000
2166.768555 47562.000000
2167.958740 47621.000000
2169.148193 47472.000000
2170.337158 47071.000000
2171.525146 47856.000000
2172.712891 48127.000000
2173.899170 47943.000000
2175.084717 47224.000000
2176.270020 47887.000000
2177.454834 48016.000000
2178.638428 47526.000000
2179.821289 46355.000000
2181.003174 47532.000000
2182.184814 47967.000000
2183.365967 47289.000000
2184.545898 48239.000000
2185.724854 48275.000000
2186.903320 47520.000000
2188.081543 46982.000000
2189.258545 46625.000000
2190.434570 47155.000000
2191.610352 47746.000000
2192.785645 48307.000000
2193.959473 47207.000000
2195.132813 47738.000000
2196.305908 47725.000000
2197.477783 47516.000000
2198.649170 46718.000000
2199.820068 47498.000000
2200.989258 46912.000000
2202.158447 46273.000000
2203.327148 47521.000000
2204.494873 47932.000000
2205.661621 48072.000000
2206.827637 46793.000000
2207.993164 47130.000000
2209.158447 47785.000000
2210.322266 47069.000000
2211.485596 48381.000000
2212.647705 47574.000000
2213.810059 47640.000000
2214.971191 47070.000000
2216.131348 47074.000000
2217.291016 47470.000000
2218.450439 47155.000000
2219.608643 47367.000000
2220.765869 47456.000000
2221.922852 46952.000000
2223.079102 47216.000000
2224.234619 46998.000000
2225.389404 47477.000000
2226.543213 47368.000000
2227.696045 47676.000000
2228.849365 46859.000000
2230.000732 47532.000000
2231.151855 47625.000000
2232.302246 47212.000000
2233.452148 46016.000000
2234.601074 47391.000000
2235.749512 48415.000000
2236.896484 47190.000000
2238.043701 46568.000000
2239.189697 47508.000000
2240.335449 46383.000000
2241.479492 46238.000000
2242.623779 46840.000000
2243.767090 47369.000000
2244.909668 47608.000000
2246.051270 47746.000000
2247.192627 47664.000000
2248.333008 47101.000000
2249.472656 47166.000000
2250.611816 47732.000000
2251.749756 47665.000000
2252.887695 47288.000000
2254.024658 48211.000000
2255.160889 47175.000000
2256.296143 47376.000000
2257.430664 46234.000000
2258.564941 47125.000000
2259.698730 48091.000000
2260.831055 47282.000000
2261.962891 46633.000000
2263.094238 47172.000000
2264.224609 47021.000000
2265.354736 45351.000000
2266.483643 46748.000000
2267.612061 47371.000000
2268.739990 47836.000000
2269.866943 47294.000000
2270.993164 47459.000000
2272.118408 46721.000000
2273.243652 46962.000000
2274.368164 46989.000000
2275.491455 47507.000000
2276.614014 47039.000000
2277.736084 47429.000000
2278.857666 45945.000000
2279.978516 47014.000000
2281.098145 46891.000000
2282.217285 46262.000000
2283.336182 45621.000000
2284.454346 46117.000000
2285.571533 47376.000000
2286.687744 46850.000000
2287.803711 46316.000000
2288.918945 46430.000000
2290.033447 45925.000000
2291.146729 47536.000000
2292.260010 46909.000000
2293.372559 47296.000000
2294.484375 48024.000000
2295.595459 46478.000000
2296.705322 46872.000000
2297.814697 47110.000000
2298.923828 46589.000000
2300.031982 46883.000000
2301.139160 46448.000000
2302.246094 47284.000000
2303.352295 46944.000000
2304.458008 46581.000000
2305.562256 46573.000000
2306.666260 47689.000000
2307.769775 47363.000000
2308.872803 46588.000000
2309.974609 45763.000000
2311.075684 45734.000000
2312.176270 46467.000000
2313.276367 47661.000000
2314.375732 46688.000000
2315.473633 46401.000000
2316.572021 46005.000000
2317.668945 44823.000000
2318.765625 46195.000000
2319.861816 47228.000000
2320.956299 46085.000000
2322.050781 45423.000000
2323.144531 47090.000000
2324.238037 46827.000000
2325.329834 46447.000000
2326.421631 45951.000000
2327.512695 46722.000000
2328.603027 46561.000000
2329.692383 45927.000000
2330.781738 46838.000000
2331.869873 46562.000000
2332.957520 45952.000000
2334.044922 46265.000000
2335.130615 46099.000000
2336.216064 44900.000000
2337.301270 46340.000000
2338.385498 45885.000000
2339.468750 46771.000000
2340.551758 46119.000000
2341.633789 45459.000000
2342.715576 46524.000000
2343.796631 45130.000000
2344.876465 45782.000000
2345.955811 46697.000000
2347.034668 45622.000000
2348.113037 45809.000000
2349.189941 46012.000000
2350.266602 45332.000000
2351.343018 46194.000000
2352.418457 45789.000000
2353.492920 46279.000000
2354.567139 45828.000000
2355.640625 45396.000000
2356.713623 45980.000000
2357.785400 45082.000000
2358.856934 45802.000000
2359.927490 45220.000000
2360.997803 44555.000000
2362.067139 44471.000000
2363.135498 45164.000000
2364.203613 45241.000000
2365.270996 44840.000000
2366.337891 44857.000000
2367.404053 45794.000000
2368.468994 44933.000000
2369.533936 44803.000000
2370.598145 45516.000000
2371.661621 44825.000000
2372.723877 45980.000000
2373.786133 45478.000000
2374.847412 45374.000000
2375.908447 45872.000000
2376.968262 45450.000000
2378.027344 43772.000000
2379.086426 45249.000000
2380.144531 44077.000000
2381.201904 44772.000000
2382.258301 43685.000000
2383.314453 43781.000000
2384.370117 45306.000000
2385.425049 44509.000000
2386.478516 44787.000000
2387.532227 44965.000000
2388.584961 45226.000000
2389.637207 44629.000000
2390.688721 45322.000000
2391.739258 44770.000000
2392.789551 45010.000000
2393.838867 45228.000000
2394.888184 45213.000000
2395.936035 44507.000000
2396.983398 44344.000000
2398.030518 45028.000000
2399.076660 44605.000000
2400.122070 45074.000000
2401.166748 44490.000000
2402.211426 43441.000000
2403.254639 43640.000000
2404.297852 44498.000000
2405.339600 45248.000000
2406.381592 44343.000000
2407.422852 43906.000000
2408.463135 44825.000000
2409.502686 44420.000000
2410.541260 44528.000000
2411.580078 44858.000000
2412.617676 44241.000000
2413.655029 43785.000000
2414.691162 43216.000000
2415.727051 44276.000000
2416.762207 44169.000000
2417.796875 43766.000000
2418.830078 43114.000000
2419.863525 43787.000000
2420.895996 43451.000000
2421.928223 43247.000000
2422.958984 42985.000000
2423.989746 43559.000000
2425.020020 42990.000000
2426.049072 42925.000000
2427.078125 42951.000000
2428.105469 42139.000000
2429.133301 42839.000000
2430.159912 42017.000000
2431.186279 42203.000000
2432.211182 41302.000000
2433.236328 42179.000000
2434.260498 41366.000000
2435.284424 41618.000000
2436.307129 42291.000000
2437.329102 41644.000000
2438.350830 41179.000000
2439.371826 41032.000000
2440.392334 41480.000000
2441.411621 40871.000000
2442.430908 40659.000000
2443.449219 38698.000000
2444.467285 40743.000000
2445.483887 40224.000000
2446.500488 40089.000000
2447.516357 40570.000000
2448.532227 39449.000000
2449.546631 39534.000000
2450.560303 40704.000000
2451.573486 38902.000000
2452.586426 40081.000000
2453.598633 38777.000000
2454.609863 39195.000000
2455.620850 38176.000000
2456.631104 39264.000000
2457.640869 37807.000000
2458.649658 39487.000000
2459.657715 39310.000000
2460.665771 38921.000000
2461.672607 37736.000000
2462.679199 39694.000000
2463.684570 37578.000000
2464.689697 38128.000000
2465.694580 39014.000000
2466.698242 38357.000000
2467.701660 38605.000000
2468.704102 37324.000000
2469.706299 37512.000000
2470.708008 37865.000000
2471.708740 38061.000000
2472.708496 37594.000000
2473.708252 37764.000000
2474.707031 38811.000000
2475.705322 37842.000000
2476.702637 37474.000000
2477.699707 38316.000000
2478.696777 37417.000000
2479.692383 38563.000000
2480.687988 37348.000000
2481.681885 37767.000000
2482.675781 36276.000000
2483.669189 37601.000000
2484.662109 37535.000000
2485.654053 36777.000000
2486.645264 37017.000000
2487.636230 37417.000000
2488.626709 38211.000000
2489.616211 37475.000000
2490.604980 37519.000000
2491.593750 38354.000000
2492.581543 37258.000000
2493.568115 37435.000000
2494.554688 36054.000000
2495.540771 37303.000000
2496.526123 36780.000000
2497.510498 35468.000000
2498.494629 37715.000000
2499.478760 36649.000000
2500.461426 37674.000000
2501.443604 36427.000000
2502.425293 36471.000000
2503.406250 35951.000000
2504.386719 36526.000000
2505.366943 37253.000000
2506.345703 36554.000000
2507.324219 35302.000000
2508.302246 36006.000000
2509.279785 35519.000000
2510.256348 36437.000000
2511.232666 36505.000000
2512.208252 36012.000000
2513.183350 36148.000000
2514.157959 35886.000000
2515.131348 34865.000000
2516.104492 35386.000000
2517.077393 35200.000000
2518.049316 35792.000000
2519.020508 35076.000000
2519.991211 34907.000000
2520.961670 33912.000000
2521.931396 33492.000000
2522.900146 34944.000000
2523.868164 34733.000000
2524.836182 33178.000000
2525.803223 34387.000000
2526.770020 34988.000000
2527.735596 33435.000000
2528.701172 33647.000000
2529.666016 32683.000000
2530.630371 33735.000000
2531.593506 33555.000000
2532.556885 34019.000000
2533.519287 33958.000000
2534.481445 33342.000000
2535.442383 33550.000000
2536.402588 33690.000000
2537.363037 33718.000000
2538.322510 33108.000000
2539.281250 32899.000000
2540.239014 32792.000000
2541.197021 32936.000000
2542.154297 32229.000000
2543.110596 32756.000000
2544.066650 31795.000000
2545.021484 32505.000000
2545.976563 30964.000000
2546.930908 31495.000000
2547.884521 32064.000000
2548.837158 31150.000000
2549.789551 31618.000000
2550.741455 31372.000000
2551.692627 31889.000000
2552.643066 30647.000000
2553.593018 30849.000000
2554.542725 30564.000000
2555.491699 31100.000000
2556.440186 31210.000000
2557.387451 30374.000000
2558.334717 31010.000000
2559.281250 30672.000000
2560.227295 30440.000000
2561.172363 29692.000000
2562.117188 30240.000000
2563.061523 29651.000000
2564.005371 29856.000000
2564.948730 30008.000000
2565.890625 29928.000000
2566.832764 29892.000000
2567.774170 30351.000000
2568.714844 29367.000000
2569.654785 29300.000000
2570.594727 30668.000000
2571.533691 30111.000000
2572.472412 28954.000000
2573.410156 29218.000000
2574.347656 30845.000000
2575.284424 29459.000000
2576.220459 29627.000000
2577.156006 28860.000000
2578.090820 29961.000000
2579.025635 30219.000000
2579.959473 29082.000000
2580.892822 28939.000000
2581.825439 30085.000000
2582.757813 29046.000000
2583.689453 30447.000000
2584.620605 28831.000000
2585.551270 28958.000000
2586.480713 28994.000000
2587.410156 28621.000000
2588.339111 29314.000000
2589.267822 28326.000000
2590.194824 28283.000000
2591.122070 29453.000000
2592.048828 28465.000000
2592.974854 28995.000000
2593.900635 29637.000000
2594.825195 27798.000000
2595.749512 27793.000000
2596.673340 29869.000000
2597.596680 27967.000000
2598.519043 29026.000000
2599.441162 28272.000000
2600.362793 26967.000000
2601.283691 28483.000000
2602.203857 28729.000000
2603.123779 28301.000000
2604.043213 28228.000000
2604.962402 28050.000000
2605.880615 28663.000000
2606.797607 28467.000000
2607.714844 27267.000000
2608.631836 28557.000000
2609.547852 26931.000000
2610.462646 27726.000000
2611.377930 27527.000000
2612.292480 27549.000000
2613.206055 27473.000000
2614.119629 27978.000000
2615.031982 26640.000000
2615.944336 26914.000000
2616.855713 26935.000000
2617.766846 27758.000000
2618.677246 26351.000000
2619.587402 26768.000000
2620.496826 27021.000000
2621.405762 26549.000000
2622.313721 26876.000000
2623.221924 26314.000000
2624.129150 26356.000000
2625.035889 25849.000000
2625.941895 26499.000000
2626.847656 26128.000000
2627.752686 26373.000000
2628.657471 25116.000000
2629.561523 25665.000000
2630.464600 25514.000000
2631.367676 25461.000000
2632.269775 25998.000000
2633.171875 25460.000000
2634.073730 25222.000000
2634.973877 25171.000000
2635.874268 25257.000000
2636.773926 25096.000000
2637.673340 25279.000000
2638.571289 24699.000000
2639.469727 24635.000000
2640.367676 24713.000000
2641.264893 24780.000000
2642.160889 24681.000000
2643.056885 24366.000000
2643.952637 24449.000000
2644.847656 24293.000000
2645.742432 24176.000000
2646.635742 23835.000000
2647.529053 23812.000000
2648.422119 23565.000000
2649.314941 23765.000000
2650.206055 23497.000000
2651.097412 24285.000000
2651.988281 23228.000000
2652.878418 23123.000000
2653.768311 23390.000000
2654.656982 23086.000000
2655.545898 23327.000000
2656.434326 23436.000000
2657.321777 22849.000000
2658.208252 23128.000000
2659.095215 22836.000000
2659.981445 22930.000000
2660.867188 22877.000000
2661.751709 23021.000000
2662.636230 23035.000000
2663.520508 23257.000000
2664.404053 23024.000000
2665.287109 22627.000000
2666.169434 22722.000000
2667.051270 23085.000000
2667.932373 22789.000000
2668.813721 23211.000000
2669.693604 23081.000000
2670.573730 22944.000000
2671.453125 22814.000000
2672.332520 22818.000000
2673.211182 22957.000000
2674.088135 22862.000000
2674.965820 22583.000000
2675.842773 22841.000000
2676.718994 22188.000000
2677.594727 22334.000000
2678.469727 22743.000000
2679.344971 22161.000000
2680.219238 22462.000000
2681.093018 21945.000000
2681.966064 21967.000000
2682.838867 21943.000000
2683.711426 22214.000000
2684.583252 21880.000000
2685.454346 21938.000000
2686.325195 21686.000000
2687.195557 21587.000000
2688.065674 21560.000000
2688.934082 21685.000000
2689.803223 21520.000000
2690.671631 21429.000000
2691.539795 21538.000000
2692.407227 21256.000000
2693.273438 21375.000000
2694.140137 21052.000000
2695.005859 21267.000000
2695.871582 21101.000000
2696.735840 20883.000000
2697.600830 20990.000000
2698.464355 20785.000000
2699.328125 21115.000000
2700.190430 20617.000000
2701.053223 20526.000000
2701.915039 20721.000000
2702.776367 20610.000000
2703.637695 20535.000000
2704.497803 20306.000000
2705.357910 20384.000000
2706.217529 20295.000000
2707.076904 20172.000000
2707.934570 19878.000000
2708.792480 19892.000000
2709.650879 19700.000000
2710.508057 19901.000000
2711.364502 19820.000000
2712.220459 19603.000000
2713.076416 19745.000000
2713.931641 19632.000000
2714.786133 19546.000000
2715.640137 19497.000000
2716.494141 19063.000000
2717.347168 19021.000000
2718.200439 19200.000000
2719.052002 18881.000000
2719.904053 18942.000000
2720.755859 19025.000000
2721.606445 18974.000000
2722.457031 18984.000000
2723.307129 18830.000000
2724.156494 18624.000000
2725.005859 18607.000000
2725.854004 18636.000000
2726.701660 18712.000000
2727.549805 18576.000000
2728.396729 18332.000000
2729.244141 18482.000000
2730.090088 18416.000000
2730.935303 18240.000000
2731.781006 18301.000000
2732.625732 18196.000000
2733.470459 18243.000000
2734.313965 18232.000000
2735.157715 17996.000000
2736.000732 18219.000000
2736.843262 18069.000000
2737.684814 18057.000000
2738.526855 17908.000000
2739.367920 17915.000000
2740.208740 18118.000000
2741.049316 18086.000000
2741.888672 17914.000000
2742.728027 18016.000000
2743.567383 17978.000000
2744.405518 18024.000000
2745.243164 17876.000000
2746.080811 18017.000000
2746.917969 17912.000000
2747.754883 17912.000000
2748.591309 17885.000000
2749.426514 17720.000000
2750.261963 17898.000000
2751.096924 17657.000000
2751.931152 17604.000000
2752.765137 17521.000000
2753.598633 17471.000000
2754.432129 17373.000000
2755.264648 17425.000000
2756.096680 17217.000000
2756.928223 17322.000000
2757.759766 17438.000000
2758.590332 17294.000000
2759.421143 17438.000000
2760.250732 17323.000000
2761.080322 17292.000000
2761.909668 16952.000000
2762.738281 16873.000000
2763.566406 16720.000000
2764.394043 16998.000000
2765.221680 16823.000000
2766.048828 16924.000000
2766.875244 16709.000000
2767.701172 16703.000000
2768.526611 16688.000000
2769.351807 16474.000000
2770.177002 16461.000000
2771.000977 16490.000000
2771.824951 16405.000000
2772.648926 16171.000000
2773.471680 16225.000000
2774.294678 15970.000000
2775.116455 16160.000000
2775.938232 16066.000000
2776.760010 15983.000000
2777.580811 15818.000000
2778.400879 15944.000000
2779.221191 15619.000000
2780.041016 15656.000000
2780.860840 15623.000000
2781.678711 15679.000000
2782.497803 15524.000000
2783.315674 15850.000000
2784.133301 15975.000000
2784.950439 15818.000000
2785.767090 15321.000000
2786.583496 15327.000000
2787.399414 15287.000000
2788.215088 15182.000000
2789.029785 15099.000000
2789.844971 15039.000000
2790.659424 14987.000000
2791.473389 14951.000000
2792.287109 14772.000000
2793.099609 14714.000000
2793.912354 14990.000000
2794.724609 14642.000000
2795.536377 14686.000000
2796.347412 14724.000000
2797.159180 14687.000000
2797.969727 14604.000000
2798.780273 14620.000000
2799.589355 14420.000000
2800.399170 14456.000000
2801.208252 14333.000000
2802.017090 14519.000000
2802.825439 14324.000000
2803.632813 14287.000000
2804.440674 14424.000000
2805.247803 14398.000000
2806.054688 14366.000000
2806.860352 13975.000000
2807.666504 14253.000000
2808.471924 14104.000000
2809.277344 14092.000000
2810.082031 14240.000000
2810.885742 14163.000000
2811.689941 13935.000000
2812.493652 14052.000000
2813.297119 13839.000000
2814.099121 14117.000000
2814.901855 13986.000000
2815.703857 13933.000000
2816.505615 13999.000000
2817.306885 13915.000000
2818.107666 13823.000000
2818.907959 13813.000000
2819.708496 13639.000000
2820.508057 13725.000000
2821.307129 13766.000000
2822.106201 13630.000000
2822.905029 13569.000000
2823.703369 13631.000000
2824.500732 13690.000000
2825.298340 13607.000000
2826.095215 13609.000000
2826.892334 13503.000000
2827.688721 13410.000000
2828.484375 13417.000000
2829.280029 13095.000000
2830.075439 13194.000000
2830.870361 13126.000000
2831.664551 13312.000000
2832.458740 13246.000000
2833.252686 13213.000000
2834.046143 13293.000000
2834.838867 13164.000000
2835.631348 13160.000000
2836.423828 13032.000000
2837.216064 13003.000000
2838.007813 12987.000000
2838.798584 12911.000000
2839.589355 12840.000000
2840.380371 12704.000000
2841.170410 12923.000000
2841.959961 12658.000000
2842.749756 12675.000000
2843.538574 12556.000000
2844.327393 12508.000000
2845.116211 12366.000000
2845.904053 12453.000000
2846.691406 12383.000000
2847.479004 12288.000000
2848.266113 12348.000000
2849.052490 12340.000000
2849.838867 12210.000000
2850.625000 12170.000000
2851.410645 12236.000000
2852.195313 12116.000000
2852.980469 12015.000000
2853.765381 12061.000000
2854.549561 12076.000000
2855.333740 11971.000000
2856.116699 11955.000000
2856.899902 11869.000000
2857.682861 11874.000000
2858.465332 11612.000000
2859.247559 11793.000000
2860.029297 11654.000000
2860.810791 11495.000000
2861.592529 11621.000000
2862.373535 11593.000000
2863.153809 11563.000000
2863.933838 11573.000000
2864.713867 11533.000000
2865.493652 11690.000000
2866.272461 11478.000000
2867.051514 11587.000000
2867.830078 11730.000000
2868.608398 11654.000000
2869.386230 11665.000000
2870.163818 11716.000000
2870.941162 11722.000000
2871.718262 11719.000000
2872.494873 11883.000000
2873.270996 11879.000000
2874.047119 11773.000000
2874.822754 11800.000000
2875.598145 11546.000000
2876.373047 11730.000000
2877.147705 11582.000000
2877.922363 11550.000000
2878.696777 11261.000000
2879.470459 11396.000000
2880.243408 11327.000000
2881.017090 11184.000000
2881.789795 11127.000000
2882.562500 10894.000000
2883.334473 10837.000000
2884.106201 10758.000000
2884.878418 10764.000000
2885.649414 10671.000000
2886.419922 10749.000000
2887.190918 10410.000000
2887.961914 10529.000000
2888.732178 10328.000000
2889.501465 10422.000000
2890.270996 10531.000000
2891.040527 10543.000000
2891.809570 10435.000000
2892.578125 10420.000000
2893.346680 10456.000000
2894.114258 10567.000000
2894.882324 10582.000000
2895.649902 10514.000000
2896.417480 10367.000000
2897.183838 10240.000000
2897.951172 10195.000000
2898.717285 10053.000000
2899.483643 9915.000000
2900.248535 9943.000000
2901.013916 9772.000000
2901.779785 10047.000000
2902.544189 9878.000000
2903.308594 9970.000000
2904.073242 9897.000000
2904.836914 9941.000000
2905.601318 9701.000000
2906.364990 9725.000000
2907.127930 9668.000000
2907.890625 9785.000000
2908.653809 9541.000000
2909.416504 9647.000000
2910.177979 9538.000000
2910.939941 9538.000000
spectrumdark 2048
-97.290955 6214.000000
-94.664085 6214.000000
-92.039093 6024.000000
-89.415993 6415.000000
-86.794762 5748.000000
-84.175430 6188.000000
-81.557961 6064.000000
-78.942368 6424.000000
-76.328651 6134.000000
-73.716812 5857.000000
-71.106834 6084.000000
-68.498741 5873.000000
-65.892494 5916.000000
-63.288128 6004.000000
-60.685619 6095.000000
-58.084965 5676.000000
-55.486172 6218.000000
-52.889236 6865.000000
-50.294155 6476.000000
-47.700928 6526.000000
-45.109550 6216.000000
-42.520020 6652.000000
-39.932331 5859.000000
-37.346493 6024.000000
-34.762497 6453.000000
-32.180336 5708.000000
-29.600023 6273.000000
-27.021538 5614.000000
-24.444895 6140.000000
-21.870077 6166.000000
-19.297100 6433.000000
-16.725943 6435.000000
-14.156619 6765.000000
-11.589121 7840.000000
-9.023441 6261.000000
-6.459588 6438.000000
-3.897547 5994.000000
-1.337331 5814.000000
1.221077 6129.000000
3.777664 6890.000000
6.332446 6621.000000
8.885411 5944.000000
11.436576 6644.000000
13.985928 6458.000000
16.533484 6645.000000
19.079227 5955.000000
21.623178 5637.000000
24.165325 6629.000000
26.705675 6764.000000
29.244240 6807.000000
31.781008 6106.000000
34.315971 5762.000000
36.849159 7262.000000
39.380566 6313.000000
41.910179 7055.000000
44.437996 6404.000000
46.964054 7777.000000
49.488323 5657.000000
52.010822 6251.000000
54.531525 6691.000000
57.050472 6220.000000
59.567646 6442.000000
62.083042 6598.000000
64.596664 5610.000000
67.108528 5687.000000
69.618645 6476.000000
72.126968 6509.000000
74.633537 5888.000000
77.138359 6289.000000
79.641426 6395.000000
82.142715 6296.000000
84.642265 6123.000000
87.140060 6309.000000
89.636124 5715.000000
92.130409 7191.000000
94.622955 5744.000000
97.113785 6890.000000
99.602844 7186.000000
102.090157 6342.000000
104.575745 6134.000000
107.059593 6313.000000
109.541695 5732.000000
112.022072 6500.000000
114.500725 6201.000000
116.977654 6388.000000
119.452827 7139.000000
121.926292 6776.000000
124.398026 5825.000000
126.868050 6714.000000
129.336319 6252.000000
131.802917 6258.000000
134.267761 5616.000000
136.730911 6175.000000
139.192322 7292.000000
141.652039 6780.000000
144.110031 6336.000000
146.566330 5984.000000
149.020920 5826.000000
151.473785 6820.000000
153.924973 6324.000000
156.374466 6621.000000
158.822235 6077.000000
161.268295 6577.000000
163.712677 8696.000000
166.155380 6332.000000
168.596390 6719.000000
171.035690 6239.000000
173.473282 7175.000000
175.909241 6613.000000
178.343460 6860.000000
180.776001 7079.000000
183.206894 6610.000000
185.636063 6806.000000
188.063583 6674.000000
190.489426 6293.000000
192.913589 6663.000000
195.336090 7121.000000
197.756897 7321.000000
200.176041 6468.000000
202.593521 5990.000000
205.009308 7602.000000
207.423447 7011.000000
209.835953 6403.000000
212.246780 6137.000000
214.655930 6268.000000
217.063446 7429.000000
219.469254 6119.000000
221.873474 6470.000000
224.275986 6710.000000
226.676880 6876.000000
229.076126 6462.000000
231.473709 6822.000000
233.869629 7288.000000
236.263931 6476.000000
238.656570 5861.000000
241.047592 6816.000000
243.436951 6541.000000
245.824692 6316.000000
248.210785 7001.000000
250.595245 6103.000000
252.978058 7892.000000
255.359299 6607.000000
257.738831 6641.000000
260.116791 6447.000000
262.493073 7486.000000
264.867798 7532.000000
267.240875 7839.000000
269.612305 6202.000000
271.982086 6414.000000
274.350311 5848.000000
276.716888 6268.000000
279.081879 6710.000000
281.445251 6061.000000
283.806976 6209.000000
286.167114 7109.000000
288.525635 5936.000000
290.882568 6512.000000
293.237885 6358.000000
295.591614 5883.000000
297.943695 5918.000000
300.294220 6309.000000
302.643158 6369.000000
304.990448 6817.000000
307.336212 6327.000000
309.680298 6421.000000
312.022858 7374.000000
314.363800 7511.000000
316.703125 7195.000000
319.040894 6990.000000
321.377106 8058.000000
323.711670 6244.000000
326.044678 6466.000000
328.376129 5947.000000
330.705994 6581.000000
333.034271 6361.000000
335.360931 7216.000000
337.686096 6276.000000
340.009644 6239.000000
342.331635 5986.000000
344.652069 7522.000000
346.970886 7704.000000
349.288147 5969.000000
351.603882 5819.000000
353.918030 6916.000000
356.230591 6332.000000
358.541595 6473.000000
360.851074 6986.000000
363.159027 6374.000000
365.465363 5685.000000
367.770111 6452.000000
370.073395 6463.000000
372.375061 6213.000000
374.675232 6296.000000
376.973846 6314.000000
379.270905 5688.000000
381.566406 6115.000000
383.860382 5843.000000
386.152771 5236.000000
388.443665 5553.000000
390.733032 6225.000000
393.020813 6267.000000
395.307068 6466.000000
397.591827 7005.000000
399.874969 5990.000000
402.156677 6331.000000
404.436859 6058.000000
406.715454 7200.000000
408.992523 6407.000000
411.268066 6585.000000
413.542084 6323.000000
415.814667 6225.000000
418.085632 6276.000000
420.355103 6278.000000
422.623077 7119.000000
424.889496 7179.000000
427.154419 6310.000000
429.417877 6281.000000
431.679749 6424.000000
433.940155 5959.000000
436.199005 6622.000000
438.456390 6140.000000
440.712280 5639.000000
442.966675 5813.000000
445.219543 5494.000000
447.470856 6849.000000
449.720764 6109.000000
451.969086 6283.000000
454.215973 5651.000000
456.461395 6476.000000
458.705261 6411.000000
460.947632 6762.000000
463.188507 5603.000000
465.427979 6703.000000
467.665863 5384.000000
469.902313 5875.000000
472.137238 6009.000000
474.370697 7367.000000
476.602722 6726.000000
478.833221 5757.000000
481.062225 6399.000000
483.289764 6243.000000
485.515808 5943.000000
487.740417 6548.000000
489.963562 5903.000000
492.185242 6414.000000
494.405365 6611.000000
496.624084 5663.000000
498.841309 6248.000000
501.057159 5506.000000
503.271393 6109.000000
505.484314 6370.000000
507.695648 6398.000000
509.905548 6865.000000
512.114014 6429.000000
514.321106 6614.000000
516.526611 6464.000000
518.730713 6553.000000
520.933289 6106.000000
523.134460 6551.000000
525.334290 6685.000000
527.532593 6984.000000
529.729370 5295.000000
531.924805 5800.000000
534.118713 5542.000000
536.311279 7475.000000
538.502319 6644.000000
540.691956 5998.000000
542.880188 6904.000000
545.066895 7080.000000
547.252136 6759.000000
549.436096 6172.000000
551.618469 6376.000000
553.799500 6100.000000
555.979004 5969.000000
558.157227 5866.000000
560.333923 5957.000000
562.509216 6388.000000
564.683105 6432.000000
566.855530 5875.000000
569.026550 6001.000000
571.196106 6311.000000
573.364380 5233.000000
575.531128 6404.000000
577.696411 6279.000000
579.860291 6123.000000
582.022888 5711.000000
584.183960 5983.000000
586.343628 5608.000000
588.501953 5762.000000
590.658752 6143.000000
592.814209 6627.000000
594.968262 5799.000000
597.120972 6056.000000
599.272156 7244.000000
601.421997 6735.000000
603.570496 6667.000000
605.717407 6059.000000
607.863098 6440.000000
610.007385 6465.000000
612.150208 6950.000000
614.291565 6114.000000
616.431702 6414.000000
618.570313 7637.000000
620.707642 5702.000000
622.843506 6588.000000
624.977966 6825.000000
627.110962 7156.000000
629.242798 6667.000000
631.373169 6505.000000
633.502136 6768.000000
635.629639 6455.000000
637.755859 6161.000000
639.880554 7299.000000
642.004028 6410.000000
644.126160 6837.000000
646.246826 6775.000000
648.366150 6514.000000
650.484070 5530.000000
652.600647 5624.000000
654.715820 6430.000000
656.829651 6490.000000
658.942017 5792.000000
661.053162 6145.000000
663.162903 5400.000000
665.271179 6641.000000
667.378296 6252.000000
669.483948 6829.000000
671.588135 5883.000000
673.691101 5677.000000
675.792664 6990.000000
677.892883 5309.000000
679.991699 6718.000000
682.089172 6262.000000
684.185364 6963.000000
686.280090 6201.000000
688.373596 6974.000000
690.465759 6553.000000
692.556396 7917.000000
694.645813 6571.000000
696.733948 6443.000000
698.820618 5961.000000
700.906067 6706.000000
702.989990 5158.000000
705.072693 5898.000000
707.154114 5907.000000
709.234070 7595.000000
711.312805 6213.000000
713.390076 5497.000000
715.466064 6568.000000
717.540771 6123.000000
719.614197 6998.000000
721.686096 6262.000000
723.756836 7407.000000
725.826233 5780.000000
727.894226 6443.000000
729.960876 6349.000000
732.026306 7061.000000
734.090393 5754.000000
736.153137 6133.000000
738.214539 6607.000000
740.274658 6547.000000
742.333374 6023.000000
744.390869 6581.000000
746.447083 6483.000000
748.501892 6691.000000
750.555420 6423.000000
752.607544 7478.000000
754.658447 5710.000000
756.708130 6678.000000
758.756348 6298.000000
760.803345 6174.000000
762.849060 7048.000000
764.893372 5356.000000
766.936401 5753.000000
768.978210 14936.000000
771.018677 7001.000000
773.057739 6340.000000
775.095642 6084.000000
777.132202 5954.000000
779.167542 5404.000000
781.201538 5734.000000
783.234131 6888.000000
785.265564 5529.000000
787.295593 12132.000000
789.324341 5968.000000
791.351929 6309.000000
793.378174 6348.000000
795.403015 5814.000000
797.426758 5509.000000
799.449097 6348.000000
801.470215 5850.000000
803.489990 6676.000000
805.508484 4833.000000
807.525757 6603.000000
809.541626 6817.000000
811.556335 5696.000000
813.569702 6392.000000
815.581848 6214.000000
817.592773 6082.000000
819.602356 6563.000000
821.610718 5244.000000
823.617676 5725.000000
825.623413 5988.000000
827.627930 5737.000000
829.631165 5606.000000
831.633118 6425.000000
833.633789 6030.000000
835.633240 5908.000000
837.631348 6278.000000
839.628357 6977.000000
841.623962 6242.000000
843.618408 5989.000000
845.611511 6208.000000
847.603394 6804.000000
849.593933 5626.000000
851.583191 6805.000000
853.571411 5955.000000
855.558228 5740.000000
857.543823 6425.000000
859.528137 7197.000000
861.511353 6299.000000
863.493164 6438.000000
865.473755 5820.000000
867.453064 7694.000000
869.431213 7042.000000
871.408020 6107.000000
873.383545 5956.000000
875.358032 6169.000000
877.331055 6017.000000
879.303040 5361.000000
881.273682 6403.000000
883.243164 6048.000000
885.211304 5594.000000
887.178284 5178.000000
889.143921 6054.000000
891.108398 5779.000000
893.071655 5992.000000
895.033691 6521.000000
896.994446 5812.000000
898.953979 6369.000000
900.912231 6643.000000
902.869385 6384.000000
904.825378 6026.000000
906.779968 6885.000000
908.733337 6494.000000
910.685547 6406.000000
912.636536 6344.000000
914.586243 7177.000000
916.534790 6295.000000
918.482117 6125.000000
920.428162 6081.000000
922.372925 6064.000000
924.316650 6339.000000
926.259216 5879.000000
928.200500 5634.000000
930.140442 6415.000000
932.079285 5724.000000
934.016846 5471.000000
935.953186 5890.000000
937.888367 5821.000000
939.822266 6059.000000
941.755066 5845.000000
943.686646 6743.000000
945.617065 5136.000000
947.546265 6355.000000
949.474121 6967.000000
951.400940 6619.000000
953.326477 5978.000000
955.250732 5361.000000
957.173889 5986.000000
959.095886 6679.000000
961.016602 7250.000000
962.936157 6376.000000
964.854553 5319.000000
966.771912 6424.000000
968.687805 6386.000000
970.602600 6156.000000
972.516174 5932.000000
974.428589 6358.000000
976.339783 6469.000000
978.249817 5524.000000
980.158569 6209.000000
982.066284 6037.000000
983.972778 6349.000000
985.878052 5691.000000
987.782227 6769.000000
989.685181 6219.000000
991.586914 6759.000000
993.487488 6406.000000
995.386902 6567.000000
997.285095 5279.000000
999.182129 6514.000000
1001.077942 6454.000000
1002.972595 7605.000000
1004.866150 5535.000000
1006.758423 7114.000000
1008.649780 6092.000000
1010.539795 5292.000000
1012.428589 6578.000000
1014.316223 6279.000000
1016.202698 6953.000000
1018.088013 6681.000000
1019.972168 6012.000000
1021.855103 5856.000000
1023.737000 6147.000000
1025.617554 5135.000000
1027.497070 5870.000000
1029.375610 6113.000000
1031.252808 5369.000000
1033.128662 6246.000000
1035.003540 5887.000000
1036.877441 6597.000000
1038.749878 7014.000000
1040.621338 6718.000000
1042.491455 5509.000000
1044.360596 5486.000000
1046.228516 5727.000000
1048.095337 6996.000000
1049.961060 6688.000000
1051.825562 6447.000000
1053.688965 6445.000000
1055.551025 6387.000000
1057.412109 5968.000000
1059.272095 6448.000000
1061.130737 6647.000000
1062.988281 5810.000000
1064.844727 6694.000000
1066.700073 5916.000000
1068.554199 5793.000000
1070.407471 6278.000000
1072.259277 6288.000000
1074.110107 6148.000000
1075.959717 6116.000000
1077.808105 5766.000000
1079.655640 7929.000000
1081.501831 5584.000000
1083.346802 6200.000000
1085.190918 5412.000000
1087.033691 5521.000000
1088.875244 6522.000000
1090.716064 5437.000000
1092.555298 5749.000000
1094.393799 6049.000000
1096.230957 6070.000000
1098.066895 6845.000000
1099.901855 6639.000000
1101.735596 5386.000000
1103.568359 5638.000000
1105.399780 6140.000000
1107.230347 7246.000000
1109.059570 6523.000000
1110.887817 6417.000000
1112.714844 7025.000000
1114.540894 5389.000000
1116.365723 6284.000000
1118.189453 7162.000000
1120.011963 6082.000000
1121.833374 5819.000000
1123.653931 5911.000000
1125.473022 6508.000000
1127.291260 7036.000000
1129.108154 6812.000000
1130.924194 6651.000000
1132.739014 6518.000000
1134.552734 5545.000000
1136.365356 5857.000000
1138.176758 5676.000000
1139.987183 6107.000000
1141.796509 6676.000000
1143.604492 6938.000000
1145.411743 5903.000000
1147.217529 5921.000000
1149.022461 5411.000000
1150.826294 5392.000000
1152.628906 6112.000000
1154.430664 6115.000000
1156.230957 6098.000000
1158.030273 6114.000000
1159.828613 5861.000000
1161.625610 5361.000000
1163.421875 5879.000000
1165.216797 6104.000000
1167.010620 6333.000000
1168.803589 7691.000000
1170.595215 5711.000000
1172.385864 6538.000000
1174.175537 5980.000000
1175.963745 5923.000000
1177.751099 7411.000000
1179.537354 6890.000000
1181.322510 5793.000000
1183.106567 5988.000000
1184.889526 7674.000000
1186.671509 5854.000000
1188.452271 5849.000000
1190.232056 6318.000000
1192.010742 6920.000000
1193.788452 6629.000000
1195.564941 7157.000000
1197.340332 6611.000000
1199.114624 6457.000000
1200.887817 6676.000000
1202.660156 6414.000000
1204.431152 6707.000000
1206.201294 5630.000000
1207.970215 6138.000000
1209.738037 6316.000000
1211.505005 5808.000000
1213.270630 5918.000000
1215.035278 6972.000000
1216.798828 6533.000000
1218.561279 5901.000000
1220.322876 6724.000000
1222.083252 5913.000000
1223.842529 6268.000000
1225.600952 6066.000000
1227.358154 7038.000000
1229.114258 6441.000000
1230.869263 5559.000000
1232.623413 5964.000000
1234.376221 5768.000000
1236.128052 6024.000000
1237.879028 6018.000000
1239.628662 4930.000000
1241.377441 7012.000000
1243.124878 6464.000000
1244.871582 6541.000000
1246.617065 6473.000000
1248.361694 6452.000000
1250.104980 6784.000000
1251.847290 6572.000000
1253.588501 5359.000000
1255.328857 5043.000000
1257.068115 5713.000000
1258.806152 6552.000000
1260.543335 7109.000000
1262.279297 6099.000000
1264.014282 6467.000000
1265.748291 7263.000000
1267.481323 5952.000000
1269.213135 6222.000000
1270.943970 6426.000000
1272.673584 7250.000000
1274.402344 5898.000000
1276.130005 5709.000000
1277.856567 5517.000000
1279.582275 5537.000000
1281.306641 6432.000000
1283.030151 5216.000000
1284.752686 6866.000000
1286.474243 6647.000000
1288.194580 6142.000000
1289.913940 6640.000000
1291.632202 7264.000000
1293.349487 6461.000000
1295.065796 5719.000000
1296.780884 6388.000000
1298.494995 6137.000000
1300.208130 5753.000000
1301.920410 6403.000000
1303.631470 8363.000000
1305.341553 5217.000000
1307.050537 6287.000000
1308.758301 6627.000000
1310.465454 7058.000000
1312.171143 5806.000000
1313.876099 6926.000000
1315.580078 6187.000000
1317.282837 5939.000000
1318.984619 6516.000000
1320.685547 5985.000000
1322.385132 8993.000000
1324.083862 7271.500000
1325.781860 5550.000000
1327.478516 6468.000000
1329.174072 7147.000000
1330.868774 6807.000000
1332.562256 5767.000000
1334.254883 5412.000000
1335.946655 7329.000000
1337.637085 6207.000000
1339.326782 6519.000000
1341.015381 6127.000000
1342.702881 7605.000000
1344.389404 5623.000000
1346.074829 6639.000000
1347.759277 5911.000000
1349.442871 7211.000000
1351.125244 6323.000000
1352.806641 5910.000000
1354.487183 6538.000000
1356.166504 6710.000000
1357.845215 5906.000000
1359.522583 6542.000000
1361.198853 5725.000000
1362.874146 5596.000000
1364.548706 6572.000000
1366.222046 6437.000000
1367.894409 6793.000000
1369.565796 5099.000000
1371.236206 6697.000000
1372.905518 6117.000000
1374.573853 5683.000000
1376.241333 5930.000000
1377.907715 6451.000000
1379.573120 6035.000000
1381.237549 5838.000000
1382.900757 5959.000000
1384.563354 5693.000000
1386.224609 6362.000000
1387.885010 6579.000000
1389.544312 6425.000000
1391.202637 6478.000000
1392.860229 6795.000000
1394.516602 6452.000000
1396.172119 6939.000000
1397.826416 6262.000000
1399.479858 5817.000000
1401.132202 6106.000000
1402.783813 6404.000000
1404.434204 7190.000000
1406.083496 6221.000000
1407.732056 7478.000000
1409.379517 7900.000000
1411.026001 6189.000000
1412.671631 6200.000000
1414.316284 5982.000000
1415.959717 7069.000000
1417.602295 7085.000000
1419.243774 6798.000000
1420.884399 6477.000000
1422.524048 6480.000000
1424.162598 5942.000000
1425.800293 6595.000000
1427.436890 6321.000000
1429.072510 6070.000000
1430.707397 6361.000000
1432.341187 5824.000000
1433.973877 6134.000000
1435.605591 5626.000000
1437.236450 6132.000000
1438.866211 5975.000000
1440.494873 7932.000000
1442.122925 5969.000000
1443.749878 6192.000000
1445.375610 6185.000000
1447.000732 6155.000000
1448.624756 6517.000000
1450.247803 5998.000000
1451.869873 6001.000000
1453.490845 7242.000000
1455.110840 6279.000000
1456.730103 6887.000000
1458.348022 5692.000000
1459.965332 5614.500000
1461.581665 5537.000000
1463.196777 7275.000000
1464.811035 6239.000000
1466.424438 5173.000000
1468.036743 5553.000000
1469.648193 6226.000000
1471.258789 6327.000000
1472.868164 5990.000000
1474.476563 5947.000000
1476.084106 6190.000000
1477.690674 6677.000000
1479.296509 5331.000000
1480.901123 6341.000000
1482.504883 5455.000000
1484.107422 6740.000000
1485.709351 5551.000000
1487.310059 5547.000000
1488.910034 5630.000000
1490.508911 6274.000000
1492.106934 6469.000000
1493.703857 6619.000000
1495.299927 6342.000000
1496.895020 5965.000000
1498.489136 5460.000000
1500.082520 6515.000000
1501.674805 5535.000000
1503.265869 6220.000000
1504.856445 6815.000000
1506.445679 6477.000000
1508.034302 6138.000000
1509.621826 6530.000000
1511.208252 6841.000000
1512.793945 6171.000000
1514.378540 6566.000000
1515.962280 6156.000000
1517.544922 6137.000000
1519.126831 6518.000000
1520.707642 6666.000000
1522.287720 6101.000000
1523.866577 6177.000000
1525.444580 6358.000000
1527.021851 6297.000000
1528.597900 5664.000000
1530.173218 5875.000000
1531.747437 6211.000000
1533.320923 5456.000000
1534.893188 5914.000000
1536.464722 6281.000000
1538.035278 6387.000000
1539.604980 6314.000000
1541.173462 5429.000000
1542.741211 6604.000000
1544.308105 5638.000000
1545.873779 6811.000000
1547.438721 5989.000000
1549.002563 5035.000000
1550.565796 7425.000000
1552.127686 6281.000000
1553.688965 5962.000000
1555.249146 5710.000000
1556.808594 5807.000000
1558.366943 5831.000000
1559.924561 6283.000000
1561.481079 7021.000000
1563.036377 5861.000000
1564.591064 6378.000000
1566.145020 5639.000000
1567.697998 6346.000000
1569.249634 5718.000000
1570.800537 5867.000000
1572.350708 6225.000000
1573.899902 6283.000000
1575.447754 5769.000000
1576.995117 5433.000000
1578.541504 5754.000000
1580.087036 5063.000000
1581.631592 6650.000000
1583.174927 6363.000000
1584.717651 6571.000000
1586.259521 6432.000000
1587.800293 6711.000000
1589.340088 5749.000000
1590.879150 6610.000000
1592.417114 5882.000000
1593.954590 6120.000000
1595.490723 5850.000000
1597.025757 6702.000000
1598.560303 6236.000000
1600.093872 6012.000000
1601.626587 6004.000000
1603.157715 6273.000000
1604.688599 6188.000000
1606.218628 5789.000000
1607.747437 6100.000000
1609.275146 6116.000000
1610.802246 5955.000000
1612.328613 5944.000000
1613.854004 6242.000000
1615.378540 5813.000000
1616.901733 5785.000000
1618.424194 5558.000000
1619.945923 6560.000000
1621.466797 6885.000000
1622.986206 6510.000000
1624.505127 6135.000000
1626.023315 6093.000000
1627.540649 5952.000000
1629.056885 6410.000000
1630.571777 7040.000000
1632.086182 6759.000000
1633.599854 5759.000000
1635.112427 6753.000000
1636.623779 5968.000000
1638.134766 6456.000000
1639.644653 6250.000000
1641.153687 6186.000000
1642.661377 5691.000000
1644.168701 6112.000000
1645.675171 7049.000000
1647.180664 6244.000000
1648.685303 6776.000000
1650.188477 6190.000000
1651.691040 6589.000000
1653.193237 6310.000000
1654.694092 6588.000000
1656.193848 7604.000000
1657.692749 5913.000000
1659.191284 6530.000000
1660.688599 6221.000000
1662.185181 5941.000000
1663.680176 6448.000000
1665.174927 6322.000000
1666.668823 5156.000000
1668.161743 5587.000000
1669.653320 6017.500000
1671.144409 6448.000000
1672.634888 6065.000000
1674.124268 5933.000000
1675.612183 6971.000000
1677.099854 6836.000000
1678.586548 6016.000000
1680.072388 5315.000000
1681.557373 6083.000000
1683.040894 6142.000000
1684.524170 6404.000000
1686.006592 5900.000000
1687.487915 6251.000000
1688.967773 6174.000000
1690.447388 5409.000000
1691.926270 6548.000000
1693.404175 6009.000000
1694.881104 6119.000000
1696.356812 5701.000000
1697.832153 6059.000000
1699.306274 6277.000000
1700.779785 5530.000000
1702.251831 5582.000000
1703.723633 6934.000000
1705.194458 6394.000000
1706.664429 7031.000000
1708.133057 5173.000000
1709.601196 5708.000000
1711.068604 6273.000000
1712.534912 5541.000000
1714.000610 5767.000000
1715.464600 6166.000000
1716.928467 5969.000000
1718.391479 6907.000000
1719.853516 6331.000000
1721.314331 6534.000000
1722.774536 5404.000000
1724.234009 5591.000000
1725.692627 6091.000000
1727.150269 5970.000000
1728.606567 6292.000000
1730.062622 6053.000000
1731.517700 6414.000000
1732.971802 5946.000000
1734.424683 6893.000000
1735.877319 6008.000000
1737.328857 6763.000000
1738.779663 5928.000000
1740.229492 6589.000000
1741.677979 5914.000000
1743.126099 7392.000000
1744.573364 6487.000000
1746.019897 6625.000000
1747.464844 6706.000000
1748.909546 6193.000000
1750.353394 5825.000000
1751.796387 5531.000000
1753.237915 6587.000000
1754.679199 6345.000000
1756.119629 6325.500000
1757.559082 6306.000000
1758.997559 5270.000000
1760.435059 6019.000000
1761.872070 7502.000000
1763.308105 5827.000000
1764.743286 7048.000000
1766.177002 6132.000000
1767.610596 6426.000000
1769.043213 6653.000000
1770.474976 5722.000000
1771.905884 5741.000000
1773.335571 6365.000000
1774.764526 6117.000000
1776.192993 6251.000000
1777.620483 6704.000000
1779.046631 6210.000000
1780.472534 5635.000000
1781.897339 6890.000000
1783.321533 5575.000000
1784.744263 6593.000000
1786.166504 6516.000000
1787.588013 6871.000000
1789.008789 5917.000000
1790.428589 6138.000000
1791.847046 6231.000000
1793.265015 6860.000000
1794.682373 5531.000000
1796.098877 6039.000000
1797.513916 6497.000000
1798.928589 5823.000000
1800.342651 6604.000000
1801.755493 5962.000000
1803.167725 7014.000000
1804.578613 7070.000000
1805.989014 7747.000000
1807.398682 6412.000000
1808.807373 5964.000000
1810.214966 5425.000000
1811.622070 6472.000000
1813.028320 6391.000000
1814.433594 6660.000000
1815.837769 6000.000000
1817.241577 5970.000000
1818.644409 6244.000000
1820.046387 6034.000000
1821.447754 5845.000000
1822.847656 6280.000000
1824.246948 6464.000000
1825.645752 6572.000000
1827.043701 7456.000000
1828.440308 5683.000000
1829.836304 6704.000000
1831.231567 5876.000000
1832.626221 8137.000000
1834.019897 6056.000000
1835.412231 6847.000000
1836.804077 6316.000000
1838.195313 5877.000000
1839.585571 7114.000000
1840.974609 5976.000000
1842.363281 6050.000000
1843.750977 5953.000000
1845.137939 5818.000000
1846.523560 6897.000000
1847.908936 5881.000000
1849.293457 6361.000000
1850.677246 6286.000000
1852.059937 6312.000000
1853.441406 5394.000000
1854.822388 6519.000000
1856.202881 6246.000000
1857.582397 5729.000000
1858.960449 5928.000000
1860.338379 6317.000000
1861.715332 7774.000000
1863.091553 6144.000000
1864.466919 6030.000000
1865.840820 5629.000000
1867.214600 5674.000000
1868.587524 6221.000000
1869.959351 6025.000000
1871.330200 6937.000000
1872.700684 5411.000000
1874.070068 6016.000000
1875.438965 6058.000000
1876.806274 7190.000000
1878.173462 6050.000000
1879.539673 6015.000000
1880.905151 6772.000000
1882.269897 7452.000000
1883.633057 6789.000000
1884.996094 6945.000000
1886.358276 6271.000000
1887.719604 6536.000000
1889.079590 5653.000000
1890.439209 5766.000000
1891.798218 6066.000000
1893.156250 6650.000000
1894.513428 7292.000000
1895.869385 5883.000000
1897.225098 7605.000000
1898.579834 5809.000000
1899.933716 5573.000000
1901.286499 5896.000000
1902.638794 5875.000000
1903.990356 5907.000000
1905.341064 6822.000000
1906.690552 6539.000000
1908.039551 6696.000000
1909.387695 5775.000000
1910.735229 6134.000000
1912.082031 6277.000000
1913.427246 6795.000000
1914.772217 6117.000000
1916.116455 5406.000000
1917.459839 6433.000000
1918.801880 5999.000000
1920.143677 6634.000000
1921.484619 6910.000000
1922.824829 6197.000000
1924.164063 6311.000000
1925.502319 6339.000000
1926.839966 6516.000000
1928.176880 7028.000000
1929.512939 6763.000000
1930.847778 5554.000000
1932.182251 6670.000000
1933.515991 7281.000000
1934.848877 6197.000000
1936.180298 5782.000000
1937.511841 6317.000000
1938.842041 6588.000000
1940.171753 5746.000000
1941.500610 6098.000000
1942.828247 5804.000000
1944.155396 5023.000000
1945.481812 5876.000000
1946.807495 6476.000000
1948.131836 5797.000000
1949.455933 6645.000000
1950.779175 6306.000000
1952.101685 6441.000000
1953.423096 5816.000000
1954.743530 7367.000000
1956.063354 5963.000000
1957.382813 5548.000000
1958.701294 6787.000000
1960.018433 5888.000000
1961.335205 5847.000000
1962.651245 6527.000000
1963.966553 6573.000000
1965.280396 6202.000000
1966.593994 5609.000000
1967.906860 6215.000000
1969.218872 5963.000000
1970.530273 6063.000000
1971.840332 6288.000000
1973.149902 5838.000000
1974.458740 6130.000000
1975.766968 6571.000000
1977.073853 6082.000000
1978.380127 7213.000000
1979.686035 5504.000000
1980.990723 6356.000000
1982.294922 5955.000000
1983.597900 5665.000000
1984.900513 7582.000000
1986.202148 6072.000000
1987.503174 6777.000000
1988.802612 6070.000000
1990.102173 6543.000000
1991.400635 5317.000000
1992.698608 6057.000000
1993.994995 6083.000000
1995.291382 5805.000000
1996.586792 5531.000000
1997.881470 6482.000000
1999.175293 5699.000000
2000.467896 6603.000000
2001.760010 5750.000000
2003.051636 7095.000000
2004.342529 6460.000000
2005.631836 6215.000000
2006.920898 6822.000000
2008.209229 5920.000000
2009.496826 6002.000000
2010.783569 6596.000000
2012.069214 5579.000000
2013.354492 6305.000000
2014.638794 5972.000000
2015.922485 5561.000000
2017.204834 6044.000000
2018.486816 6499.000000
2019.768311 6759.000000
2021.048828 5813.000000
2022.328613 6007.000000
2023.607300 6769.000000
2024.885254 5851.000000
2026.162720 5923.000000
2027.439575 6315.000000
2028.714722 5739.000000
2029.989990 6662.000000
2031.264282 6035.000000
2032.537598 5959.000000
2033.810059 5883.000000
2035.082153 6155.000000
2036.353149 6996.000000
2037.623901 6575.000000
2038.893311 6034.000000
2040.161621 6711.000000
2041.429932 6614.000000
2042.697266 5897.000000
2043.963867 5971.000000
2045.229248 5700.000000
2046.494019 5926.000000
2047.758545 5417.000000
2049.021973 5835.000000
2050.284912 6442.000000
2051.545898 6153.000000
2052.807373 6041.000000
2054.067627 5850.000000
2055.327148 6451.000000
2056.585938 6185.000000
2057.843750 6898.000000
2059.101074 6139.000000
2060.357666 5997.000000
2061.612793 6491.000000
2062.867920 5591.000000
2064.122070 5577.000000
2065.375488 5619.000000
2066.628174 6843.000000
2067.879639 6270.000000
2069.130859 6339.000000
2070.381348 5634.000000
2071.631104 5366.000000
2072.879395 6498.000000
2074.127686 6436.000000
2075.375000 7422.000000
2076.621582 5605.000000
2077.867432 5993.000000
2079.112061 6948.000000
2080.356201 7577.000000
2081.599854 5544.000000
2082.842529 5998.000000
2084.083984 6883.000000
2085.325195 5965.000000
2086.565918 6318.000000
2087.805664 6765.000000
2089.044189 7068.000000
2090.282227 6194.000000
2091.519531 5731.000000
2092.756592 6592.000000
2093.992188 6078.000000
2095.227051 6149.000000
2096.461670 6056.000000
2097.695313 5622.000000
2098.927979 6080.000000
2100.159912 6820.000000
2101.391357 6443.000000
2102.621826 6745.000000
2103.851563 5969.000000
2105.081055 5996.000000
2106.308594 5956.000000
2107.536377 5951.000000
2108.763428 6254.000000
2109.989502 5507.000000
2111.214111 6465.000000
2112.438965 6925.000000
2113.662598 7130.000000
2114.885742 6197.000000
2116.107666 7535.000000
2117.329346 5975.000000
2118.550049 6843.000000
2119.770020 6044.000000
2120.989502 6150.000000
2122.207520 6539.000000
2123.425537 7071.000000
2124.642578 5779.000000
2125.859131 5809.000000
2127.073975 6572.000000
2128.289063 6354.000000
2129.503174 6946.000000
2130.716553 5659.000000
2131.929199 6090.000000
2133.140381 5788.000000
2134.351807 6493.000000
2135.562012 6745.000000
2136.771729 5951.000000
2137.979980 6153.000000
2139.188232 5664.000000
2140.395752 5851.000000
2141.602051 7475.000000
2142.807617 5878.000000
2144.012939 5618.000000
2145.217285 5513.000000
2146.420898 6326.000000
2147.624023 6178.000000
2148.825684 6621.000000
2150.027100 5297.000000
2151.227783 6263.000000
2152.427734 5981.000000
2153.626465 5893.000000
2154.824951 7019.000000
2156.022949 6175.000000
2157.219971 5998.000000
2158.416260 5126.000000
2159.611328 5310.000000
2160.806152 6118.000000
2162.000244 5511.000000
2163.193359 6021.000000
2164.385498 6876.000000
2165.577393 5921.000000
2166.768555 6325.000000
2167.958740 6250.000000
2169.148193 6402.000000
2170.337158 6781.000000
2171.525146 5990.000000
2172.712891 5747.000000
2173.899170 5888.000000
2175.084717 6588.000000
2176.270020 5982.000000
2177.454834 5853.000000
2178.638428 6326.000000
2179.821289 7480.000000
2181.003174 6321.000000
2182.184814 5916.000000
2183.365967 6526.000000
2184.545898 5633.000000
2185.724854 5568.000000
2186.903320 6363.000000
2188.081543 6852.000000
2189.258545 7205.000000
2190.434570 6694.000000
2191.610352 6096.000000
2192.785645 5527.000000
2193.959473 6645.000000
2195.132813 6114.000000
2196.305908 6129.000000
2197.477783 6328.000000
2198.649170 7115.000000
2199.820068 6343.000000
2200.989258 6885.000000
2202.158447 7547.000000
2203.327148 6272.000000
2204.494873 5898.000000
2205.661621 5746.000000
2206.827637 7026.000000
2207.993164 6667.000000
2209.158447 5977.000000
2210.322266 6728.000000
2211.485596 5420.000000
2212.647705 6196.000000
2213.810059 6154.000000
2214.971191 6683.000000
2216.131348 6712.000000
2217.291016 6281.000000
2218.450439 6593.000000
2219.608643 6389.000000
2220.765869 6290.000000
2221.922852 6769.000000
2223.079102 6555.000000
2224.234619 6759.000000
2225.389404 6243.000000
2226.543213 6392.000000
2227.696045 6031.000000
2228.849365 6859.000000
2230.000732 6178.000000
2231.151855 6087.000000
2232.302246 6504.000000
2233.452148 7635.000000
2234.601074 6274.000000
2235.749512 5237.000000
2236.896484 6431.000000
2238.043701 7076.000000
2239.189697 6086.000000
2240.335449 7216.000000
2241.479492 7347.000000
2242.623779 6767.000000
2243.767090 6192.000000
2244.909668 5932.000000
2246.051270 5781.000000
2247.192627 5834.000000
2248.333008 6394.000000
2249.472656 6364.000000
2250.611816 5776.000000
2251.749756 5842.000000
2252.887695 6184.000000
2254.024658 5288.000000
2255.160889 6329.000000
2256.296143 6080.000000
2257.430664 7280.000000
2258.564941 6356.000000
2259.698730 5396.000000
2260.831055 6167.000000
2261.962891 6784.000000
2263.094238 6265.000000
2264.224609 6445.000000
2265.354736 8068.000000
2266.483643 6670.000000
2267.612061 6020.000000
2268.739990 5543.000000
2269.866943 6098.000000
2270.993164 5932.000000
2272.118408 6680.000000
2273.243652 6457.000000
2274.368164 6370.000000
2275.491455 5877.000000
2276.614014 6344.000000
2277.736084 5925.000000
2278.857666 7378.000000
2279.978516 6369.000000
2281.098145 6442.000000
2282.217285 7089.000000
2283.336182 7707.000000
2284.454346 7209.000000
2285.571533 5910.000000
2286.687744 6436.000000
2287.803711 6986.000000
2288.918945 6850.000000
2290.033447 7387.000000
2291.146729 5792.000000
2292.260010 6368.000000
2293.372559 6012.000000
2294.484375 5269.000000
2295.595459 6791.000000
2296.705322 6388.000000
2297.814697 6156.000000
2298.923828 6676.000000
2300.031982 6383.000000
2301.139160 6778.000000
2302.246094 5941.000000
2303.352295 6217.000000
2304.458008 6581.000000
2305.562256 6599.000000
2306.666260 5484.000000
2307.769775 5767.000000
2308.872803 6546.000000
2309.974609 7362.000000
2311.075684 7347.000000
2312.176270 6604.000000
2313.276367 5431.000000
2314.375732 6376.000000
2315.473633 6581.000000
2316.572021 7018.000000
2317.668945 8164.000000
2318.765625 6838.000000
2319.861816 5737.000000
2320.956299 6843.000000
2322.050781 7476.000000
2323.144531 5773.000000
2324.238037 6064.000000
2325.329834 6423.000000
2326.421631 6918.000000
2327.512695 6120.000000
2328.603027 6278.000000
2329.692383 6880.000000
2330.781738 5978.000000
2331.869873 6240.000000
2332.957520 6812.000000
2334.044922 6489.000000
2335.130615 6620.000000
2336.216064 7805.000000
2337.301270 6320.000000
2338.385498 6732.000000
2339.468750 5826.000000
2340.551758 6424.000000
2341.633789 7051.000000
2342.715576 5964.000000
2343.796631 7357.000000
2344.876465 6664.000000
2345.955811 5709.000000
2347.034668 6747.000000
2348.113037 6524.000000
2349.189941 6282.000000
2350.266602 6961.000000
2351.343018 6043.000000
2352.418457 6418.000000
2353.492920 5920.000000
2354.567139 6324.000000
2355.640625 6759.000000
2356.713623 6147.000000
2357.785400 7005.000000
2358.856934 6276.000000
2359.927490 6820.000000
2360.997803 7479.000000
2362.067139 7547.000000
2363.135498 6790.000000
2364.203613 6680.000000
2365.270996 7048.000000
2366.337891 7031.000000
2367.404053 6051.000000
2368.468994 6908.000000
2369.533936 6964.000000
2370.598145 6285.000000
2371.661621 6963.000000
2372.723877 5742.000000
2373.786133 6277.000000
2374.847412 6328.000000
2375.908447 5895.000000
2376.968262 6283.000000
2378.027344 7932.000000
2379.086426 6478.000000
2380.144531 7600.000000
2381.201904 6883.000000
2382.258301 7978.000000
2383.314453 7824.000000
2384.370117 6269.000000
2385.425049 7057.000000
2386.478516 6727.000000
2387.532227 6529.000000
2388.584961 6257.000000
2389.637207 6834.000000
2390.688721 6146.000000
2391.739258 6674.000000
2392.789551 6430.000000
2393.838867 6150.000000
2394.888184 6157.000000
2395.936035 6849.000000
2396.983398 6992.000000
2398.030518 6253.000000
2399.076660 6688.000000
2400.122070 6150.000000
2401.166748 6734.000000
2402.211426 7696.000000
2403.254639 7510.000000
2404.297852 6589.000000
2405.339600 5797.000000
2406.381592 6649.000000
2407.422852 7065.000000
2408.463135 6100.000000
2409.502686 6430.000000
2410.541260 6279.000000
2411.580078 5902.000000
2412.617676 6478.000000
2413.655029 6869.000000
2414.691162 7360.000000
2415.727051 6215.000000
2416.762207 6264.000000
2417.796875 6601.000000
2418.830078 7182.000000
2419.863525 6453.000000
2420.895996 6691.000000
2421.928223 6832.000000
2422.958984 7010.000000
2423.989746 6345.000000
2425.020020 6811.000000
2426.049072 6803.000000
2427.078125 6680.000000
2428.105469 7416.000000
2429.133301 6618.000000
2430.159912 7274.000000
2431.186279 6930.000000
2432.211182 7688.000000
2433.236328 6584.000000
2434.260498 7141.000000
2435.284424 6693.000000
2436.307129 5772.000000
2437.329102 6288.000000
2438.350830 6616.000000
2439.371826 6638.000000
2440.392334 5991.000000
2441.411621 6472.000000
2442.430908 6557.000000
2443.449219 8397.000000
2444.467285 6221.000000
2445.483887 6487.000000
2446.500488 6581.000000
2447.516357 5966.000000
2448.532227 6974.000000
2449.546631 6815.000000
2450.560303 5522.000000
2451.573486 7230.000000
2452.586426 5964.000000
2453.598633 7201.000000
2454.609863 6687.000000
2455.620850 7605.000000
2456.631104 6388.000000
2457.640869 7656.000000
2458.649658 5878.000000
2459.657715 5906.000000
2460.665771 6246.000000
2461.672607 7389.000000
2462.679199 5377.000000
2463.684570 7389.000000
2464.689697 6888.000000
2465.694580 5893.000000
2466.698242 6502.000000
2467.701660 6314.000000
2468.704102 7583.000000
2469.706299 7368.000000
2470.708008 6890.000000
2471.708740 6581.000000
2472.708496 6985.000000
2473.708252 6755.000000
2474.707031 5645.000000
2475.705322 6600.000000
2476.702637 7014.000000
2477.699707 6182.000000
2478.696777 7010.000000
2479.692383 5878.000000
2480.687988 7080.000000
2481.681885 6677.000000
2482.675781 8121.000000
2483.669189 6793.000000
2484.662109 6732.000000
2485.654053 7472.000000
2486.645264 7191.000000
2487.636230 6718.000000
2488.626709 5846.000000
2489.616211 6548.000000
2490.604980 6524.000000
2491.593750 5667.000000
2492.581543 6773.000000
2493.568115 6604.000000
2494.554688 7984.000000
2495.540771 6732.000000
2496.526123 7114.000000
2497.510498 8370.000000
2498.494629 6028.000000
2499.478760 6856.000000
2500.461426 5737.000000
2501.443604 6929.000000
2502.425293 6821.000000
2503.406250 7256.000000
2504.386719 6516.000000
2505.366943 5678.000000
2506.345703 6346.000000
2507.324219 7602.000000
2508.302246 6748.000000
2509.279785 7065.000000
2510.256348 6045.000000
2511.232666 5916.000000
2512.208252 6384.000000
2513.183350 6256.000000
2514.157959 6447.000000
2515.131348 7479.000000
2516.104492 6804.000000
2517.077393 6833.000000
2518.049316 6076.000000
2519.020508 6779.000000
2519.991211 6886.000000
2520.961670 7761.000000
2521.931396 7978.000000
2522.900146 6041.000000
2523.868164 6138.000000
2524.836182 7772.000000
2525.803223 6295.000000
2526.770020 5540.000000
2527.735596 7259.000000
2528.701172 7012.000000
2529.666016 7753.000000
2530.630371 6354.000000
2531.593506 6353.000000
2532.556885 5870.000000
2533.519287 5968.000000
2534.481445 6595.000000
2535.442383 6361.000000
2536.402588 6095.000000
2537.363037 6068.000000
2538.322510 6709.000000
2539.281250 6803.000000
2540.239014 6595.000000
2541.197021 6175.000000
2542.154297 6716.000000
2543.110596 6055.000000
2544.066650 7046.000000
2545.021484 6214.000000
2545.976563 7722.000000
2546.930908 7092.000000
2547.884521 6399.000000
2548.837158 7197.000000
2549.789551 6708.000000
2550.741455 6884.000000
2551.692627 6313.000000
2552.643066 7567.000000
2553.593018 7242.000000
2554.542725 7316.000000
2555.491699 6557.000000
2556.440186 6219.000000
2557.387451 7031.000000
2558.334717 6289.000000
2559.281250 6537.000000
2560.227295 6723.000000
2561.172363 7394.000000
2562.117188 6671.000000
2563.061523 7155.000000
2564.005371 6854.000000
2564.948730 6567.000000
2565.890625 6576.000000
2566.832764 6538.000000
2567.774170 6098.000000
2568.714844 7121.000000
2569.654785 7231.000000
2570.594727 5685.000000
2571.533691 6197.000000
2572.472412 7509.000000
2573.410156 7170.000000
2574.347656 5434.000000
2575.284424 6899.000000
2576.220459 6790.000000
2577.156006 7491.000000
2578.090820 6276.000000
2579.025635 5920.000000
2579.959473 7047.000000
2580.892822 7176.000000
2581.825439 5854.000000
2582.757813 6877.000000
2583.689453 5440.000000
2584.620605 7075.000000
2585.551270 7045.000000
2586.480713 6872.000000
2587.410156 7234.000000
2588.339111 6417.000000
2589.267822 7327.000000
2590.194824 7279.000000
2591.122070 5888.000000
2592.048828 6813.000000
2592.974854 6271.000000
2593.900635 5598.000000
2594.825195 7563.000000
2595.749512 7605.000000
2596.673340 5311.000000
2597.596680 7270.000000
2598.519043 6245.000000
2599.441162 6938.000000
2600.362793 8254.000000
2601.283691 6426.000000
2602.203857 5917.000000
2603.123779 6302.000000
2604.043213 6357.000000
2604.962402 6428.000000
2605.880615 5772.000000
2606.797607 5946.000000
2607.714844 7260.000000
2608.631836 5862.000000
2609.547852 7537.000000
2610.462646 6565.000000
2611.377930 6628.000000
2612.292480 6489.000000
2613.206055 6533.000000
2614.119629 6039.000000
2615.031982 7567.000000
2615.944336 7049.000000
2616.855713 6782.000000
2617.766846 5707.000000
2618.677246 7207.000000
2619.587402 6606.000000
2620.496826 6142.000000
2621.405762 6645.000000
2622.313721 6251.000000
2623.221924 6847.000000
2624.129150 6648.000000
2625.035889 7069.000000
2625.941895 5946.000000
2626.847656 6566.000000
2627.752686 6374.000000
2628.657471 7785.000000
2629.561523 6427.000000
2630.464600 6449.000000
2631.367676 6400.000000
2632.269775 5557.000000
2633.171875 6703.000000
2634.073730 6963.000000
2634.973877 6743.000000
2635.874268 6381.000000
2636.773926 6407.000000
2637.673340 5915.000000
2638.571289 6895.000000
2639.469727 6722.000000
2640.367676 6375.000000
2641.264893 6027.000000
2642.160889 6119.000000
2643.056885 6650.000000
2643.952637 6081.000000
2644.847656 6431.000000
2645.742432 6638.000000
2646.635742 7082.000000
2647.529053 6293.000000
2648.422119 6779.000000
2649.314941 6459.000000
2650.206055 7412.000000
2651.097412 6369.000000
2651.988281 7623.000000
2652.878418 7370.000000
2653.768311 6586.000000
2654.656982 7301.000000
2655.545898 6658.000000
2656.434326 6550.000000
2657.321777 7357.000000
2658.208252 6424.000000
2659.095215 7126.000000
2659.981445 6801.000000
2660.867188 6744.000000
2661.751709 6447.000000
2662.636230 6409.000000
2663.520508 6144.000000
2664.404053 7015.000000
2665.287109 7812.000000
2666.169434 7254.000000
2667.051270 6175.000000
2667.932373 6597.000000
2668.813721 6075.000000
2669.693604 6573.000000
2670.573730 7333.000000
2671.453125 7167.000000
2672.332520 6158.000000
2673.211182 6115.000000
2674.088135 6367.000000
2674.965820 6819.000000
2675.842773 6386.000000
2676.718994 8065.000000
2677.594727 7178.000000
2678.469727 6235.000000
2679.344971 7711.000000
2680.219238 6901.000000
2681.093018 7326.000000
2681.966064 7005.000000
2682.838867 6170.000000
2683.711426 6054.000000
2684.583252 6955.000000
2685.454346 6525.000000
2686.325195 6878.000000
2687.195557 7084.000000
2688.065674 6728.000000
2688.934082 6338.000000
2689.803223 7338.000000
2690.671631 7048.000000
2691.539795 6636.000000
2692.407227 6840.000000
2693.273438 5860.000000
2694.140137 7133.000000
2695.005859 7348.000000
2695.871582 7168.000000
2696.735840 7873.000000
2697.600830 6637.000000
2698.464355 7222.000000
2699.328125 5796.000000
2700.190430 7393.000000
2701.053223 6818.000000
2701.915039 5914.000000
2702.776367 6884.000000
2703.637695 6792.000000
2704.497803 7443.000000
2705.357910 7297.000000
2706.217529 6560.000000
2707.076904 6769.000000
2707.934570 7180.000000
2708.792480 6879.000000
2709.650879 7322.000000
2710.508057 6697.000000
2711.364502 5946.000000
2712.220459 6869.000000
2713.076416 6090.000000
2713.931641 6833.000000
2714.786133 6106.000000
2715.640137 6704.000000
2716.494141 7306.000000
2717.347168 6253.000000
2718.200439 6410.000000
2719.052002 7744.000000
2719.904053 6780.000000
2720.755859 6185.000000
2721.606445 6474.000000
2722.457031 6445.000000
2723.307129 7080.000000
2724.156494 7005.000000
2725.005859 6994.000000
2725.854004 6632.000000
2726.701660 6519.000000
2727.549805 6957.000000
2728.396729 6878.000000
2729.244141 5584.000000
2730.090088 7445.000000
2730.935303 7011.000000
2731.781006 6430.000000
2732.625732 6968.000000
2733.470459 7297.000000
2734.313965 6871.000000
2735.157715 7750.000000
2736.000732 7044.000000
2736.843262 6120.000000
2737.684814 6231.000000
2738.526855 6774.000000
2739.367920 6857.000000
2740.208740 5756.000000
2741.049316 5873.000000
2741.888672 7719.000000
2742.728027 6829.000000
2743.567383 6951.000000
2744.405518 6760.000000
2745.243164 7907.000000
2746.080811 6318.000000
2746.917969 7103.000000
2747.754883 6183.000000
2748.591309 5976.000000
2749.426514 6630.000000
2750.261963 6268.000000
2751.096924 6294.000000
2751.931152 6246.000000
2752.765137 6849.000000
2753.598633 6829.000000
2754.432129 7988.000000
2755.264648 6777.000000
2756.096680 7312.000000
2756.928223 6799.000000
2757.759766 7062.000000
2758.590332 7180.000000
2759.421143 7150.000000
2760.250732 7252.000000
2761.080322 6675.000000
2761.909668 7300.000000
2762.738281 6796.000000
2763.566406 6797.000000
2764.394043 6820.000000
2765.221680 6651.000000
2766.048828 7893.000000
2766.875244 5781.000000
2767.701172 7471.000000
2768.526611 6865.000000
2769.351807 7810.000000
2770.177002 7010.000000
2771.000977 6734.000000
2771.824951 6459.000000
2772.648926 7651.000000
2773.471680 6596.000000
2774.294678 6933.000000
2775.116455 6884.000000
2775.938232 6930.000000
2776.760010 6486.000000
2777.580811 7956.000000
2778.400879 6515.000000
2779.221191 7045.000000
2780.041016 7293.000000
2780.860840 6400.000000
2781.678711 5977.000000
2782.497803 8010.000000
2783.315674 6507.000000
2784.133301 6723.000000
2784.950439 7145.000000
2785.767090 7291.000000
2786.583496 7133.000000
2787.399414 6191.000000
2788.215088 5939.000000
2789.029785 6403.000000
2789.844971 6962.000000
2790.659424 7102.000000
2791.473389 6610.000000
2792.287109 7398.000000
2793.099609 8750.000000
2793.912354 6905.000000
2794.724609 7436.000000
2795.536377 7141.000000
2796.347412 7380.000000
2797.159180 6545.000000
2797.969727 7198.000000
2798.780273 7008.000000
2799.589355 7447.000000
2800.399170 8140.000000
2801.208252 7815.000000
2802.017090 6585.000000
2802.825439 7205.000000
2803.632813 6183.000000
2804.440674 6389.000000
2805.247803 6863.000000
2806.054688 6895.000000
2806.860352 7239.000000
2807.666504 6647.000000
2808.471924 6459.000000
2809.277344 7315.000000
2810.082031 6146.000000
2810.885742 7670.000000
2811.689941 7462.000000
2812.493652 6311.000000
2813.297119 6075.000000
2814.099121 6436.000000
2814.901855 7280.000000
2815.703857 7801.000000
2816.505615 6119.000000
2817.306885 6506.000000
2818.107666 7260.000000
2818.907959 6504.000000
2819.708496 6750.000000
2820.508057 7999.000000
2821.307129 7096.000000
2822.106201 6476.000000
2822.905029 6941.000000
2823.703369 6328.000000
2824.500732 6978.000000
2825.298340 7037.000000
2826.095215 6688.000000
2826.892334 7342.000000
2827.688721 8041.000000
2828.484375 7016.000000
2829.280029 7362.000000
2830.075439 7488.000000
2830.870361 7449.000000
2831.664551 6607.000000
2832.458740 6764.000000
2833.252686 5645.000000
2834.046143 6784.000000
2834.838867 7059.000000
2835.631348 8087.000000
2836.423828 7656.000000
2837.216064 7478.000000
2838.007813 6448.000000
2838.798584 6847.000000
2839.589355 8795.000000
2840.380371 7488.000000
2841.170410 6216.000000
2841.959961 7624.000000
2842.749756 7106.000000
2843.538574 7291.000000
2844.327393 7781.000000
2845.116211 7776.000000
2845.904053 7508.000000
2846.691406 7260.000000
2847.479004 7462.000000
2848.266113 7287.000000
2849.052490 6593.000000
2849.838867 7493.000000
2850.625000 7189.000000
2851.410645 7533.000000
2852.195313 7118.000000
2852.980469 6923.000000
2853.765381 7438.000000
2854.549561 7082.000000
2855.333740 6931.000000
2856.116699 8245.000000
2856.899902 6795.000000
2857.682861 6724.000000
2858.465332 7785.000000
2859.247559 6223.000000
2860.029297 6659.000000
2860.810791 7594.000000
2861.592529 7524.000000
2862.373535 7606.000000
2863.153809 6582.000000
2863.933838 6730.000000
2864.713867 8081.000000
2865.493652 7421.000000
2866.272461 8101.000000
2867.051514 7660.000000
2867.830078 6681.000000
2868.608398 6983.000000
2869.386230 7174.000000
2870.163818 6887.000000
2870.941162 7441.000000
2871.718262 6967.000000
2872.494873 6379.000000
2873.270996 7368.000000
2874.047119 7102.000000
2874.822754 8151.000000
2875.598145 7186.000000
2876.373047 6550.000000
2877.147705 7936.000000
2877.922363 6592.000000
2878.696777 7782.000000
2879.470459 6716.000000
2880.243408 7057.000000
2881.017090 6681.000000
2881.789795 7529.000000
2882.562500 7876.000000
2883.334473 8208.000000
2884.106201 6163.000000
2884.878418 6798.000000
2885.649414 6838.000000
2886.419922 6092.000000
2887.190918 8356.000000
2887.961914 7330.000000
2888.732178 7997.000000
2889.501465 7612.000000
2890.270996 6924.000000
2891.040527 7209.000000
2891.809570 7364.000000
2892.578125 7943.000000
2893.346680 7704.000000
2894.114258 6948.000000
2894.882324 6570.000000
2895.649902 7449.000000
2896.417480 8347.000000
2897.183838 7373.000000
2897.951172 6508.000000
2898.717285 7216.000000
2899.483643 6975.000000
2900.248535 8306.000000
2901.013916 6970.000000
2901.779785 6424.000000
2902.544189 7777.000000
2903.308594 7662.000000
2904.073242 8409.000000
2904.836914 6636.000000
2905.601318 8553.000000
2906.364990 6694.000000
2907.127930 8381.000000
2907.890625 6419.000000
2908.653809 8909.000000
2909.416504 6918.000000
2910.177979 6781.000000
2910.939941 6781.000000
