scanname Analyse018
timestamp 2017-02-10 20:16:07
ccdbias 903.901855
ccdgain 3.473401
sigmaread 8.960639
laserwavenum -0.547522
wavenumcorrection -0.024558
scancount 1
totalexposurems 10000
singleexposurems 10000
measurementstate Unknown
scanmode Manual
snr 69.634422 0.751299 0.405344
replacelist 0
peaks 10
395.984863 0.176733 0.000000 0.115711 0.000014
810.325989 0.159647 0.000000 0.437648 0.000094
843.780640 0.154079 0.000000 0.183634 0.000017
877.015442 0.151351 0.000000 0.212017 0.000025
1153.221924 0.130650 0.000000 0.177849 0.000031
1318.753052 0.141481 0.000000 6.133531 0.001671
1457.950195 0.121665 0.000000 0.202554 0.000073
1552.140869 0.107985 0.000000 0.059386 0.000025
1744.744141 0.092136 0.000000 0.114708 0.000038
2329.323242 0.051804 0.000000 0.072105 0.000124
finalresult GLS_Multiple 86
A13500	Poly(propylene-co-ethylene)	3.487380e-001
A0115	Polypropylene	3.440332e-001
A13180	Polypropylene (lot B)	3.390638e-001
A1697	Ethyl vinyl ether	2.931733e-001
A4025	2,4-Dimethylpentane	2.877393e-001
A1531	Ethyl formate	2.868644e-001
A12040	Ethanol w/ sweetener	2.863490e-001
A8461	Ethanol	2.856554e-001
A2782	Acetamide	2.854772e-001
A9092	p-Tolyl ether	2.852886e-001
A2017	Isopropylamine	2.852777e-001
A11885	Poly(methyl methacrylate-co-butyl methacrylate)	2.838032e-001
A13507	Poly(methyl methacrylate-co-ethyl acrylate)	2.836987e-001
A1676	Trifluoroacetic acid	2.831980e-001
A2703	Acetaldehyde dimethyl acetal	2.819084e-001
A11101	Hydrogen peroxide, 70%	2.811305e-001
A0273	Denatured Solvent Alcohol	2.802613e-001
A14069	(R)-(-)-1,2-Propanediol	2.800857e-001
A11925	Butyl (S)-(-)-2-pyrrolidone-5-carboxylate	2.798585e-001
A4881	2-(2-Chloroethoxy)tetrahydro-2H-pyran	2.796626e-001
A3222	Potassium nitrite	2.793019e-001
A0518	Propylene glycol	2.792809e-001
A4972	Boric acid	2.777286e-001
A4807	2-(2-Nitroethoxy)tetrahydropyran	2.774411e-001
A2721	Formaldehyde diethyl acetal	2.761624e-001
A1519	Butyl vinyl ether	2.759995e-001
A11872	Poly(methyl methacrylate)	2.752141e-001
A6700	4'-Methoxypropiophenone	2.747965e-001
A6290	Bis(2,2,2-trifluoroethyl) phosphite	2.747867e-001
A0113	Hydrogen peroxide	2.747459e-001
A1270	Methyl DL-lactate	2.738522e-001
A10674	Dibutyl succinate	2.736698e-001
A14007	1,2-Dichlorotetramethyldisilane	2.724454e-001
A0673	Hexachlorocyclopentadiene	2.723543e-001
A13820	(-)-Methyl L-lactate	2.723543e-001
A0524	Propionic acid	2.719002e-001
A1351	Sodium propionate	2.718295e-001
A0098	Roundup (weed and grass killer)	2.714666e-001
A12448	Tribromofluoromethane	2.713563e-001
A11100	Hydrogen peroxide, 50%	2.712255e-001
A10296	Tri(ethylene glycol) divinyl ether	2.712053e-001
A3164	Ammonium chromate	2.711350e-001
A2943	Potassium binoxalate	2.710040e-001
A1754	N,N-Dimethylhydrazine	2.704212e-001
A0969	Diethylene glycol monopropyl ether	2.698192e-001
A2313	Barium peroxide	2.696791e-001
A4543	1,4-Butanediol divinyl ether	2.695689e-001
A0251	Ethylamine	2.695388e-001
A3285	4,N,N-Trimethylaniline	2.695286e-001
A0400	Potassium permanganate	2.680203e-001
A2839	5-Azacytidine	2.677615e-001
A0369	2,4,6-Tribromophenol	2.676415e-001
A4629	1,4,5,6-Tetrahydropyrimidine	2.675323e-001
A2385	Amphotericin B	2.675124e-001
A0761	N,N,N',N'-Tetrakis(2-Hydroxypropyl)ethylenediamine	2.673433e-001
A4269	2,4-Dibromoanisole	2.672442e-001
A12725	Cerium(III) fluoride	2.669358e-001
A6278	6-Methylnicotinamide	2.667866e-001
A2021	Lewisite (blister agent)	2.665786e-001
A5771	2-Methylnaphthalene-bis(hexachlorocyclopentadiene)	2.665389e-001
A0361	Dimethyl succinate	2.661917e-001
A2210	Calcium peroxide hydrate	2.655779e-001
A16018	L (lewisite blister agent, lot D)	2.651626e-001
A2413	Sodium selenate	2.650338e-001
A9546	4-Methoxy-alpha-methylbenzyl alcohol	2.644813e-001
A6011	Ethyl 3-hydroxybutyrate	2.644024e-001
A8610	5-Methyl-2-pyrrolidinone	2.641069e-001
A2727	Acrolein diethyl acetal	2.639300e-001
A5310	4-Methyl-3-nitroanisole	2.637919e-001
A13320	Titanium tetrachloride	2.634969e-001
A1550	Nitroethane	2.634282e-001
A1644	Ethyl isobutyrate	2.633593e-001
A10581	Piperidine	2.630548e-001
A3976	2-Aminopyrimidine	2.629371e-001
A7885	beta-Carotene	2.627015e-001
A2435	Sodium percarbonate	2.624567e-001
A13181	Polyethersulfone	2.623880e-001
A0292	Hydrazine	2.621824e-001
A2273	Triethylene glycol dimethyl ether	2.620159e-001
A8580	Sodium permanganate solution	2.619379e-001
A3625	1-Dimethylamino-2-propanol	2.610976e-001
A5377	4-Methyl-2-nitroanisole	2.610489e-001
A1547	Isovaleric acid	2.603668e-001
A2611	2-Nitroethanol	2.603278e-001
A8663	4-Methyl-3,5-dinitrobenzoic acid	2.598904e-001
A5382	3-Methoxypropionic acid	2.589971e-001
spectrum 2048
-97.053932 45838.000000
-94.427063 45838.000000
-91.802071 46417.000000
-89.178970 46225.000000
-86.557739 47099.000000
-83.938408 46789.000000
-81.320938 47147.000000
-78.705345 46873.000000
-76.091629 47054.000000
-73.479790 47421.000000
-70.869812 47359.000000
-68.261719 47438.000000
-65.655472 47505.000000
-63.051102 47448.000000
-60.448593 47438.000000
-57.847939 47878.000000
-55.249146 47324.000000
-52.652210 46551.000000
-50.057129 47095.000000
-47.463902 46920.000000
-44.872524 47240.000000
-42.282993 46796.000000
-39.695305 47598.000000
-37.109467 47398.000000
-34.525471 47044.000000
-31.943312 47749.000000
-29.362999 47084.000000
-26.784513 47651.000000
-24.207870 47264.000000
-21.633053 47099.000000
-19.060076 46858.000000
-16.488918 46763.000000
-13.919596 46498.000000
-11.352098 45476.000000
-8.786418 46934.000000
-6.222564 46657.000000
-3.660524 47002.000000
-1.100308 47171.000000
1.458100 46513.000000
4.014688 45852.000000
6.569469 45963.000000
9.122435 46357.000000
11.673599 45229.000000
14.222951 44966.000000
16.770508 44249.000000
19.316252 44413.000000
21.860203 43782.000000
24.402349 41223.000000
26.942699 38803.000000
29.481264 35610.000000
32.018032 31338.000000
34.552998 21599.000000
37.086185 12881.000000
39.617592 9342.000000
42.147205 8620.000000
44.675022 8219.000000
47.201080 7197.000000
49.725349 6270.000000
52.247849 5693.000000
54.768551 5251.000000
57.287498 5399.000000
59.804672 6443.000000
62.320068 8008.000000
64.833687 8426.000000
67.345551 8181.000000
69.855667 6543.000000
72.363991 4527.000000
74.870560 3608.000000
77.375381 3123.000000
79.878448 2534.000000
82.379738 2273.000000
84.879288 2215.000000
87.377083 2005.000000
89.873146 2434.000000
92.367432 2829.000000
94.859978 2891.000000
97.350807 2869.000000
99.839867 2622.000000
102.327179 2077.000000
104.812767 1565.000000
107.296616 1467.000000
109.778717 1322.000000
112.259094 1375.000000
114.737747 1146.000000
117.214676 1075.000000
119.689850 1090.000000
122.163315 1037.000000
124.635048 1027.000000
127.105072 1112.000000
129.573334 1106.000000
132.039932 1232.000000
134.504776 1189.000000
136.967926 1258.000000
139.429337 1207.000000
141.889053 1387.000000
144.347046 1529.000000
146.803345 1890.000000
149.257935 1996.000000
151.710800 2239.000000
154.161987 2673.000000
156.611481 3149.000000
159.059250 3616.000000
161.505310 4177.000000
163.949692 4550.000000
166.392395 5067.000000
168.833405 5566.000000
171.272705 5800.000000
173.710297 6014.000000
176.146255 6164.000000
178.580475 6231.000000
181.013016 6152.000000
183.443909 6321.000000
185.873077 6256.000000
188.300598 6328.000000
190.726440 6317.000000
193.150604 6360.000000
195.573105 6547.000000
197.993912 6485.000000
200.413055 6723.000000
202.830536 6866.000000
205.246323 6976.000000
207.660461 7371.000000
210.072968 7662.000000
212.483795 8199.000000
214.892944 8572.000000
217.300461 9143.000000
219.706268 9761.000000
222.110489 10007.000000
224.513000 10519.000000
226.913895 10956.000000
229.313141 11317.000000
231.710724 11339.000000
234.106644 11430.000000
236.500946 11561.000000
238.893585 11712.000000
241.284607 11750.000000
243.673965 11878.000000
246.061707 11876.000000
248.447800 11734.000000
250.832260 11797.000000
253.215073 11852.000000
255.596313 11811.000000
257.975861 11732.000000
260.353821 11791.000000
262.730103 11779.000000
265.104828 11696.000000
267.477905 11666.000000
269.849335 11765.000000
272.219116 11819.000000
274.587341 11666.000000
276.953918 11660.000000
279.318909 11656.000000
281.682281 11649.000000
284.044006 11605.000000
286.404144 11644.000000
288.762665 11624.000000
291.119598 11548.000000
293.474915 11518.000000
295.828644 11597.000000
298.180725 11616.000000
300.531250 11536.000000
302.880188 11609.000000
305.227478 11504.000000
307.573242 11442.000000
309.917328 11448.000000
312.259888 11488.000000
314.600830 11331.000000
316.940155 11324.000000
319.277924 11469.000000
321.614136 11324.000000
323.948700 11332.000000
326.281708 11353.000000
328.613159 11249.000000
330.943024 11235.000000
333.271301 11263.000000
335.597961 11127.000000
337.923126 11389.000000
340.246674 11218.000000
342.568665 11134.000000
344.889099 11145.000000
347.207916 11182.000000
349.525177 11014.000000
351.840912 11067.000000
354.155060 10991.000000
356.467621 10970.000000
358.778625 11339.000000
361.088104 11020.000000
363.396057 11102.000000
365.702393 10947.000000
368.007141 11172.000000
370.310425 11078.000000
372.612091 10944.000000
374.912262 10924.000000
377.210876 10959.000000
379.507935 10940.000000
381.803436 11016.000000
384.097412 11176.000000
386.389801 11273.000000
388.680695 11089.000000
390.970062 11297.000000
393.257843 11348.000000
395.544098 11464.000000
397.828857 11339.000000
400.112000 11442.000000
402.393707 11645.000000
404.673889 11429.000000
406.952484 11372.000000
409.229553 11210.000000
411.505096 11316.000000
413.779114 11186.000000
416.051697 11157.000000
418.322662 11168.000000
420.592133 11020.000000
422.860107 11108.000000
425.126526 11108.000000
427.391449 10978.000000
429.654907 10952.000000
431.916779 10912.000000
434.177185 10859.000000
436.436035 10852.000000
438.693420 11012.000000
440.949310 10925.000000
443.203705 10751.000000
445.456573 10739.000000
447.707886 10696.000000
449.957794 10765.000000
452.206116 10727.000000
454.453003 10655.000000
456.698425 10609.000000
458.942291 10608.000000
461.184662 10522.000000
463.425537 10513.000000
465.665009 10506.000000
467.902893 10554.000000
470.139343 10703.000000
472.374268 10597.000000
474.607727 10442.000000
476.839752 10357.000000
479.070251 10327.000000
481.299255 10270.000000
483.526794 10493.000000
485.752838 10285.000000
487.977448 10286.000000
490.200592 10290.000000
492.422272 10383.000000
494.642395 10282.000000
496.861115 10515.000000
499.078339 10440.000000
501.294189 10447.000000
503.508423 10491.000000
505.721344 10409.000000
507.932678 10398.000000
510.142578 10436.000000
512.351013 10466.000000
514.558105 10490.000000
516.763611 10406.000000
518.967712 10521.000000
521.170288 10380.000000
523.371460 10404.000000
525.571289 10432.000000
527.769592 10443.000000
529.966370 10362.000000
532.161804 10375.000000
534.355713 10192.000000
536.548279 10136.000000
538.739319 10230.000000
540.928955 10177.000000
543.117188 10238.000000
545.303894 10080.000000
547.489136 10084.000000
549.673096 9920.000000
551.855469 9923.000000
554.036499 9908.000000
556.216003 9793.000000
558.394226 9788.000000
560.570923 9739.000000
562.746216 9637.000000
564.920105 9612.000000
567.092529 9687.000000
569.263550 9563.000000
571.433105 9734.000000
573.601379 9718.000000
575.768127 9641.000000
577.933411 9770.000000
580.097290 9614.000000
582.259888 9716.000000
584.420959 9732.000000
586.580627 9655.000000
588.738953 9748.000000
590.895752 9748.000000
593.051208 9705.000000
595.205261 9799.000000
597.357971 9850.000000
599.509155 9825.000000
601.658997 9681.000000
603.807495 9714.000000
605.954407 9894.000000
608.100098 9659.000000
610.244385 9787.000000
612.387207 9726.000000
614.528564 9648.000000
616.668701 9612.000000
618.807312 9666.000000
620.944641 9747.000000
623.080505 9689.000000
625.214966 9660.000000
627.347961 9581.000000
629.479797 9528.000000
631.610168 9414.000000
633.739136 9553.000000
635.866638 9456.000000
637.992859 9350.000000
640.117554 9356.000000
642.241028 9280.000000
644.363159 9134.000000
646.483826 9063.000000
648.603149 9195.000000
650.721069 9084.000000
652.837646 9172.000000
654.952820 9088.000000
657.066650 9110.000000
659.179016 8902.000000
661.290161 8921.000000
663.399902 9001.000000
665.508179 8980.000000
667.615295 9145.000000
669.720947 9055.000000
671.825134 8874.000000
673.928101 8958.000000
676.029663 8932.000000
678.129883 8962.000000
680.228699 8931.000000
682.326172 9212.000000
684.422363 9128.000000
686.517090 9180.000000
688.610596 9116.000000
690.702759 9098.000000
692.793396 9140.000000
694.882813 9184.000000
696.970947 9292.000000
699.057617 9279.000000
701.143066 9191.000000
703.226990 9348.000000
705.309692 9193.000000
707.391113 9097.000000
709.471069 8894.000000
711.549805 8765.000000
713.627075 8604.000000
715.703064 8629.000000
717.777771 8703.000000
719.851196 8629.000000
721.923096 8882.000000
723.993835 8799.000000
726.063232 8755.000000
728.131226 8626.000000
730.197876 8579.000000
732.263306 8548.000000
734.327393 8570.000000
736.390137 8583.000000
738.451538 8508.000000
740.511658 8478.000000
742.570374 8449.000000
744.627869 8336.000000
746.684082 8458.000000
748.738892 8423.000000
750.792419 8297.000000
752.844543 8293.000000
754.895447 8329.000000
756.945129 8236.000000
758.993347 8162.000000
761.040344 8225.000000
763.086060 8129.000000
765.130371 8138.000000
767.173401 8256.000000
769.215210 7752.000000
771.255676 8149.000000
773.294739 8250.000000
775.332642 8221.000000
777.369202 8320.000000
779.404541 8332.000000
781.438538 8222.000000
783.471130 8212.000000
785.502563 8246.000000
787.532593 8237.000000
789.561340 8364.000000
791.588928 8444.000000
793.615173 8412.000000
795.640015 8360.000000
797.663757 8530.000000
799.686096 8547.000000
801.707214 8523.000000
803.726990 8537.000000
805.745483 8724.000000
807.762756 8843.000000
809.778625 8773.000000
811.793335 8787.000000
813.806702 8678.000000
815.818848 8397.000000
817.829773 8379.000000
819.839355 8158.000000
821.847717 8294.000000
823.854675 8137.000000
825.860413 8093.000000
827.864929 8098.000000
829.868164 7939.000000
831.870117 7895.000000
833.870789 7870.000000
835.870239 7919.000000
837.868347 7884.000000
839.865356 8094.000000
841.860962 8029.000000
843.855408 7968.000000
845.848511 7878.000000
847.840393 7705.000000
849.830933 7685.000000
851.820190 7609.000000
853.808411 7660.000000
855.795227 7659.000000
857.780823 7698.000000
859.765137 7545.000000
861.748352 7390.000000
863.730164 7396.000000
865.710754 7478.000000
867.690063 7467.000000
869.668213 7414.000000
871.645020 7608.000000
873.620544 7640.000000
875.595032 7693.000000
877.568054 7770.000000
879.540039 7865.000000
881.510681 7824.000000
883.480164 7928.000000
885.448303 7890.000000
887.415283 7736.000000
889.380920 7802.000000
891.345398 7663.000000
893.308655 7640.000000
895.270691 7568.000000
897.231445 7492.000000
899.190979 7567.000000
901.149231 7649.000000
903.106384 7464.000000
905.062378 7424.000000
907.016968 7371.000000
908.970337 7491.000000
910.922546 7474.000000
912.873535 7343.000000
914.823242 7295.000000
916.771790 7279.000000
918.719116 7215.000000
920.665161 7227.000000
922.609924 6989.000000
924.553650 7094.000000
926.496216 6897.000000
928.437500 6806.000000
930.377441 6786.000000
932.316284 6643.000000
934.253845 6720.000000
936.190186 6774.000000
938.125366 6693.000000
940.059265 6669.000000
941.992065 6754.000000
943.923645 6765.000000
945.854065 6683.000000
947.783264 6589.000000
949.711121 6798.000000
951.637939 6765.000000
953.563477 6709.000000
955.487732 6607.000000
957.410889 6754.000000
959.332886 6869.000000
961.253601 6826.000000
963.173157 6869.000000
965.091553 6826.000000
967.008911 6859.000000
968.924805 6882.000000
970.839600 6887.000000
972.753174 6913.000000
974.665588 6899.000000
976.576782 6987.000000
978.486816 6833.000000
980.395569 6998.000000
982.303284 6933.000000
984.209778 6853.000000
986.115051 6725.000000
988.019226 6722.000000
989.922180 6743.000000
991.823914 6830.000000
993.724487 6763.000000
995.623901 6742.000000
997.522095 6716.000000
999.419128 6750.000000
1001.314941 6483.000000
1003.209595 6459.000000
1005.103149 6416.000000
1006.995422 6268.000000
1008.886780 6311.000000
1010.776794 6269.000000
1012.665588 6154.000000
1014.553223 6204.000000
1016.439697 6127.000000
1018.325012 6231.000000
1020.209167 6229.000000
1022.092102 6148.000000
1023.973999 6176.000000
1025.854614 6082.000000
1027.734131 6114.000000
1029.612671 6173.000000
1031.489868 6173.000000
1033.365723 6193.000000
1035.240601 6141.000000
1037.114502 6224.000000
1038.986938 6209.000000
1040.858398 6190.000000
1042.728516 6214.000000
1044.597656 6157.000000
1046.465576 6216.000000
1048.332397 6035.000000
1050.198120 6152.000000
1052.062622 6212.000000
1053.926025 6173.000000
1055.788086 6217.000000
1057.649170 6321.000000
1059.509155 6341.000000
1061.367798 6193.000000
1063.225342 6142.000000
1065.081787 6238.000000
1066.937134 6246.000000
1068.791260 6226.000000
1070.644531 6162.000000
1072.496338 6248.000000
1074.347168 6140.000000
1076.196777 6167.000000
1078.045166 6201.000000
1079.892700 6151.000000
1081.738892 6104.000000
1083.583862 6147.000000
1085.427979 6050.000000
1087.270752 6098.000000
1089.112305 6163.000000
1090.953125 6103.000000
1092.792358 5890.000000
1094.630859 6004.000000
1096.468018 5905.000000
1098.303955 5938.000000
1100.138916 5769.000000
1101.972656 5684.000000
1103.805420 5665.000000
1105.636841 5690.000000
1107.467407 5757.000000
1109.296631 5511.000000
1111.124878 5368.000000
1112.951904 5421.000000
1114.777954 5505.000000
1116.602783 5290.000000
1118.426514 5373.000000
1120.249023 5479.000000
1122.070435 5415.000000
1123.890991 5410.000000
1125.710083 5348.000000
1127.528320 5429.000000
1129.345215 5431.000000
1131.161255 5558.000000
1132.976074 5581.000000
1134.789795 5556.000000
1136.602417 5573.000000
1138.413818 5609.000000
1140.224243 5692.000000
1142.033569 5730.000000
1143.841553 5657.000000
1145.648804 5765.000000
1147.454590 5858.000000
1149.259521 5828.000000
1151.063354 5869.000000
1152.865967 5881.000000
1154.667725 5967.000000
1156.468018 5835.000000
1158.267334 5724.000000
1160.065674 5858.000000
1161.862671 5695.000000
1163.658936 5633.000000
1165.453857 5581.000000
1167.247681 5620.000000
1169.040649 5533.000000
1170.832275 5525.000000
1172.622925 5333.000000
1174.412598 5378.000000
1176.200806 5383.000000
1177.988159 5262.000000
1179.774414 5334.000000
1181.559570 5302.000000
1183.343628 5157.000000
1185.126587 5186.000000
1186.908569 5240.000000
1188.689331 5228.000000
1190.469116 5343.000000
1192.247803 5222.000000
1194.025513 5260.000000
1195.802002 5168.000000
1197.577393 5071.000000
1199.351685 5115.000000
1201.124878 4989.000000
1202.897217 5063.000000
1204.668213 4925.000000
1206.438354 4986.000000
1208.207275 4826.000000
1209.975098 4986.000000
1211.742065 4966.000000
1213.507690 4887.000000
1215.272339 4961.000000
1217.035889 4939.000000
1218.798340 5053.000000
1220.559937 4900.000000
1222.320313 4951.000000
1224.079590 4915.000000
1225.838013 4946.000000
1227.595215 4858.000000
1229.351318 4973.000000
1231.106323 4890.000000
1232.860474 4938.000000
1234.613281 5008.000000
1236.365112 4976.000000
1238.116089 5050.000000
1239.865723 4952.000000
1241.614502 5099.000000
1243.361938 4909.000000
1245.108643 5065.000000
1246.854126 4936.000000
1248.598755 4972.000000
1250.342041 4987.000000
1252.084351 5002.000000
1253.825562 5062.000000
1255.565918 4977.000000
1257.305176 4869.000000
1259.043213 4629.000000
1260.780396 4600.000000
1262.516357 4640.000000
1264.251343 4699.000000
1265.985352 4865.000000
1267.718384 4899.000000
1269.450195 4939.000000
1271.181030 4935.000000
1272.910645 4958.000000
1274.639404 4989.000000
1276.367065 4997.000000
1278.093628 5022.000000
1279.819336 4965.000000
1281.543701 5011.000000
1283.267212 5010.000000
1284.989746 4978.000000
1286.711304 5036.000000
1288.431641 4965.000000
1290.151001 4862.000000
1291.869263 4816.000000
1293.586548 5016.000000
1295.302856 4924.000000
1297.017944 4862.000000
1298.732056 4967.000000
1300.445190 4885.000000
1302.157471 4907.000000
1303.868530 4637.000000
1305.578613 4837.000000
1307.287598 4806.000000
1308.995361 4658.000000
1310.702515 4658.000000
1312.408203 4571.000000
1314.113159 4643.000000
1315.817139 4684.000000
1317.519897 4700.000000
1319.221680 4912.000000
1320.922607 4750.000000
1322.622192 7623.000000
1324.320923 1549.000000
1326.018921 4552.000000
1327.715576 4649.000000
1329.411133 4699.000000
1331.105835 4697.000000
1332.799316 4591.000000
1334.491943 4549.000000
1336.183716 4647.000000
1337.874146 4463.000000
1339.563843 4343.000000
1341.252441 4430.000000
1342.939941 4338.000000
1344.626465 4358.000000
1346.311890 4449.000000
1347.996338 4451.000000
1349.679932 4328.000000
1351.362305 4385.000000
1353.043701 4445.000000
1354.724243 4507.000000
1356.403564 4578.000000
1358.082275 4661.000000
1359.759644 4573.000000
1361.435913 4606.000000
1363.111206 4637.000000
1364.785767 4668.000000
1366.459106 4541.000000
1368.131470 4713.000000
1369.802856 4535.000000
1371.473267 4514.000000
1373.142578 4604.000000
1374.810913 4698.000000
1376.478394 4543.000000
1378.144775 4503.000000
1379.810181 4519.000000
1381.474609 4492.000000
1383.137817 4495.000000
1384.800415 4385.000000
1386.461670 4354.000000
1388.122070 4318.000000
1389.781372 4268.000000
1391.439697 4354.000000
1393.097290 4311.000000
1394.753662 4247.000000
1396.409180 4283.000000
1398.063477 4381.000000
1399.716919 4240.000000
1401.369263 4378.000000
1403.020874 4325.000000
1404.671265 4307.000000
1406.320557 4182.000000
1407.969116 4056.000000
1409.616577 4000.000000
1411.263062 3907.000000
1412.908691 4066.000000
1414.553345 3896.000000
1416.196777 4019.000000
1417.839355 3825.000000
1419.480835 3897.000000
1421.121460 3852.000000
1422.761108 3965.000000
1424.399658 3898.000000
1426.037354 3865.000000
1427.673950 3897.000000
1429.309570 3824.000000
1430.944458 3715.000000
1432.578247 3881.000000
1434.210938 3807.000000
1435.842651 3894.000000
1437.473511 3884.000000
1439.103271 3842.000000
1440.731934 3830.000000
1442.359985 3806.000000
1443.986938 3895.000000
1445.612671 3797.000000
1447.237793 3888.000000
1448.861816 3863.000000
1450.484863 3963.000000
1452.106934 4039.000000
1453.727905 4025.000000
1455.347900 4129.000000
1456.967163 4178.000000
1458.585083 4162.000000
1460.202393 4046.000000
1461.818726 4026.000000
1463.433838 3977.000000
1465.048096 3916.000000
1466.661499 4013.000000
1468.273804 3932.000000
1469.885254 3904.000000
1471.495850 3906.000000
1473.105225 3901.000000
1474.713623 3937.000000
1476.321167 4016.000000
1477.927734 3747.000000
1479.533569 3975.000000
1481.138184 3798.000000
1482.741943 3815.000000
1484.344482 3700.000000
1485.946411 3593.000000
1487.547119 3575.000000
1489.147095 3547.000000
1490.745972 3554.000000
1492.343994 3516.000000
1493.940918 3546.000000
1495.536987 3623.000000
1497.132080 3742.000000
1498.726196 3728.000000
1500.319580 3791.000000
1501.911865 3736.000000
1503.502930 3727.000000
1505.093506 3565.000000
1506.682739 3617.000000
1508.271362 3587.000000
1509.858887 3755.000000
1511.445313 3531.000000
1513.031006 3534.000000
1514.615601 3562.000000
1516.199341 3537.000000
1517.781982 3489.000000
1519.363892 3401.000000
1520.944702 3601.000000
1522.524780 3436.000000
1524.103638 3553.000000
1525.681641 3386.000000
1527.258911 3385.000000
1528.834961 3346.000000
1530.410278 3368.000000
1531.984497 3297.000000
1533.557983 3284.000000
1535.130249 3373.000000
1536.701782 3269.000000
1538.272339 3224.000000
1539.842041 3282.000000
1541.410522 3241.000000
1542.978271 3217.000000
1544.545166 3291.000000
1546.110840 3220.000000
1547.675781 3304.000000
1549.239624 3142.000000
1550.802856 3199.000000
1552.364746 3378.000000
1553.926025 3288.000000
1555.486206 3404.000000
1557.045654 3285.000000
1558.604004 3219.000000
1560.161621 3155.000000
1561.718140 3151.000000
1563.273438 3180.000000
1564.828125 3139.000000
1566.382080 3146.000000
1567.935059 3070.000000
1569.486694 3189.000000
1571.037598 3151.000000
1572.587769 3162.000000
1574.136963 3240.000000
1575.684814 3200.000000
1577.232178 3102.000000
1578.778564 3278.000000
1580.324097 3187.000000
1581.868652 3151.000000
1583.411987 3161.000000
1584.954712 3131.000000
1586.496582 3209.000000
1588.037354 3073.000000
1589.577148 3090.000000
1591.116211 3113.000000
1592.654175 3123.000000
1594.191650 3146.000000
1595.727783 3146.000000
1597.262817 3224.000000
1598.797363 3105.000000
1600.330933 3115.000000
1601.863647 3128.000000
1603.394775 3148.000000
1604.925659 3141.000000
1606.455688 3046.000000
1607.984497 3079.000000
1609.512207 3056.000000
1611.039307 3040.000000
1612.565674 3119.000000
1614.091064 3068.000000
1615.615601 3170.000000
1617.138794 3049.000000
1618.661255 3031.000000
1620.182983 3107.000000
1621.703857 3116.000000
1623.223267 2928.000000
1624.742188 2922.000000
1626.260376 3109.000000
1627.777710 2998.000000
1629.293945 3035.000000
1630.808838 2896.000000
1632.323242 2892.000000
1633.836914 2967.000000
1635.349487 2944.000000
1636.860840 2923.000000
1638.371826 2944.000000
1639.881714 2868.000000
1641.390747 2973.000000
1642.898438 2841.000000
1644.405762 2926.000000
1645.912231 2796.000000
1647.417725 2839.000000
1648.922363 2846.000000
1650.425537 2681.000000
1651.928101 2663.000000
1653.430298 2840.000000
1654.931152 2690.000000
1656.430908 2860.000000
1657.929810 2707.000000
1659.428345 2766.000000
1660.925659 2772.000000
1662.422241 2745.000000
1663.917236 2753.000000
1665.411987 2722.000000
1666.905884 2684.000000
1668.398804 2691.000000
1669.890381 2902.000000
1671.381470 2629.000000
1672.871948 2609.000000
1674.361328 2477.000000
1675.849243 2613.000000
1677.336914 2589.000000
1678.823608 2734.000000
1680.309448 2622.000000
1681.794434 2595.000000
1683.277954 2542.000000
1684.761230 2495.000000
1686.243652 2531.000000
1687.724976 2535.000000
1689.204834 2466.000000
1690.684448 2571.000000
1692.163330 2495.000000
1693.641235 2482.000000
1695.118164 2598.000000
1696.593872 2519.000000
1698.069214 2538.000000
1699.543335 2385.000000
1701.016846 2536.000000
1702.488892 2452.000000
1703.960693 2467.000000
1705.431519 2505.000000
1706.901489 2446.000000
1708.370117 2512.000000
1709.838257 2476.000000
1711.305664 2387.000000
1712.771973 2483.000000
1714.237671 2557.000000
1715.701660 2455.000000
1717.165527 2463.000000
1718.628540 2542.000000
1720.090576 2441.000000
1721.551392 2494.000000
1723.011597 2397.000000
1724.471069 2466.000000
1725.929688 2440.000000
1727.387329 2446.000000
1728.843628 2345.000000
1730.299683 2438.000000
1731.754761 2360.000000
1733.208862 2304.000000
1734.661743 2348.000000
1736.114380 2415.000000
1737.565918 2424.000000
1739.016724 2348.000000
1740.466553 2424.000000
1741.915039 2385.000000
1743.363159 2446.000000
1744.810425 2448.000000
1746.256958 2441.000000
1747.701904 2357.000000
1749.146606 2417.000000
1750.590454 2464.000000
1752.033447 2396.000000
1753.474976 2314.000000
1754.916260 2358.000000
1756.356689 2059.000000
1757.796143 2308.000000
1759.234619 2323.000000
1760.672119 2225.000000
1762.109131 2236.000000
1763.545166 2189.000000
1764.980347 2180.000000
1766.414063 2286.000000
1767.847656 2307.000000
1769.280273 2196.000000
1770.712036 2234.000000
1772.142944 2256.000000
1773.572632 2212.000000
1775.001587 2050.000000
1776.430054 2108.000000
1777.857544 2175.000000
1779.283691 2024.000000
1780.709595 2152.000000
1782.134399 2104.000000
1783.558594 2045.000000
1784.981323 2043.000000
1786.403564 2072.000000
1787.825073 2111.000000
1789.245850 2097.000000
1790.665649 2018.000000
1792.084106 2034.000000
1793.502075 2003.000000
1794.919434 2043.000000
1796.335938 1993.000000
1797.750977 1997.000000
1799.165649 2072.000000
1800.579712 2097.000000
1801.992554 1947.000000
1803.404785 2013.000000
1804.815674 2035.000000
1806.226074 1985.000000
1807.635742 2061.000000
1809.044434 1945.000000
1810.452026 2011.000000
1811.859131 1949.000000
1813.265381 1986.000000
1814.670654 2015.000000
1816.074829 1967.000000
1817.478638 1930.000000
1818.881470 2046.000000
1820.283447 2008.000000
1821.684814 2018.000000
1823.084717 1997.000000
1824.484009 1945.000000
1825.882813 1952.000000
1827.280762 1925.000000
1828.677368 1976.000000
1830.073364 1945.000000
1831.468628 2006.000000
1832.863281 1903.000000
1834.256958 1959.000000
1835.649292 2017.000000
1837.041138 1974.000000
1838.432373 1948.000000
1839.822632 1982.000000
1841.211670 1877.000000
1842.600342 1963.000000
1843.988037 1983.000000
1845.375000 1904.000000
1846.760620 1948.000000
1848.145996 1901.000000
1849.530518 2029.000000
1850.914307 1885.000000
1852.296997 1885.000000
1853.678467 1843.000000
1855.059448 1777.000000
1856.439941 1847.000000
1857.819458 1910.000000
1859.197510 1918.000000
1860.575439 1685.000000
1861.952393 1859.000000
1863.328613 1746.000000
1864.703979 1888.000000
1866.077881 1727.000000
1867.451660 1785.000000
1868.824585 1759.000000
1870.196411 1776.000000
1871.567261 1801.000000
1872.937744 1849.000000
1874.307129 1746.000000
1875.676025 1710.000000
1877.043335 1772.000000
1878.410522 1759.000000
1879.776733 1682.000000
1881.142212 1668.000000
1882.506958 1764.000000
1883.870117 1691.000000
1885.233154 1713.000000
1886.595337 1783.000000
1887.956665 1696.000000
1889.316650 1800.000000
1890.676270 1754.000000
1892.035278 1606.000000
1893.393311 1662.000000
1894.750488 1609.000000
1896.106445 1777.000000
1897.462158 1688.000000
1898.816895 1617.000000
1900.170776 1612.000000
1901.523560 1671.000000
1902.875854 1742.000000
1904.227417 1656.000000
1905.578125 1606.000000
1906.927612 1687.000000
1908.276611 1674.000000
1909.624756 1532.000000
1910.972290 1549.000000
1912.319092 1543.000000
1913.664307 1722.000000
1915.009277 1605.000000
1916.353516 1613.000000
1917.696899 1563.000000
1919.038940 1646.000000
1920.380737 1568.000000
1921.721680 1651.000000
1923.061890 1618.000000
1924.401123 1638.000000
1925.739380 1581.000000
1927.077026 1592.000000
1928.413940 1671.000000
1929.750000 1620.000000
1931.084839 1696.000000
1932.419312 1598.000000
1933.753052 1604.000000
1935.085938 1509.000000
1936.417358 1632.000000
1937.748901 1620.000000
1939.079102 1579.000000
1940.408813 1675.000000
1941.737671 1446.000000
1943.065308 1573.000000
1944.392456 1584.000000
1945.718872 1553.000000
1947.044556 1669.000000
1948.368896 1579.000000
1949.692993 1426.000000
1951.016235 1536.000000
1952.338745 1579.000000
1953.660156 1494.000000
1954.980591 1537.000000
1956.300415 1503.000000
1957.619873 1520.000000
1958.938354 1522.000000
1960.255493 1531.000000
1961.572266 1471.000000
1962.888306 1430.000000
1964.203613 1385.000000
1965.517456 1489.000000
1966.831055 1362.000000
1968.143921 1454.000000
1969.455933 1525.000000
1970.767334 1430.000000
1972.077393 1471.000000
1973.386963 1400.000000
1974.695801 1508.000000
1976.004028 1466.000000
1977.310913 1420.000000
1978.617188 1363.000000
1979.923096 1343.000000
1981.227783 1415.000000
1982.531982 1367.000000
1983.834961 1381.000000
1985.137573 1394.000000
1986.439209 1353.000000
1987.740234 1370.000000
1989.039673 1335.000000
1990.339233 1341.000000
1991.637695 1296.000000
1992.935669 1290.000000
1994.232056 1220.000000
1995.528442 1274.000000
1996.823853 1365.000000
1998.118530 1283.000000
1999.412354 1292.000000
2000.704956 1237.000000
2001.997070 1280.000000
2003.288696 1190.000000
2004.579590 1178.000000
2005.868896 1200.000000
2007.157959 1218.000000
2008.446289 1232.000000
2009.733887 1248.000000
2011.020630 1219.000000
2012.306274 1235.000000
2013.591553 1275.000000
2014.875854 1212.000000
2016.159546 1212.000000
2017.441895 1235.000000
2018.723877 1253.000000
2020.005371 1210.000000
2021.285889 1236.000000
2022.565674 1248.000000
2023.844360 1242.000000
2025.122314 1178.000000
2026.399780 1196.000000
2027.676636 1244.000000
2028.951782 1229.000000
2030.227051 1173.000000
2031.501343 1204.000000
2032.774658 1232.000000
2034.047119 1231.000000
2035.319214 1270.000000
2036.590210 1170.000000
2037.860962 1215.000000
2039.130371 1284.000000
2040.398682 1258.000000
2041.666992 1215.000000
2042.934326 1257.000000
2044.200928 1153.000000
2045.466309 1244.000000
2046.731079 1269.000000
2047.995605 1187.000000
2049.259033 1143.000000
2050.521973 1242.000000
2051.782959 1141.000000
2053.044434 1151.000000
2054.304688 1218.000000
2055.564209 1115.000000
2056.822998 1199.000000
2058.080811 1162.000000
2059.338135 1125.000000
2060.594727 1148.000000
2061.849854 1123.000000
2063.104980 1121.000000
2064.359131 1036.000000
2065.612549 1150.000000
2066.865234 1107.000000
2068.116699 1154.000000
2069.367920 1171.000000
2070.618408 1185.000000
2071.868164 1164.000000
2073.116455 1134.000000
2074.364746 1052.000000
2075.612061 1103.000000
2076.858643 1094.000000
2078.104492 1153.000000
2079.349121 1084.000000
2080.593262 1055.000000
2081.836914 1069.000000
2083.079590 1093.000000
2084.321045 1082.000000
2085.562256 1033.000000
2086.802979 1034.000000
2088.042725 975.000000
2089.281250 1095.000000
2090.519287 1023.000000
2091.756592 1045.000000
2092.993652 1048.000000
2094.229248 1038.000000
2095.464111 867.000000
2096.698730 1082.000000
2097.932373 993.000000
2099.165039 1035.000000
2100.396973 1023.000000
2101.628418 1034.000000
2102.858887 961.000000
2104.088623 1043.000000
2105.318115 922.000000
2106.545654 970.000000
2107.773438 999.000000
2109.000488 1029.000000
2110.226563 906.000000
2111.451172 984.000000
2112.676025 880.000000
2113.899658 959.000000
2115.122803 906.000000
2116.344727 977.000000
2117.566406 893.000000
2118.787109 923.000000
2120.007080 1014.000000
2121.226563 1048.000000
2122.444580 942.000000
2123.662598 1006.000000
2124.879639 886.000000
2126.096191 997.000000
2127.311035 980.000000
2128.526123 897.000000
2129.740234 908.000000
2130.953613 841.000000
2132.166260 993.000000
2133.377441 975.000000
2134.588867 1070.000000
2135.799072 825.000000
2137.008789 961.000000
2138.217041 917.000000
2139.425293 942.000000
2140.632813 955.000000
2141.839111 1005.000000
2143.044678 878.000000
2144.250000 950.000000
2145.454346 953.000000
2146.657959 861.000000
2147.861084 937.000000
2149.062744 960.000000
2150.264160 943.000000
2151.464844 923.000000
2152.664795 922.000000
2153.863525 909.000000
2155.062012 867.000000
2156.260010 841.000000
2157.457031 867.000000
2158.653320 944.000000
2159.848389 867.000000
2161.043213 926.000000
2162.237305 919.000000
2163.430420 822.000000
2164.622559 792.000000
2165.814453 826.000000
2167.005615 925.000000
2168.195801 797.000000
2169.385254 744.000000
2170.574219 840.000000
2171.762207 828.000000
2172.949951 782.000000
2174.136230 786.000000
2175.321777 841.000000
2176.507080 847.000000
2177.691895 719.000000
2178.875488 791.000000
2180.058350 832.000000
2181.240234 766.000000
2182.421875 787.000000
2183.603027 737.000000
2184.782959 747.000000
2185.961914 760.000000
2187.140381 784.000000
2188.318604 757.000000
2189.495605 717.000000
2190.671631 662.000000
2191.847412 760.000000
2193.022705 777.000000
2194.196533 782.000000
2195.369873 706.000000
2196.542969 780.000000
2197.714844 725.000000
2198.886230 710.000000
2200.057129 768.000000
2201.226318 805.000000
2202.395508 836.000000
2203.564209 766.000000
2204.731934 712.000000
2205.898682 687.000000
2207.064697 735.000000
2208.230225 759.000000
2209.395508 771.000000
2210.559326 675.000000
2211.722656 714.000000
2212.884766 742.000000
2214.047119 818.000000
2215.208252 746.000000
2216.368408 750.000000
2217.528076 749.000000
2218.687500 647.000000
2219.845703 700.000000
2221.002930 791.000000
2222.159912 728.000000
2223.316162 714.000000
2224.471680 779.000000
2225.626465 668.000000
2226.780273 657.000000
2227.933105 701.000000
2229.086426 672.000000
2230.237793 706.000000
2231.388916 749.000000
2232.539307 634.000000
2233.689209 594.000000
2234.838135 816.000000
2235.986572 807.000000
2237.133545 739.000000
2238.280762 677.000000
2239.426758 704.000000
2240.572510 695.000000
2241.716553 599.000000
2242.860840 642.000000
2244.004150 589.000000
2245.146729 599.000000
2246.288330 641.000000
2247.429688 610.000000
2248.570068 711.000000
2249.709717 650.000000
2250.848877 606.000000
2251.986816 591.000000
2253.124756 613.000000
2254.261719 610.000000
2255.397949 652.000000
2256.533203 620.000000
2257.667725 546.000000
2258.802002 674.000000
2259.935791 633.000000
2261.068115 596.000000
2262.199951 608.000000
2263.331299 611.000000
2264.461670 593.000000
2265.591797 489.000000
2266.720703 564.000000
2267.849121 553.000000
2268.977051 606.000000
2270.104004 541.000000
2271.230225 549.000000
2272.355469 539.000000
2273.480713 618.000000
2274.605225 588.000000
2275.728516 609.000000
2276.851074 657.000000
2277.973145 538.000000
2279.094727 461.000000
2280.215576 548.000000
2281.335205 495.000000
2282.454346 555.000000
2283.573242 552.000000
2284.691406 547.000000
2285.808594 553.000000
2286.924805 638.000000
2288.040771 574.000000
2289.156006 567.000000
2290.270508 566.000000
2291.383789 549.000000
2292.497070 604.000000
2293.609619 573.000000
2294.721436 615.000000
2295.832520 615.000000
2296.942383 571.000000
2298.051758 608.000000
2299.160889 566.000000
2300.269043 546.000000
2301.376221 610.000000
2302.483154 458.000000
2303.589355 573.000000
2304.695068 565.000000
2305.799316 468.000000
2306.903320 600.000000
2308.006836 555.000000
2309.109863 527.000000
2310.211670 571.000000
2311.312744 611.000000
2312.413330 480.000000
2313.513428 522.000000
2314.612793 549.000000
2315.710693 570.000000
2316.809082 505.000000
2317.906006 497.000000
2319.002686 475.000000
2320.098877 543.000000
2321.193359 488.000000
2322.287842 546.000000
2323.381592 546.000000
2324.475098 687.000000
2325.566895 682.000000
2326.658691 628.000000
2327.749756 595.000000
2328.840088 556.000000
2329.929443 734.000000
2331.018799 552.000000
2332.106934 695.000000
2333.194580 582.000000
2334.281982 504.000000
2335.367676 596.000000
2336.453125 559.000000
2337.538330 509.000000
2338.622559 543.000000
2339.705811 435.000000
2340.788818 527.000000
2341.870850 454.000000
2342.952637 473.000000
2344.033691 418.000000
2345.113525 483.000000
2346.192871 494.000000
2347.271729 449.000000
2348.350098 459.000000
2349.427002 464.000000
2350.503662 441.000000
2351.580078 500.000000
2352.655518 446.000000
2353.729980 443.000000
2354.804199 499.000000
2355.877686 402.000000
2356.950684 399.000000
2358.022461 437.000000
2359.093994 449.000000
2360.164551 487.000000
2361.234863 471.000000
2362.304199 365.000000
2363.372559 374.000000
2364.440674 422.000000
2365.508057 434.000000
2366.574951 375.000000
2367.641113 449.000000
2368.706055 384.000000
2369.770996 432.000000
2370.835205 439.000000
2371.898682 323.000000
2372.960938 378.000000
2374.023193 440.000000
2375.084473 448.000000
2376.145508 354.000000
2377.205322 343.000000
2378.264404 396.000000
2379.323486 356.000000
2380.381592 384.000000
2381.438965 363.000000
2382.495361 490.000000
2383.551514 491.000000
2384.607178 364.000000
2385.662109 485.000000
2386.715576 426.000000
2387.769287 285.000000
2388.822021 478.000000
2389.874268 468.000000
2390.925781 503.000000
2391.976318 408.000000
2393.026611 471.000000
2394.075928 444.000000
2395.125244 412.000000
2396.173096 329.000000
2397.220459 365.000000
2398.267578 433.000000
2399.313721 365.000000
2400.359131 399.000000
2401.403809 441.000000
2402.448486 327.000000
2403.491699 390.000000
2404.534912 245.000000
2405.576660 345.000000
2406.618652 378.000000
2407.659912 346.000000
2408.700195 393.000000
2409.739746 383.000000
2410.778320 370.000000
2411.817139 348.000000
2412.854736 379.000000
2413.892090 461.000000
2414.928223 334.000000
2415.964111 351.000000
2416.999268 360.000000
2418.033936 346.000000
2419.067139 414.000000
2420.100586 436.000000
2421.133057 466.000000
2422.165283 353.000000
2423.196045 397.000000
2424.226807 321.000000
2425.257080 356.000000
2426.286133 332.000000
2427.315186 422.000000
2428.342529 407.000000
2429.370361 354.000000
2430.396973 381.000000
2431.423340 360.000000
2432.448242 348.000000
2433.473389 335.000000
2434.497559 331.000000
2435.521484 405.000000
2436.544189 359.000000
2437.566162 443.000000
2438.587891 294.000000
2439.608887 378.000000
2440.629395 383.000000
2441.648682 329.000000
2442.667969 378.000000
2443.686279 373.000000
2444.704346 377.000000
2445.720947 410.000000
2446.737549 281.000000
2447.753418 300.000000
2448.769287 325.000000
2449.783691 246.000000
2450.797363 276.000000
2451.810547 339.000000
2452.823486 324.000000
2453.835693 303.000000
2454.846924 277.000000
2455.857910 425.000000
2456.868164 269.000000
2457.877930 179.000000
2458.886719 286.000000
2459.894775 362.000000
2460.902832 314.000000
2461.909668 317.000000
2462.916260 285.000000
2463.921631 268.000000
2464.926758 267.000000
2465.931641 204.000000
2466.935303 337.000000
2467.938721 311.000000
2468.941162 295.000000
2469.943359 330.000000
2470.945068 275.000000
2471.945801 302.000000
2472.945557 362.000000
2473.945313 250.000000
2474.944092 260.000000
2475.942383 282.000000
2476.939697 181.000000
2477.936768 372.000000
2478.933838 279.000000
2479.929443 300.000000
2480.925049 319.000000
2481.918945 290.000000
2482.912842 167.000000
2483.906250 361.000000
2484.899170 320.000000
2485.891113 269.000000
2486.882324 236.000000
2487.873291 289.000000
2488.863770 301.000000
2489.853271 351.000000
2490.842041 255.000000
2491.830811 280.000000
2492.818604 322.000000
2493.805176 318.000000
2494.791748 334.000000
2495.777832 263.000000
2496.763184 304.000000
2497.747559 156.000000
2498.731689 245.000000
2499.715820 320.000000
2500.698486 282.000000
2501.680664 212.000000
2502.662354 280.000000
2503.643311 275.000000
2504.623779 276.000000
2505.604004 249.000000
2506.582764 297.000000
2507.561279 243.000000
2508.539307 278.000000
2509.516846 345.000000
2510.493408 338.000000
2511.469727 230.000000
2512.445313 366.000000
2513.420410 291.000000
2514.395020 227.000000
2515.368408 243.000000
2516.341553 207.000000
2517.314453 287.000000
2518.286377 279.000000
2519.257568 207.000000
2520.228271 286.000000
2521.198730 253.000000
2522.168457 143.000000
2523.137207 213.000000
2524.105225 273.000000
2525.073242 267.000000
2526.040283 253.000000
2527.007080 299.000000
2527.972656 274.000000
2528.938232 309.000000
2529.903076 258.000000
2530.867432 321.000000
2531.830566 266.000000
2532.793945 300.000000
2533.756348 294.000000
2534.718506 256.000000
2535.679443 230.000000
2536.639648 264.000000
2537.600098 171.000000
2538.559570 289.000000
2539.518311 231.000000
2540.476074 196.000000
2541.434082 216.000000
2542.391357 218.000000
2543.347656 207.000000
2544.303711 250.000000
2545.258545 233.000000
2546.213623 260.000000
2547.167969 191.000000
2548.121582 426.000000
2549.074219 239.000000
2550.026611 162.000000
2550.978516 195.000000
2551.929688 351.000000
2552.880127 259.000000
2553.830078 233.000000
2554.779785 248.000000
2555.728760 325.000000
2556.677246 295.000000
2557.624512 162.000000
2558.571777 233.000000
2559.518311 285.000000
2560.464355 190.000000
2561.409424 182.000000
2562.354248 268.000000
2563.298584 229.000000
2564.242432 334.000000
2565.185791 252.000000
2566.127686 121.000000
2567.069824 157.000000
2568.011230 210.000000
2568.951904 252.000000
2569.891846 193.000000
2570.831787 247.000000
2571.770752 242.000000
2572.709473 392.000000
2573.647217 177.000000
2574.584717 223.000000
2575.521484 217.000000
2576.457520 144.000000
2577.393066 236.000000
2578.327881 151.000000
2579.262695 163.000000
2580.196533 293.000000
2581.129883 13.000000
2582.062500 236.000000
2582.994873 298.000000
2583.926514 139.000000
2584.857666 250.000000
2585.788330 154.000000
2586.717773 168.000000
2587.647217 176.000000
2588.576172 238.000000
2589.504883 375.000000
2590.431885 195.000000
2591.359131 112.000000
2592.285889 83.000000
2593.211914 168.000000
2594.137695 165.000000
2595.062256 219.000000
2595.986572 120.000000
2596.910400 198.000000
2597.833740 72.000000
2598.756104 293.000000
2599.678223 298.000000
2600.599854 136.000000
2601.520752 144.000000
2602.440918 241.000000
2603.360840 255.000000
2604.280273 167.000000
2605.199463 179.000000
2606.117676 199.000000
2607.034668 214.000000
2607.951904 187.000000
2608.868896 223.000000
2609.784912 178.000000
2610.699707 129.000000
2611.614990 209.000000
2612.529541 169.000000
2613.443115 194.000000
2614.356689 187.000000
2615.269043 174.000000
2616.181396 194.000000
2617.092773 170.000000
2618.003906 201.000000
2618.914307 258.000000
2619.824463 196.000000
2620.733887 141.000000
2621.642822 229.000000
2622.550781 254.000000
2623.458984 187.000000
2624.366211 191.000000
2625.272949 209.000000
2626.178955 182.000000
2627.084717 200.000000
2627.989746 274.000000
2628.894531 191.000000
2629.798584 174.000000
2630.701660 269.000000
2631.604736 192.000000
2632.506836 92.000000
2633.408936 238.000000
2634.310791 109.000000
2635.210938 171.000000
2636.111328 128.000000
2637.010986 168.000000
2637.910400 165.000000
2638.808350 130.000000
2639.706787 166.000000
2640.604736 192.000000
2641.501953 84.000000
2642.397949 182.000000
2643.293945 217.000000
2644.189697 207.000000
2645.084717 176.000000
2645.979492 84.000000
2646.872803 164.000000
2647.766113 175.000000
2648.659180 214.000000
2649.552002 164.000000
2650.443115 253.000000
2651.334473 145.000000
2652.225342 26.000000
2653.115479 176.000000
2654.005371 165.000000
2654.894043 78.000000
2655.782959 82.000000
2656.671387 124.000000
2657.558838 221.000000
2658.445313 214.000000
2659.332275 264.000000
2660.218506 128.000000
2661.104248 88.000000
2661.988770 222.000000
2662.873291 84.000000
2663.757568 152.000000
2664.641113 136.000000
2665.524170 249.000000
2666.406494 105.000000
2667.288330 232.000000
2668.169434 195.000000
2669.050781 121.000000
2669.930664 193.000000
2670.810791 177.000000
2671.690186 197.000000
2672.569580 210.000000
2673.448242 214.000000
2674.325195 177.000000
2675.202881 202.000000
2676.079834 193.000000
2676.956055 119.000000
2677.831787 128.000000
2678.706787 73.000000
2679.582031 188.000000
2680.456299 210.000000
2681.330078 135.000000
2682.203125 132.000000
2683.075928 174.000000
2683.948486 137.000000
2684.820313 80.000000
2685.691406 134.000000
2686.562256 101.000000
2687.432617 135.000000
2688.302734 137.000000
2689.171143 139.000000
2690.040283 104.000000
2690.908691 42.000000
2691.776855 166.000000
2692.644287 165.000000
2693.510498 181.000000
2694.377197 104.000000
2695.242920 173.000000
2696.108643 144.000000
2696.972900 170.000000
2697.837891 194.000000
2698.701416 175.000000
2699.565186 182.000000
2700.427490 93.000000
2701.290283 141.000000
2702.152100 88.000000
2703.013428 46.000000
2703.874756 103.000000
2704.734863 214.000000
2705.594971 171.000000
2706.454590 169.000000
2707.313965 132.000000
2708.171631 154.000000
2709.029541 168.000000
2709.887939 127.000000
2710.745117 137.000000
2711.601563 148.000000
2712.457520 135.000000
2713.313477 31.000000
2714.168701 103.000000
2715.023193 94.000000
2715.877197 161.000000
2716.731201 82.000000
2717.584229 126.000000
2718.437500 119.000000
2719.289063 60.000000
2720.141113 193.000000
2720.992920 153.000000
2721.843506 115.000000
2722.694092 150.000000
2723.544189 89.000000
2724.393555 169.000000
2725.242920 71.000000
2726.091064 67.000000
2726.938721 176.000000
2727.786865 194.000000
2728.633789 85.000000
2729.481201 154.000000
2730.327148 130.000000
2731.172363 128.000000
2732.018066 173.000000
2732.862793 70.000000
2733.707520 69.000000
2734.551025 64.000000
2735.394775 89.000000
2736.237793 83.000000
2737.080322 51.000000
2737.921875 171.000000
2738.763916 125.000000
2739.604980 98.000000
2740.445801 125.000000
2741.286377 114.000000
2742.125732 57.000000
2742.965088 130.000000
2743.804443 180.000000
2744.642578 210.000000
2745.480225 187.000000
2746.317871 127.000000
2747.155029 175.000000
2747.991943 77.000000
2748.828369 165.000000
2749.663574 22.000000
2750.499023 41.000000
2751.333984 29.000000
2752.168213 146.000000
2753.002197 154.000000
2753.835693 139.000000
2754.669189 129.000000
2755.501709 94.000000
2756.333740 116.000000
2757.165283 192.000000
2757.996826 61.000000
2758.827393 117.000000
2759.658203 191.000000
2760.487793 85.000000
2761.317383 48.000000
2762.146729 111.000000
2762.975342 146.000000
2763.803467 122.000000
2764.631104 123.000000
2765.458740 104.000000
2766.285889 129.000000
2767.112305 36.000000
2767.938232 55.000000
2768.763672 26.000000
2769.588867 85.000000
2770.414063 81.000000
2771.238037 73.000000
2772.062012 46.000000
2772.885986 173.000000
2773.708740 137.000000
2774.531738 131.000000
2775.353516 202.000000
2776.175293 51.000000
2776.997070 101.000000
2777.817871 90.000000
2778.637939 78.000000
2779.458252 100.000000
2780.278076 105.000000
2781.097900 135.000000
2781.915771 60.000000
2782.734863 -8.000000
2783.552734 115.000000
2784.370361 138.000000
2785.187500 81.000000
2786.004150 3.000000
2786.820557 83.000000
2787.636475 121.000000
2788.452148 60.000000
2789.266846 83.000000
2790.082031 110.000000
2790.896484 145.000000
2791.710449 174.000000
2792.524170 48.000000
2793.336670 70.000000
2794.149414 99.000000
2794.961670 127.000000
2795.773438 84.000000
2796.584473 88.000000
2797.396240 76.000000
2798.206787 130.000000
2799.017334 130.000000
2799.826416 84.000000
2800.636230 151.000000
2801.445313 141.000000
2802.254150 156.000000
2803.062500 97.000000
2803.869873 32.000000
2804.677734 114.000000
2805.484863 62.000000
2806.291748 81.000000
2807.097412 19.000000
2807.903564 125.000000
2808.708984 57.000000
2809.514404 88.000000
2810.319092 53.000000
2811.122803 30.000000
2811.927002 62.000000
2812.730713 125.000000
2813.534180 68.000000
2814.336182 53.000000
2815.138916 124.000000
2815.940918 64.000000
2816.742676 141.000000
2817.543945 20.000000
2818.344727 -22.000000
2819.145020 47.000000
2819.945557 44.000000
2820.745117 145.000000
2821.544189 100.000000
2822.343262 32.000000
2823.142090 54.000000
2823.940430 32.000000
2824.737793 18.000000
2825.535400 88.000000
2826.332275 17.000000
2827.129395 127.000000
2827.925781 29.000000
2828.721436 -16.000000
2829.517090 167.000000
2830.312500 86.000000
2831.107422 98.000000
2831.901611 61.000000
2832.695801 101.000000
2833.489746 134.000000
2834.283203 24.000000
2835.075928 7.000000
2835.868408 158.000000
2836.660889 9.000000
2837.453125 -37.000000
2838.244873 120.000000
2839.035645 74.000000
2839.826416 61.000000
2840.617432 147.000000
2841.407471 110.000000
2842.197021 121.000000
2842.986816 71.000000
2843.775635 62.000000
2844.564453 77.000000
2845.353271 71.000000
2846.141113 -59.000000
2846.928467 90.000000
2847.716064 96.000000
2848.503174 61.000000
2849.289551 53.000000
2850.075928 86.000000
2850.862061 65.000000
2851.647705 104.000000
2852.432373 99.000000
2853.217529 53.000000
2854.002441 56.000000
2854.786621 78.000000
2855.570801 125.000000
2856.353760 -67.000000
2857.136963 147.000000
2857.919922 11.000000
2858.702393 -21.000000
2859.484619 18.000000
2860.266357 74.000000
2861.047852 47.000000
2861.829590 91.000000
2862.610596 111.000000
2863.390869 111.000000
2864.170898 108.000000
2864.950928 46.000000
2865.730713 102.000000
2866.509521 62.000000
2867.288574 6.000000
2868.067139 135.000000
2868.845459 81.000000
2869.623291 32.000000
2870.400879 144.000000
2871.178223 49.000000
2871.955322 91.000000
2872.731934 207.000000
2873.508057 165.000000
2874.284180 211.000000
2875.059814 78.000000
2875.835205 102.000000
2876.610107 110.000000
2877.384766 173.000000
2878.159424 171.000000
2878.933838 100.000000
2879.707520 121.000000
2880.480469 120.000000
2881.254150 129.000000
2882.026855 42.000000
2882.799561 99.000000
2883.571533 91.000000
2884.343262 120.000000
2885.115479 129.000000
2885.886475 103.000000
2886.656982 98.000000
2887.427979 62.000000
2888.198975 104.000000
2888.969238 42.000000
2889.738525 150.000000
2890.508057 71.000000
2891.277588 3.000000
2892.046631 135.000000
2892.815186 128.000000
2893.583740 104.000000
2894.351318 117.000000
2895.119385 82.000000
2895.886963 62.000000
2896.654541 140.000000
2897.420898 57.000000
2898.188232 74.000000
2898.954346 141.000000
2899.720703 109.000000
2900.485596 27.000000
2901.250977 31.000000
2902.016846 104.000000
2902.781250 78.000000
2903.545654 137.000000
2904.310303 51.000000
2905.073975 103.000000
2905.838379 105.000000
2906.602051 33.000000
2907.364990 13.000000
2908.127686 61.000000
2908.890869 109.000000
2909.653564 38.000000
2910.415039 86.000000
2911.177002 86.000000
spectrumdark 2048
-97.053932 6219.000000
-94.427063 6219.000000
-91.802071 6042.000000
-89.178970 6474.000000
-86.557739 5837.000000
-83.938408 6297.000000
-81.320938 6051.000000
-78.705345 6377.000000
-76.091629 6256.000000
-73.479790 5971.000000
-70.869812 6054.000000
-68.261719 6002.000000
-65.655472 5991.000000
-63.051102 6009.000000
-60.448593 6066.000000
-57.847939 5636.000000
-55.249146 6197.000000
-52.652210 6934.000000
-50.057129 6447.000000
-47.463902 6557.000000
-44.872524 6229.000000
-42.282993 6687.000000
-39.695305 5877.000000
-37.109467 6079.000000
-34.525471 6414.000000
-31.943312 5698.000000
-29.362999 6335.000000
-26.784513 5731.000000
-24.207870 6119.000000
-21.633053 6261.000000
-19.060076 6485.000000
-16.488918 6543.000000
-13.919596 6763.000000
-11.352098 7750.000000
-8.786418 6271.000000
-6.222564 6482.000000
-3.660524 6119.000000
-1.100308 5827.000000
1.458100 6304.000000
4.014688 6902.000000
6.569469 6636.000000
9.122435 5998.000000
11.673599 6731.000000
14.222951 6504.000000
16.770508 6708.000000
19.316252 5989.000000
21.860203 5728.000000
24.402349 6686.000000
26.942699 6809.000000
29.481264 6905.000000
32.018032 6263.000000
34.552998 5781.000000
37.086185 7309.000000
39.617592 6267.000000
42.147205 7147.000000
44.675022 6435.000000
47.201080 7863.000000
49.725349 5735.000000
52.247849 6206.000000
54.768551 6735.000000
57.287498 6278.000000
59.804672 6394.000000
62.320068 6671.000000
64.833687 5585.000000
67.345551 5703.000000
69.855667 6576.000000
72.363991 6528.000000
74.870560 5903.000000
77.375381 6327.000000
79.878448 6399.000000
82.379738 6305.000000
84.879288 6104.000000
87.377083 6350.000000
89.873146 5759.000000
92.367432 7262.000000
94.859978 5866.000000
97.350807 6933.000000
99.839867 7216.000000
102.327179 6378.000000
104.812767 6233.000000
107.296616 6420.000000
109.778717 5902.000000
112.259094 6701.000000
114.737747 6237.000000
117.214676 6626.000000
119.689850 7200.000000
122.163315 6860.000000
124.635048 5870.000000
127.105072 6678.000000
129.573334 6252.000000
132.039932 6209.000000
134.504776 5689.000000
136.967926 6144.000000
139.429337 7337.000000
141.889053 6917.000000
144.347046 6398.000000
146.803345 5954.000000
149.257935 5844.000000
151.710800 6870.000000
154.161987 6375.000000
156.611481 6605.000000
159.059250 6088.000000
161.505310 6588.000000
163.949692 8760.000000
166.392395 6398.000000
168.833405 6783.000000
171.272705 6237.000000
173.710297 7208.000000
176.146255 6609.000000
178.580475 6960.000000
181.013016 7211.000000
183.443909 6662.000000
185.873077 7165.000000
188.300598 6742.000000
190.726440 6389.000000
193.150604 6711.000000
195.573105 7168.000000
197.993912 7362.000000
200.413055 6501.000000
202.830536 6066.000000
205.246323 7631.000000
207.660461 7176.000000
210.072968 6361.000000
212.483795 6022.000000
214.892944 6284.000000
217.300461 7407.000000
219.706268 6129.000000
222.110489 6591.000000
224.513000 6732.000000
226.913895 6960.000000
229.313141 6499.000000
231.710724 6918.000000
234.106644 7287.000000
236.500946 6593.000000
238.893585 6133.000000
241.284607 6791.000000
243.673965 6560.000000
246.061707 6327.000000
248.447800 7014.000000
250.832260 6130.000000
253.215073 7803.000000
255.596313 6665.000000
257.975861 6715.000000
260.353821 6505.000000
262.730103 7496.000000
265.104828 7579.000000
267.477905 7874.000000
269.849335 6118.000000
272.219116 6422.000000
274.587341 5909.000000
276.953918 6350.000000
279.318909 6472.000000
281.682281 6053.000000
284.044006 6289.000000
286.404144 7135.000000
288.762665 6017.000000
291.119598 6580.000000
293.474915 6423.000000
295.828644 5995.000000
298.180725 5942.000000
300.531250 6407.000000
302.880188 6332.000000
305.227478 6906.000000
307.573242 6398.000000
309.917328 6501.000000
312.259888 7410.000000
314.600830 7544.000000
316.940155 7189.000000
319.277924 6932.000000
321.614136 8135.000000
323.948700 6229.000000
326.281708 6501.000000
328.613159 5962.000000
330.943024 6680.000000
333.271301 6387.000000
335.597961 7291.000000
337.923126 6311.000000
340.246674 6197.000000
342.568665 6009.000000
344.889099 7499.000000
347.207916 7715.000000
349.525177 6058.000000
351.840912 5835.000000
354.155060 7019.000000
356.467621 6367.000000
358.778625 6235.000000
361.088104 7076.000000
363.396057 6394.000000
365.702393 5698.000000
368.007141 6538.000000
370.310425 6395.000000
372.612091 6273.000000
374.912262 6396.000000
377.210876 6264.000000
379.507935 5785.000000
381.803436 6122.000000
384.097412 5850.000000
386.389801 5264.000000
388.680695 5633.000000
390.970062 6194.000000
393.257843 6340.000000
395.544098 6525.000000
397.828857 7032.000000
400.112000 6002.000000
402.393707 6377.000000
404.673889 6136.000000
406.952484 7247.000000
409.229553 6533.000000
411.505096 6720.000000
413.779114 6531.000000
416.051697 6461.000000
418.322662 6351.000000
420.592133 6490.000000
422.860107 7128.000000
425.126526 7226.000000
427.391449 6298.000000
429.654907 6354.000000
431.916779 6513.000000
434.177185 6009.000000
436.436035 6644.000000
438.693420 6152.000000
440.949310 5652.000000
443.203705 5867.000000
445.456573 5538.000000
447.707886 6925.000000
449.957794 6108.000000
452.206116 6248.000000
454.453003 5654.000000
456.698425 6477.000000
458.942291 6446.000000
461.184662 6473.000000
463.425537 5677.000000
465.665009 6740.000000
467.902893 5522.000000
470.139343 5857.000000
472.374268 5994.000000
474.607727 7346.000000
476.839752 6688.000000
479.070251 5721.000000
481.299255 6483.000000
483.526794 6253.000000
485.752838 5960.000000
487.977448 6609.000000
490.200592 5923.000000
492.422272 6391.000000
494.642395 6698.000000
496.861115 5676.000000
499.078339 6275.000000
501.294189 5567.000000
503.508423 6110.000000
505.721344 6500.000000
507.932678 6448.000000
510.142578 6911.000000
512.351013 6558.000000
514.558105 6593.000000
516.763611 6453.000000
518.967712 6572.000000
521.170288 6254.000000
523.371460 6576.000000
525.571289 6738.000000
527.769592 6943.000000
529.966370 5373.000000
532.161804 5873.000000
534.355713 5565.000000
536.548279 7629.000000
538.739319 6715.000000
540.928955 6046.000000
543.117188 6935.000000
545.303894 7139.000000
547.489136 6866.000000
549.673096 6262.000000
551.855469 6392.000000
554.036499 6158.000000
556.216003 6014.000000
558.394226 5897.000000
560.570923 6001.000000
562.746216 6401.000000
564.920105 6501.000000
567.092529 5908.000000
569.263550 6063.000000
571.433105 6311.000000
573.601379 5291.000000
575.768127 6462.000000
577.933411 6296.000000
580.097290 6190.000000
582.259888 5730.000000
584.420959 6046.000000
586.580627 5668.000000
588.738953 5760.000000
590.895752 6136.000000
593.051208 6568.000000
595.205261 5785.000000
597.357971 6068.000000
599.509155 7220.000000
601.658997 6820.000000
603.807495 6697.000000
605.954407 5975.000000
608.100098 6557.000000
610.244385 6432.000000
612.387207 7045.000000
614.528564 6243.000000
616.668701 6506.000000
618.807312 7703.000000
620.944641 5720.000000
623.080505 6602.000000
625.214966 6887.000000
627.347961 7308.000000
629.479797 6659.000000
631.610168 6588.000000
633.739136 6797.000000
635.866638 6494.000000
637.992859 6253.000000
640.117554 7258.000000
642.241028 6421.000000
644.363159 6850.000000
646.483826 6949.000000
648.603149 6575.000000
650.721069 5661.000000
652.837646 5718.000000
654.952820 6484.000000
657.066650 6395.000000
659.179016 5858.000000
661.290161 6122.000000
663.399902 5420.000000
665.508179 6072.000000
667.615295 6258.000000
669.720947 6833.000000
671.825134 5912.000000
673.928101 5745.000000
676.029663 7016.000000
678.129883 5340.000000
680.228699 6762.000000
682.326172 6188.000000
684.422363 6939.000000
686.517090 6224.000000
688.610596 7013.000000
690.702759 6593.000000
692.793396 7965.000000
694.882813 6659.000000
696.970947 6452.000000
699.057617 5995.000000
701.143066 6663.000000
703.226990 5082.000000
705.309692 5914.000000
707.391113 5968.000000
709.471069 7562.000000
711.549805 6163.000000
713.627075 5533.000000
715.703064 6561.000000
717.777771 6100.000000
719.851196 7008.000000
721.923096 6339.000000
723.993835 7455.000000
726.063232 5830.000000
728.131226 6488.000000
730.197876 6400.000000
732.263306 7079.000000
734.327393 5751.000000
736.390137 6156.000000
738.451538 6532.000000
740.511658 6613.000000
742.570374 6030.000000
744.627869 6634.000000
746.684082 6481.000000
748.738892 6681.000000
750.792419 6386.000000
752.844543 7509.000000
754.895447 5784.000000
756.945129 6727.000000
758.993347 6394.000000
761.040344 6189.000000
763.086060 6991.000000
765.130371 5396.000000
767.173401 5767.000000
769.215210 15176.000000
771.255676 7187.000000
773.294739 6331.000000
775.332642 6068.000000
777.369202 5966.000000
779.404541 5328.000000
781.438538 5791.000000
783.471130 6926.000000
785.502563 5552.000000
787.532593 11628.000000
789.561340 6037.000000
791.588928 6310.000000
793.615173 6361.000000
795.640015 5816.000000
797.663757 5524.000000
799.686096 6351.000000
801.707214 5901.000000
803.726990 6670.000000
805.745483 4900.000000
807.762756 6745.000000
809.778625 6879.000000
811.793335 5734.000000
813.806702 6421.000000
815.818848 6256.000000
817.829773 6126.000000
819.839355 6618.000000
821.847717 5304.000000
823.854675 5734.000000
825.860413 6085.000000
827.864929 5773.000000
829.868164 5669.000000
831.870117 6501.000000
833.870789 6112.000000
835.870239 5970.000000
837.868347 6362.000000
839.865356 6934.000000
841.860962 6235.000000
843.855408 6048.000000
845.848511 6189.000000
847.840393 6848.000000
849.830933 5624.000000
851.820190 6815.000000
853.808411 5953.000000
855.795227 5695.000000
857.780823 6353.000000
859.765137 7209.000000
861.748352 6334.000000
863.730164 6467.000000
865.710754 5830.000000
867.690063 7779.000000
869.668213 7098.000000
871.645020 6217.000000
873.620544 6154.000000
875.595032 6200.000000
877.568054 6051.000000
879.540039 5448.000000
881.510681 6502.000000
883.480164 6088.000000
885.448303 5593.000000
887.415283 5247.000000
889.380920 6125.000000
891.345398 5861.000000
893.308655 5972.000000
895.270691 6571.000000
897.231445 5854.000000
899.190979 6459.000000
901.149231 6711.000000
903.106384 6332.000000
905.062378 6083.000000
907.016968 6945.000000
908.970337 6482.000000
910.922546 6454.000000
912.873535 6385.000000
914.823242 7119.000000
916.771790 6378.000000
918.719116 6188.000000
920.665161 6105.000000
922.609924 6075.000000
924.553650 6299.000000
926.496216 5949.000000
928.437500 5640.000000
930.377441 6490.000000
932.316284 5766.000000
934.253845 5514.000000
936.190186 5954.000000
938.125366 5848.000000
940.059265 6148.000000
941.992065 5885.000000
943.923645 6760.000000
945.854065 5229.000000
947.783264 6461.000000
949.711121 7024.000000
951.637939 6642.000000
953.563477 5973.000000
955.487732 5454.000000
957.410889 6023.000000
959.332886 6672.000000
961.253601 7292.000000
963.173157 6471.000000
965.091553 5321.000000
967.008911 6463.000000
968.924805 6453.000000
970.839600 6141.000000
972.753174 5995.000000
974.665588 6447.000000
976.576782 6454.000000
978.486816 5538.000000
980.395569 6158.000000
982.303284 6067.000000
984.209778 6379.000000
986.115051 5753.000000
988.019226 6824.000000
989.922180 6225.000000
991.823914 6734.000000
993.724487 6634.000000
995.623901 6631.000000
997.522095 5309.000000
999.419128 6515.000000
1001.314941 6561.000000
1003.209595 7712.000000
1005.103149 5551.000000
1006.995422 7222.000000
1008.886780 6059.000000
1010.776794 5335.000000
1012.665588 6700.000000
1014.553223 6347.000000
1016.439697 6949.000000
1018.325012 6702.000000
1020.209167 5939.000000
1022.092102 5885.000000
1023.973999 6227.000000
1025.854614 5210.000000
1027.734131 5832.000000
1029.612671 6135.000000
1031.489868 5426.000000
1033.365723 6154.000000
1035.240601 5908.000000
1037.114502 6628.000000
1038.986938 7051.000000
1040.858398 6745.000000
1042.728516 5500.000000
1044.597656 5501.000000
1046.465576 5753.000000
1048.332397 7226.000000
1050.198120 6762.000000
1052.062622 6453.000000
1053.926025 6471.000000
1055.788086 6502.000000
1057.649170 5917.000000
1059.509155 6456.000000
1061.367798 6654.000000
1063.225342 5835.000000
1065.081787 6761.000000
1066.937134 5930.000000
1068.791260 5793.000000
1070.644531 6249.000000
1072.496338 6319.000000
1074.347168 6142.000000
1076.196777 6217.000000
1078.045166 5790.000000
1079.892700 7995.000000
1081.738892 5602.000000
1083.583862 6249.000000
1085.427979 5427.000000
1087.270752 5568.000000
1089.112305 6574.000000
1090.953125 5505.000000
1092.792358 5798.000000
1094.630859 6047.000000
1096.468018 6104.000000
1098.303955 6848.000000
1100.138916 6551.000000
1101.972656 5405.000000
1103.805420 5678.000000
1105.636841 6164.000000
1107.467407 7280.000000
1109.296631 6534.000000
1111.124878 6478.000000
1112.951904 7201.000000
1114.777954 5392.000000
1116.602783 6404.000000
1118.426514 7229.000000
1120.249023 6073.000000
1122.070435 5906.000000
1123.890991 5904.000000
1125.710083 6581.000000
1127.528320 7095.000000
1129.345215 7034.000000
1131.161255 6681.000000
1132.976074 6492.000000
1134.789795 5667.000000
1136.602417 5799.000000
1138.413818 5677.000000
1140.224243 6127.000000
1142.033569 6688.000000
1143.841553 6970.000000
1145.648804 5975.000000
1147.454590 5894.000000
1149.259521 5371.000000
1151.063354 5416.000000
1152.865967 6073.000000
1154.667725 6034.000000
1156.468018 6129.000000
1158.267334 6179.000000
1160.065674 5821.000000
1161.862671 5490.000000
1163.658936 5965.000000
1165.453857 6115.000000
1167.247681 6363.000000
1169.040649 7734.000000
1170.832275 5777.000000
1172.622925 6587.000000
1174.412598 6027.000000
1176.200806 5827.000000
1177.988159 7536.000000
1179.774414 6927.000000
1181.559570 5767.000000
1183.343628 6018.000000
1185.126587 7727.000000
1186.908569 5888.000000
1188.689331 5915.000000
1190.469116 6307.000000
1192.247803 6969.000000
1194.025513 6687.000000
1195.802002 7160.000000
1197.577393 6619.000000
1199.351685 6546.000000
1201.124878 6702.000000
1202.897217 6507.000000
1204.668213 6712.000000
1206.438354 5803.000000
1208.207275 6229.000000
1209.975098 6328.000000
1211.742065 5859.000000
1213.507690 5960.000000
1215.272339 7002.000000
1217.035889 6579.000000
1218.798340 5936.000000
1220.559937 6746.000000
1222.320313 5936.000000
1224.079590 6444.000000
1225.838013 6122.000000
1227.595215 7301.000000
1229.351318 6432.000000
1231.106323 5585.000000
1232.860474 6005.000000
1234.613281 5816.000000
1236.365112 6011.000000
1238.116089 5985.000000
1239.865723 4983.000000
1241.614502 6939.000000
1243.361938 6544.000000
1245.108643 6626.000000
1246.854126 6551.000000
1248.598755 6419.000000
1250.342041 6814.000000
1252.084351 6681.000000
1253.825562 5360.000000
1255.565918 5098.000000
1257.305176 5838.000000
1259.043213 6625.000000
1260.780396 7094.000000
1262.516357 6173.000000
1264.251343 6444.000000
1265.985352 7281.000000
1267.718384 5962.000000
1269.450195 6225.000000
1271.181030 6431.000000
1272.910645 7269.000000
1274.639404 5967.000000
1276.367065 5745.000000
1278.093628 5546.000000
1279.819336 5579.000000
1281.543701 6471.000000
1283.267212 5234.000000
1284.989746 6891.000000
1286.711304 6596.000000
1288.431641 6263.000000
1290.151001 6695.000000
1291.869263 7268.000000
1293.586548 6378.000000
1295.302856 5729.000000
1297.017944 6431.000000
1298.732056 6159.000000
1300.445190 5832.000000
1302.157471 6461.000000
1303.868530 8382.000000
1305.578613 5254.000000
1307.287598 6314.000000
1308.995361 6660.000000
1310.702515 7011.000000
1312.408203 5820.000000
1314.113159 6904.000000
1315.817139 6201.000000
1317.519897 5976.000000
1319.221680 6558.000000
1320.922607 6088.000000
1322.622192 8988.000000
1324.320923 30834.000000
1326.018921 5633.000000
1327.715576 6528.000000
1329.411133 7121.000000
1331.105835 6821.000000
1332.799316 5780.000000
1334.491943 5386.000000
1336.183716 7308.000000
1337.874146 6286.000000
1339.563843 6626.000000
1341.252441 6120.000000
1342.939941 7657.000000
1344.626465 5652.000000
1346.311890 6749.000000
1347.996338 5940.000000
1349.679932 7213.000000
1351.362305 6366.000000
1353.043701 6000.000000
1354.724243 6538.000000
1356.403564 6725.000000
1358.082275 5914.000000
1359.759644 6569.000000
1361.435913 5820.000000
1363.111206 5593.000000
1364.785767 6570.000000
1366.459106 6461.000000
1368.131470 6763.000000
1369.802856 5217.000000
1371.473267 6819.000000
1373.142578 6205.000000
1374.810913 5682.000000
1376.478394 6006.000000
1378.144775 6350.000000
1379.810181 6139.000000
1381.474609 5887.000000
1383.137817 5905.000000
1384.800415 5705.000000
1386.461670 6412.000000
1388.122070 6591.000000
1389.781372 6438.000000
1391.439697 6542.000000
1393.097290 6858.000000
1394.753662 6509.000000
1396.409180 7019.000000
1398.063477 6364.000000
1399.716919 5872.000000
1401.369263 6165.000000
1403.020874 6431.000000
1404.671265 7182.000000
1406.320557 6292.000000
1407.969116 7505.000000
1409.616577 7906.000000
1411.263062 6270.000000
1412.908691 6209.000000
1414.553345 5988.000000
1416.196777 6995.000000
1417.839355 7220.000000
1419.480835 6897.000000
1421.121460 6507.000000
1422.761108 6488.000000
1424.399658 6011.000000
1426.037354 6617.000000
1427.673950 6331.000000
1429.309570 6023.000000
1430.944458 6440.000000
1432.578247 5926.000000
1434.210938 6194.000000
1435.842651 5650.000000
1437.473511 6118.000000
1439.103271 6121.000000
1440.731934 7841.000000
1442.359985 6048.000000
1443.986938 6261.000000
1445.612671 6196.000000
1447.237793 6163.000000
1448.861816 6623.000000
1450.484863 6045.000000
1452.106934 6042.000000
1453.727905 7433.000000
1455.347900 6330.000000
1456.967163 6918.000000
1458.585083 5654.000000
1460.202393 16940.000000
1461.818726 5574.000000
1463.433838 7273.000000
1465.048096 6352.000000
1466.661499 5232.000000
1468.273804 5665.000000
1469.885254 6332.000000
1471.495850 6375.000000
1473.105225 6016.000000
1474.713623 5997.000000
1476.321167 6138.000000
1477.927734 6849.000000
1479.533569 5351.000000
1481.138184 6328.000000
1482.741943 5534.000000
1484.344482 6749.000000
1485.946411 5563.000000
1487.547119 5534.000000
1489.147095 5633.000000
1490.745972 6285.000000
1492.343994 6547.000000
1493.940918 6647.000000
1495.536987 6400.000000
1497.132080 6042.000000
1498.726196 5446.000000
1500.319580 6535.000000
1501.911865 5535.000000
1503.502930 6152.000000
1505.093506 6816.000000
1506.682739 6464.000000
1508.271362 6122.000000
1509.858887 6495.000000
1511.445313 6916.000000
1513.031006 6289.000000
1514.615601 6641.000000
1516.199341 6401.000000
1517.781982 6223.000000
1519.363892 6697.000000
1520.944702 6602.000000
1522.524780 6074.000000
1524.103638 6187.000000
1525.681641 6462.000000
1527.258911 6271.000000
1528.834961 5713.000000
1530.410278 5928.000000
1531.984497 6351.000000
1533.557983 5525.000000
1535.130249 6023.000000
1536.701782 6434.000000
1538.272339 6556.000000
1539.842041 6379.000000
1541.410522 5454.000000
1542.978271 6591.000000
1544.545166 5640.000000
1546.110840 6869.000000
1547.675781 6006.000000
1549.239624 5092.000000
1550.802856 7506.000000
1552.364746 6248.000000
1553.926025 5970.000000
1555.486206 5640.000000
1557.045654 5788.000000
1558.604004 5932.000000
1560.161621 6341.000000
1561.718140 7053.000000
1563.273438 5836.000000
1564.828125 6368.000000
1566.382080 5629.000000
1567.935059 6426.000000
1569.486694 5639.000000
1571.037598 5905.000000
1572.587769 6240.000000
1574.136963 6315.000000
1575.684814 5812.000000
1577.232178 5511.000000
1578.778564 5663.000000
1580.324097 5065.000000
1581.868652 6671.000000
1583.411987 6352.000000
1584.954712 6671.000000
1586.496582 6418.000000
1588.037354 6755.000000
1589.577148 5890.000000
1591.116211 6753.000000
1592.654175 5934.000000
1594.191650 6117.000000
1595.727783 5930.000000
1597.262817 6685.000000
1598.797363 6271.000000
1600.330933 5940.000000
1601.863647 6086.000000
1603.394775 6304.000000
1604.925659 6238.000000
1606.455688 5823.000000
1607.984497 6124.000000
1609.512207 6216.000000
1611.039307 6036.000000
1612.565674 5832.000000
1614.091064 6279.000000
1615.615601 5744.000000
1617.138794 5740.000000
1618.661255 5677.000000
1620.182983 6524.000000
1621.703857 6931.000000
1623.223267 15517.000000
1624.742188 6305.000000
1626.260376 6047.000000
1627.777710 5812.000000
1629.293945 6411.000000
1630.808838 7090.000000
1632.323242 6810.000000
1633.836914 5786.000000
1635.349487 6856.000000
1636.860840 5986.000000
1638.371826 6413.000000
1639.881714 6305.000000
1641.390747 6185.000000
1642.898438 5632.000000
1644.405762 6117.000000
1645.912231 7146.000000
1647.417725 6287.000000
1648.922363 6858.000000
1650.425537 6237.000000
1651.928101 6691.000000
1653.430298 6301.000000
1654.931152 6722.000000
1656.430908 7473.000000
1657.929810 6178.000000
1659.428345 6542.000000
1660.925659 6251.000000
1662.422241 5964.000000
1663.917236 6498.000000
1665.411987 6296.000000
1666.905884 5240.000000
1668.398804 5615.000000
1669.890381 20885.000000
1671.381470 6477.000000
1672.871948 6124.000000
1674.361328 6056.000000
1675.849243 6931.000000
1677.336914 6922.000000
1678.823608 6022.000000
1680.309448 5464.000000
1681.794434 6108.000000
1683.277954 6247.000000
1684.761230 6372.000000
1686.243652 5857.000000
1687.724976 6265.000000
1689.204834 6236.000000
1690.684448 5563.000000
1692.163330 6560.000000
1693.641235 6026.000000
1695.118164 6138.000000
1696.593872 5765.000000
1698.069214 6014.000000
1699.543335 6393.000000
1701.016846 5496.000000
1702.488892 5613.000000
1703.960693 6886.000000
1705.431519 6440.000000
1706.901489 7107.000000
1708.370117 5120.000000
1709.838257 5843.000000
1711.305664 6428.000000
1712.771973 5500.000000
1714.237671 5774.000000
1715.701660 6229.000000
1717.165527 6007.000000
1718.628540 6981.000000
1720.090576 6429.000000
1721.551392 6660.000000
1723.011597 5503.000000
1724.471069 6363.000000
1725.929688 6175.000000
1727.387329 6047.000000
1728.843628 6292.000000
1730.299683 6038.000000
1731.754761 6502.000000
1733.208862 6126.000000
1734.661743 6935.000000
1736.114380 6004.000000
1737.565918 6897.000000
1739.016724 6041.000000
1740.466553 6569.000000
1741.915039 5982.000000
1743.363159 7573.000000
1744.810425 6546.000000
1746.256958 6658.000000
1747.701904 6702.000000
1749.146606 6161.000000
1750.590454 5855.000000
1752.033447 5484.000000
1753.474976 6565.000000
1754.916260 6349.000000
1756.356689 19558.000000
1757.796143 6266.000000
1759.234619 5337.000000
1760.672119 6082.000000
1762.109131 7626.000000
1763.545166 5921.000000
1764.980347 7261.000000
1766.414063 6163.000000
1767.847656 6404.000000
1769.280273 6680.000000
1770.712036 5839.000000
1772.142944 5923.000000
1773.572632 6386.000000
1775.001587 6185.000000
1776.430054 6293.000000
1777.857544 6683.000000
1779.283691 6291.000000
1780.709595 5592.000000
1782.134399 6922.000000
1783.558594 5638.000000
1784.981323 6662.000000
1786.403564 6566.000000
1787.825073 6889.000000
1789.245850 5904.000000
1790.665649 6032.000000
1792.084106 6208.000000
1793.502075 6893.000000
1794.919434 5530.000000
1796.335938 6093.000000
1797.750977 6528.000000
1799.165649 5832.000000
1800.579712 6547.000000
1801.992554 6048.000000
1803.404785 7007.000000
1804.815674 7128.000000
1806.226074 7820.000000
1807.635742 6495.000000
1809.044434 5941.000000
1810.452026 5370.000000
1811.859131 6501.000000
1813.265381 6389.000000
1814.670654 6774.000000
1816.074829 6010.000000
1817.478638 6024.000000
1818.881470 6191.000000
1820.283447 6027.000000
1821.684814 5893.000000
1823.084717 6389.000000
1824.484009 6516.000000
1825.882813 6582.000000
1827.280762 7502.000000
1828.677368 5750.000000
1830.073364 6779.000000
1831.468628 5908.000000
1832.863281 8141.000000
1834.256958 6060.000000
1835.649292 6872.000000
1837.041138 6430.000000
1838.432373 5888.000000
1839.822632 7107.000000
1841.211670 6065.000000
1842.600342 6116.000000
1843.988037 5973.000000
1845.375000 5840.000000
1846.760620 6930.000000
1848.145996 5867.000000
1849.530518 6349.000000
1850.914307 6363.000000
1852.296997 6372.000000
1853.678467 5385.000000
1855.059448 6567.000000
1856.439941 6342.000000
1857.819458 5683.000000
1859.197510 5992.000000
1860.575439 6299.000000
1861.952393 7902.000000
1863.328613 6189.000000
1864.703979 6087.000000
1866.077881 5685.000000
1867.451660 5683.000000
1868.824585 6212.000000
1870.196411 6014.000000
1871.567261 6906.000000
1872.937744 5367.000000
1874.307129 6070.000000
1875.676025 6140.000000
1877.043335 7216.000000
1878.410522 5956.000000
1879.776733 6035.000000
1881.142212 6837.000000
1882.506958 7484.000000
1883.870117 6801.000000
1885.233154 6913.000000
1886.595337 6319.000000
1887.956665 6443.000000
1889.316650 5557.000000
1890.676270 5726.000000
1892.035278 6203.000000
1893.393311 6694.000000
1894.750488 7338.000000
1896.106445 5850.000000
1897.462158 7684.000000
1898.816895 5882.000000
1900.170776 5548.000000
1901.523560 5900.000000
1902.875854 5929.000000
1904.227417 5921.000000
1905.578125 6957.000000
1906.927612 6509.000000
1908.276611 6660.000000
1909.624756 5926.000000
1910.972290 6226.000000
1912.319092 6383.000000
1913.664307 6794.000000
1915.009277 6100.000000
1916.353516 5448.000000
1917.696899 6564.000000
1919.038940 5998.000000
1920.380737 6684.000000
1921.721680 7004.000000
1923.061890 6196.000000
1924.401123 6369.000000
1925.739380 6320.000000
1927.077026 6529.000000
1928.413940 7064.000000
1929.750000 6797.000000
1931.084839 5570.000000
1932.419312 6677.000000
1933.753052 7322.000000
1935.085938 6297.000000
1936.417358 5719.000000
1937.748901 6340.000000
1939.079102 6711.000000
1940.408813 5757.000000
1941.737671 6147.000000
1943.065308 5830.000000
1944.392456 5012.000000
1945.718872 5839.000000
1947.044556 6447.000000
1948.368896 5755.000000
1949.692993 6700.000000
1951.016235 6360.000000
1952.338745 6366.000000
1953.660156 5815.000000
1954.980591 7431.000000
1956.300415 6013.000000
1957.619873 5569.000000
1958.938354 6844.000000
1960.255493 5907.000000
1961.572266 5850.000000
1962.888306 6610.000000
1964.203613 6634.000000
1965.517456 6256.000000
1966.831055 5727.000000
1968.143921 6268.000000
1969.455933 5992.000000
1970.767334 6060.000000
1972.077393 6292.000000
1973.386963 5866.000000
1974.695801 6132.000000
1976.004028 6601.000000
1977.310913 6153.000000
1978.617188 7292.000000
1979.923096 5561.000000
1981.227783 6433.000000
1982.531982 5911.000000
1983.834961 5706.000000
1985.137573 7548.000000
1986.439209 6155.000000
1987.740234 6794.000000
1989.039673 6058.000000
1990.339233 6625.000000
1991.637695 5349.000000
1992.935669 6086.000000
1994.232056 6188.000000
1995.528442 5808.000000
1996.823853 5555.000000
1998.118530 6651.000000
1999.412354 5708.000000
2000.704956 6612.000000
2001.997070 5736.000000
2003.288696 7223.000000
2004.579590 6531.000000
2005.868896 6313.000000
2007.157959 6852.000000
2008.446289 5985.000000
2009.733887 6055.000000
2011.020630 6655.000000
2012.306274 5691.000000
2013.591553 6345.000000
2014.875854 6015.000000
2016.159546 5650.000000
2017.441895 6062.000000
2018.723877 6499.000000
2020.005371 6855.000000
2021.285889 5923.000000
2022.565674 6109.000000
2023.844360 6737.000000
2025.122314 5854.000000
2026.399780 5966.000000
2027.676636 6258.000000
2028.951782 5898.000000
2030.227051 6606.000000
2031.501343 6057.000000
2032.774658 5989.000000
2034.047119 5989.000000
2035.319214 6157.000000
2036.590210 6981.000000
2037.860962 6615.000000
2039.130371 6014.000000
2040.398682 6767.000000
2041.666992 6655.000000
2042.934326 5946.000000
2044.200928 6019.000000
2045.466309 5641.000000
2046.731079 5678.000000
2047.995605 5430.000000
2049.259033 5900.000000
2050.521973 6398.000000
2051.782959 6210.000000
2053.044434 6124.000000
2054.304688 5852.000000
2055.564209 6672.000000
2056.822998 6221.000000
2058.080811 6925.000000
2059.338135 5925.000000
2060.594727 6032.000000
2061.849854 6560.000000
2063.104980 5687.000000
2064.359131 5706.000000
2065.612549 5646.000000
2066.865234 6833.000000
2068.116699 6268.000000
2069.367920 6358.000000
2070.618408 5584.000000
2071.868164 5412.000000
2073.116455 6498.000000
2074.364746 6561.000000
2075.612061 7448.000000
2076.858643 5596.000000
2078.104492 6024.000000
2079.349121 7045.000000
2080.593262 7615.000000
2081.836914 5541.000000
2083.079590 6016.000000
2084.321045 6932.000000
2085.562256 5974.000000
2086.802979 6319.000000
2088.042725 6810.000000
2089.281250 7112.000000
2090.519287 6221.000000
2091.756592 5809.000000
2092.993652 6671.000000
2094.229248 6133.000000
2095.464111 6288.000000
2096.698730 6090.000000
2097.932373 5643.000000
2099.165039 6095.000000
2100.396973 6967.000000
2101.628418 6416.000000
2102.858887 6804.000000
2104.088623 6038.000000
2105.318115 6050.000000
2106.545654 6031.000000
2107.773438 6009.000000
2109.000488 6389.000000
2110.226563 5521.000000
2111.451172 6421.000000
2112.676025 7007.000000
2113.899658 7098.000000
2115.122803 6222.000000
2116.344727 7506.000000
2117.566406 6062.000000
2118.787109 6847.000000
2120.007080 5985.000000
2121.226563 6100.000000
2122.444580 6629.000000
2123.662598 7049.000000
2124.879639 5770.000000
2126.096191 5822.000000
2127.311035 6584.000000
2128.526123 6426.000000
2129.740234 7014.000000
2130.953613 5728.000000
2132.166260 6081.000000
2133.377441 5837.000000
2134.588867 6481.000000
2135.799072 6740.000000
2137.008789 5949.000000
2138.217041 6375.000000
2139.425293 5674.000000
2140.632813 5883.000000
2141.839111 7449.000000
2143.044678 5906.000000
2144.250000 5690.000000
2145.454346 5492.000000
2146.657959 6335.000000
2147.861084 6175.000000
2149.062744 6428.000000
2150.264160 5309.000000
2151.464844 6316.000000
2152.664795 6174.000000
2153.863525 5955.000000
2155.062012 7001.000000
2156.260010 6223.000000
2157.457031 6076.000000
2158.653320 5144.000000
2159.848389 5306.000000
2161.043213 6143.000000
2162.237305 5526.000000
2163.430420 6084.000000
2164.622559 7009.000000
2165.814453 5941.000000
2167.005615 6266.000000
2168.195801 6389.000000
2169.385254 6532.000000
2170.574219 6822.000000
2171.762207 6007.000000
2172.949951 5805.000000
2174.136230 5935.000000
2175.321777 6556.000000
2176.507080 6041.000000
2177.691895 5879.000000
2178.875488 6339.000000
2180.058350 7511.000000
2181.240234 6380.000000
2182.421875 5958.000000
2183.603027 6603.000000
2184.782959 5750.000000
2185.961914 5546.000000
2187.140381 6312.000000
2188.318604 6913.000000
2189.495605 7239.000000
2190.671631 6776.000000
2191.847412 6088.000000
2193.022705 5624.000000
2194.196533 6714.000000
2195.369873 6234.000000
2196.542969 6185.000000
2197.714844 6608.000000
2198.886230 7153.000000
2200.057129 6368.000000
2201.226318 6916.000000
2202.395508 7551.000000
2203.564209 6328.000000
2204.731934 5999.000000
2205.898682 5745.000000
2207.064697 7236.000000
2208.230225 6719.000000
2209.395508 5985.000000
2210.559326 6803.000000
2211.722656 5462.000000
2212.884766 6217.000000
2214.047119 6170.000000
2215.208252 6699.000000
2216.368408 6706.000000
2217.528076 6336.000000
2218.687500 6655.000000
2219.845703 6405.000000
2221.002930 6295.000000
2222.159912 6760.000000
2223.316162 6636.000000
2224.471680 6726.000000
2225.626465 6322.000000
2226.780273 6483.000000
2227.933105 6076.000000
2229.086426 6977.000000
2230.237793 6208.000000
2231.388916 6156.000000
2232.539307 6554.000000
2233.689209 7760.000000
2234.838135 6258.000000
2235.986572 5265.000000
2237.133545 6792.000000
2238.280762 7032.000000
2239.426758 6101.000000
2240.572510 7221.000000
2241.716553 7346.000000
2242.860840 6812.000000
2244.004150 6257.000000
2245.146729 6031.000000
2246.288330 5763.000000
2247.429688 5853.000000
2248.570068 6401.000000
2249.709717 6435.000000
2250.848877 5842.000000
2251.986816 5874.000000
2253.124756 6210.000000
2254.261719 5303.000000
2255.397949 6338.000000
2256.533203 6145.000000
2257.667725 7313.000000
2258.802002 6393.000000
2259.935791 5406.000000
2261.068115 6200.000000
2262.199951 6798.000000
2263.331299 6283.000000
2264.461670 6538.000000
2265.591797 8209.000000
2266.720703 6724.000000
2267.849121 6120.000000
2268.977051 5551.000000
2270.104004 6161.000000
2271.230225 6003.000000
2272.355469 6757.000000
2273.480713 6501.000000
2274.605225 6415.000000
2275.728516 5963.000000
2276.851074 6299.000000
2277.973145 6211.000000
2279.094727 7474.000000
2280.215576 6402.000000
2281.335205 6438.000000
2282.454346 7182.000000
2283.573242 7687.000000
2284.691406 7220.000000
2285.808594 5888.000000
2286.924805 6433.000000
2288.040771 7057.000000
2289.156006 6903.000000
2290.270508 7344.000000
2291.383789 5833.000000
2292.497070 6358.000000
2293.609619 6026.000000
2294.721436 5330.000000
2295.832520 6769.000000
2296.942383 6490.000000
2298.051758 6148.000000
2299.160889 6677.000000
2300.269043 6336.000000
2301.376221 6746.000000
2302.483154 5937.000000
2303.589355 6248.000000
2304.695068 6630.000000
2305.799316 6685.000000
2306.903320 5405.000000
2308.006836 5755.000000
2309.109863 6532.000000
2310.211670 7416.000000
2311.312744 7331.000000
2312.413330 6627.000000
2313.513428 5531.000000
2314.612793 6377.000000
2315.710693 6609.000000
2316.809082 7031.000000
2317.906006 8254.000000
2319.002686 6923.000000
2320.098877 5798.000000
2321.193359 6863.000000
2322.287842 7658.000000
2323.381592 5812.000000
2324.475098 5958.000000
2325.566895 6441.000000
2326.658691 6974.000000
2327.749756 6089.000000
2328.840088 6312.000000
2329.929443 6920.000000
2331.018799 6042.000000
2332.106934 6297.000000
2333.194580 6842.000000
2334.281982 6580.000000
2335.367676 6701.000000
2336.453125 7717.000000
2337.538330 6299.000000
2338.622559 6733.000000
2339.705811 5929.000000
2340.788818 6435.000000
2341.870850 7119.000000
2342.952637 5999.000000
2344.033691 7439.000000
2345.113525 6658.000000
2346.192871 5687.000000
2347.271729 6822.000000
2348.350098 6566.000000
2349.427002 6346.000000
2350.503662 7005.000000
2351.580078 6003.000000
2352.655518 6448.000000
2353.729980 5920.000000
2354.804199 6261.000000
2355.877686 6823.000000
2356.950684 6235.000000
2358.022461 7036.000000
2359.093994 6277.000000
2360.164551 6794.000000
2361.234863 7523.000000
2362.304199 7615.000000
2363.372559 6860.000000
2364.440674 6783.000000
2365.508057 7093.000000
2366.574951 7150.000000
2367.641113 6063.000000
2368.706055 6885.000000
2369.770996 7014.000000
2370.835205 6363.000000
2371.898682 6992.000000
2372.960938 5842.000000
2374.023193 6314.000000
2375.084473 6345.000000
2376.145508 5963.000000
2377.205322 6352.000000
2378.264404 7885.000000
2379.323486 6516.000000
2380.381592 7611.000000
2381.438965 6955.000000
2382.495361 8032.000000
2383.551514 7819.000000
2384.607178 6256.000000
2385.662109 6998.000000
2386.715576 6730.000000
2387.769287 6584.000000
2388.822021 6310.000000
2389.874268 6761.000000
2390.925781 6152.000000
2391.976318 6664.000000
2393.026611 6456.000000
2394.075928 6316.000000
2395.125244 6186.000000
2396.173096 6909.000000
2397.220459 6996.000000
2398.267578 6337.000000
2399.313721 6696.000000
2400.359131 6209.000000
2401.403809 6755.000000
2402.448486 7732.000000
2403.491699 7546.000000
2404.534912 6693.000000
2405.576660 5959.000000
2406.618652 6694.000000
2407.659912 7165.000000
2408.700195 6120.000000
2409.739746 6446.000000
2410.778320 6346.000000
2411.817139 6113.000000
2412.854736 6547.000000
2413.892090 6857.000000
2414.928223 7420.000000
2415.964111 6293.000000
2416.999268 6266.000000
2418.033936 6683.000000
2419.067139 7222.000000
2420.100586 6425.000000
2421.133057 6686.000000
2422.165283 6836.000000
2423.196045 7126.000000
2424.226807 6464.000000
2425.257080 6863.000000
2426.286133 6880.000000
2427.315186 6652.000000
2428.342529 7392.000000
2429.370361 6697.000000
2430.396973 7306.000000
2431.423340 6952.000000
2432.448242 7748.000000
2433.473389 6528.000000
2434.497559 7175.000000
2435.521484 6681.000000
2436.544189 5829.000000
2437.566162 6273.000000
2438.587891 6681.000000
2439.608887 6643.000000
2440.629395 6070.000000
2441.648682 6507.000000
2442.667969 6562.000000
2443.686279 8454.000000
2444.704346 6270.000000
2445.720947 6424.000000
2446.737549 6623.000000
2447.753418 6025.000000
2448.769287 7041.000000
2449.783691 6880.000000
2450.797363 5593.000000
2451.810547 7226.000000
2452.823486 6023.000000
2453.835693 7218.000000
2454.846924 6716.000000
2455.857910 7634.000000
2456.868164 6413.000000
2457.877930 7671.000000
2458.886719 5901.000000
2459.894775 5961.000000
2460.902832 6345.000000
2461.909668 7379.000000
2462.916260 5479.000000
2463.921631 7387.000000
2464.926758 6971.000000
2465.931641 5966.000000
2466.935303 6515.000000
2467.938721 6386.000000
2468.941162 7595.000000
2469.943359 7358.000000
2470.945068 6925.000000
2471.945801 6587.000000
2472.945557 6992.000000
2473.945313 6763.000000
2474.944092 5748.000000
2475.942383 6626.000000
2476.939697 7086.000000
2477.936768 6072.000000
2478.933838 6951.000000
2479.929443 5805.000000
2480.925049 7157.000000
2481.918945 6689.000000
2482.912842 8193.000000
2483.906250 6907.000000
2484.899170 6707.000000
2485.891113 7539.000000
2486.882324 7287.000000
2487.873291 6779.000000
2488.863770 5863.000000
2489.853271 6551.000000
2490.842041 6558.000000
2491.830811 5611.000000
2492.818604 6762.000000
2493.805176 6546.000000
2494.791748 8038.000000
2495.777832 6740.000000
2496.763184 7086.000000
2497.747559 8305.000000
2498.731689 6000.000000
2499.715820 6861.000000
2500.698486 5772.000000
2501.680664 7013.000000
2502.662354 6850.000000
2503.643311 7260.000000
2504.623779 6559.000000
2505.604004 5748.000000
2506.582764 6342.000000
2507.561279 7605.000000
2508.539307 6776.000000
2509.516846 7082.000000
2510.493408 6041.000000
2511.469727 5964.000000
2512.445313 6354.000000
2513.420410 6225.000000
2514.395020 6496.000000
2515.368408 7695.000000
2516.341553 6861.000000
2517.314453 6961.000000
2518.286377 6202.000000
2519.257568 6876.000000
2520.228271 6894.000000
2521.198730 7847.000000
2522.168457 8110.000000
2523.137207 6145.000000
2524.105225 6137.000000
2525.073242 7641.000000
2526.040283 6299.000000
2527.007080 5532.000000
2527.972656 7226.000000
2528.938232 6991.000000
2529.903076 7779.000000
2530.867432 6327.000000
2531.830566 6393.000000
2532.793945 5900.000000
2533.756348 5966.000000
2534.718506 6723.000000
2535.679443 6439.000000
2536.639648 6147.000000
2537.600098 6225.000000
2538.559570 6680.000000
2539.518311 6867.000000
2540.476074 6627.000000
2541.434082 6210.000000
2542.391357 6750.000000
2543.347656 6124.000000
2544.303711 7111.000000
2545.258545 6238.000000
2546.213623 7789.000000
2547.167969 7053.000000
2548.121582 6348.000000
2549.074219 7271.000000
2550.026611 6773.000000
2550.978516 6983.000000
2551.929688 6370.000000
2552.880127 7689.000000
2553.830078 7067.000000
2554.779785 7370.000000
2555.728760 6631.000000
2556.677246 6236.000000
2557.624512 7151.000000
2558.571777 6299.000000
2559.518311 6496.000000
2560.464355 6755.000000
2561.409424 7465.000000
2562.354248 6759.000000
2563.298584 7239.000000
2564.242432 6781.000000
2565.185791 6650.000000
2566.127686 6654.000000
2567.069824 6614.000000
2568.011230 6178.000000
2568.951904 7203.000000
2569.891846 7300.000000
2570.831787 5628.000000
2571.770752 6152.000000
2572.709473 7408.000000
2573.647217 7258.000000
2574.584717 5472.000000
2575.521484 6973.000000
2576.457520 6856.000000
2577.393066 7528.000000
2578.327881 6456.000000
2579.262695 6004.000000
2580.196533 7071.000000
2581.129883 7276.000000
2582.062500 5856.000000
2582.994873 6860.000000
2583.926514 5496.000000
2584.857666 7050.000000
2585.788330 7000.000000
2586.717773 6904.000000
2587.647217 7268.000000
2588.576172 6433.000000
2589.504883 7473.000000
2590.431885 7317.000000
2591.359131 5952.000000
2592.285889 6873.000000
2593.211914 6314.000000
2594.137695 5719.000000
2595.062256 7634.000000
2595.986572 7649.000000
2596.910400 5326.000000
2597.833740 7421.000000
2598.756104 6239.000000
2599.678223 6865.000000
2600.599854 8318.000000
2601.520752 6448.000000
2602.440918 5742.000000
2603.360840 6350.000000
2604.280273 6415.000000
2605.199463 6453.000000
2606.117676 5853.000000
2607.034668 6004.000000
2607.951904 7248.000000
2608.868896 5910.000000
2609.784912 7571.000000
2610.699707 6683.000000
2611.614990 6628.000000
2612.529541 6581.000000
2613.443115 6537.000000
2614.356689 6151.000000
2615.269043 7623.000000
2616.181396 7016.000000
2617.092773 6791.000000
2618.003906 5742.000000
2618.914307 7194.000000
2619.824463 6678.000000
2620.733887 6196.000000
2621.642822 6606.000000
2622.550781 6196.000000
2623.458984 6925.000000
2624.366211 6673.000000
2625.272949 7089.000000
2626.178955 6008.000000
2627.084717 6621.000000
2627.989746 6395.000000
2628.894531 7842.000000
2629.798584 6514.000000
2630.701660 6384.000000
2631.604736 6447.000000
2632.506836 5682.000000
2633.408936 6748.000000
2634.310791 7056.000000
2635.210938 6768.000000
2636.111328 6466.000000
2637.010986 6472.000000
2637.910400 6032.000000
2638.808350 6937.000000
2639.706787 6752.000000
2640.604736 6377.000000
2641.501953 6160.000000
2642.397949 6177.000000
2643.293945 6794.000000
2644.189697 6077.000000
2645.084717 6542.000000
2645.979492 6716.000000
2646.872803 7283.000000
2647.766113 6332.000000
2648.659180 6779.000000
2649.552002 6505.000000
2650.443115 7408.000000
2651.334473 6434.000000
2652.225342 7728.000000
2653.115479 7343.000000
2654.005371 6610.000000
2654.894043 7393.000000
2655.782959 6732.000000
2656.671387 6641.000000
2657.558838 7322.000000
2658.445313 6485.000000
2659.332275 7078.000000
2660.218506 6901.000000
2661.104248 6879.000000
2661.988770 6509.000000
2662.873291 6447.000000
2663.757568 6192.000000
2664.641113 7099.000000
2665.524170 7766.000000
2666.406494 7374.000000
2667.288330 6174.000000
2668.169434 6569.000000
2669.050781 6150.000000
2669.930664 6549.000000
2670.810791 7401.000000
2671.690186 7156.000000
2672.569580 6338.000000
2673.448242 6152.000000
2674.325195 6431.000000
2675.202881 6710.000000
2676.079834 6377.000000
2676.956055 8157.000000
2677.831787 7241.000000
2678.706787 6307.000000
2679.582031 7756.000000
2680.456299 6959.000000
2681.330078 7382.000000
2682.203125 7042.000000
2683.075928 6175.000000
2683.948486 6120.000000
2684.820313 6998.000000
2685.691406 6572.000000
2686.562256 6892.000000
2687.432617 7127.000000
2688.302734 6673.000000
2689.171143 6325.000000
2690.040283 7397.000000
2690.908691 7168.000000
2691.776855 6651.000000
2692.644287 6931.000000
2693.510498 5847.000000
2694.377197 7198.000000
2695.242920 7404.000000
2696.108643 7155.000000
2696.972900 7943.000000
2697.837891 6570.000000
2698.701416 7249.000000
2699.565186 5869.000000
2700.427490 7474.000000
2701.290283 6766.000000
2702.152100 6009.000000
2703.013428 6883.000000
2703.874756 6743.000000
2704.734863 7433.000000
2705.594971 7288.000000
2706.454590 6578.000000
2707.313965 6838.000000
2708.171631 7115.000000
2709.029541 6854.000000
2709.887939 7288.000000
2710.745117 6725.000000
2711.601563 5964.000000
2712.457520 6911.000000
2713.313477 6157.000000
2714.168701 6980.000000
2715.023193 6171.000000
2715.877197 6820.000000
2716.731201 7311.000000
2717.584229 6231.000000
2718.437500 6636.000000
2719.289063 7778.000000
2720.141113 6761.000000
2720.992920 6262.000000
2721.843506 6519.000000
2722.694092 6400.000000
2723.544189 7128.000000
2724.393555 6963.000000
2725.242920 7076.000000
2726.091064 6686.000000
2726.938721 6512.000000
2727.786865 6961.000000
2728.633789 6891.000000
2729.481201 5532.000000
2730.327148 7468.000000
2731.172363 7004.000000
2732.018066 6402.000000
2732.862793 7131.000000
2733.707520 7420.000000
2734.551025 6948.000000
2735.394775 7744.000000
2736.237793 7144.000000
2737.080322 6087.000000
2737.921875 6244.000000
2738.763916 6808.000000
2739.604980 6924.000000
2740.445801 5785.000000
2741.286377 5938.000000
2742.125732 7813.000000
2742.965088 6829.000000
2743.804443 6861.000000
2744.642578 6722.000000
2745.480225 7889.000000
2746.317871 6354.000000
2747.155029 7123.000000
2747.991943 6234.000000
2748.828369 5980.000000
2749.663574 6695.000000
2750.499023 6349.000000
2751.333984 6399.000000
2752.168213 6256.000000
2753.002197 6888.000000
2753.835693 6823.000000
2754.669189 8003.000000
2755.501709 6795.000000
2756.333740 7268.000000
2757.165283 6820.000000
2757.996826 7151.000000
2758.827393 7215.000000
2759.658203 7259.000000
2760.487793 7240.000000
2761.317383 6817.000000
2762.146729 7254.000000
2762.975342 6834.000000
2763.803467 6763.000000
2764.631104 6904.000000
2765.458740 6659.000000
2766.285889 7885.000000
2767.112305 5837.000000
2767.938232 7463.000000
2768.763672 6976.000000
2769.588867 7794.000000
2770.414063 7123.000000
2771.238037 6750.000000
2772.062012 6538.000000
2772.885986 7604.000000
2773.708740 6621.000000
2774.531738 6962.000000
2775.353516 6888.000000
2776.175293 6997.000000
2776.997070 6521.000000
2777.817871 7959.000000
2778.637939 6525.000000
2779.458252 6985.000000
2780.278076 7279.000000
2781.097900 6458.000000
2781.915771 5967.000000
2782.734863 8122.000000
2783.552734 6543.000000
2784.370361 6735.000000
2785.187500 7181.000000
2786.004150 7315.000000
2786.820557 7229.000000
2787.636475 6263.000000
2788.452148 5951.000000
2789.266846 6410.000000
2790.082031 7006.000000
2790.896484 7211.000000
2791.710449 6583.000000
2792.524170 7455.000000
2793.336670 8760.000000
2794.149414 6957.000000
2794.961670 7442.000000
2795.773438 7279.000000
2796.584473 7379.000000
2797.396240 6576.000000
2798.206787 7143.000000
2799.017334 7013.000000
2799.826416 7382.000000
2800.636230 8115.000000
2801.445313 7824.000000
2802.254150 6634.000000
2803.062500 7226.000000
2803.869873 6196.000000
2804.677734 6458.000000
2805.484863 6956.000000
2806.291748 7024.000000
2807.097412 7228.000000
2807.903564 6600.000000
2808.708984 6524.000000
2809.514404 7325.000000
2810.319092 6221.000000
2811.122803 7716.000000
2811.927002 7541.000000
2812.730713 6333.000000
2813.534180 6115.000000
2814.336182 6691.000000
2815.138916 7320.000000
2815.940918 7867.000000
2816.742676 6147.000000
2817.543945 6607.000000
2818.344727 7303.000000
2819.145020 6565.000000
2819.945557 6714.000000
2820.745117 8055.000000
2821.544189 7146.000000
2822.343262 6463.000000
2823.142090 6842.000000
2823.940430 6369.000000
2824.737793 7094.000000
2825.535400 7021.000000
2826.332275 6694.000000
2827.129395 7329.000000
2827.925781 7994.000000
2828.721436 7077.000000
2829.517090 7351.000000
2830.312500 7568.000000
2831.107422 7446.000000
2831.901611 6629.000000
2832.695801 6902.000000
2833.489746 5678.000000
2834.283203 6861.000000
2835.075928 7185.000000
2835.868408 8154.000000
2836.660889 7641.000000
2837.453125 7813.000000
2838.244873 6422.000000
2839.035645 6807.000000
2839.826416 8940.000000
2840.617432 7434.000000
2841.407471 6226.000000
2842.197021 7664.000000
2842.986816 7203.000000
2843.775635 7352.000000
2844.564453 7845.000000
2845.353271 7729.000000
2846.141113 7601.000000
2846.928467 7243.000000
2847.716064 7548.000000
2848.503174 7339.000000
2849.289551 6715.000000
2850.075928 7475.000000
2850.862061 7198.000000
2851.647705 7545.000000
2852.432373 7202.000000
2853.217529 6883.000000
2854.002441 7439.000000
2854.786621 7144.000000
2855.570801 6954.000000
2856.353760 8373.000000
2857.136963 6790.000000
2857.919922 6863.000000
2858.702393 7869.000000
2859.484619 6349.000000
2860.266357 6698.000000
2861.047852 7592.000000
2861.829590 7494.000000
2862.610596 7646.000000
2863.390869 6579.000000
2864.170898 6732.000000
2864.950928 8236.000000
2865.730713 7477.000000
2866.509521 8124.000000
2867.288574 7711.000000
2868.067139 6797.000000
2868.845459 7032.000000
2869.623291 7259.000000
2870.400879 6928.000000
2871.178223 7514.000000
2871.955322 7014.000000
2872.731934 6380.000000
2873.508057 7450.000000
2874.284180 7149.000000
2875.059814 8325.000000
2875.835205 7200.000000
2876.610107 6636.000000
2877.384766 8013.000000
2878.159424 6594.000000
2878.933838 7910.000000
2879.707520 6816.000000
2880.480469 7197.000000
2881.254150 6719.000000
2882.026855 7653.000000
2882.799561 7929.000000
2883.571533 8268.000000
2884.343262 6234.000000
2885.115479 6795.000000
2885.886475 6907.000000
2886.656982 6158.000000
2887.427979 8297.000000
2888.198975 7396.000000
2888.969238 8030.000000
2889.738525 7622.000000
2890.508057 6977.000000
2891.277588 7323.000000
2892.046631 7357.000000
2892.815186 7920.000000
2893.583740 7725.000000
2894.351318 6999.000000
2895.119385 6607.000000
2895.886963 7446.000000
2896.654541 8345.000000
2897.420898 7446.000000
2898.188232 6535.000000
2898.954346 7198.000000
2899.720703 7000.000000
2900.485596 8315.000000
2901.250977 7008.000000
2902.016846 6502.000000
2902.781250 7764.000000
2903.545654 7881.000000
2904.310303 8506.000000
2905.073975 6632.000000
2905.838379 8452.000000
2906.602051 6748.000000
2907.364990 8423.000000
2908.127686 6541.000000
2908.890869 9097.000000
2909.653564 6997.000000
2910.415039 6825.000000
2911.177002 6825.000000
