scanname Analyse060
timestamp 2017-02-10 21:20:05
ccdbias 894.857910
ccdgain 3.473401
sigmaread 8.960639
laserwavenum -0.663183
wavenumcorrection -0.140219
scancount 1
totalexposurems 10000
singleexposurems 10000
measurementstate Unknown
scanmode Manual
snr 20.410316 0.422186 0.234949
replacelist 0
peaks 9
399.408417 0.052384 0.000000 0.408032 0.000052
809.686890 0.049766 0.000000 0.432824 0.000132
842.345215 0.047306 0.000000 0.276922 0.000073
972.734009 0.039375 0.000000 0.264488 0.000025
999.966919 0.037873 0.000000 0.118489 0.000015
1035.968384 0.037502 0.000000 0.051342 0.000011
1156.152710 0.039269 0.000000 0.087716 0.000017
1331.074585 0.043861 0.000000 0.185362 0.000030
1458.461060 0.044929 0.000000 0.140729 0.000043
finalresult GLS_Multiple 88
A11883	Polypropylene (Isotactic)	5.672472e-001
A13500	Poly(propylene-co-ethylene)	5.636107e-001
A0115	Polypropylene	5.561220e-001
A13184	Piperidine hydrochloride	3.357536e-001
A6290	Bis(2,2,2-trifluoroethyl) phosphite	3.051689e-001
A1270	Methyl DL-lactate	2.968444e-001
A2313	Barium peroxide	2.918043e-001
A0524	Propionic acid	2.891989e-001
A3222	Potassium nitrite	2.783139e-001
A8920	Perrhenic acid solution	2.759479e-001
A1928	Ammonium sulfate	2.729607e-001
A2017	Isopropylamine	2.713763e-001
A2210	Calcium peroxide hydrate	2.682196e-001
A1767	3,5-Dichlorophenol	2.678611e-001
A13501	Methylamine hydrochloride	2.670251e-001
A11317	Ethyl 3-isocyanatobenzoate	2.665687e-001
A14117	Clomiphene citrate salt	2.659833e-001
A8842	(+/-)-2-Phenyl-1-propanol	2.657655e-001
A5382	3-Methoxypropionic acid	2.655380e-001
A8038	3,5-Dichlorophenyl isocyanate	2.650834e-001
A10417	3-[3-(Trifluoromethyl)phenoxy]benzaldehyde	2.650834e-001
A2785	Hydroxylamine hydrochloride	2.644516e-001
A0639	Diphenylmethane	2.634969e-001
A9324	3-Phenylpropylamine	2.633988e-001
A8296	1,2-Diphenylethylamine	2.633005e-001
A7796	Diphenylacetaldehyde	2.632806e-001
A3765	3-Phenyl-1-propanol	2.629468e-001
A5327	3-Methyldiphenylamine	2.629371e-001
A2035	Benzyl ether	2.626328e-001
A9406	3-Chlorophenyl isocyanate	2.623977e-001
A5520	6-Phenylhexanoic acid	2.621236e-001
A10958	Cypermethrin	2.619576e-001
A5355	3-Methoxyphenylacetone	2.618986e-001
A13929	N-(3-Aminophenyl)propanamide	2.617716e-001
A11294	3-(3-Methoxyphenyl)propionic acid	2.615565e-001
A7611	1-Phenylheptane	2.606490e-001
A4816	1-Fluoro-3,5-dimethoxybenzene	2.605031e-001
A3919	1-Phenylnonane	2.604639e-001
A2863	Streptomycin sulfate salt	2.591428e-001
A3105	1-Phenylundecane	2.590846e-001
A7199	Benzyl isothiocyanate	2.590652e-001
A15809	Methylamine (40 wt% in water)	2.590551e-001
A2043	1-Phenyltridecane	2.590069e-001
A0014	Methanol	2.575561e-001
A11657	3-Iodophenyl isocyanate	2.575372e-001
A7538	Dibenzylamine	2.573345e-001
A7521	Benzhydrylamine	2.571512e-001
A8580	Sodium permanganate solution	2.570359e-001
A8699	3-Methoxyphenyl isocyanate	2.566895e-001
A12363	Butyl phenylacetate	2.562373e-001
A4746	1-Phenyl-2-butanone	2.556234e-001
A1822	Methamphetamine	2.547808e-001
A4664	1-Benzyl-2-methylimidazole	2.547137e-001
A6564	3,5-Dimethoxyphenol	2.536924e-001
A2322	Silver sulfate	2.535114e-001
A11173	2-Phenylpropionaldehyde	2.534354e-001
A2155	Ammonium carbamate	2.533399e-001
A0464	Benzyl alcohol	2.532734e-001
A5731	3,5-Dimethoxybenzylamine	2.529311e-001
A5402	2-Benzylaminoethanol	2.519063e-001
A7465	3-Phenylbutyraldehyde	2.518968e-001
A5344	Diphenylvinylphosphine	2.515086e-001
A14030	N-Benzylethylenediamine	2.512817e-001
A8115	1,3,5-Triethylbenzene	2.503660e-001
A15973	Silver azide	2.503471e-001
A9288	Benzyl methacrylate	2.503000e-001
A3586	Bismuth(III) nitrate pentahydrate	2.493404e-001
A14090	3-Chloro-N-methylbenzylamine	2.488524e-001
A2402	Gentamicin sulfate salt	2.484871e-001
A7487	(S)-(-)-1-Phenyl-1-decanol	2.482060e-001
A10383	1-Phenyl-1-propanol	2.479439e-001
A13976	(R)-(+)-alpha-Methylbenzylamine	2.475981e-001
A0801	3-Phenoxybenzaldehyde	2.474864e-001
A1702	Resorcinol diglycidyl ether	2.470945e-001
A1820	(+/-)-Ephedrine hydrochloride	2.465174e-001
A5361	3-Methoxy-N,N-dimethylbenzylamine	2.460985e-001
A8334	Benzyl isocyanate	2.456251e-001
A10172	Ethyl 2-benzylacetoacetate	2.447909e-001
A5320	Dibenzyl malonate	2.429190e-001
A10576	Ethyl phenylacetate	2.415252e-001
A8136	Benzylamine	2.412509e-001
A5545	Benzyl 3-bromopropyl ether	2.404203e-001
A10108	2-(Benzyloxy)ethanol	2.381058e-001
A8940	N,N'-Dibenzylethylenediamine	2.379071e-001
A0001	Polystyrene	2.354963e-001
A5511	N-Benzyl-L-prolinol	2.326976e-001
A7660	3-(Benzylamino)propionitrile	2.310351e-001
A8484	N-Isopropylbenzylamine	2.282550e-001
spectrum 2048
-96.938271 45332.000000
-94.311401 45332.000000
-91.686409 45996.000000
-89.063309 46060.000000
-86.442078 46885.000000
-83.822746 46667.000000
-81.205276 46964.000000
-78.589684 46737.000000
-75.975967 46985.000000
-73.364128 47450.000000
-70.754150 47215.000000
-68.146057 47325.000000
-65.539810 47475.000000
-62.935440 47459.000000
-60.332932 47321.000000
-57.732277 47794.000000
-55.133484 47155.000000
-52.536549 46623.000000
-49.941467 47018.000000
-47.348240 46910.000000
-44.756863 47181.000000
-42.167332 46694.000000
-39.579643 47450.000000
-36.993805 47367.000000
-34.409809 46877.000000
-31.827652 47637.000000
-29.247339 47075.000000
-26.668854 47623.000000
-24.092211 47201.000000
-21.517393 47098.000000
-18.944416 46838.000000
-16.373259 46825.000000
-13.803935 46419.000000
-11.236437 45397.000000
-8.670757 46787.000000
-6.106903 46612.000000
-3.544863 46966.000000
-0.984647 47042.000000
1.573761 46579.000000
4.130348 45637.000000
6.685131 45700.000000
9.238095 45964.000000
11.789260 44676.000000
14.338612 44262.000000
16.886168 43338.000000
19.431911 43227.000000
21.975863 42580.000000
24.518009 39852.000000
27.058359 37316.000000
29.596924 33367.000000
32.133694 29915.000000
34.668659 24947.000000
37.201847 14420.000000
39.733253 8908.000000
42.262867 8105.000000
44.790684 7730.000000
47.316742 6995.000000
49.841011 5996.000000
52.363510 4985.000000
54.884212 4766.000000
57.403160 4996.000000
59.920334 6385.000000
62.435730 8316.000000
64.949348 8837.000000
67.461212 8604.000000
69.971329 6604.000000
72.479652 4365.000000
74.986221 3616.000000
77.491043 2890.000000
79.994110 2187.000000
82.495399 2057.000000
84.994949 1886.000000
87.492744 1869.000000
89.988808 1969.000000
92.483093 2349.000000
94.975639 2610.000000
97.466469 2812.000000
99.955528 2589.000000
102.442841 1986.000000
104.928429 1515.000000
107.412277 1313.000000
109.894379 1355.000000
112.374756 1213.000000
114.853409 984.000000
117.330338 1111.000000
119.805511 987.000000
122.278976 905.000000
124.750710 875.000000
127.220734 964.000000
129.688995 841.000000
132.155594 859.000000
134.620438 835.000000
137.083588 915.000000
139.544998 839.000000
142.004715 1062.000000
144.462708 1026.000000
146.919006 1121.000000
149.373596 1145.000000
151.826462 1111.000000
154.277649 1188.000000
156.727142 1359.000000
159.174911 1441.000000
161.620972 1633.000000
164.065353 1679.000000
166.508057 2052.000000
168.949066 2050.000000
171.388367 2174.000000
173.825958 2143.000000
176.261917 2166.000000
178.696136 2199.000000
181.128677 2204.000000
183.559570 2085.000000
185.988739 2106.000000
188.416260 2116.000000
190.842102 2066.000000
193.266266 2139.000000
195.688766 2093.000000
198.109573 2151.000000
200.528717 2248.000000
202.946198 2309.000000
205.361984 2313.000000
207.776123 2285.000000
210.188629 2366.000000
212.599457 2548.000000
215.008606 2685.000000
217.416122 2779.000000
219.821930 2971.000000
222.226151 3064.000000
224.628662 3288.000000
227.029556 3377.000000
229.428802 3334.000000
231.826385 3514.000000
234.222305 3408.000000
236.616608 3376.000000
239.009247 3563.000000
241.400269 3624.000000
243.789627 3593.000000
246.177368 3423.000000
248.563461 3584.000000
250.947922 3517.000000
253.330734 3476.000000
255.711975 3473.000000
258.091522 3518.000000
260.469482 3520.000000
262.845764 3498.000000
265.220490 3335.000000
267.593567 3393.000000
269.964996 3392.000000
272.334778 3325.000000
274.703003 3404.000000
277.069580 3395.000000
279.434570 3318.000000
281.797943 3440.000000
284.159668 3407.000000
286.519806 3283.000000
288.878326 3430.000000
291.235260 3399.000000
293.590576 3373.000000
295.944305 3454.000000
298.296387 3294.000000
300.646912 3239.000000
302.995850 3345.000000
305.343140 3343.000000
307.688904 3227.000000
310.032990 3248.000000
312.375549 3251.000000
314.716492 3306.000000
317.055817 3306.000000
319.393585 3247.000000
321.729797 3316.000000
324.064362 3269.000000
326.397369 3248.000000
328.728821 3168.000000
331.058685 3234.000000
333.386963 3276.000000
335.713623 3249.000000
338.038788 3232.000000
340.362335 3124.000000
342.684326 3084.000000
345.004761 3121.000000
347.323578 3110.000000
349.640839 3041.000000
351.956573 3032.000000
354.270721 3048.000000
356.583282 3033.000000
358.894287 3027.000000
361.203766 3067.000000
363.511719 3068.000000
365.818054 3056.000000
368.122803 2983.000000
370.426086 3009.000000
372.727753 2962.000000
375.027924 3013.000000
377.326538 3052.000000
379.623596 3138.000000
381.919098 3126.000000
384.213074 3040.000000
386.505463 3014.000000
388.796356 3148.000000
391.085724 3124.000000
393.373505 3211.000000
395.659760 3348.000000
397.944519 3404.000000
400.227661 3453.000000
402.509369 3387.000000
404.789551 3242.000000
407.068146 3164.000000
409.345215 3123.000000
411.620758 3210.000000
413.894775 3149.000000
416.167358 3100.000000
418.438324 3095.000000
420.707794 3211.000000
422.975769 2992.000000
425.242188 3070.000000
427.507111 3036.000000
429.770569 2906.000000
432.032440 3009.000000
434.292847 3056.000000
436.551697 3028.000000
438.809082 2937.000000
441.064972 3028.000000
443.319366 2978.000000
445.572235 2889.000000
447.823547 2988.000000
450.073456 2899.000000
452.321777 2895.000000
454.568665 2920.000000
456.814087 3042.000000
459.057953 2996.000000
461.300323 3002.000000
463.541199 2942.000000
465.780670 2819.000000
468.018555 2868.000000
470.255005 2787.000000
472.489929 2787.000000
474.723389 2739.000000
476.955414 2742.000000
479.185913 2799.000000
481.414917 2703.000000
483.642456 2814.000000
485.868500 2721.000000
488.093109 2620.000000
490.316254 2734.000000
492.537933 2735.000000
494.758057 2895.000000
496.976776 2790.000000
499.194000 2771.000000
501.409851 2848.000000
503.624084 2710.000000
505.837006 2754.000000
508.048340 2829.000000
510.258240 2890.000000
512.466675 2780.000000
514.673767 2857.000000
516.879272 2744.000000
519.083374 2830.000000
521.285950 2772.000000
523.487122 2780.000000
525.686951 2887.000000
527.885254 2941.000000
530.082031 2865.000000
532.277466 2779.000000
534.471375 2756.000000
536.663940 2830.000000
538.854980 2653.000000
541.044617 2751.000000
543.232849 2734.000000
545.419556 2691.000000
547.604797 2704.000000
549.788757 2571.000000
551.971130 2657.000000
554.152161 2583.000000
556.331665 2557.000000
558.509888 2557.000000
560.686584 2515.000000
562.861877 2582.000000
565.035767 2627.000000
567.208191 2505.000000
569.379211 2473.000000
571.548767 2429.000000
573.717041 2553.000000
575.883789 2559.000000
578.049072 2551.000000
580.212952 2702.000000
582.375549 2674.000000
584.536621 2594.000000
586.696289 2517.000000
588.854614 2514.000000
591.011414 2564.000000
593.166870 2548.000000
595.320923 2535.000000
597.473633 2526.000000
599.624817 2507.000000
601.774658 2523.000000
603.923157 2623.000000
606.070068 2574.000000
608.215759 2588.000000
610.360046 2494.000000
612.502869 2631.000000
614.644226 2471.000000
616.784363 2464.000000
618.922974 2488.000000
621.060303 2508.000000
623.196167 2587.000000
625.330627 2505.000000
627.463623 2435.000000
629.595459 2492.000000
631.725830 2440.000000
633.854797 2545.000000
635.982300 2542.000000
638.108521 2462.000000
640.233215 2432.000000
642.356689 2412.000000
644.478821 2374.000000
646.599487 2408.000000
648.718811 2417.000000
650.836731 2464.000000
652.953308 2267.000000
655.068481 2380.000000
657.182312 2483.000000
659.294678 2437.000000
661.405823 2384.000000
663.515564 2413.000000
665.623840 2340.000000
667.730957 2401.000000
669.836609 2335.000000
671.940796 2312.000000
674.043762 2427.000000
676.145325 2368.000000
678.245544 2295.000000
680.344360 2430.000000
682.441833 2324.000000
684.538025 2457.000000
686.632751 2445.000000
688.726257 2394.000000
690.818420 2389.000000
692.909058 2445.000000
694.998474 2394.000000
697.086609 2393.000000
699.173279 2389.000000
701.258728 2441.000000
703.342651 2453.000000
705.425354 2416.000000
707.506775 2467.000000
709.586731 2450.000000
711.665466 2295.000000
713.742737 2213.000000
715.818726 2247.000000
717.893433 2349.000000
719.966858 2180.000000
722.038757 2254.000000
724.109497 2347.000000
726.178894 2239.000000
728.246887 2306.000000
730.313538 2228.000000
732.378967 2247.000000
734.443054 2238.000000
736.505798 2225.000000
738.567200 2256.000000
740.627319 2140.000000
742.686035 2246.000000
744.743530 2267.000000
746.799744 2138.000000
748.854553 2269.000000
750.908081 2168.000000
752.960205 2219.000000
755.011108 2214.000000
757.060791 2148.000000
759.109009 2110.000000
761.156006 2128.000000
763.201721 2131.000000
765.246033 2161.000000
767.289063 2141.000000
769.330872 2112.000000
771.371338 2141.000000
773.410400 2201.000000
775.448303 2269.000000
777.484863 2250.000000
779.520203 2165.000000
781.554199 2221.000000
783.586792 2165.000000
785.618225 2269.000000
787.648254 2344.000000
789.677002 2231.000000
791.704590 2211.000000
793.730835 2266.000000
795.755676 2286.000000
797.779419 2265.000000
799.801758 2377.000000
801.822876 2438.000000
803.842651 2524.000000
805.861145 2573.000000
807.878418 2762.000000
809.894287 2742.000000
811.908997 2755.000000
813.922363 2497.000000
815.934509 2467.000000
817.945435 2272.000000
819.955017 2271.000000
821.963379 2322.000000
823.970337 2335.000000
825.976074 2278.000000
827.980591 2192.000000
829.983826 2274.000000
831.985779 2115.000000
833.986450 2217.000000
835.985901 2251.000000
837.984009 2423.000000
839.981018 2388.000000
841.976624 2454.000000
843.971069 2439.000000
845.964172 2342.000000
847.956055 2329.000000
849.946594 2168.000000
851.935852 2140.000000
853.924072 2079.000000
855.910889 2047.000000
857.896484 2126.000000
859.880798 2097.000000
861.864014 1992.000000
863.845825 2095.000000
865.826416 2010.000000
867.805725 2028.000000
869.783875 2118.000000
871.760681 2056.000000
873.736206 2037.000000
875.710693 2092.000000
877.683716 2164.000000
879.655701 2211.000000
881.626343 2113.000000
883.595825 2101.000000
885.563965 2152.000000
887.530945 2100.000000
889.496582 2091.000000
891.461060 2198.000000
893.424316 2189.000000
895.386353 2025.000000
897.347107 2069.000000
899.306641 2047.000000
901.264893 2061.000000
903.222046 2050.000000
905.178040 1986.000000
907.132629 2079.000000
909.085999 2007.000000
911.038208 1970.000000
912.989197 1984.000000
914.938904 1997.000000
916.887451 2006.000000
918.834778 1890.000000
920.780823 1905.000000
922.725586 1919.000000
924.669312 1890.000000
926.611877 1853.000000
928.553162 1796.000000
930.493103 1783.000000
932.431946 1870.000000
934.369507 1796.000000
936.305847 1773.000000
938.241028 1767.000000
940.174927 1830.000000
942.107727 1852.000000
944.039307 1800.000000
945.969727 1817.000000
947.898926 1719.000000
949.826782 1807.000000
951.753601 1779.000000
953.679138 1751.000000
955.603394 1778.000000
957.526550 1770.000000
959.448547 1783.000000
961.369263 1742.000000
963.288818 1757.000000
965.207214 1889.000000
967.124573 1908.000000
969.040466 1926.000000
970.955261 1868.000000
972.868835 2038.000000
974.781250 1909.000000
976.692444 1948.000000
978.602478 1937.000000
980.511230 1953.000000
982.418945 1872.000000
984.325439 1698.000000
986.230713 1724.000000
988.134888 1814.000000
990.037842 1722.000000
991.939575 1752.000000
993.840149 1831.000000
995.739563 1907.000000
997.637756 1907.000000
999.534790 1840.000000
1001.430603 1780.000000
1003.325256 1739.000000
1005.218811 1678.000000
1007.111084 1803.000000
1009.002441 1675.000000
1010.892456 1629.000000
1012.781250 1650.000000
1014.668884 1567.000000
1016.555359 1573.000000
1018.440674 1498.000000
1020.324829 1641.000000
1022.207764 1716.000000
1024.089722 1546.000000
1025.970337 1642.000000
1027.849854 1701.000000
1029.728394 1642.000000
1031.605591 1672.000000
1033.481445 1719.000000
1035.356323 1736.000000
1037.230225 1774.000000
1039.102661 1651.000000
1040.974121 1741.000000
1042.844238 1735.000000
1044.713379 1612.000000
1046.581299 1633.000000
1048.448120 1647.000000
1050.313843 1659.000000
1052.178345 1625.000000
1054.041748 1552.000000
1055.903809 1694.000000
1057.764893 1634.000000
1059.624878 1626.000000
1061.483521 1607.000000
1063.341064 1689.000000
1065.197510 1580.000000
1067.052856 1596.000000
1068.906982 1637.000000
1070.760254 1642.000000
1072.612061 1570.000000
1074.462891 1708.000000
1076.312500 1676.000000
1078.160889 1662.000000
1080.008423 1583.000000
1081.854614 1624.000000
1083.699585 1624.000000
1085.543701 1604.000000
1087.386475 1623.000000
1089.228027 1689.000000
1091.068848 1540.000000
1092.908081 1552.000000
1094.746582 1516.000000
1096.583740 1631.000000
1098.419678 1571.000000
1100.254639 1536.000000
1102.088379 1463.000000
1103.921143 1551.000000
1105.752563 1526.000000
1107.583130 1578.000000
1109.412354 1484.000000
1111.240601 1506.000000
1113.067627 1434.000000
1114.893677 1447.000000
1116.718506 1504.000000
1118.542236 1392.000000
1120.364746 1483.000000
1122.186157 1444.000000
1124.006714 1382.000000
1125.825806 1456.000000
1127.644043 1456.000000
1129.460938 1494.000000
1131.276978 1512.000000
1133.091797 1507.000000
1134.905518 1429.000000
1136.718140 1412.000000
1138.529541 1553.000000
1140.339966 1555.000000
1142.149292 1663.000000
1143.957275 1554.000000
1145.764526 1721.000000
1147.570313 1722.000000
1149.375244 1781.000000
1151.179077 1773.000000
1152.981689 1776.000000
1154.783447 1747.000000
1156.583740 1763.000000
1158.383057 1722.000000
1160.181396 1630.000000
1161.978394 1713.000000
1163.774658 1782.000000
1165.569580 1683.000000
1167.363403 1639.000000
1169.156372 1720.000000
1170.947998 1659.000000
1172.738647 1571.000000
1174.528320 1514.000000
1176.316528 1483.000000
1178.103882 1468.000000
1179.890137 1497.000000
1181.675293 1431.000000
1183.459351 1441.000000
1185.242310 1410.000000
1187.024292 1392.000000
1188.805054 1451.000000
1190.584839 1503.000000
1192.363525 1394.000000
1194.141235 1392.000000
1195.917725 1296.000000
1197.693115 1350.000000
1199.467407 1261.000000
1201.240601 1417.000000
1203.012939 1380.000000
1204.783936 1313.000000
1206.554077 1392.000000
1208.322998 1438.000000
1210.090820 1270.000000
1211.857788 1419.000000
1213.623413 1474.000000
1215.388062 1437.000000
1217.151611 1452.000000
1218.914063 1532.000000
1220.675659 1458.000000
1222.436035 1364.000000
1224.195313 1437.000000
1225.953735 1449.000000
1227.710938 1429.000000
1229.467041 1379.000000
1231.222046 1449.000000
1232.976196 1358.000000
1234.729004 1382.000000
1236.480835 1337.000000
1238.231812 1370.000000
1239.981445 1458.000000
1241.730225 1433.000000
1243.477661 1349.000000
1245.224365 1367.000000
1246.969849 1387.000000
1248.714478 1420.000000
1250.457764 1387.000000
1252.200073 1427.000000
1253.941284 1462.000000
1255.681641 1370.000000
1257.420898 1351.000000
1259.158936 1299.000000
1260.896118 1378.000000
1262.632080 1323.000000
1264.367065 1289.000000
1266.101074 1354.000000
1267.834106 1418.000000
1269.565918 1456.000000
1271.296753 1341.000000
1273.026367 1453.000000
1274.755127 1365.000000
1276.482788 1475.000000
1278.209351 1489.000000
1279.935059 1366.000000
1281.659424 1407.000000
1283.382935 1471.000000
1285.105469 1413.000000
1286.827026 1350.000000
1288.547363 1452.000000
1290.266724 1482.000000
1291.984985 1438.000000
1293.702271 1439.000000
1295.418579 1477.000000
1297.133667 1496.000000
1298.847778 1503.000000
1300.560913 1508.000000
1302.273193 1503.000000
1303.984253 1495.000000
1305.694336 1481.000000
1307.403320 1406.000000
1309.111084 1407.000000
1310.818237 1379.000000
1312.523926 1350.000000
1314.228882 1514.000000
1315.932861 1408.000000
1317.635620 1551.000000
1319.337402 1533.000000
1321.038330 1539.000000
1322.737915 2439.000000
1324.436646 584.000000
1326.134644 1538.000000
1327.831299 1706.000000
1329.526855 1658.000000
1331.221558 1670.000000
1332.915039 1576.000000
1334.607666 1596.000000
1336.299438 1735.000000
1337.989868 1597.000000
1339.679565 1436.000000
1341.368164 1460.000000
1343.055664 1403.000000
1344.742188 1453.000000
1346.427612 1335.000000
1348.112061 1360.000000
1349.795654 1367.000000
1351.478027 1330.000000
1353.159424 1433.000000
1354.839966 1521.000000
1356.519287 1436.000000
1358.197998 1567.000000
1359.875366 1628.000000
1361.551636 1543.000000
1363.226929 1506.000000
1364.901489 1581.000000
1366.574829 1429.000000
1368.247192 1440.000000
1369.918579 1439.000000
1371.588989 1501.000000
1373.258301 1502.000000
1374.926636 1467.000000
1376.594116 1463.000000
1378.260498 1523.000000
1379.925903 1262.000000
1381.590332 1469.000000
1383.253540 1431.000000
1384.916138 1373.000000
1386.577393 1430.000000
1388.237793 1300.000000
1389.897095 1323.000000
1391.555420 1351.000000
1393.213013 1362.000000
1394.869385 1364.000000
1396.524902 1384.000000
1398.179199 1338.000000
1399.832642 1293.000000
1401.484985 1284.000000
1403.136597 1377.000000
1404.786987 1337.000000
1406.436279 1289.000000
1408.084839 1262.000000
1409.732300 1245.000000
1411.378784 1274.000000
1413.024414 1241.000000
1414.669067 1169.000000
1416.312500 1245.000000
1417.955078 1286.000000
1419.596558 1172.000000
1421.237183 1195.000000
1422.876831 1255.000000
1424.515381 1173.000000
1426.153076 1156.000000
1427.789673 1235.000000
1429.425293 1281.000000
1431.060181 1177.000000
1432.693970 1278.000000
1434.326660 1341.000000
1435.958374 1227.000000
1437.589233 1354.000000
1439.218994 1323.000000
1440.847656 1360.000000
1442.475708 1186.000000
1444.102661 1274.000000
1445.728394 1303.000000
1447.353516 1359.000000
1448.977539 1348.000000
1450.600586 1416.000000
1452.222656 1449.000000
1453.843628 1603.000000
1455.463623 1515.000000
1457.082886 1544.000000
1458.700806 1393.000000
1460.318115 1457.000000
1461.934448 1527.000000
1463.549561 1582.000000
1465.163818 1384.000000
1466.777222 1405.000000
1468.389526 1361.000000
1470.000977 1457.000000
1471.611572 1244.000000
1473.220947 1181.000000
1474.829346 1210.000000
1476.436890 1279.000000
1478.043457 1115.000000
1479.649292 1279.000000
1481.253906 1229.000000
1482.857666 1129.000000
1484.460205 1269.000000
1486.062134 1178.000000
1487.662842 1058.000000
1489.262817 1047.000000
1490.861694 1114.000000
1492.459717 1167.000000
1494.056641 1112.000000
1495.652710 1235.000000
1497.247803 1235.000000
1498.841919 1121.000000
1500.435303 1166.000000
1502.027588 1176.000000
1503.618652 1123.000000
1505.209229 1122.000000
1506.798462 1149.000000
1508.387085 1184.000000
1509.974609 1171.000000
1511.561035 1109.000000
1513.146729 1127.000000
1514.731323 1039.000000
1516.315063 1108.000000
1517.897705 1050.000000
1519.479614 1090.000000
1521.060425 1131.000000
1522.640503 1113.000000
1524.219360 1081.000000
1525.797363 1033.000000
1527.374634 1087.000000
1528.950684 958.000000
1530.526001 1061.000000
1532.100220 970.000000
1533.673706 1050.000000
1535.245972 994.000000
1536.817505 1039.000000
1538.388062 999.000000
1539.957764 940.000000
1541.526245 1087.000000
1543.093994 1032.000000
1544.660889 934.000000
1546.226563 1018.000000
1547.791504 952.000000
1549.355347 1001.000000
1550.918579 1043.000000
1552.480469 1073.000000
1554.041748 1108.000000
1555.601929 1161.000000
1557.161377 1013.000000
1558.719727 1034.000000
1560.277344 1078.000000
1561.833862 948.000000
1563.389160 975.000000
1564.943848 959.000000
1566.497803 1039.000000
1568.050781 921.000000
1569.602417 940.000000
1571.153320 951.000000
1572.703491 951.000000
1574.252686 1046.000000
1575.800537 922.000000
1577.347900 976.000000
1578.894287 962.000000
1580.439819 963.000000
1581.984375 884.000000
1583.527710 1012.000000
1585.070435 937.000000
1586.612305 872.000000
1588.153076 927.000000
1589.692871 948.000000
1591.231934 915.000000
1592.769897 905.000000
1594.307373 1011.000000
1595.843506 990.000000
1597.378540 895.000000
1598.913086 857.000000
1600.446655 942.000000
1601.979370 894.000000
1603.510498 904.000000
1605.041382 1021.000000
1606.571411 897.000000
1608.100220 876.000000
1609.627930 940.000000
1611.155029 832.000000
1612.681396 970.000000
1614.206787 914.000000
1615.731323 980.000000
1617.254517 908.000000
1618.776978 901.000000
1620.298706 884.000000
1621.819580 908.000000
1623.338989 916.000000
1624.857910 852.000000
1626.376099 953.000000
1627.893433 900.000000
1629.409668 795.000000
1630.924561 820.000000
1632.438965 893.000000
1633.952637 949.000000
1635.465210 847.000000
1636.976563 902.000000
1638.487549 903.000000
1639.997437 867.000000
1641.506470 914.000000
1643.014160 958.000000
1644.521484 864.000000
1646.027954 974.000000
1647.533447 862.000000
1649.038086 872.000000
1650.541260 864.000000
1652.043823 960.000000
1653.546021 888.000000
1655.046875 912.000000
1656.546631 831.000000
1658.045532 824.000000
1659.544067 916.000000
1661.041382 859.000000
1662.537964 896.000000
1664.032959 765.000000
1665.527710 825.000000
1667.021606 843.000000
1668.514526 777.000000
1670.006104 512.000000
1671.497192 830.000000
1672.987671 786.000000
1674.477051 726.000000
1675.964966 873.000000
1677.452637 857.000000
1678.939331 740.000000
1680.425171 799.000000
1681.910156 803.000000
1683.393677 762.000000
1684.876953 743.000000
1686.359375 831.000000
1687.840698 838.000000
1689.320557 801.000000
1690.800171 765.000000
1692.279053 750.000000
1693.756958 698.000000
1695.233887 665.000000
1696.709595 694.000000
1698.184937 733.000000
1699.659058 849.000000
1701.132568 773.000000
1702.604614 694.000000
1704.076416 728.000000
1705.547241 826.000000
1707.017212 810.000000
1708.485840 794.000000
1709.953979 760.000000
1711.421387 768.000000
1712.887695 849.000000
1714.353394 751.000000
1715.817383 748.000000
1717.281250 764.000000
1718.744263 716.000000
1720.206299 754.000000
1721.667114 737.000000
1723.127319 719.000000
1724.586792 692.000000
1726.045410 740.000000
1727.503052 780.000000
1728.959351 698.000000
1730.415405 690.000000
1731.870483 691.000000
1733.324585 716.000000
1734.777466 787.000000
1736.230103 724.000000
1737.681641 685.000000
1739.132446 763.000000
1740.582275 724.000000
1742.030762 749.000000
1743.478882 659.000000
1744.926147 782.000000
1746.372681 799.000000
1747.817627 723.000000
1749.262329 641.000000
1750.706177 666.000000
1752.149170 705.000000
1753.590698 695.000000
1755.031982 722.000000
1756.472412 527.000000
1757.911865 588.000000
1759.350342 663.000000
1760.787842 679.000000
1762.224854 736.000000
1763.660889 709.000000
1765.096069 663.000000
1766.529785 686.000000
1767.963379 654.000000
1769.395996 595.000000
1770.827759 619.000000
1772.258667 630.000000
1773.688354 720.000000
1775.117310 676.000000
1776.545776 670.000000
1777.973267 639.000000
1779.399414 551.000000
1780.825317 604.000000
1782.250122 484.000000
1783.674316 612.000000
1785.097046 445.000000
1786.519287 654.000000
1787.940796 585.000000
1789.361572 556.000000
1790.781372 572.000000
1792.199829 642.000000
1793.617798 604.000000
1795.035156 619.000000
1796.451660 701.000000
1797.866699 636.000000
1799.281372 664.000000
1800.695435 532.000000
1802.108276 638.000000
1803.520508 570.000000
1804.931396 573.000000
1806.341797 525.000000
1807.751465 628.000000
1809.160156 503.000000
1810.567749 609.000000
1811.974854 578.000000
1813.381104 626.000000
1814.786377 536.000000
1816.190552 646.000000
1817.594360 638.000000
1818.997192 632.000000
1820.399170 745.000000
1821.800537 588.000000
1823.200439 611.000000
1824.599731 723.000000
1825.998535 604.000000
1827.396484 609.000000
1828.793091 563.000000
1830.189087 559.000000
1831.584351 646.000000
1832.979004 577.000000
1834.372681 621.000000
1835.765015 566.000000
1837.156860 531.000000
1838.548096 677.000000
1839.938354 583.000000
1841.327393 586.000000
1842.716064 557.000000
1844.103760 590.000000
1845.490723 579.000000
1846.876343 617.000000
1848.261719 632.000000
1849.646240 521.000000
1851.030029 581.000000
1852.412720 654.000000
1853.794189 547.000000
1855.175171 532.000000
1856.555664 542.000000
1857.935181 518.000000
1859.313232 607.000000
1860.691162 542.000000
1862.068115 477.000000
1863.444336 488.000000
1864.819702 551.000000
1866.193604 549.000000
1867.567383 529.000000
1868.940308 606.000000
1870.312134 511.000000
1871.682983 494.000000
1873.053467 651.000000
1874.422852 582.000000
1875.791748 436.000000
1877.159058 554.000000
1878.526245 556.000000
1879.892456 503.000000
1881.257935 515.000000
1882.622681 544.000000
1883.985840 472.000000
1885.348877 508.000000
1886.711060 486.000000
1888.072388 553.000000
1889.432373 552.000000
1890.791992 468.000000
1892.151001 525.000000
1893.509033 457.000000
1894.866211 514.000000
1896.222168 456.000000
1897.577881 401.000000
1898.932617 471.000000
1900.286499 513.000000
1901.639282 592.000000
1902.991577 485.000000
1904.343140 502.000000
1905.693848 430.000000
1907.043335 518.000000
1908.392334 508.000000
1909.740479 458.000000
1911.088013 576.000000
1912.434814 492.000000
1913.780029 497.000000
1915.125000 547.000000
1916.469238 440.000000
1917.812622 407.000000
1919.154663 497.000000
1920.496460 410.000000
1921.837402 370.000000
1923.177612 519.000000
1924.516846 330.000000
1925.855103 495.000000
1927.192749 420.000000
1928.529663 452.000000
1929.865723 415.000000
1931.200562 495.000000
1932.535034 489.000000
1933.868774 532.000000
1935.201660 523.000000
1936.533081 450.000000
1937.864624 498.000000
1939.194824 469.000000
1940.524536 492.000000
1941.853394 450.000000
1943.181030 471.000000
1944.508179 404.000000
1945.834595 338.000000
1947.160278 468.000000
1948.484619 485.000000
1949.808716 438.000000
1951.131958 525.000000
1952.454468 480.000000
1953.775879 448.000000
1955.096313 423.000000
1956.416138 439.000000
1957.735596 414.000000
1959.054077 456.000000
1960.371216 445.000000
1961.687988 430.000000
1963.004028 403.000000
1964.319336 376.000000
1965.633179 501.000000
1966.946777 377.000000
1968.259644 453.000000
1969.571655 377.000000
1970.883057 381.000000
1972.193115 430.000000
1973.502686 375.000000
1974.811523 423.000000
1976.119751 355.000000
1977.426636 401.000000
1978.732910 455.000000
1980.038818 341.000000
1981.343506 502.000000
1982.647705 341.000000
1983.950684 418.000000
1985.253296 422.000000
1986.554932 281.000000
1987.855957 431.000000
1989.155396 319.000000
1990.454956 407.000000
1991.753418 391.000000
1993.051392 306.000000
1994.347778 347.000000
1995.644165 482.000000
1996.939575 322.000000
1998.234253 362.000000
1999.528076 337.000000
2000.820679 313.000000
2002.112793 331.000000
2003.404419 360.000000
2004.695313 377.000000
2005.984619 382.000000
2007.273682 339.000000
2008.562012 338.000000
2009.849609 349.000000
2011.136353 358.000000
2012.421997 367.000000
2013.707275 333.000000
2014.991577 305.000000
2016.275269 395.000000
2017.557617 317.000000
2018.839600 394.000000
2020.121094 338.000000
2021.401611 334.000000
2022.681396 279.000000
2023.960083 283.000000
2025.238037 416.000000
2026.515503 328.000000
2027.792358 359.000000
2029.067505 366.000000
2030.342773 334.000000
2031.617065 340.000000
2032.890381 329.000000
2034.162842 361.000000
2035.434937 352.000000
2036.705933 408.000000
2037.976685 385.000000
2039.246094 325.000000
2040.514404 370.000000
2041.782715 400.000000
2043.050049 357.000000
2044.316650 349.000000
2045.582031 325.000000
2046.846802 124.000000
2048.111328 336.000000
2049.374512 382.000000
2050.637451 338.000000
2051.898438 382.000000
2053.159912 372.000000
2054.420166 359.000000
2055.679688 269.000000
2056.938477 260.000000
2058.196289 311.000000
2059.453613 312.000000
2060.710205 330.000000
2061.965332 265.000000
2063.220459 304.000000
2064.474609 427.000000
2065.728027 264.000000
2066.980713 308.000000
2068.232178 299.000000
2069.483398 389.000000
2070.733887 327.000000
2071.983643 337.000000
2073.231934 377.000000
2074.480225 290.000000
2075.727539 290.000000
2076.974121 314.000000
2078.219971 314.000000
2079.464600 350.000000
2080.708740 324.000000
2081.952393 248.000000
2083.195068 380.000000
2084.436523 356.000000
2085.677734 321.000000
2086.918457 273.000000
2088.158203 288.000000
2089.396729 260.000000
2090.634766 351.000000
2091.872070 294.000000
2093.109131 167.000000
2094.344727 279.000000
2095.579590 329.000000
2096.814209 235.000000
2098.047852 257.000000
2099.280518 294.000000
2100.512451 246.000000
2101.743896 258.000000
2102.974365 367.000000
2104.204102 367.000000
2105.433594 320.000000
2106.661133 283.000000
2107.888916 367.000000
2109.115967 254.000000
2110.342041 257.000000
2111.566650 227.000000
2112.791504 242.000000
2114.015137 249.000000
2115.238281 229.000000
2116.460205 297.000000
2117.681885 282.000000
2118.902588 261.000000
2120.122559 295.000000
2121.342041 303.000000
2122.560059 319.000000
2123.778076 240.000000
2124.995117 330.000000
2126.211670 258.000000
2127.426514 307.000000
2128.641602 253.000000
2129.855713 312.000000
2131.069092 277.000000
2132.281738 355.000000
2133.492920 243.000000
2134.704346 290.000000
2135.914551 111.000000
2137.124268 274.000000
2138.332520 349.000000
2139.540771 277.000000
2140.748291 353.000000
2141.954590 242.000000
2143.160156 301.000000
2144.365479 226.000000
2145.569824 223.000000
2146.773438 242.000000
2147.976563 260.000000
2149.178223 282.000000
2150.379639 275.000000
2151.580322 303.000000
2152.780273 257.000000
2153.979004 163.000000
2155.177490 263.000000
2156.375488 199.000000
2157.572510 250.000000
2158.768799 334.000000
2159.963867 199.000000
2161.158691 277.000000
2162.352783 197.000000
2163.545898 260.000000
2164.738037 287.000000
2165.929932 274.000000
2167.121094 326.000000
2168.311279 286.000000
2169.500732 291.000000
2170.689697 217.000000
2171.877686 276.000000
2173.065430 184.000000
2174.251709 289.000000
2175.437256 187.000000
2176.622559 222.000000
2177.807373 169.000000
2178.990967 245.000000
2180.173828 221.000000
2181.355713 138.000000
2182.537354 224.000000
2183.718506 206.000000
2184.898438 185.000000
2186.077393 87.000000
2187.255859 228.000000
2188.434082 195.000000
2189.611084 208.000000
2190.787109 215.000000
2191.962891 238.000000
2193.138184 236.000000
2194.312012 282.000000
2195.485352 148.000000
2196.658447 258.000000
2197.830322 300.000000
2199.001709 311.000000
2200.172607 169.000000
2201.341797 192.000000
2202.510986 221.000000
2203.679688 184.000000
2204.847412 213.000000
2206.014160 227.000000
2207.180176 225.000000
2208.345703 210.000000
2209.510986 236.000000
2210.674805 243.000000
2211.838135 250.000000
2213.000244 194.000000
2214.162598 168.000000
2215.323730 179.000000
2216.483887 242.000000
2217.643555 297.000000
2218.802979 191.000000
2219.961182 185.000000
2221.118408 223.000000
2222.275391 191.000000
2223.431641 169.000000
2224.587158 223.000000
2225.741943 263.000000
2226.895752 195.000000
2228.048584 210.000000
2229.201904 122.000000
2230.353271 133.000000
2231.504395 289.000000
2232.654785 130.000000
2233.804688 204.000000
2234.953613 260.000000
2236.102051 199.000000
2237.249023 122.000000
2238.396240 176.000000
2239.542236 156.000000
2240.687988 240.000000
2241.832031 162.000000
2242.976318 212.000000
2244.119629 183.000000
2245.262207 248.000000
2246.403809 223.000000
2247.545166 192.000000
2248.685547 235.000000
2249.825195 166.000000
2250.964355 235.000000
2252.102295 174.000000
2253.240234 147.000000
2254.377197 182.000000
2255.513428 169.000000
2256.648682 147.000000
2257.783203 204.000000
2258.917480 186.000000
2260.051270 188.000000
2261.183594 158.000000
2262.315430 222.000000
2263.446777 108.000000
2264.577148 127.000000
2265.707275 188.000000
2266.836182 124.000000
2267.964600 179.000000
2269.092529 156.000000
2270.219482 226.000000
2271.345703 121.000000
2272.470947 107.000000
2273.596191 134.000000
2274.720703 184.000000
2275.843994 203.000000
2276.966553 137.000000
2278.088623 146.000000
2279.210205 156.000000
2280.331055 223.000000
2281.450684 257.000000
2282.569824 190.000000
2283.688721 140.000000
2284.806885 196.000000
2285.924072 102.000000
2287.040283 202.000000
2288.156250 124.000000
2289.271484 72.000000
2290.385986 144.000000
2291.499268 228.000000
2292.612549 77.000000
2293.725098 68.000000
2294.836914 92.000000
2295.947998 48.000000
2297.057861 228.000000
2298.167236 298.000000
2299.276367 111.000000
2300.384521 173.000000
2301.491699 172.000000
2302.598633 105.000000
2303.704834 152.000000
2304.810547 91.000000
2305.914795 151.000000
2307.018799 164.000000
2308.122314 154.000000
2309.225342 84.000000
2310.327148 86.000000
2311.428223 134.000000
2312.528809 192.000000
2313.628906 116.000000
2314.728271 228.000000
2315.826172 212.000000
2316.924561 116.000000
2318.021484 148.000000
2319.118164 192.000000
2320.214355 207.000000
2321.308838 144.000000
2322.403320 304.000000
2323.497070 149.000000
2324.590576 112.000000
2325.682373 198.000000
2326.774170 164.000000
2327.865234 291.000000
2328.955566 162.000000
2330.044922 227.000000
2331.134277 229.000000
2332.222412 121.000000
2333.310059 286.000000
2334.397461 251.000000
2335.483154 249.000000
2336.568604 194.000000
2337.653809 129.000000
2338.738037 187.000000
2339.821289 106.000000
2340.904297 121.000000
2341.986328 99.000000
2343.068115 198.000000
2344.149170 187.000000
2345.229004 201.000000
2346.308350 142.000000
2347.387207 158.000000
2348.465576 69.000000
2349.542480 222.000000
2350.619141 109.000000
2351.695557 159.000000
2352.770996 204.000000
2353.845459 159.000000
2354.919678 176.000000
2355.993164 190.000000
2357.066162 206.000000
2358.137939 145.000000
2359.209473 113.000000
2360.280029 152.000000
2361.350342 176.000000
2362.419678 -24.000000
2363.488037 138.000000
2364.556152 163.000000
2365.623535 147.000000
2366.690430 108.000000
2367.756592 88.000000
2368.821533 108.000000
2369.886475 138.000000
2370.950684 41.000000
2372.014160 109.000000
2373.076416 40.000000
2374.138672 145.000000
2375.199951 160.000000
2376.260986 110.000000
2377.320801 50.000000
2378.379883 51.000000
2379.438965 110.000000
2380.497070 7.000000
2381.554443 79.000000
2382.610840 84.000000
2383.666992 67.000000
2384.722656 136.000000
2385.777588 93.000000
2386.831055 151.000000
2387.884766 172.000000
2388.937500 97.000000
2389.989746 141.000000
2391.041260 203.000000
2392.091797 178.000000
2393.142090 73.000000
2394.191406 73.000000
2395.240723 162.000000
2396.288574 63.000000
2397.335938 24.000000
2398.383057 175.000000
2399.429199 131.000000
2400.474609 81.000000
2401.519287 71.000000
2402.563965 9.000000
2403.607178 149.000000
2404.650391 110.000000
2405.692139 25.000000
2406.734131 150.000000
2407.775391 143.000000
2408.815674 149.000000
2409.855225 153.000000
2410.893799 141.000000
2411.932617 168.000000
2412.970215 98.000000
2414.007568 41.000000
2415.043701 81.000000
2416.079590 159.000000
2417.114746 76.000000
2418.149414 151.000000
2419.182617 98.000000
2420.216064 135.000000
2421.248535 97.000000
2422.280762 69.000000
2423.311523 127.000000
2424.342285 120.000000
2425.372559 106.000000
2426.401611 186.000000
2427.430664 73.000000
2428.458008 139.000000
2429.485840 87.000000
2430.512451 97.000000
2431.538818 100.000000
2432.563721 145.000000
2433.588867 170.000000
2434.613037 107.000000
2435.636963 214.000000
2436.659668 83.000000
2437.681641 127.000000
2438.703369 116.000000
2439.724365 70.000000
2440.744873 88.000000
2441.764160 321.000000
2442.783447 110.000000
2443.801758 5.000000
2444.819824 59.000000
2445.836426 163.000000
2446.853027 134.000000
2447.868896 48.000000
2448.884766 174.000000
2449.899170 146.000000
2450.912842 66.000000
2451.926025 148.000000
2452.938965 43.000000
2453.951172 59.000000
2454.962402 133.000000
2455.973389 56.000000
2456.983643 89.000000
2457.993408 106.000000
2459.002197 90.000000
2460.010254 126.000000
2461.018311 96.000000
2462.025146 47.000000
2463.031738 105.000000
2464.037109 16.000000
2465.042236 157.000000
2466.047119 95.000000
2467.050781 79.000000
2468.054199 165.000000
2469.056641 72.000000
2470.058838 102.000000
2471.060547 122.000000
2472.061279 102.000000
2473.061035 -82.000000
2474.060791 116.000000
2475.059570 72.000000
2476.057861 152.000000
2477.055176 120.000000
2478.052246 87.000000
2479.049316 137.000000
2480.044922 25.000000
2481.040527 73.000000
2482.034424 -8.000000
2483.028320 137.000000
2484.021729 53.000000
2485.014648 134.000000
2486.006592 93.000000
2486.997803 28.000000
2487.988770 115.000000
2488.979248 91.000000
2489.968750 59.000000
2490.957520 102.000000
2491.946289 136.000000
2492.934082 38.000000
2493.920654 70.000000
2494.907227 74.000000
2495.893311 120.000000
2496.878662 160.000000
2497.863037 48.000000
2498.847168 28.000000
2499.831299 120.000000
2500.813965 48.000000
2501.796143 52.000000
2502.777832 39.000000
2503.758789 193.000000
2504.739258 59.000000
2505.719482 64.000000
2506.698242 125.000000
2507.676758 18.000000
2508.654785 15.000000
2509.632324 7.000000
2510.608887 11.000000
2511.585205 65.000000
2512.560791 12.000000
2513.535889 74.000000
2514.510498 26.000000
2515.483887 -10.000000
2516.457031 138.000000
2517.429932 84.000000
2518.401855 96.000000
2519.373047 164.000000
2520.343750 68.000000
2521.314209 112.000000
2522.283936 48.000000
2523.252686 -44.000000
2524.220703 56.000000
2525.188721 128.000000
2526.155762 76.000000
2527.122559 161.000000
2528.088135 111.000000
2529.053711 27.000000
2530.018555 31.000000
2530.982910 56.000000
2531.946045 113.000000
2532.909424 26.000000
2533.871826 161.000000
2534.833984 78.000000
2535.794922 21.000000
2536.755127 117.000000
2537.715576 64.000000
2538.675049 91.000000
2539.633789 97.000000
2540.591553 154.000000
2541.549561 127.000000
2542.506836 67.000000
2543.463135 10.000000
2544.419189 83.000000
2545.374023 37.000000
2546.329102 178.000000
2547.283447 -15.000000
2548.237061 7.000000
2549.189697 30.000000
2550.142090 -39.000000
2551.093994 48.000000
2552.045166 97.000000
2552.995605 -46.000000
2553.945557 37.000000
2554.895264 -29.000000
2555.844238 55.000000
2556.792725 81.000000
2557.739990 64.000000
2558.687256 33.000000
2559.633789 106.000000
2560.579834 15.000000
2561.524902 47.000000
2562.469727 83.000000
2563.414063 66.000000
2564.357910 25.000000
2565.301270 30.000000
2566.243164 -35.000000
2567.185303 11.000000
2568.126709 59.000000
2569.067383 30.000000
2570.007324 47.000000
2570.947266 -6.000000
2571.886230 71.000000
2572.824951 13.000000
2573.762695 91.000000
2574.700195 113.000000
2575.636963 40.000000
2576.572998 1.000000
2577.508545 46.000000
2578.443359 -125.000000
2579.378174 122.000000
2580.312012 85.000000
2581.245361 -163.000000
2582.177979 -33.000000
2583.110352 -83.000000
2584.041992 48.000000
2584.973145 26.000000
2585.903809 18.000000
2586.833252 94.000000
2587.762695 -23.000000
2588.691650 -12.000000
2589.620361 -39.000000
2590.547363 16.000000
2591.474609 -39.000000
2592.401367 85.000000
2593.327393 9.000000
2594.253174 31.000000
2595.177734 16.000000
2596.102051 114.000000
2597.025879 162.000000
2597.949219 15.000000
2598.871582 -10.000000
2599.793701 101.000000
2600.715332 39.000000
2601.636230 143.000000
2602.556396 31.000000
2603.476318 136.000000
2604.395752 -26.000000
2605.314941 106.000000
2606.233154 43.000000
2607.150146 98.000000
2608.067383 20.000000
2608.984375 9.000000
2609.900391 -64.000000
2610.815186 65.000000
2611.730469 63.000000
2612.645020 141.000000
2613.558594 39.000000
2614.472168 -8.000000
2615.384521 110.000000
2616.296875 102.000000
2617.208252 57.000000
2618.119385 70.000000
2619.029785 88.000000
2619.939941 -35.000000
2620.849365 113.000000
2621.758301 -10.000000
2622.666260 124.000000
2623.574463 32.000000
2624.481689 -19.000000
2625.388428 59.000000
2626.294434 88.000000
2627.200195 87.000000
2628.105225 3.000000
2629.010010 31.000000
2629.914063 15.000000
2630.817139 63.000000
2631.720215 62.000000
2632.622314 63.000000
2633.524414 158.000000
2634.426270 41.000000
2635.326416 54.000000
2636.226807 89.000000
2637.126465 43.000000
2638.025879 -20.000000
2638.923828 -69.000000
2639.822266 36.000000
2640.720215 62.000000
2641.617432 13.000000
2642.513428 19.000000
2643.409424 217.000000
2644.305176 119.000000
2645.200195 87.000000
2646.094971 91.000000
2646.988281 50.000000
2647.881592 -38.000000
2648.774658 75.000000
2649.667480 21.000000
2650.558594 -69.000000
2651.449951 72.000000
2652.340820 148.000000
2653.230957 38.000000
2654.120850 14.000000
2655.009521 65.000000
2655.898438 -20.000000
2656.786865 27.000000
2657.674316 7.000000
2658.560791 -17.000000
2659.447754 42.000000
2660.333984 37.000000
2661.219727 26.000000
2662.104248 42.000000
2662.988770 45.000000
2663.873047 33.000000
2664.756592 13.000000
2665.639648 36.000000
2666.521973 244.000000
2667.403809 46.000000
2668.284912 35.000000
2669.166260 50.000000
2670.046143 56.000000
2670.926270 4.000000
2671.805664 -55.000000
2672.685059 13.000000
2673.563721 84.000000
2674.440674 83.000000
2675.318359 13.000000
2676.195313 34.000000
2677.071533 54.000000
2677.947266 -5.000000
2678.822266 77.000000
2679.697510 25.000000
2680.571777 84.000000
2681.445557 61.000000
2682.318604 -34.000000
2683.191406 -62.000000
2684.063965 -5.000000
2684.935791 -11.000000
2685.806885 -7.000000
2686.677734 56.000000
2687.548096 -71.000000
2688.418213 103.000000
2689.286621 14.000000
2690.155762 10.000000
2691.024170 -25.000000
2691.892334 2.000000
2692.759766 -50.000000
2693.625977 8.000000
2694.492676 -41.000000
2695.358398 138.000000
2696.224121 13.000000
2697.088379 -56.000000
2697.953369 32.000000
2698.816895 -33.000000
2699.680664 57.000000
2700.542969 57.000000
2701.405762 -8.000000
2702.267578 5.000000
2703.128906 -30.000000
2703.990234 2.000000
2704.850342 -51.000000
2705.710449 27.000000
2706.570068 35.000000
2707.429443 -24.000000
2708.287109 97.000000
2709.145020 78.000000
2710.003418 51.000000
2710.860596 33.000000
2711.717041 60.000000
2712.572998 58.000000
2713.428955 27.000000
2714.284180 30.000000
2715.138672 42.000000
2715.992676 -24.000000
2716.846680 76.000000
2717.699707 -1.000000
2718.552979 44.000000
2719.404541 56.000000
2720.256592 40.000000
2721.108398 59.000000
2721.958984 29.000000
2722.809570 100.000000
2723.659668 92.000000
2724.509033 -35.000000
2725.358398 54.000000
2726.206543 91.000000
2727.054199 32.000000
2727.902344 55.000000
2728.749268 35.000000
2729.596680 19.000000
2730.442627 49.000000
2731.287842 28.000000
2732.133545 98.000000
2732.978271 5.000000
2733.822998 54.000000
2734.666504 -99.000000
2735.510254 111.000000
2736.353271 -88.000000
2737.195801 -19.000000
2738.037354 15.000000
2738.879395 -3.000000
2739.720459 75.000000
2740.561279 63.000000
2741.401855 49.000000
2742.241211 -42.000000
2743.080566 42.000000
2743.919922 -25.000000
2744.758057 6.000000
2745.595703 -65.000000
2746.433350 3.000000
2747.270508 81.000000
2748.107422 -3.000000
2748.943848 -20.000000
2749.779053 -22.000000
2750.614502 -30.000000
2751.449463 1.000000
2752.283691 -2.000000
2753.117676 100.000000
2753.951172 -20.000000
2754.784668 80.000000
2755.617188 41.000000
2756.449219 -69.000000
2757.280762 40.000000
2758.112305 -28.000000
2758.942871 64.000000
2759.773682 -7.000000
2760.603271 -89.000000
2761.432861 19.000000
2762.262207 64.000000
2763.090820 -73.000000
2763.918945 69.000000
2764.746582 79.000000
2765.574219 -11.000000
2766.401367 24.000000
2767.227783 -50.000000
2768.053711 38.000000
2768.879150 87.000000
2769.704346 62.000000
2770.529541 104.000000
2771.353516 97.000000
2772.177490 89.000000
2773.001465 -42.000000
2773.824219 25.000000
2774.647217 193.000000
2775.468994 70.000000
2776.290771 86.000000
2777.112549 -44.000000
2777.933350 -2.000000
2778.753418 10.000000
2779.573730 36.000000
2780.393555 -29.000000
2781.213379 31.000000
2782.031250 -7.000000
2782.850342 -17.000000
2783.668213 -4.000000
2784.485840 -18.000000
2785.302979 42.000000
2786.119629 53.000000
2786.936035 -46.000000
2787.751953 72.000000
2788.567627 -39.000000
2789.382324 49.000000
2790.197510 94.000000
2791.011963 -1.000000
2791.825928 4.000000
2792.639648 -19.000000
2793.452148 31.000000
2794.264893 -15.000000
2795.077148 66.000000
2795.888916 -23.000000
2796.699951 -63.000000
2797.511719 -30.000000
2798.322266 -97.000000
2799.132813 -51.000000
2799.941895 -6.000000
2800.751709 38.000000
2801.560791 -36.000000
2802.369629 -19.000000
2803.177979 39.000000
2803.985352 -44.000000
2804.793213 -47.000000
2805.600342 31.000000
2806.407227 -69.000000
2807.212891 -93.000000
2808.019043 -13.000000
2808.824463 -6.000000
2809.629883 70.000000
2810.434570 15.000000
2811.238281 -19.000000
2812.042480 -38.000000
2812.846191 -8.000000
2813.649658 -140.000000
2814.451660 15.000000
2815.254395 26.000000
2816.056396 59.000000
2816.858154 -60.000000
2817.659424 -92.000000
2818.460205 98.000000
2819.260498 79.000000
2820.061035 82.000000
2820.860596 -88.000000
2821.659668 -67.000000
2822.458740 -23.000000
2823.257568 -21.000000
2824.055908 -41.000000
2824.853271 4.000000
2825.650879 -54.000000
2826.447754 -18.000000
2827.244873 -41.000000
2828.041260 71.000000
2828.836914 -24.000000
2829.632568 33.000000
2830.427979 52.000000
2831.222900 27.000000
2832.017090 -37.000000
2832.811279 56.000000
2833.605225 33.000000
2834.398682 60.000000
2835.191406 -46.000000
2835.983887 -30.000000
2836.776367 -32.000000
2837.568604 -18.000000
2838.360352 -12.000000
2839.151123 69.000000
2839.941895 40.000000
2840.732910 32.000000
2841.522949 72.000000
2842.312500 57.000000
2843.102295 -47.000000
2843.891113 -29.000000
2844.679932 -15.000000
2845.468750 -7.000000
2846.256592 71.000000
2847.043945 54.000000
2847.831543 -6.000000
2848.618652 -7.000000
2849.405029 3.000000
2850.191406 102.000000
2850.977539 12.000000
2851.763184 -16.000000
2852.547852 22.000000
2853.333008 7.000000
2854.117920 64.000000
2854.902100 4.000000
2855.686279 17.000000
2856.469238 -32.000000
2857.252441 58.000000
2858.035400 -33.000000
2858.817871 -61.000000
2859.600098 22.000000
2860.381836 -19.000000
2861.163330 51.000000
2861.945068 105.000000
2862.726074 -26.000000
2863.506348 12.000000
2864.286377 74.000000
2865.066406 -15.000000
2865.846191 27.000000
2866.625000 68.000000
2867.404053 -41.000000
2868.182617 40.000000
2868.960938 221.000000
2869.738770 89.000000
2870.516357 68.000000
2871.293701 21.000000
2872.070801 61.000000
2872.847412 -1.000000
2873.623535 65.000000
2874.399658 77.000000
2875.175293 -10.000000
2875.950684 59.000000
2876.725586 65.000000
2877.500244 -19.000000
2878.274902 98.000000
2879.049316 89.000000
2879.822998 42.000000
2880.595947 19.000000
2881.369629 18.000000
2882.142334 16.000000
2882.915039 23.000000
2883.687012 144.000000
2884.458740 21.000000
2885.230957 76.000000
2886.001953 48.000000
2886.772461 82.000000
2887.543457 112.000000
2888.314453 103.000000
2889.084717 91.000000
2889.854004 20.000000
2890.623535 64.000000
2891.393066 128.000000
2892.162109 45.000000
2892.930664 39.000000
2893.699219 55.000000
2894.466797 31.000000
2895.234863 96.000000
2896.002441 -18.000000
2896.770020 -18.000000
2897.536377 -194.000000
2898.303711 27.000000
2899.069824 108.000000
2899.836182 63.000000
2900.601074 127.000000
2901.366455 52.000000
2902.132324 10.000000
2902.896729 119.000000
2903.661133 31.000000
2904.425781 50.000000
2905.189453 -27.000000
2905.953857 57.000000
2906.717529 -42.000000
2907.480469 102.000000
2908.243164 -16.000000
2909.006348 58.000000
2909.769043 38.000000
2910.530518 124.000000
2911.292480 124.000000
spectrumdark 2048
-96.938271 6221.000000
-94.311401 6221.000000
-91.686409 6076.000000
-89.063309 6373.000000
-86.442078 5793.000000
-83.822746 6212.000000
-81.205276 6079.000000
-78.589684 6352.000000
-75.975967 6166.000000
-73.364128 5803.000000
-70.754150 6072.000000
-68.146057 5966.000000
-65.539810 5892.000000
-62.935440 5960.000000
-60.332932 6070.000000
-57.732277 5580.000000
-55.133484 6236.000000
-52.536549 6792.000000
-49.941467 6388.000000
-47.348240 6541.000000
-44.756863 6244.000000
-42.167332 6737.000000
-39.579643 5892.000000
-36.993805 6033.000000
-34.409809 6458.000000
-31.827652 5705.000000
-29.247339 6275.000000
-26.668854 5709.000000
-24.092211 6119.000000
-21.517393 6189.000000
-18.944416 6458.000000
-16.373259 6387.000000
-13.803935 6742.000000
-11.236437 7747.000000
-8.670757 6315.000000
-6.106903 6413.000000
-3.544863 6002.000000
-0.984647 5772.000000
1.573761 6102.000000
4.130348 6907.000000
6.685131 6627.000000
9.238095 5981.000000
11.789260 6684.000000
14.338612 6432.000000
16.886168 6647.000000
19.431911 6003.000000
21.975863 5686.000000
24.518009 6636.000000
27.058359 6689.000000
29.596924 6879.000000
32.133694 6238.000000
34.668659 5901.000000
37.201847 7193.000000
39.733253 6286.000000
42.262867 7099.000000
44.790684 6456.000000
47.316742 7758.000000
49.841011 5674.000000
52.363510 6248.000000
54.884212 6710.000000
57.403160 6312.000000
59.920334 6381.000000
62.435730 6637.000000
64.949348 5557.000000
67.461212 5685.000000
69.971329 6465.000000
72.479652 6475.000000
74.986221 5894.000000
77.491043 6310.000000
79.994110 6487.000000
82.495399 6194.000000
84.994949 6083.000000
87.492744 6312.000000
89.988808 5720.000000
92.483093 7199.000000
94.975639 5789.000000
97.466469 6854.000000
99.955528 7141.000000
102.442841 6332.000000
104.928429 6166.000000
107.412277 6374.000000
109.894379 5661.000000
112.374756 6503.000000
114.853409 6197.000000
117.330338 6380.000000
119.805511 7120.000000
122.278976 6831.000000
124.750710 5866.000000
127.220734 6678.000000
129.688995 6289.000000
132.155594 6296.000000
134.620438 5774.000000
137.083588 6180.000000
139.544998 7273.000000
142.004715 6746.000000
144.462708 6357.000000
146.919006 5885.000000
149.373596 5745.000000
151.826462 6786.000000
154.277649 6393.000000
156.727142 6627.000000
159.174911 6047.000000
161.620972 6567.000000
164.065353 8656.000000
166.508057 6382.000000
168.949066 6754.000000
171.388367 6154.000000
173.825958 7218.000000
176.261917 6640.000000
178.696136 6949.000000
181.128677 7101.000000
183.559570 6672.000000
185.988739 7092.000000
188.416260 6664.000000
190.842102 6282.000000
193.266266 6687.000000
195.688766 7113.000000
198.109573 7341.000000
200.528717 6401.000000
202.946198 5948.000000
205.361984 7567.000000
207.776123 7071.000000
210.188629 6374.000000
212.599457 6034.000000
215.008606 6261.000000
217.416122 7398.000000
219.821930 6162.000000
222.226151 6533.000000
224.628662 6649.000000
227.029556 6879.000000
229.428802 6456.000000
231.826385 6816.000000
234.222305 7306.000000
236.616608 6519.000000
239.009247 5778.000000
241.400269 6748.000000
243.789627 6504.000000
246.177368 6389.000000
248.563461 6907.000000
250.947922 6061.000000
253.330734 7853.000000
255.711975 6641.000000
258.091522 6635.000000
260.469482 6443.000000
262.845764 7526.000000
265.220490 7591.000000
267.593567 7803.000000
269.964996 6183.000000
272.334778 6430.000000
274.703003 5837.000000
277.069580 6334.000000
279.434570 6747.000000
281.797943 5987.000000
284.159668 6196.000000
286.519806 7111.000000
288.878326 5896.000000
291.235260 6479.000000
293.590576 6354.000000
295.944305 5876.000000
298.296387 5970.000000
300.646912 6365.000000
302.995850 6335.000000
305.343140 6848.000000
307.688904 6493.000000
310.032990 6477.000000
312.375549 7370.000000
314.716492 7523.000000
317.055817 7129.000000
319.393585 6982.000000
321.729797 8070.000000
324.064362 6237.000000
326.397369 6446.000000
328.728821 5998.000000
331.058685 6668.000000
333.386963 6304.000000
335.713623 7135.000000
338.038788 6312.000000
340.362335 6224.000000
342.684326 6000.000000
345.004761 7468.000000
347.323578 7647.000000
349.640839 5992.000000
351.956573 5801.000000
354.270721 6912.000000
356.583282 6293.000000
358.894287 6375.000000
361.203766 6996.000000
363.511719 6370.000000
365.818054 5685.000000
368.122803 6366.000000
370.426086 6427.000000
372.727753 6277.000000
375.027924 6308.000000
377.326538 6282.000000
379.623596 5684.000000
381.919098 6082.000000
384.213074 5867.000000
386.505463 5257.000000
388.796356 5505.000000
391.085724 6184.000000
393.373505 6189.000000
395.659760 6430.000000
397.944519 6951.000000
400.227661 5934.000000
402.509369 6357.000000
404.789551 6075.000000
407.068146 7213.000000
409.345215 6435.000000
411.620758 6580.000000
413.894775 6419.000000
416.167358 6307.000000
418.438324 6231.000000
420.707794 6298.000000
422.975769 7101.000000
425.242188 7198.000000
427.507111 6230.000000
429.770569 6323.000000
432.032440 6437.000000
434.292847 5875.000000
436.551697 6632.000000
438.809082 6120.000000
441.064972 5623.000000
443.319366 5786.000000
445.572235 5462.000000
447.823547 6832.000000
450.073456 6080.000000
452.321777 6247.000000
454.568665 5620.000000
456.814087 6425.000000
459.057953 6409.000000
461.300323 6716.000000
463.541199 5595.000000
465.780670 6721.000000
468.018555 5423.000000
470.255005 5815.000000
472.489929 6017.000000
474.723389 7247.000000
476.955414 6650.000000
479.185913 5647.000000
481.414917 6498.000000
483.642456 6243.000000
485.868500 5975.000000
488.093109 6592.000000
490.316254 5847.000000
492.537933 6356.000000
494.758057 6627.000000
496.976776 5627.000000
499.194000 6249.000000
501.409851 5514.000000
503.624084 6136.000000
505.837006 6454.000000
508.048340 6394.000000
510.258240 6819.000000
512.466675 6448.000000
514.673767 6484.000000
516.879272 6436.000000
519.083374 6440.000000
521.285950 6134.000000
523.487122 6564.000000
525.686951 6604.000000
527.885254 6820.000000
530.082031 5240.000000
532.277466 5789.000000
534.471375 5520.000000
536.663940 7489.000000
538.854980 6685.000000
541.044617 5972.000000
543.232849 6870.000000
545.419556 7105.000000
547.604797 6743.000000
549.788757 6178.000000
551.971130 6337.000000
554.152161 6161.000000
556.331665 6023.000000
558.509888 5858.000000
560.686584 5988.000000
562.861877 6350.000000
565.035767 6342.000000
567.208191 5883.000000
569.379211 6029.000000
571.548767 6309.000000
573.717041 5200.000000
575.883789 6344.000000
578.049072 6270.000000
580.212952 6051.000000
582.375549 5699.000000
584.536621 6001.000000
586.696289 5661.000000
588.854614 5756.000000
591.011414 6171.000000
593.166870 6555.000000
595.320923 5683.000000
597.473633 6150.000000
599.624817 7237.000000
601.774658 6775.000000
603.923157 6551.000000
606.070068 6011.000000
608.215759 6477.000000
610.360046 6439.000000
612.502869 6914.000000
614.644226 6166.000000
616.784363 6478.000000
618.922974 7667.000000
621.060303 5694.000000
623.196167 6520.000000
625.330627 6893.000000
627.463623 7205.000000
629.595459 6647.000000
631.725830 6564.000000
633.854797 6657.000000
635.982300 6387.000000
638.108521 6194.000000
640.233215 7303.000000
642.356689 6316.000000
644.478821 6778.000000
646.599487 6867.000000
648.718811 6516.000000
650.836731 5579.000000
652.953308 5677.000000
655.068481 6432.000000
657.182312 6403.000000
659.294678 5729.000000
661.405823 6082.000000
663.515564 5371.000000
665.623840 6052.000000
667.730957 6243.000000
669.836609 6786.000000
671.940796 5884.000000
674.043762 5590.000000
676.145325 6945.000000
678.245544 5338.000000
680.344360 6696.000000
682.441833 6201.000000
684.538025 7073.000000
686.632751 6170.000000
688.726257 6925.000000
690.818420 6568.000000
692.909058 7882.000000
694.998474 6666.000000
697.086609 6429.000000
699.173279 5982.000000
701.258728 6661.000000
703.342651 5097.000000
705.425354 5856.000000
707.506775 5902.000000
709.586731 7449.000000
711.665466 6198.000000
713.742737 5543.000000
715.818726 6537.000000
717.893433 6013.000000
719.966858 7027.000000
722.038757 6292.000000
724.109497 7302.000000
726.178894 5806.000000
728.246887 6450.000000
730.313538 6323.000000
732.378967 7041.000000
734.443054 5732.000000
736.505798 6169.000000
738.567200 6484.000000
740.627319 6582.000000
742.686035 5954.000000
744.743530 6577.000000
746.799744 6495.000000
748.854553 6616.000000
750.908081 6352.000000
752.960205 7449.000000
755.011108 5730.000000
757.060791 6699.000000
759.109009 6388.000000
761.156006 6156.000000
763.201721 7018.000000
765.246033 5372.000000
767.289063 5698.000000
769.330872 14976.000000
771.371338 6936.000000
773.410400 6305.000000
775.448303 5973.000000
777.484863 5941.000000
779.520203 5320.000000
781.554199 5729.000000
783.586792 6927.000000
785.618225 5455.000000
787.648254 11707.000000
789.677002 6000.000000
791.704590 6266.000000
793.730835 6314.000000
795.755676 5786.000000
797.779419 5474.000000
799.801758 6365.000000
801.822876 5661.000000
803.842651 6652.000000
805.861145 4848.000000
807.878418 6673.000000
809.894287 6811.000000
811.908997 5687.000000
813.922363 6440.000000
815.934509 6208.000000
817.945435 6038.000000
819.955017 6543.000000
821.963379 5279.000000
823.970337 5616.000000
825.976074 5961.000000
827.980591 5777.000000
829.983826 5619.000000
831.985779 6511.000000
833.986450 6113.000000
835.985901 5923.000000
837.984009 6307.000000
839.981018 6906.000000
841.976624 6194.000000
843.971069 5994.000000
845.964172 6135.000000
847.956055 6799.000000
849.946594 5580.000000
851.935852 6689.000000
853.924072 5960.000000
855.910889 5783.000000
857.896484 6351.000000
859.880798 7240.000000
861.864014 6331.000000
863.845825 6360.000000
865.826416 5807.000000
867.805725 7646.000000
869.783875 7036.000000
871.760681 6191.000000
873.736206 5993.000000
875.710693 6130.000000
877.683716 5961.000000
879.655701 5365.000000
881.626343 6374.000000
883.595825 6123.000000
885.563965 5517.000000
887.530945 5174.000000
889.496582 6118.000000
891.461060 5740.000000
893.424316 5891.000000
895.386353 6466.000000
897.347107 5760.000000
899.306641 6420.000000
901.264893 6640.000000
903.222046 6315.000000
905.178040 6028.000000
907.132629 6828.000000
909.085999 6492.000000
911.038208 6408.000000
912.989197 6343.000000
914.938904 7076.000000
916.887451 6249.000000
918.834778 6148.000000
920.780823 6108.000000
922.725586 6011.000000
924.669312 6237.000000
926.611877 5950.000000
928.553162 5581.000000
930.493103 6396.000000
932.431946 5670.000000
934.369507 5471.000000
936.305847 5929.000000
938.241028 5819.000000
940.174927 6048.000000
942.107727 5861.000000
944.039307 6774.000000
945.969727 5195.000000
947.898926 6406.000000
949.826782 7017.000000
951.753601 6627.000000
953.679138 5921.000000
955.603394 5370.000000
957.526550 5980.000000
959.448547 6714.000000
961.369263 7302.000000
963.288818 6467.000000
965.207214 5236.000000
967.124573 6401.000000
969.040466 6452.000000
970.955261 6152.000000
972.868835 5883.000000
974.781250 6417.000000
976.692444 6498.000000
978.602478 5492.000000
980.511230 6148.000000
982.418945 6070.000000
984.325439 6438.000000
986.230713 5684.000000
988.134888 6717.000000
990.037842 6104.000000
991.939575 6845.000000
993.840149 6501.000000
995.739563 6553.000000
997.637756 5231.000000
999.534790 6529.000000
1001.430603 6459.000000
1003.325256 7694.000000
1005.218811 5654.000000
1007.111084 6878.000000
1009.002441 6075.000000
1010.892456 5334.000000
1012.781250 6593.000000
1014.668884 6385.000000
1016.555359 6973.000000
1018.440674 6730.000000
1020.324829 5877.000000
1022.207764 5767.000000
1024.089722 6223.000000
1025.970337 5102.000000
1027.849854 5776.000000
1029.728394 6018.000000
1031.605591 5335.000000
1033.481445 6155.000000
1035.356323 5856.000000
1037.230225 6544.000000
1039.102661 6957.000000
1040.974121 6746.000000
1042.844238 5478.000000
1044.713379 5545.000000
1046.581299 5816.000000
1048.448120 7022.000000
1050.313843 6704.000000
1052.178345 6457.000000
1054.041748 6523.000000
1055.903809 6424.000000
1057.764893 5884.000000
1059.624878 6505.000000
1061.483521 6622.000000
1063.341064 5714.000000
1065.197510 6732.000000
1067.052856 5896.000000
1068.906982 5778.000000
1070.760254 6160.000000
1072.612061 6393.000000
1074.462891 6057.000000
1076.312500 6133.000000
1078.160889 5733.000000
1080.008423 7937.000000
1081.854614 5538.000000
1083.699585 6214.000000
1085.543701 5375.000000
1087.386475 5575.000000
1089.228027 6475.000000
1091.068848 5493.000000
1092.908081 5736.000000
1094.746582 6054.000000
1096.583740 5946.000000
1098.419678 6774.000000
1100.254639 6562.000000
1102.088379 5433.000000
1103.921143 5637.000000
1105.752563 6148.000000
1107.583130 7248.000000
1109.412354 6484.000000
1111.240601 6439.000000
1113.067627 7147.000000
1114.893677 5369.000000
1116.718506 6336.000000
1118.542236 7161.000000
1120.364746 6031.000000
1122.186157 5898.000000
1124.006714 5919.000000
1125.825806 6525.000000
1127.644043 7015.000000
1129.460938 6782.000000
1131.276978 6613.000000
1133.091797 6419.000000
1134.905518 5638.000000
1136.718140 5791.000000
1138.529541 5604.000000
1140.339966 6091.000000
1142.149292 6650.000000
1143.957275 6921.000000
1145.764526 5898.000000
1147.570313 5876.000000
1149.375244 5343.000000
1151.179077 5389.000000
1152.981689 6123.000000
1154.783447 6092.000000
1156.583740 6037.000000
1158.383057 6051.000000
1160.181396 5882.000000
1161.978394 5450.000000
1163.774658 5833.000000
1165.569580 6010.000000
1167.363403 6359.000000
1169.156372 7657.000000
1170.947998 5724.000000
1172.738647 6439.000000
1174.528320 5988.000000
1176.316528 5790.000000
1178.103882 7467.000000
1179.890137 6785.000000
1181.675293 5750.000000
1183.459351 5940.000000
1185.242310 7677.000000
1187.024292 5819.000000
1188.805054 5890.000000
1190.584839 6304.000000
1192.363525 6928.000000
1194.141235 6646.000000
1195.917725 7206.000000
1197.693115 6572.000000
1199.467407 6585.000000
1201.240601 6644.000000
1203.012939 6452.000000
1204.783936 6652.000000
1206.554077 5669.000000
1208.322998 6058.000000
1210.090820 6373.000000
1211.857788 5761.000000
1213.623413 5840.000000
1215.388062 6954.000000
1217.151611 6505.000000
1218.914063 5923.000000
1220.675659 6683.000000
1222.436035 5905.000000
1224.195313 6249.000000
1225.953735 6002.000000
1227.710938 7082.000000
1229.467041 6399.000000
1231.222046 5530.000000
1232.976196 5947.000000
1234.729004 5824.000000
1236.480835 5997.000000
1238.231812 5994.000000
1239.981445 4897.000000
1241.730225 6974.000000
1243.477661 6488.000000
1245.224365 6590.000000
1246.969849 6453.000000
1248.714478 6443.000000
1250.457764 6724.000000
1252.200073 6660.000000
1253.941284 5333.000000
1255.681641 5022.000000
1257.420898 5799.000000
1259.158936 6568.000000
1260.896118 7032.000000
1262.632080 6119.000000
1264.367065 6444.000000
1266.101074 7238.000000
1267.834106 5977.000000
1269.565918 6169.000000
1271.296753 6419.000000
1273.026367 7241.000000
1274.755127 5892.000000
1276.482788 5643.000000
1278.209351 5490.000000
1279.935059 5566.000000
1281.659424 6430.000000
1283.382935 5180.000000
1285.105469 6883.000000
1286.827026 6653.000000
1288.547363 6145.000000
1290.266724 6653.000000
1291.984985 7221.000000
1293.702271 6466.000000
1295.418579 5726.000000
1297.133667 6307.000000
1298.847778 6111.000000
1300.560913 5734.000000
1302.273193 6392.000000
1303.984253 8236.000000
1305.694336 5194.000000
1307.403320 6299.000000
1309.111084 6633.000000
1310.818237 6972.000000
1312.523926 5801.000000
1314.228882 6777.000000
1315.932861 6142.000000
1317.635620 5934.000000
1319.337402 6565.000000
1321.038330 5979.000000
1322.737915 9839.000000
1324.436646 31268.000000
1326.134644 5560.000000
1327.831299 6415.000000
1329.526855 7114.000000
1331.221558 6826.000000
1332.915039 5729.000000
1334.607666 5340.000000
1336.299438 7235.000000
1337.989868 6172.000000
1339.679565 6588.000000
1341.368164 6075.000000
1343.055664 7549.000000
1344.742188 5579.000000
1346.427612 6780.000000
1348.112061 5892.000000
1349.795654 7227.000000
1351.478027 6426.000000
1353.159424 5899.000000
1354.839966 6477.000000
1356.519287 6744.000000
1358.197998 5862.000000
1359.875366 6556.000000
1361.551636 5718.000000
1363.226929 5570.000000
1364.901489 6524.000000
1366.574829 6465.000000
1368.247192 6821.000000
1369.918579 5152.000000
1371.588989 6684.000000
1373.258301 6108.000000
1374.926636 5614.000000
1376.594116 5943.000000
1378.260498 6436.000000
1379.925903 6225.000000
1381.590332 5800.000000
1383.253540 5912.000000
1384.916138 5691.000000
1386.577393 6384.000000
1388.237793 6543.000000
1389.897095 6400.000000
1391.555420 6444.000000
1393.213013 6842.000000
1394.869385 6452.000000
1396.524902 6954.000000
1398.179199 6305.000000
1399.832642 5845.000000
1401.484985 6141.000000
1403.136597 6448.000000
1404.786987 7128.000000
1406.436279 6210.000000
1408.084839 7506.000000
1409.732300 7858.000000
1411.378784 6141.000000
1413.024414 6165.000000
1414.669067 6009.000000
1416.312500 6984.000000
1417.955078 7129.000000
1419.596558 6842.000000
1421.237183 6486.000000
1422.876831 6390.000000
1424.515381 6017.000000
1426.153076 6594.000000
1427.789673 6297.000000
1429.425293 5961.000000
1431.060181 6413.000000
1432.693970 5922.000000
1434.326660 6056.000000
1435.958374 5662.000000
1437.589233 6091.000000
1439.218994 5998.000000
1440.847656 7692.000000
1442.475708 6041.000000
1444.102661 6213.000000
1445.728394 6147.000000
1447.353516 6100.000000
1448.977539 6472.000000
1450.600586 5990.000000
1452.222656 5978.000000
1453.843628 7250.000000
1455.463623 6240.000000
1457.082886 6853.000000
1458.700806 5696.000000
1460.318115 19145.000000
1461.934448 5488.000000
1463.549561 7177.000000
1465.163818 6203.000000
1466.777222 5165.000000
1468.389526 5543.000000
1470.000977 6213.000000
1471.611572 6355.000000
1473.220947 6010.000000
1474.829346 5978.000000
1476.436890 6110.000000
1478.043457 6750.000000
1479.649292 5275.000000
1481.253906 6225.000000
1482.857666 5452.000000
1484.460205 6617.000000
1486.062134 5509.000000
1487.662842 5491.000000
1489.262817 5638.000000
1490.861694 6284.000000
1492.459717 6386.000000
1494.056641 6711.000000
1495.652710 6271.000000
1497.247803 5964.000000
1498.841919 5472.000000
1500.435303 6501.000000
1502.027588 5523.000000
1503.618652 6146.000000
1505.209229 6749.000000
1506.798462 6441.000000
1508.387085 6114.000000
1509.974609 6503.000000
1511.561035 6845.000000
1513.146729 6143.000000
1514.731323 6642.000000
1516.315063 6264.000000
1517.897705 6182.000000
1519.479614 6598.000000
1521.060425 6598.000000
1522.640503 6021.000000
1524.219360 6216.000000
1525.797363 6360.000000
1527.374634 6249.000000
1528.950684 5685.000000
1530.526001 5867.000000
1532.100220 6320.000000
1533.673706 5437.000000
1535.245972 5931.000000
1536.817505 6311.000000
1538.388062 6446.000000
1539.957764 6317.000000
1541.526245 5347.000000
1543.093994 6543.000000
1544.660889 5631.000000
1546.226563 6737.000000
1547.791504 5990.000000
1549.355347 5047.000000
1550.918579 7439.000000
1552.480469 6258.000000
1554.041748 5930.000000
1555.601929 5648.000000
1557.161377 5695.000000
1558.719727 5887.000000
1560.277344 6205.000000
1561.833862 7029.000000
1563.389160 5816.000000
1564.943848 6306.000000
1566.497803 5563.000000
1568.050781 6314.000000
1569.602417 5674.000000
1571.153320 6112.000000
1572.703491 6232.000000
1574.252686 6306.000000
1575.800537 5760.000000
1577.347900 5469.000000
1578.894287 5688.000000
1580.439819 5072.000000
1581.984375 6649.000000
1583.527710 6316.000000
1585.070435 6586.000000
1586.612305 6448.000000
1588.153076 6760.000000
1589.692871 5778.000000
1591.231934 6669.000000
1592.769897 5893.000000
1594.307373 6053.000000
1595.843506 5849.000000
1597.378540 6653.000000
1598.913086 6227.000000
1600.446655 6015.000000
1601.979370 6026.000000
1603.510498 6246.000000
1605.041382 6247.000000
1606.571411 5723.000000
1608.100220 6115.000000
1609.627930 6128.000000
1611.155029 5980.000000
1612.681396 5766.000000
1614.206787 6215.000000
1615.731323 5790.000000
1617.254517 5729.000000
1618.776978 5596.000000
1620.298706 6604.000000
1621.819580 6962.000000
1623.338989 15541.000000
1624.857910 6275.000000
1626.376099 5997.000000
1627.893433 5916.000000
1629.409668 6405.000000
1630.924561 7043.000000
1632.438965 6794.000000
1633.952637 5759.000000
1635.465210 6869.000000
1636.976563 5914.000000
1638.487549 6387.000000
1639.997437 6288.000000
1641.506470 6127.000000
1643.014160 5563.000000
1644.521484 6044.000000
1646.027954 7059.000000
1647.533447 6212.000000
1649.038086 6783.000000
1650.541260 6122.000000
1652.043823 6528.000000
1653.546021 6302.000000
1655.046875 6620.000000
1656.546631 7535.000000
1658.045532 5933.000000
1659.544067 6469.000000
1661.041382 6165.000000
1662.537964 5885.000000
1664.032959 6483.000000
1665.527710 6266.000000
1667.021606 5171.000000
1668.514526 5631.000000
1670.006104 21307.000000
1671.497192 6435.000000
1672.987671 6089.000000
1674.477051 6014.000000
1675.964966 6899.000000
1677.452637 6782.000000
1678.939331 6006.000000
1680.425171 5303.000000
1681.910156 6053.000000
1683.393677 6198.000000
1684.876953 6176.000000
1686.359375 5821.000000
1687.840698 6191.000000
1689.320557 6131.000000
1690.800171 5536.000000
1692.279053 6544.000000
1693.756958 5995.000000
1695.233887 6178.000000
1696.709595 5758.000000
1698.184937 5989.000000
1699.659058 6216.000000
1701.132568 5462.000000
1702.604614 5592.000000
1704.076416 6900.000000
1705.547241 6378.000000
1707.017212 7028.000000
1708.485840 5120.000000
1709.953979 5792.000000
1711.421387 6345.000000
1712.887695 5456.000000
1714.353394 5765.000000
1715.817383 6204.000000
1717.281250 5932.000000
1718.744263 6947.000000
1720.206299 6329.000000
1721.667114 6623.000000
1723.127319 5433.000000
1724.586792 6365.000000
1726.045410 6143.000000
1727.503052 5950.000000
1728.959351 6266.000000
1730.415405 6099.000000
1731.870483 6463.000000
1733.324585 5983.000000
1734.777466 6837.000000
1736.230103 5956.000000
1737.681641 6886.000000
1739.132446 5946.000000
1740.582275 6507.000000
1742.030762 5867.000000
1743.478882 7365.000000
1744.926147 6480.000000
1746.372681 6532.000000
1747.817627 6715.000000
1749.262329 6155.000000
1750.706177 5798.000000
1752.149170 5484.000000
1753.590698 6532.000000
1755.031982 6326.000000
1756.472412 19478.000000
1757.911865 6316.000000
1759.350342 5216.000000
1760.787842 6024.000000
1762.224854 7508.000000
1763.660889 5841.000000
1765.096069 7165.000000
1766.529785 6148.000000
1767.963379 6457.000000
1769.395996 6693.000000
1770.827759 5806.000000
1772.258667 5786.000000
1773.688354 6328.000000
1775.117310 6107.000000
1776.545776 6258.000000
1777.973267 6676.000000
1779.399414 6197.000000
1780.825317 5593.000000
1782.250122 6939.000000
1783.674316 5565.000000
1785.097046 6669.000000
1786.519287 6486.000000
1787.940796 6834.000000
1789.361572 5830.000000
1790.781372 6123.000000
1792.199829 6131.000000
1793.617798 6853.000000
1795.035156 5496.000000
1796.451660 5996.000000
1797.866699 6522.000000
1799.281372 5794.000000
1800.695435 6618.000000
1802.108276 5905.000000
1803.520508 6976.000000
1804.931396 7092.000000
1806.341797 7824.000000
1807.751465 6385.000000
1809.160156 5963.000000
1810.567749 5380.000000
1811.974854 6384.000000
1813.381104 6376.000000
1814.786377 6726.000000
1816.190552 5954.000000
1817.594360 5872.000000
1818.997192 6184.000000
1820.399170 5908.000000
1821.800537 5857.000000
1823.200439 6317.000000
1824.599731 6405.000000
1825.998535 6517.000000
1827.396484 7393.000000
1828.793091 5719.000000
1830.189087 6694.000000
1831.584351 5846.000000
1832.979004 8134.000000
1834.372681 5931.000000
1835.765015 6827.000000
1837.156860 6384.000000
1838.548096 5816.000000
1839.938354 7076.000000
1841.327393 5987.000000
1842.716064 6066.000000
1844.103760 5976.000000
1845.490723 5808.000000
1846.876343 6833.000000
1848.261719 5815.000000
1849.646240 6361.000000
1851.030029 6244.000000
1852.412720 6284.000000
1853.794189 5362.000000
1855.175171 6491.000000
1856.555664 6286.000000
1857.935181 5688.000000
1859.313232 5941.000000
1860.691162 6256.000000
1862.068115 7870.000000
1863.444336 6129.000000
1864.819702 6037.000000
1866.193604 5599.000000
1867.567383 5692.000000
1868.940308 6173.000000
1870.312134 5955.000000
1871.682983 6911.000000
1873.053467 5350.000000
1874.422852 5936.000000
1875.791748 6079.000000
1877.159058 7107.000000
1878.526245 6027.000000
1879.892456 5976.000000
1881.257935 6733.000000
1882.622681 7491.000000
1883.985840 6834.000000
1885.348877 6870.000000
1886.711060 6340.000000
1888.072388 6395.000000
1889.432373 5590.000000
1890.791992 5773.000000
1892.151001 6100.000000
1893.509033 6656.000000
1894.866211 7254.000000
1896.222168 5977.000000
1897.577881 7618.000000
1898.932617 5812.000000
1900.286499 5493.000000
1901.639282 5809.000000
1902.991577 5890.000000
1904.343140 5869.000000
1905.693848 6857.000000
1907.043335 6495.000000
1908.392334 6622.000000
1909.740479 5773.000000
1911.088013 6039.000000
1912.434814 6282.000000
1913.780029 6790.000000
1915.125000 6025.000000
1916.469238 5426.000000
1917.812622 6495.000000
1919.154663 5936.000000
1920.496460 6717.000000
1921.837402 7059.000000
1923.177612 6093.000000
1924.516846 6303.000000
1925.855103 6300.000000
1927.192749 6482.000000
1928.529663 7006.000000
1929.865723 6742.000000
1931.200562 5567.000000
1932.535034 6673.000000
1933.868774 7200.000000
1935.201660 6169.000000
1936.533081 5732.000000
1937.864624 6290.000000
1939.194824 6655.000000
1940.524536 5772.000000
1941.853394 6083.000000
1943.181030 5805.000000
1944.508179 5036.000000
1945.834595 5838.000000
1947.160278 6468.000000
1948.484619 5734.000000
1949.808716 6643.000000
1951.131958 6264.000000
1952.454468 6381.000000
1953.775879 5757.000000
1955.096313 7404.000000
1956.416138 5991.000000
1957.735596 5533.000000
1959.054077 6755.000000
1960.371216 5902.000000
1961.687988 5848.000000
1963.004028 6550.000000
1964.319336 6586.000000
1965.633179 6258.000000
1966.946777 5673.000000
1968.259644 6164.000000
1969.571655 6041.000000
1970.883057 6032.000000
1972.193115 6244.000000
1973.502686 5838.000000
1974.811523 6172.000000
1976.119751 6622.000000
1977.426636 6105.000000
1978.732910 7265.000000
1980.038818 5561.000000
1981.343506 6292.000000
1982.647705 5941.000000
1983.950684 5662.000000
1985.253296 7526.000000
1986.554932 6131.000000
1987.855957 6713.000000
1989.155396 6090.000000
1990.454956 6553.000000
1991.753418 5217.000000
1993.051392 6115.000000
1994.347778 6142.000000
1995.644165 5688.000000
1996.939575 5634.000000
1998.234253 6467.000000
1999.528076 5726.000000
2000.820679 6529.000000
2002.112793 5677.000000
2003.404419 7161.000000
2004.695313 6342.000000
2005.984619 6268.000000
2007.273682 6810.000000
2008.562012 5963.000000
2009.849609 5982.000000
2011.136353 6604.000000
2012.421997 5573.000000
2013.707275 6325.000000
2014.991577 5942.000000
2016.275269 5548.000000
2017.557617 6028.000000
2018.839600 6438.000000
2020.121094 6758.000000
2021.401611 5865.000000
2022.681396 6100.000000
2023.960083 6780.000000
2025.238037 5833.000000
2026.515503 5889.000000
2027.792358 6219.000000
2029.067505 5740.000000
2030.342773 6577.000000
2031.617065 6054.000000
2032.890381 5974.000000
2034.162842 5967.000000
2035.434937 6120.000000
2036.705933 6871.000000
2037.976685 6568.000000
2039.246094 5977.000000
2040.514404 6715.000000
2041.782715 6533.000000
2043.050049 5930.000000
2044.316650 5997.000000
2045.582031 5591.000000
2046.846802 5759.000000
2048.111328 5438.000000
2049.374512 5788.000000
2050.637451 6390.000000
2051.898438 6083.000000
2053.159912 6046.000000
2054.420166 5821.000000
2055.679688 6492.000000
2056.938477 6292.000000
2058.196289 6911.000000
2059.453613 6144.000000
2060.710205 5967.000000
2061.965332 6513.000000
2063.220459 5645.000000
2064.474609 5530.000000
2065.728027 5621.000000
2066.980713 6806.000000
2068.232178 6270.000000
2069.483398 6182.000000
2070.733887 5636.000000
2071.983643 5382.000000
2073.231934 6416.000000
2074.480225 6533.000000
2075.727539 7400.000000
2076.974121 5548.000000
2078.219971 6053.000000
2079.464600 6933.000000
2080.708740 7615.000000
2081.952393 5500.000000
2083.195068 6033.000000
2084.436523 6930.000000
2085.677734 5910.000000
2086.918457 6346.000000
2088.158203 6777.000000
2089.396729 7062.000000
2090.634766 6109.000000
2091.872070 5801.000000
2093.109131 6648.000000
2094.344727 6043.000000
2095.579590 6192.000000
2096.814209 6082.000000
2098.047852 5606.000000
2099.280518 6069.000000
2100.512451 6895.000000
2101.743896 6417.000000
2102.974365 6712.000000
2104.204102 5948.000000
2105.433594 5947.000000
2106.661133 5979.000000
2107.888916 5935.000000
2109.115967 6249.000000
2110.342041 5437.000000
2111.566650 6415.000000
2112.791504 6914.000000
2114.015137 7043.000000
2115.238281 6222.000000
2116.460205 7507.000000
2117.681885 5978.000000
2118.902588 6828.000000
2120.122559 6002.000000
2121.342041 6104.000000
2122.560059 6558.000000
2123.778076 7029.000000
2124.995117 5692.000000
2126.211670 5805.000000
2127.426514 6520.000000
2128.641602 6397.000000
2129.855713 6891.000000
2131.069092 5636.000000
2132.281738 6047.000000
2133.492920 5844.000000
2134.704346 6503.000000
2135.914551 6931.000000
2137.124268 5912.000000
2138.332520 6107.000000
2139.540771 5589.000000
2140.748291 5858.000000
2141.954590 7671.000000
2143.160156 5852.000000
2144.365479 5674.000000
2145.569824 5534.000000
2146.773438 6328.000000
2147.976563 6203.000000
2149.178223 6521.000000
2150.379639 5277.000000
2151.580322 6212.000000
2152.780273 6028.000000
2153.979004 6015.000000
2155.177490 6919.000000
2156.375488 6194.000000
2157.572510 5924.000000
2158.768799 5105.000000
2159.963867 5290.000000
2161.158691 6131.000000
2162.352783 5569.000000
2163.545898 6029.000000
2164.738037 6871.000000
2165.929932 5881.000000
2167.121094 6230.000000
2168.311279 6271.000000
2169.500732 6451.000000
2170.689697 6771.000000
2171.877686 5939.000000
2173.065430 5708.000000
2174.251709 5886.000000
2175.437256 6518.000000
2176.622559 6003.000000
2177.807373 5786.000000
2178.990967 6344.000000
2180.173828 7521.000000
2181.355713 6301.000000
2182.537354 5959.000000
2183.718506 6533.000000
2184.898438 5701.000000
2186.077393 5594.000000
2187.255859 6334.000000
2188.434082 6871.000000
2189.611084 7199.000000
2190.787109 6710.000000
2191.962891 6029.000000
2193.138184 5605.000000
2194.312012 6626.000000
2195.485352 6187.000000
2196.658447 6092.000000
2197.830322 6326.000000
2199.001709 7011.000000
2200.172607 6344.000000
2201.341797 6862.000000
2202.510986 7576.000000
2203.679688 6297.000000
2204.847412 5883.000000
2206.014160 5652.000000
2207.180176 7180.000000
2208.345703 6660.000000
2209.510986 5946.000000
2210.674805 6754.000000
2211.838135 5364.000000
2213.000244 6212.000000
2214.162598 6204.000000
2215.323730 6669.000000
2216.483887 6649.000000
2217.643555 6304.000000
2218.802979 6561.000000
2219.961182 6344.000000
2221.118408 6250.000000
2222.275391 6751.000000
2223.431641 6565.000000
2224.587158 6738.000000
2225.741943 6204.000000
2226.895752 6368.000000
2228.048584 6042.000000
2229.201904 6915.000000
2230.353271 6217.000000
2231.504395 6109.000000
2232.654785 6545.000000
2233.804688 7605.000000
2234.953613 6254.000000
2236.102051 5198.000000
2237.249023 6806.000000
2238.396240 7031.000000
2239.542236 6071.000000
2240.687988 7173.000000
2241.832031 7320.000000
2242.976318 6688.000000
2244.119629 6167.000000
2245.262207 5978.000000
2246.403809 5727.000000
2247.545166 5805.000000
2248.685547 6353.000000
2249.825195 6402.000000
2250.964355 5817.000000
2252.102295 5795.000000
2253.240234 6167.000000
2254.377197 5290.000000
2255.513428 6300.000000
2256.648682 6138.000000
2257.783203 7230.000000
2258.917480 6386.000000
2260.051270 5400.000000
2261.183594 6088.000000
2262.315430 6796.000000
2263.446777 6245.000000
2264.577148 6469.000000
2265.707275 8045.000000
2266.836182 6681.000000
2267.964600 6041.000000
2269.092529 5527.000000
2270.219482 6094.000000
2271.345703 5914.000000
2272.470947 6735.000000
2273.596191 6539.000000
2274.720703 6370.000000
2275.843994 5881.000000
2276.966553 6405.000000
2278.088623 5955.000000
2279.210205 7415.000000
2280.331055 6329.000000
2281.450684 6403.000000
2282.569824 7034.000000
2283.688721 7610.000000
2284.806885 7190.000000
2285.924072 5943.000000
2287.040283 6419.000000
2288.156250 6985.000000
2289.271484 6912.000000
2290.385986 7360.000000
2291.499268 5735.000000
2292.612549 6378.000000
2293.725098 6030.000000
2294.836914 5417.000000
2295.947998 6800.000000
2297.057861 6366.000000
2298.167236 6116.000000
2299.276367 6673.000000
2300.384521 6338.000000
2301.491699 6728.000000
2302.598633 5936.000000
2303.704834 6248.000000
2304.810547 6610.000000
2305.914795 6544.000000
2307.018799 5412.000000
2308.122314 5724.000000
2309.225342 6552.000000
2310.327148 7429.000000
2311.428223 7389.000000
2312.528809 6557.000000
2313.628906 5533.000000
2314.728271 6281.000000
2315.826172 6539.000000
2316.924561 6978.000000
2318.021484 8210.000000
2319.118164 6795.000000
2320.214355 5743.000000
2321.308838 6867.000000
2322.403320 7441.000000
2323.497070 5848.000000
2324.590576 6062.000000
2325.682373 6418.000000
2326.774170 7074.000000
2327.865234 6087.000000
2328.955566 6269.000000
2330.044922 6957.000000
2331.134277 6048.000000
2332.222412 6392.000000
2333.310059 6802.000000
2334.397461 6483.000000
2335.483154 6619.000000
2336.568604 7717.000000
2337.653809 6289.000000
2338.738037 6669.000000
2339.821289 5899.000000
2340.904297 6427.000000
2341.986328 7443.000000
2343.068115 5963.000000
2344.149170 7382.000000
2345.229004 6650.000000
2346.308350 5707.000000
2347.387207 6730.000000
2348.465576 6562.000000
2349.542480 6249.000000
2350.619141 6961.000000
2351.695557 6019.000000
2352.770996 6360.000000
2353.845459 5920.000000
2354.919678 6267.000000
2355.993164 6714.000000
2357.066162 6114.000000
2358.137939 6976.000000
2359.209473 6265.000000
2360.280029 6775.000000
2361.350342 7456.000000
2362.419678 7617.000000
2363.488037 6797.000000
2364.556152 6690.000000
2365.623535 7031.000000
2366.690430 7181.000000
2367.756592 6106.000000
2368.821533 6859.000000
2369.886475 6929.000000
2370.950684 6351.000000
2372.014160 6954.000000
2373.076416 5745.000000
2374.138672 6302.000000
2375.199951 6303.000000
2376.260986 5895.000000
2377.320801 6344.000000
2378.379883 7899.000000
2379.438965 6476.000000
2380.497070 7635.000000
2381.554443 6883.000000
2382.610840 8061.000000
2383.666992 7858.000000
2384.722656 6192.000000
2385.777588 7035.000000
2386.831055 6718.000000
2387.884766 6547.000000
2388.937500 6293.000000
2389.989746 6744.000000
2391.041260 6094.000000
2392.091797 6597.000000
2393.142090 6506.000000
2394.191406 6247.000000
2395.240723 6153.000000
2396.288574 6868.000000
2397.335938 7015.000000
2398.383057 6280.000000
2399.429199 6674.000000
2400.474609 6170.000000
2401.519287 6736.000000
2402.563965 7718.000000
2403.607178 7457.000000
2404.650391 6528.000000
2405.692139 5781.000000
2406.734131 6713.000000
2407.775391 7064.000000
2408.815674 6039.000000
2409.855225 6420.000000
2410.893799 6331.000000
2411.932617 6035.000000
2412.970215 6509.000000
2414.007568 6899.000000
2415.043701 7357.000000
2416.079590 6198.000000
2417.114746 6210.000000
2418.149414 6855.000000
2419.182617 7187.000000
2420.216064 6426.000000
2421.248535 6709.000000
2422.280762 6844.000000
2423.311523 7030.000000
2424.342285 6366.000000
2425.372559 6813.000000
2426.401611 6791.000000
2427.430664 6677.000000
2428.458008 7352.000000
2429.485840 6665.000000
2430.512451 7242.000000
2431.538818 6902.000000
2432.563721 7623.000000
2433.588867 6505.000000
2434.613037 7106.000000
2435.636963 6676.000000
2436.659668 5781.000000
2437.681641 6314.000000
2438.703369 6606.000000
2439.724365 6665.000000
2440.744873 5996.000000
2441.764160 6375.000000
2442.783447 6532.000000
2443.801758 8444.000000
2444.819824 6255.000000
2445.836426 6405.000000
2446.853027 6498.000000
2447.868896 6028.000000
2448.884766 6956.000000
2449.899170 6811.000000
2450.912842 5534.000000
2451.926025 7204.000000
2452.938965 5989.000000
2453.951172 7209.000000
2454.962402 6694.000000
2455.973389 7660.000000
2456.983643 6368.000000
2457.993408 7578.000000
2459.002197 5854.000000
2460.010254 5901.000000
2461.018311 6289.000000
2462.025146 7372.000000
2463.031738 5400.000000
2464.037109 7440.000000
2465.042236 6842.000000
2466.047119 5791.000000
2467.050781 6480.000000
2468.054199 6325.000000
2469.056641 7556.000000
2470.058838 7332.000000
2471.060547 6823.000000
2472.061279 6545.000000
2473.061035 6995.000000
2474.060791 6696.000000
2475.059570 5665.000000
2476.057861 6530.000000
2477.055176 6995.000000
2478.052246 6107.000000
2479.049316 6972.000000
2480.044922 5830.000000
2481.040527 7120.000000
2482.034424 6731.000000
2483.028320 8003.000000
2484.021729 6865.000000
2485.014648 6681.000000
2486.006592 7429.000000
2486.997803 7222.000000
2487.988770 6730.000000
2488.979248 5810.000000
2489.968750 6543.000000
2490.957520 6454.000000
2491.946289 5569.000000
2492.934082 6805.000000
2493.920654 6573.000000
2494.907227 8034.000000
2495.893311 6733.000000
2496.878662 7055.000000
2497.863037 8038.000000
2498.847168 6046.000000
2499.831299 6817.000000
2500.813965 5795.000000
2501.796143 6978.000000
2502.777832 6881.000000
2503.758789 7152.000000
2504.739258 6507.000000
2505.719482 5714.000000
2506.698242 6308.000000
2507.676758 7575.000000
2508.654785 6720.000000
2509.632324 7042.000000
2510.608887 6049.000000
2511.585205 5933.000000
2512.560791 6435.000000
2513.535889 6204.000000
2514.510498 6505.000000
2515.483887 7650.000000
2516.457031 6774.000000
2517.429932 6871.000000
2518.401855 6084.000000
2519.373047 6751.000000
2520.343750 6889.000000
2521.314209 7800.000000
2522.283936 8062.000000
2523.252686 6112.000000
2524.220703 6118.000000
2525.188721 7758.000000
2526.155762 6285.000000
2527.122559 5484.000000
2528.088135 7169.000000
2529.053711 7017.000000
2530.018555 7797.000000
2530.982910 6326.000000
2531.946045 6265.000000
2532.909424 5894.000000
2533.871826 5891.000000
2534.833984 6655.000000
2535.794922 6380.000000
2536.755127 6087.000000
2537.715576 6140.000000
2538.675049 6666.000000
2539.633789 6786.000000
2540.591553 6625.000000
2541.549561 6154.000000
2542.506836 6693.000000
2543.463135 6081.000000
2544.419189 7080.000000
2545.374023 6238.000000
2546.329102 7644.000000
2547.283447 7019.000000
2548.237061 6427.000000
2549.189697 7205.000000
2550.142090 6745.000000
2551.093994 6920.000000
2552.045166 6359.000000
2552.995605 7655.000000
2553.945557 7290.000000
2554.895264 7366.000000
2555.844238 6665.000000
2556.792725 6195.000000
2557.739990 7066.000000
2558.687256 6273.000000
2559.633789 6524.000000
2560.579834 6754.000000
2561.524902 7386.000000
2562.469727 6681.000000
2563.414063 7155.000000
2564.357910 6892.000000
2565.301270 6616.000000
2566.243164 6613.000000
2567.185303 6618.000000
2568.126709 6123.000000
2569.067383 7160.000000
2570.007324 7269.000000
2570.947266 5711.000000
2571.886230 6120.000000
2572.824951 7459.000000
2573.762695 7113.000000
2574.700195 5423.000000
2575.636963 6927.000000
2576.572998 6753.000000
2577.508545 7498.000000
2578.443359 6422.000000
2579.378174 5863.000000
2580.312012 6946.000000
2581.245361 7251.000000
2582.177979 5825.000000
2583.110352 6937.000000
2584.041992 5398.000000
2584.973145 7056.000000
2585.903809 6987.000000
2586.833252 6826.000000
2587.762695 7319.000000
2588.691650 6460.000000
2589.620361 7468.000000
2590.547363 7318.000000
2591.474609 5912.000000
2592.401367 6767.000000
2593.327393 6276.000000
2594.253174 5584.000000
2595.177734 7624.000000
2596.102051 7572.000000
2597.025879 5314.000000
2597.949219 7228.000000
2598.871582 6256.000000
2599.793701 6792.000000
2600.715332 8309.000000
2601.636230 6345.000000
2602.556396 5772.000000
2603.476318 6264.000000
2604.395752 6369.000000
2605.314941 6378.000000
2606.233154 5806.000000
2607.150146 5932.000000
2608.067383 7197.000000
2608.984375 5878.000000
2609.900391 7569.000000
2610.815186 6609.000000
2611.730469 6593.000000
2612.645020 6462.000000
2613.558594 6532.000000
2614.472168 6162.000000
2615.384521 7602.000000
2616.296875 6967.000000
2617.208252 6749.000000
2618.119385 5697.000000
2619.029785 7192.000000
2619.939941 6684.000000
2620.849365 6094.000000
2621.758301 6631.000000
2622.666260 6191.000000
2623.574463 6820.000000
2624.481689 6641.000000
2625.388428 7012.000000
2626.294434 6027.000000
2627.200195 6607.000000
2628.105225 6465.000000
2629.010010 7794.000000
2629.914063 6500.000000
2630.817139 6343.000000
2631.720215 6387.000000
2632.622314 5566.000000
2633.524414 6681.000000
2634.426270 6977.000000
2635.326416 6655.000000
2636.226807 6374.000000
2637.126465 6380.000000
2638.025879 5978.000000
2638.923828 6902.000000
2639.822266 6714.000000
2640.720215 6336.000000
2641.617432 6117.000000
2642.513428 6201.000000
2643.409424 6677.000000
2644.305176 6053.000000
2645.200195 6445.000000
2646.094971 6594.000000
2646.988281 7027.000000
2647.881592 6362.000000
2648.774658 6742.000000
2649.667480 6451.000000
2650.558594 7464.000000
2651.449951 6347.000000
2652.340820 7532.000000
2653.230957 7296.000000
2654.120850 6551.000000
2655.009521 7257.000000
2655.898438 6662.000000
2656.786865 6581.000000
2657.674316 7337.000000
2658.560791 6479.000000
2659.447754 7090.000000
2660.333984 6868.000000
2661.219727 6814.000000
2662.104248 6527.000000
2662.988770 6399.000000
2663.873047 6156.000000
2664.756592 7049.000000
2665.639648 7757.000000
2666.521973 7298.000000
2667.403809 6135.000000
2668.284912 6604.000000
2669.166260 6050.000000
2670.046143 6554.000000
2670.926270 7385.000000
2671.805664 7198.000000
2672.685059 6245.000000
2673.563721 6069.000000
2674.440674 6337.000000
2675.318359 6758.000000
2676.195313 6389.000000
2677.071533 8079.000000
2677.947266 7123.000000
2678.822266 6227.000000
2679.697510 7669.000000
2680.571777 6943.000000
2681.445557 7274.000000
2682.318604 7002.000000
2683.191406 6226.000000
2684.063965 6066.000000
2684.935791 6946.000000
2685.806885 6569.000000
2686.677734 6892.000000
2687.548096 7172.000000
2688.418213 6668.000000
2689.286621 6300.000000
2690.155762 7371.000000
2691.024170 7141.000000
2691.892334 6713.000000
2692.759766 6949.000000
2693.625977 5804.000000
2694.492676 7147.000000
2695.358398 7355.000000
2696.224121 7230.000000
2697.088379 7934.000000
2697.953369 6569.000000
2698.816895 7234.000000
2699.680664 5830.000000
2700.542969 7401.000000
2701.405762 6760.000000
2702.267578 5882.000000
2703.128906 6904.000000
2703.990234 6741.000000
2704.850342 7515.000000
2705.710449 7333.000000
2706.570068 6572.000000
2707.429443 6881.000000
2708.287109 7090.000000
2709.145020 6835.000000
2710.003418 7318.000000
2710.860596 6717.000000
2711.717041 5979.000000
2712.572998 6816.000000
2713.428955 6071.000000
2714.284180 6933.000000
2715.138672 6103.000000
2715.992676 6827.000000
2716.846680 7301.000000
2717.699707 6274.000000
2718.552979 6554.000000
2719.404541 7739.000000
2720.256592 6767.000000
2721.108398 6259.000000
2721.958984 6533.000000
2722.809570 6392.000000
2723.659668 7074.000000
2724.509033 7030.000000
2725.358398 6942.000000
2726.206543 6574.000000
2727.054199 6464.000000
2727.902344 6989.000000
2728.749268 6828.000000
2729.596680 5521.000000
2730.442627 7441.000000
2731.287842 6969.000000
2732.133545 6383.000000
2732.978271 6961.000000
2733.822998 7330.000000
2734.666504 6903.000000
2735.510254 7703.000000
2736.353271 7138.000000
2737.195801 6063.000000
2738.037354 6265.000000
2738.879395 6799.000000
2739.720459 6886.000000
2740.561279 5741.000000
2741.401855 5895.000000
2742.241211 7770.000000
2743.080566 6851.000000
2743.919922 6912.000000
2744.758057 6791.000000
2745.595703 7874.000000
2746.433350 6309.000000
2747.270508 7054.000000
2748.107422 6185.000000
2748.943848 6023.000000
2749.779053 6633.000000
2750.614502 6299.000000
2751.449463 6321.000000
2752.283691 6207.000000
2753.117676 6871.000000
2753.951172 6855.000000
2754.784668 7914.000000
2755.617188 6739.000000
2756.449219 7323.000000
2757.280762 6783.000000
2758.112305 7139.000000
2758.942871 7149.000000
2759.773682 7207.000000
2760.603271 7302.000000
2761.432861 6643.000000
2762.262207 7223.000000
2763.090820 6815.000000
2763.918945 6719.000000
2764.746582 6892.000000
2765.574219 6635.000000
2766.401367 7862.000000
2767.227783 5790.000000
2768.053711 7454.000000
2768.879150 6824.000000
2769.704346 7754.000000
2770.529541 7012.000000
2771.353516 6680.000000
2772.177490 6404.000000
2773.001465 7664.000000
2773.824219 6624.000000
2774.647217 6740.000000
2775.468994 6837.000000
2776.290771 6924.000000
2777.112549 6484.000000
2777.933350 7945.000000
2778.753418 6564.000000
2779.573730 6954.000000
2780.393555 7301.000000
2781.213379 6453.000000
2782.031250 5942.000000
2782.850342 8021.000000
2783.668213 6461.000000
2784.485840 6722.000000
2785.302979 7166.000000
2786.119629 7209.000000
2786.936035 7215.000000
2787.751953 6231.000000
2788.567627 5964.000000
2789.382324 6332.000000
2790.197510 6946.000000
2791.011963 7163.000000
2791.825928 6575.000000
2792.639648 7429.000000
2793.452148 8764.000000
2794.264893 6968.000000
2795.077148 7410.000000
2795.888916 7222.000000
2796.699951 7391.000000
2797.511719 6537.000000
2798.322266 7248.000000
2799.132813 7044.000000
2799.941895 7400.000000
2800.751709 8146.000000
2801.560791 7798.000000
2802.369629 6669.000000
2803.177979 7116.000000
2803.985352 6192.000000
2804.793213 6464.000000
2805.600342 6861.000000
2806.407227 6982.000000
2807.212891 7152.000000
2808.019043 6605.000000
2808.824463 6437.000000
2809.629883 7283.000000
2810.434570 6144.000000
2811.238281 7585.000000
2812.042480 7499.000000
2812.846191 6266.000000
2813.649658 6138.000000
2814.451660 6564.000000
2815.254395 7283.000000
2816.056396 7791.000000
2816.858154 6192.000000
2817.659424 6537.000000
2818.460205 7180.000000
2819.260498 6427.000000
2820.061035 6598.000000
2820.860596 8025.000000
2821.659668 7178.000000
2822.458740 6476.000000
2823.257568 6826.000000
2824.055908 6361.000000
2824.853271 7039.000000
2825.650879 7012.000000
2826.447754 6660.000000
2827.244873 7376.000000
2828.041260 7898.000000
2828.836914 7022.000000
2829.632568 7308.000000
2830.427979 7533.000000
2831.222900 7440.000000
2832.017090 6644.000000
2832.811279 6816.000000
2833.605225 5589.000000
2834.398682 6763.000000
2835.191406 7168.000000
2835.983887 8213.000000
2836.776367 7636.000000
2837.568604 7490.000000
2838.360352 6466.000000
2839.151123 6760.000000
2839.941895 8839.000000
2840.732910 7448.000000
2841.522949 6197.000000
2842.312500 7640.000000
2843.102295 7209.000000
2843.891113 7367.000000
2844.679932 7824.000000
2845.468750 7682.000000
2846.256592 7520.000000
2847.043945 7171.000000
2847.831543 7507.000000
2848.618652 7341.000000
2849.405029 6640.000000
2850.191406 7393.000000
2850.977539 7178.000000
2851.763184 7515.000000
2852.547852 7142.000000
2853.333008 6916.000000
2854.117920 7463.000000
2854.902100 7081.000000
2855.686279 6918.000000
2856.469238 8316.000000
2857.252441 6736.000000
2858.035400 6743.000000
2858.817871 7827.000000
2859.600098 6208.000000
2860.381836 6628.000000
2861.163330 7569.000000
2861.945068 7403.000000
2862.726074 7626.000000
2863.506348 6569.000000
2864.286377 6692.000000
2865.066406 8175.000000
2865.846191 7466.000000
2866.625000 8076.000000
2867.404053 7715.000000
2868.182617 6752.000000
2868.960938 6847.000000
2869.738770 7177.000000
2870.516357 6893.000000
2871.293701 7479.000000
2872.070801 6920.000000
2872.847412 6454.000000
2873.623535 7467.000000
2874.399658 7150.000000
2875.175293 8295.000000
2875.950684 7184.000000
2876.725586 6545.000000
2877.500244 8023.000000
2878.274902 6608.000000
2879.049316 7798.000000
2879.822998 6760.000000
2880.595947 7130.000000
2881.369629 6746.000000
2882.142334 7597.000000
2882.915039 7836.000000
2883.687012 8153.000000
2884.458740 6253.000000
2885.230957 6773.000000
2886.001953 6890.000000
2886.772461 6129.000000
2887.543457 8266.000000
2888.314453 7318.000000
2889.084717 7935.000000
2889.854004 7628.000000
2890.623535 6938.000000
2891.393066 7192.000000
2892.162109 7329.000000
2892.930664 7906.000000
2893.699219 7657.000000
2894.466797 6993.000000
2895.234863 6565.000000
2896.002441 7487.000000
2896.770020 8389.000000
2897.536377 7398.000000
2898.303711 6494.000000
2899.069824 7166.000000
2899.836182 6911.000000
2900.601074 8235.000000
2901.366455 6944.000000
2902.132324 6468.000000
2902.896729 7725.000000
2903.661133 7698.000000
2904.425781 8442.000000
2905.189453 6692.000000
2905.953857 8448.000000
2906.717529 6755.000000
2907.480469 8353.000000
2908.243164 6544.000000
2909.006348 8900.000000
2909.769043 6976.000000
2910.530518 6723.000000
2911.292480 6723.000000
