scanname Analyse105
timestamp 2017-02-10 22:46:35
ccdbias 954.669922
ccdgain 3.473401
sigmaread 8.960639
laserwavenum -0.251304
wavenumcorrection 0.271660
scancount 1
totalexposurems 10000
singleexposurems 10000
measurementstate Unknown
scanmode Manual
snr 16.887669 0.458837 0.350833
replacelist 2
889 21263.000000 21145.000000
1815 8627.000000 7004.000000
peaks 7
400.786133 0.042211 0.000000 0.202882 0.000026
808.825195 0.039579 0.000000 0.508016 0.000053
842.127686 0.039298 0.000000 0.413595 0.000053
972.440063 0.033092 0.000000 0.140829 0.000020
1153.169434 0.032782 0.000000 0.188985 0.000027
1332.362671 0.037215 0.000000 0.073984 0.000018
1458.729248 0.037158 0.000000 0.225972 0.000048
finalresult GLS_Multiple 89
A11883	Polypropylene (Isotactic)	5.157440e-001
A13180	Polypropylene (lot B)	5.154742e-001
A13500	Poly(propylene-co-ethylene)	5.124171e-001
A0115	Polypropylene	5.076376e-001
A1531	Ethyl formate	3.682562e-001
A14069	(R)-(-)-1,2-Propanediol	3.653055e-001
A0518	Propylene glycol	3.622338e-001
A1270	Methyl DL-lactate	3.547305e-001
A10674	Dibutyl succinate	3.490078e-001
A13820	(-)-Methyl L-lactate	3.481628e-001
A2313	Barium peroxide	3.464283e-001
A10529	1-Formylpiperazine	3.445061e-001
A12955	2-Chloro-1,3,2-dioxaphospholane	3.445061e-001
A0400	Potassium permanganate	3.441181e-001
A0793	Tris(2-methoxyethoxy)(vinyl)silane	3.424953e-001
A0642	1,4-Diazabicyclo[2.2.2]octane	3.414087e-001
A0524	Propionic acid	3.401809e-001
A2098	Diethylene glycol dibutyl ether	3.391119e-001
A3222	Potassium nitrite	3.379616e-001
A5382	3-Methoxypropionic acid	3.371608e-001
A6290	Bis(2,2,2-trifluoroethyl) phosphite	3.368502e-001
A8920	Perrhenic acid solution	3.361346e-001
A0369	2,4,6-Tribromophenol	3.358965e-001
A6700	4'-Methoxypropiophenone	3.354321e-001
A0408	Chromium(VI) oxide	3.347426e-001
A14792	N-Guanylurea sulfate salt hydrate	3.324090e-001
A7848	Butyl glycolate	3.320900e-001
A2210	Calcium peroxide hydrate	3.316652e-001
A2225	Diethylene glycol butyl ether	3.314763e-001
A0587	Triethylene glycol monobutyl ether	3.312880e-001
A10745	Neomycin sulfate salt	3.309934e-001
A0098	Roundup (weed and grass killer)	3.303342e-001
A1002	Dibutyl maleate	3.301932e-001
A1224	Poly(ethylene glycol) butyl ether	3.301341e-001
A8610	5-Methyl-2-pyrrolidinone	3.296646e-001
A1928	Ammonium sulfate	3.286794e-001
A9546	4-Methoxy-alpha-methylbenzyl alcohol	3.284101e-001
A14007	1,2-Dichlorotetramethyldisilane	3.276380e-001
A12725	Cerium(III) fluoride	3.275213e-001
A2863	Streptomycin sulfate salt	3.273695e-001
A13034	4'-Nitrobenzo-15-crown-5	3.269373e-001
A2413	Sodium selenate	3.253885e-001
A1676	Trifluoroacetic acid	3.248543e-001
A1584	Pentane	3.248311e-001
A3653	(R)-(+)-3-Methylcyclopentanone	3.241351e-001
A1754	N,N-Dimethylhydrazine	3.237298e-001
A2703	Acetaldehyde dimethyl acetal	3.236256e-001
A12448	Tribromofluoromethane	3.235794e-001
A2423	Hydroxyurea	3.235562e-001
A4645	1-Bromo-4-(trifluoromethoxy)benzene	3.234057e-001
A11885	Poly(methyl methacrylate-co-butyl methacrylate)	3.225851e-001
A2402	Gentamicin sulfate salt	3.225158e-001
A6278	6-Methylnicotinamide	3.224812e-001
A3868	N-formylmorpholine	3.221117e-001
A14724	Ammonium metatungstate hydrate	3.218926e-001
A13419	Bismuth(III) phosphate	3.215704e-001
A2721	Formaldehyde diethyl acetal	3.215355e-001
A0761	N,N,N',N'-Tetrakis(2-Hydroxypropyl)ethylenediamine	3.210521e-001
A6025	2-Nitrothiophene	3.199263e-001
A0629	Cyanuric chloride	3.197657e-001
A12733	Tri-tert-butyl borate	3.189410e-001
A7024	Hydrazine monohydrobromide	3.184490e-001
A10301	2-Methoxytetrahydropyran	3.184261e-001
A11872	Poly(methyl methacrylate)	3.176950e-001
A2727	Acrolein diethyl acetal	3.175239e-001
A7885	beta-Carotene	3.152832e-001
A0937	Polyethylene glycol dimethyl ether	3.148408e-001
A2926	Arsenic (III) Chloride	3.147506e-001
A1547	Isovaleric acid	3.145919e-001
A8580	Sodium permanganate solution	3.142748e-001
A3625	1-Dimethylamino-2-propanol	3.140147e-001
A0544	1,4-Dioxane	3.122092e-001
A14340	Titanium(IV) fluoride	3.120629e-001
A11482	Methyl 5-methoxysalicylate	3.115345e-001
A13507	Poly(methyl methacrylate-co-ethyl acrylate)	3.115118e-001
A10860	Ethyleneimine polymer soln.	3.106473e-001
A5310	4-Methyl-3-nitroanisole	3.105245e-001
A4269	2,4-Dibromoanisole	3.105021e-001
A5042	2,4,6-Trichloropyrimidine	3.102666e-001
A15973	Silver azide	3.091701e-001
A5377	4-Methyl-2-nitroanisole	3.088240e-001
A14252	2-Methyl-5-nitrophenol	3.088129e-001
A2322	Silver sulfate	3.080435e-001
A8663	4-Methyl-3,5-dinitrobenzoic acid	3.067313e-001
A12947	Diethyl (trichloromethyl)phosphonate	3.063872e-001
A2017	Isopropylamine	3.055337e-001
A11366	4-Isopropylanisole	3.049033e-001
A8797	6-Nitroindoline	3.040975e-001
A1748	3,4-Dihydro-2H-pyran	3.033815e-001
spectrum 2048
-97.350151 44820.000000
-94.723282 44820.000000
-92.098289 45522.000000
-89.475189 45654.000000
-86.853958 46491.000000
-84.234627 46241.000000
-81.617157 46629.000000
-79.001564 46396.000000
-76.387848 46659.000000
-73.776009 47101.000000
-71.166031 47009.000000
-68.557938 47034.000000
-65.951691 47192.000000
-63.347321 47129.000000
-60.744812 47018.000000
-58.144157 47495.000000
-55.545364 46919.000000
-52.948429 46212.000000
-50.353348 46650.000000
-47.760120 46632.000000
-45.168743 46830.000000
-42.579212 46422.000000
-39.991524 47143.000000
-37.405685 47007.000000
-34.821690 46648.000000
-32.239532 47391.000000
-29.659218 46651.000000
-27.080732 47306.000000
-24.504089 46885.000000
-21.929272 46768.000000
-19.356295 46491.000000
-16.785137 46406.000000
-14.215814 46052.000000
-11.648315 45078.000000
-9.082636 46481.000000
-6.518782 46183.000000
-3.956742 46568.000000
-1.396526 46591.000000
1.161882 46104.000000
3.718469 45026.000000
6.273252 44886.000000
8.826217 44813.000000
11.377381 43102.000000
13.926733 41992.000000
16.474289 40143.000000
19.020033 39468.000000
21.563984 38330.000000
24.106131 35044.000000
26.646481 32249.000000
29.185045 29894.000000
31.721813 24471.000000
34.256779 16264.000000
36.789967 10600.000000
39.321373 7550.000000
41.850986 6740.000000
44.378803 6599.000000
46.904861 5812.000000
49.429131 5120.000000
51.951630 4443.000000
54.472332 4039.000000
56.991280 4203.000000
59.508453 5025.000000
62.023849 6184.000000
64.537468 7281.000000
67.049332 6931.000000
69.559448 5490.000000
72.067772 3642.000000
74.574341 2809.000000
77.079163 2334.000000
79.582230 1935.000000
82.083519 1867.000000
84.583069 1792.000000
87.080864 1583.000000
89.576927 1692.000000
92.071213 1934.000000
94.563759 2226.000000
97.054588 2248.000000
99.543648 2010.000000
102.030960 1620.000000
104.516548 1404.000000
107.000397 1243.000000
109.482498 1192.000000
111.962875 988.000000
114.441528 944.000000
116.918457 979.000000
119.393631 917.000000
121.867096 905.000000
124.338829 891.000000
126.808853 840.000000
129.277115 786.000000
131.743713 747.000000
134.208557 882.000000
136.671707 815.000000
139.133118 791.000000
141.592834 871.000000
144.050827 798.000000
146.507126 869.000000
148.961716 990.000000
151.414581 994.000000
153.865768 1117.000000
156.315262 1152.000000
158.763031 1210.000000
161.209091 1341.000000
163.653473 1420.000000
166.096176 1566.000000
168.537186 1704.000000
170.976486 1716.000000
173.414078 1782.000000
175.850037 1728.000000
178.284256 1817.000000
180.716797 1759.000000
183.147690 1699.000000
185.576859 1772.000000
188.004379 1831.000000
190.430222 1705.000000
192.854385 1613.000000
195.276886 1731.000000
197.697693 1708.000000
200.116837 1866.000000
202.534317 1822.000000
204.950104 1846.000000
207.364243 1859.000000
209.776749 2068.000000
212.187576 2148.000000
214.596725 2104.000000
217.004242 2372.000000
219.410049 2470.000000
221.814270 2583.000000
224.216782 2580.000000
226.617676 2832.000000
229.016922 2677.000000
231.414505 2828.000000
233.810425 2890.000000
236.204727 2959.000000
238.597366 2989.000000
240.988388 2947.000000
243.377747 2992.000000
245.765488 2919.000000
248.151581 2954.000000
250.536041 2925.000000
252.918854 2934.000000
255.300095 2991.000000
257.679626 2859.000000
260.057587 2836.000000
262.433868 2795.000000
264.808594 2953.000000
267.181671 2875.000000
269.553101 2847.000000
271.922882 2869.000000
274.291107 2857.000000
276.657684 2807.000000
279.022675 2795.000000
281.386047 2846.000000
283.747772 2849.000000
286.107910 2797.000000
288.466431 2775.000000
290.823364 2697.000000
293.178680 2801.000000
295.532410 2854.000000
297.884491 2754.000000
300.235016 2730.000000
302.583954 2798.000000
304.931244 2819.000000
307.277008 2820.000000
309.621094 2669.000000
311.963654 2625.000000
314.304596 2769.000000
316.643921 2694.000000
318.981689 2753.000000
321.317902 2746.000000
323.652466 2807.000000
325.985474 2726.000000
328.316925 2661.000000
330.646790 2662.000000
332.975067 2735.000000
335.301727 2642.000000
337.626892 2613.000000
339.950439 2577.000000
342.272430 2643.000000
344.592865 2510.000000
346.911682 2556.000000
349.228943 2462.000000
351.544678 2593.000000
353.858826 2478.000000
356.171387 2488.000000
358.482391 2419.000000
360.791870 2444.000000
363.099823 2521.000000
365.406158 2501.000000
367.710907 2499.000000
370.014191 2510.000000
372.315857 2492.000000
374.616028 2561.000000
376.914642 2433.000000
379.211700 2534.000000
381.507202 2592.000000
383.801178 2463.000000
386.093567 2611.000000
388.384460 2522.000000
390.673828 2472.000000
392.961609 2585.000000
395.247864 2741.000000
397.532623 2813.000000
399.815765 2744.000000
402.097473 2757.000000
404.377655 2691.000000
406.656250 2598.000000
408.933319 2562.000000
411.208862 2613.000000
413.482880 2494.000000
415.755463 2627.000000
418.026428 2527.000000
420.295898 2415.000000
422.563873 2522.000000
424.830292 2484.000000
427.095215 2411.000000
429.358673 2486.000000
431.620544 2533.000000
433.880951 2344.000000
436.139801 2416.000000
438.397186 2447.000000
440.653076 2437.000000
442.907471 2371.000000
445.160339 2311.000000
447.411652 2353.000000
449.661560 2374.000000
451.909882 2366.000000
454.156769 2394.000000
456.402191 2450.000000
458.646057 2331.000000
460.888428 2543.000000
463.129303 2340.000000
465.368774 2343.000000
467.606659 2344.000000
469.843109 2362.000000
472.078033 2190.000000
474.311493 2273.000000
476.543518 2313.000000
478.774017 2272.000000
481.003021 2229.000000
483.230560 2168.000000
485.456604 2250.000000
487.681213 2198.000000
489.904358 2316.000000
492.126038 2302.000000
494.346161 2251.000000
496.564880 2289.000000
498.782104 2235.000000
500.997955 2316.000000
503.212189 2284.000000
505.425110 2237.000000
507.636444 2186.000000
509.846344 2370.000000
512.054810 2313.000000
514.261902 2221.000000
516.467407 2239.000000
518.671509 2417.000000
520.874084 2300.000000
523.075256 2325.000000
525.275085 2347.000000
527.473389 2314.000000
529.670166 2346.000000
531.865601 2312.000000
534.059509 2242.000000
536.252075 2085.000000
538.443115 2152.000000
540.632751 2228.000000
542.820984 2177.000000
545.007690 2252.000000
547.192932 2210.000000
549.376892 2124.000000
551.559265 2133.000000
553.740295 2103.000000
555.919800 2052.000000
558.098022 2137.000000
560.274719 2020.000000
562.450012 2070.000000
564.623901 2081.000000
566.796326 2075.000000
568.967346 2013.000000
571.136902 2040.000000
573.305176 2008.000000
575.471924 2171.000000
577.637207 2163.000000
579.801086 2105.000000
581.963684 2129.000000
584.124756 2079.000000
586.284424 2119.000000
588.442749 2093.000000
590.599548 2142.000000
592.755005 2003.000000
594.909058 2053.000000
597.061768 2055.000000
599.212952 2075.000000
601.362793 2245.000000
603.511292 2057.000000
605.658203 2122.000000
607.803894 2046.000000
609.948181 2023.000000
612.091003 2095.000000
614.232361 2062.000000
616.372498 2167.000000
618.511108 2044.000000
620.648438 2067.000000
622.784302 2074.000000
624.918762 2116.000000
627.051758 2041.000000
629.183594 2009.000000
631.313965 2083.000000
633.442932 2084.000000
635.570435 2020.000000
637.696655 2098.000000
639.821350 2007.000000
641.944824 2041.000000
644.066956 2092.000000
646.187622 1992.000000
648.306946 1924.000000
650.424866 2001.000000
652.541443 1911.000000
654.656616 2021.000000
656.770447 1952.000000
658.882813 1965.000000
660.993958 1971.000000
663.103699 1883.000000
665.211975 1870.000000
667.319092 1931.000000
669.424744 1886.000000
671.528931 1838.000000
673.631897 1938.000000
675.733459 1896.000000
677.833679 1986.000000
679.932495 1985.000000
682.029968 2019.000000
684.126160 1983.000000
686.220886 1949.000000
688.314392 1995.000000
690.406555 1987.000000
692.497192 2054.000000
694.586609 1998.000000
696.674744 2021.000000
698.761414 2090.000000
700.846863 1966.000000
702.930786 1956.000000
705.013489 1897.000000
707.094910 1963.000000
709.174866 1896.000000
711.253601 1868.000000
713.330872 1856.000000
715.406860 1967.000000
717.481567 1802.000000
719.554993 1895.000000
721.626892 1903.000000
723.697632 2004.000000
725.767029 1927.000000
727.835022 1893.000000
729.901672 1894.000000
731.967102 1934.000000
734.031189 1836.000000
736.093933 1817.000000
738.155334 1919.000000
740.215454 1769.000000
742.274170 1776.000000
744.331665 1757.000000
746.387878 1787.000000
748.442688 1859.000000
750.496216 1819.000000
752.548340 1849.000000
754.599243 1867.000000
756.648926 1794.000000
758.697144 1834.000000
760.744141 1811.000000
762.789856 1770.000000
764.834167 1786.000000
766.877197 1784.000000
768.919006 1656.000000
770.959473 1909.000000
772.998535 1799.000000
775.036438 1768.000000
777.072998 1924.000000
779.108337 1828.000000
781.142334 1782.000000
783.174927 1898.000000
785.206360 1812.000000
787.236389 1949.000000
789.265137 1831.000000
791.292725 1861.000000
793.318970 1819.000000
795.343811 1904.000000
797.367554 1938.000000
799.389893 1954.000000
801.411011 1985.000000
803.430786 2127.000000
805.449280 2079.000000
807.466553 2191.000000
809.482422 2205.000000
811.497131 2202.000000
813.510498 2037.000000
815.522644 2071.000000
817.533569 1898.000000
819.543152 1797.000000
821.551514 1876.000000
823.558472 1863.000000
825.564209 1863.000000
827.568726 1952.000000
829.571960 1917.000000
831.573914 1779.000000
833.574585 1822.000000
835.574036 1889.000000
837.572144 1936.000000
839.569153 2071.000000
841.564758 2010.000000
843.559204 1989.000000
845.552307 1997.000000
847.544189 2000.000000
849.534729 1805.000000
851.523987 1728.000000
853.512207 1773.000000
855.499023 1702.000000
857.484619 1711.000000
859.468933 1682.000000
861.452148 1720.000000
863.433960 1678.000000
865.414551 1707.000000
867.393860 1694.000000
869.372009 1687.000000
871.348816 1753.000000
873.324341 1837.000000
875.298828 1754.000000
877.271851 1773.000000
879.243835 1674.000000
881.214478 1803.000000
883.183960 1765.000000
885.152100 1765.000000
887.119080 1805.000000
889.084717 1660.000000
891.049194 1789.000000
893.012451 1838.000000
894.974487 1723.000000
896.935242 1767.000000
898.894775 1717.000000
900.853027 1627.000000
902.810181 1668.000000
904.766174 1799.000000
906.720764 1730.000000
908.674133 1702.000000
910.626343 1573.000000
912.577332 1524.000000
914.527039 1637.000000
916.475586 1547.000000
918.422913 1565.000000
920.368958 1630.000000
922.313721 1604.000000
924.257446 1533.000000
926.200012 1501.000000
928.141296 1498.000000
930.081238 1504.000000
932.020081 1448.000000
933.957642 1507.000000
935.893982 1423.000000
937.829163 1560.000000
939.763062 1456.000000
941.695862 1475.000000
943.627441 1509.000000
945.557861 1501.000000
947.487061 1532.000000
949.414917 1476.000000
951.341736 1443.000000
953.267273 1541.000000
955.191528 1530.000000
957.114685 1445.000000
959.036682 1404.000000
960.957397 1558.000000
962.876953 1542.000000
964.795349 1531.000000
966.712708 1569.000000
968.628601 1656.000000
970.543396 1573.000000
972.456970 1696.000000
974.369385 1653.000000
976.280579 1691.000000
978.190613 1580.000000
980.099365 1577.000000
982.007080 1508.000000
983.913574 1481.000000
985.818848 1499.000000
987.723022 1440.000000
989.625977 1462.000000
991.527710 1460.000000
993.428284 1203.000000
995.327698 1546.000000
997.225891 1596.000000
999.122925 1496.000000
1001.018738 1489.000000
1002.913391 1406.000000
1004.806946 1493.000000
1006.699219 1449.000000
1008.590576 1348.000000
1010.480591 1321.000000
1012.369385 1388.000000
1014.257019 1263.000000
1016.143494 1433.000000
1018.028809 1339.000000
1019.912964 1403.000000
1021.795898 1432.000000
1023.677795 1230.000000
1025.558472 1413.000000
1027.437988 1389.000000
1029.316528 1398.000000
1031.193726 1304.000000
1033.069580 1320.000000
1034.944458 1482.000000
1036.818359 1454.000000
1038.690796 1328.000000
1040.562256 1401.000000
1042.432373 1348.000000
1044.301514 1440.000000
1046.169434 1337.000000
1048.036255 1367.000000
1049.901978 1418.000000
1051.766479 1356.000000
1053.629883 1384.000000
1055.491943 1330.000000
1057.353027 1433.000000
1059.213013 1364.000000
1061.071655 1355.000000
1062.929199 1276.000000
1064.785645 1343.000000
1066.640991 1302.000000
1068.495117 1428.000000
1070.348389 1351.000000
1072.200195 1301.000000
1074.051025 1345.000000
1075.900635 1375.000000
1077.749023 1273.000000
1079.596558 1335.000000
1081.442749 1321.000000
1083.287720 1307.000000
1085.131836 1419.000000
1086.974609 1330.000000
1088.816162 1405.000000
1090.656982 1307.000000
1092.496216 1249.000000
1094.334717 1362.000000
1096.171875 1301.000000
1098.007813 1265.000000
1099.842773 1258.000000
1101.676514 1281.000000
1103.509277 1224.000000
1105.340698 1262.000000
1107.171265 1258.000000
1109.000488 1172.000000
1110.828735 1283.000000
1112.655762 1232.000000
1114.481812 1236.000000
1116.306641 1200.000000
1118.130371 1183.000000
1119.952881 1109.000000
1121.774292 1203.000000
1123.594849 1188.000000
1125.413940 1152.000000
1127.232178 1174.000000
1129.049072 1149.000000
1130.865112 1241.000000
1132.679932 1236.000000
1134.493652 1204.000000
1136.306274 1200.000000
1138.117676 1267.000000
1139.928101 1210.000000
1141.737427 1383.000000
1143.545410 1372.000000
1145.352661 1368.000000
1147.158447 1434.000000
1148.963379 1440.000000
1150.767212 1502.000000
1152.569824 1480.000000
1154.371582 1496.000000
1156.171875 1421.000000
1157.971191 1504.000000
1159.769531 1312.000000
1161.566528 1373.000000
1163.362793 1317.000000
1165.157715 1327.000000
1166.951538 1336.000000
1168.744507 1343.000000
1170.536133 1317.000000
1172.326782 1282.000000
1174.116455 1214.000000
1175.904663 1204.000000
1177.692017 1166.000000
1179.478271 1110.000000
1181.263428 1192.000000
1183.047485 1233.000000
1184.830444 1236.000000
1186.612427 1105.000000
1188.393188 1167.000000
1190.172974 1276.000000
1191.951660 1191.000000
1193.729370 1133.000000
1195.505859 1262.000000
1197.281250 1255.000000
1199.055542 1123.000000
1200.828735 1125.000000
1202.601074 1249.000000
1204.372070 1141.000000
1206.142212 1130.000000
1207.911133 1130.000000
1209.678955 1182.000000
1211.445923 1130.000000
1213.211548 1151.000000
1214.976196 1187.000000
1216.739746 1180.000000
1218.502197 1109.000000
1220.263794 1263.000000
1222.024170 1206.000000
1223.783447 1115.000000
1225.541870 1197.000000
1227.299072 1125.000000
1229.055176 1147.000000
1230.810181 1128.000000
1232.564331 1122.000000
1234.317139 1085.000000
1236.068970 1163.000000
1237.819946 1175.000000
1239.569580 1169.000000
1241.318359 1156.000000
1243.065796 1062.000000
1244.812500 1182.000000
1246.557983 1129.000000
1248.302612 1237.000000
1250.045898 1196.000000
1251.788208 1205.000000
1253.529419 1203.000000
1255.269775 1246.000000
1257.009033 1170.000000
1258.747070 1120.000000
1260.484253 1058.000000
1262.220215 1083.000000
1263.955200 1095.000000
1265.689209 1228.000000
1267.422241 1092.000000
1269.154053 1192.000000
1270.884888 1161.000000
1272.614502 1195.000000
1274.343262 1264.000000
1276.070923 1159.000000
1277.797485 1168.000000
1279.523193 1173.000000
1281.247559 1230.000000
1282.971069 1235.000000
1284.693604 1273.000000
1286.415161 1192.000000
1288.135498 1247.000000
1289.854858 1296.000000
1291.573120 1117.000000
1293.290405 1267.000000
1295.006714 1221.000000
1296.721802 1346.000000
1298.435913 1273.000000
1300.149048 1191.000000
1301.861328 1254.000000
1303.572388 1341.000000
1305.282471 1168.000000
1306.991455 1229.000000
1308.699219 1209.000000
1310.406372 1168.000000
1312.112061 1195.000000
1313.817017 1260.000000
1315.520996 1243.000000
1317.223755 1249.000000
1318.925537 1395.000000
1320.626465 1293.000000
1322.326050 2012.000000
1324.024780 547.000000
1325.722778 1290.000000
1327.419434 1365.000000
1329.114990 1451.000000
1330.809692 1413.000000
1332.503174 1389.000000
1334.195801 1384.000000
1335.887573 1486.000000
1337.578003 1342.000000
1339.267700 1330.000000
1340.956299 1151.000000
1342.643799 1259.000000
1344.330322 1260.000000
1346.015747 1260.000000
1347.700195 1279.000000
1349.383789 1107.000000
1351.066162 1243.000000
1352.747559 1243.000000
1354.428101 1240.000000
1356.107422 1347.000000
1357.786133 1374.000000
1359.463501 1345.000000
1361.139771 1286.000000
1362.815063 1289.000000
1364.489624 1385.000000
1366.162964 1323.000000
1367.835327 1303.000000
1369.506714 1264.000000
1371.177124 1322.000000
1372.846436 1282.000000
1374.514771 1273.000000
1376.182251 1330.000000
1377.848633 1152.000000
1379.514038 1225.000000
1381.178467 1152.000000
1382.841675 1251.000000
1384.504272 1188.000000
1386.165527 1152.000000
1387.825928 1149.000000
1389.485229 1109.000000
1391.143555 1139.000000
1392.801147 1144.000000
1394.457520 1152.000000
1396.113037 1103.000000
1397.767334 1097.000000
1399.420776 1186.000000
1401.073120 1180.000000
1402.724731 1117.000000
1404.375122 1119.000000
1406.024414 1167.000000
1407.672974 1112.000000
1409.320435 1024.000000
1410.966919 1079.000000
1412.612549 1002.000000
1414.257202 1090.000000
1415.900635 1012.000000
1417.543213 1072.000000
1419.184692 1114.000000
1420.825317 1087.000000
1422.464966 996.000000
1424.103516 1069.000000
1425.741211 1093.000000
1427.377808 960.000000
1429.013428 978.000000
1430.648315 1120.000000
1432.282104 1069.000000
1433.914795 1094.000000
1435.546509 1084.000000
1437.177368 1084.000000
1438.807129 1079.000000
1440.435791 1002.000000
1442.063843 1072.000000
1443.690796 1056.000000
1445.316528 1043.000000
1446.941650 1139.000000
1448.565674 1032.000000
1450.188721 1147.000000
1451.810791 1240.000000
1453.431763 1242.000000
1455.051758 1173.000000
1456.671021 1288.000000
1458.288940 1278.000000
1459.906250 1115.000000
1461.522583 1321.000000
1463.137695 1230.000000
1464.751953 1220.000000
1466.365356 1152.000000
1467.977661 1054.000000
1469.589111 1134.000000
1471.199707 1036.000000
1472.809082 1087.000000
1474.417480 1044.000000
1476.025024 1016.000000
1477.631592 953.000000
1479.237427 1031.000000
1480.842041 1038.000000
1482.445801 1005.000000
1484.048340 1057.000000
1485.650269 893.000000
1487.250977 846.000000
1488.850952 861.000000
1490.449829 966.000000
1492.047852 854.000000
1493.644775 879.000000
1495.240845 895.000000
1496.835938 970.000000
1498.430054 1041.000000
1500.023438 964.000000
1501.615723 969.000000
1503.206787 881.000000
1504.797363 904.000000
1506.386597 921.000000
1507.975220 991.000000
1509.562744 930.000000
1511.149170 889.000000
1512.734863 816.000000
1514.319458 958.000000
1515.903198 855.000000
1517.485840 921.000000
1519.067749 947.000000
1520.648560 977.000000
1522.228638 852.000000
1523.807495 894.000000
1525.385498 850.000000
1526.962769 918.000000
1528.538818 923.000000
1530.114136 1024.000000
1531.688354 884.000000
1533.261841 800.000000
1534.834106 841.000000
1536.405640 854.000000
1537.976196 869.000000
1539.545898 857.000000
1541.114380 849.000000
1542.682129 858.000000
1544.249023 791.000000
1545.814697 790.000000
1547.379639 831.000000
1548.943481 843.000000
1550.506714 845.000000
1552.068604 911.000000
1553.629883 1007.000000
1555.190063 866.000000
1556.749512 994.000000
1558.307861 910.000000
1559.865479 891.000000
1561.421997 774.000000
1562.977295 808.000000
1564.531982 823.000000
1566.085938 804.000000
1567.638916 817.000000
1569.190552 809.000000
1570.741455 816.000000
1572.291626 885.000000
1573.840820 876.000000
1575.388672 814.000000
1576.936035 782.000000
1578.482422 813.000000
1580.027954 825.000000
1581.572510 864.000000
1583.115845 780.000000
1584.658569 809.000000
1586.200439 811.000000
1587.741211 721.000000
1589.281006 852.000000
1590.820068 804.000000
1592.358032 770.000000
1593.895508 874.000000
1595.431641 826.000000
1596.966675 744.000000
1598.501221 769.000000
1600.034790 800.000000
1601.567505 912.000000
1603.098633 764.000000
1604.629517 820.000000
1606.159546 785.000000
1607.688354 719.000000
1609.216064 796.000000
1610.743164 796.000000
1612.269531 803.000000
1613.794922 726.000000
1615.319458 766.000000
1616.842651 848.000000
1618.365112 717.000000
1619.886841 790.000000
1621.407715 784.000000
1622.927124 672.000000
1624.446045 783.000000
1625.964233 705.000000
1627.481567 828.000000
1628.997803 767.000000
1630.512695 691.000000
1632.027100 830.000000
1633.540771 809.000000
1635.053345 753.000000
1636.564697 759.000000
1638.075684 721.000000
1639.585571 785.000000
1641.094604 669.000000
1642.602295 693.000000
1644.109619 690.000000
1645.616089 682.000000
1647.121582 701.000000
1648.626221 722.000000
1650.129395 789.000000
1651.631958 765.000000
1653.134155 704.000000
1654.635010 779.000000
1656.134766 796.000000
1657.633667 746.000000
1659.132202 751.000000
1660.629517 672.000000
1662.126099 723.000000
1663.621094 664.000000
1665.115845 628.000000
1666.609741 630.000000
1668.102661 757.000000
1669.594238 735.000000
1671.085327 713.000000
1672.575806 644.000000
1674.065186 721.000000
1675.553101 682.000000
1677.040771 697.000000
1678.527466 602.000000
1680.013306 673.000000
1681.498291 677.000000
1682.981812 724.000000
1684.465088 598.000000
1685.947510 629.000000
1687.428833 575.000000
1688.908691 609.000000
1690.388306 697.000000
1691.867188 628.000000
1693.345093 381.000000
1694.822021 597.000000
1696.297729 647.000000
1697.773071 597.000000
1699.247192 696.000000
1700.720703 641.000000
1702.192749 601.000000
1703.664551 658.000000
1705.135376 614.000000
1706.605347 535.000000
1708.073975 639.000000
1709.542114 562.000000
1711.009521 732.000000
1712.475830 643.000000
1713.941528 661.000000
1715.405518 598.000000
1716.869385 652.000000
1718.332397 724.000000
1719.794434 598.000000
1721.255249 642.000000
1722.715454 681.000000
1724.174927 587.000000
1725.633545 639.000000
1727.091187 668.000000
1728.547485 595.000000
1730.003540 594.000000
1731.458618 701.000000
1732.912720 598.000000
1734.365601 643.000000
1735.818237 591.000000
1737.269775 697.000000
1738.720581 566.000000
1740.170410 541.000000
1741.618896 577.000000
1743.067017 621.000000
1744.514282 578.000000
1745.960815 649.000000
1747.405762 535.000000
1748.850464 605.000000
1750.294312 514.000000
1751.737305 597.000000
1753.178833 563.000000
1754.620117 626.000000
1756.060547 657.000000
1757.500000 625.000000
1758.938477 589.000000
1760.375977 566.000000
1761.812988 508.000000
1763.249023 509.000000
1764.684204 549.000000
1766.117920 590.000000
1767.551514 608.000000
1768.984131 613.000000
1770.415894 619.000000
1771.846802 547.000000
1773.276489 536.000000
1774.705444 597.000000
1776.133911 574.000000
1777.561401 569.000000
1778.987549 546.000000
1780.413452 572.000000
1781.838257 546.000000
1783.262451 519.000000
1784.685181 521.000000
1786.107422 556.000000
1787.528931 484.000000
1788.949707 780.000000
1790.369507 546.000000
1791.787964 539.000000
1793.205933 543.000000
1794.623291 505.000000
1796.039795 449.000000
1797.454834 485.000000
1798.869507 502.000000
1800.283569 530.000000
1801.696411 481.000000
1803.108643 518.000000
1804.519531 537.000000
1805.929932 416.000000
1807.339600 567.000000
1808.748291 457.000000
1810.155884 535.000000
1811.562988 461.000000
1812.969238 464.000000
1814.374512 503.000000
1815.778687 493.000000
1817.182495 518.000000
1818.585327 526.000000
1819.987305 492.000000
1821.388672 498.000000
1822.788574 534.000000
1824.187866 528.000000
1825.586670 480.000000
1826.984619 405.000000
1828.381226 461.000000
1829.777222 425.000000
1831.172485 504.000000
1832.567139 420.000000
1833.960815 521.000000
1835.353149 522.000000
1836.744995 441.000000
1838.136230 461.000000
1839.526489 573.000000
1840.915527 475.000000
1842.304199 464.000000
1843.691895 494.000000
1845.078857 426.000000
1846.464478 495.000000
1847.849854 518.000000
1849.234375 475.000000
1850.618164 444.000000
1852.000854 556.000000
1853.382324 483.000000
1854.763306 440.000000
1856.143799 462.000000
1857.523315 433.000000
1858.901367 384.000000
1860.279297 458.000000
1861.656250 460.000000
1863.032471 385.000000
1864.407837 381.000000
1865.781738 480.000000
1867.155518 509.000000
1868.528442 440.000000
1869.900269 474.000000
1871.271118 390.000000
1872.641602 465.000000
1874.010986 401.000000
1875.379883 435.000000
1876.747192 479.000000
1878.114380 369.000000
1879.480591 475.000000
1880.846069 414.000000
1882.210815 373.000000
1883.573975 422.000000
1884.937012 510.000000
1886.299194 389.000000
1887.660522 375.000000
1889.020508 370.000000
1890.380127 389.000000
1891.739136 432.000000
1893.097168 346.000000
1894.454346 349.000000
1895.810303 348.000000
1897.166016 509.000000
1898.520752 444.000000
1899.874634 408.000000
1901.227417 390.000000
1902.579712 388.000000
1903.931274 486.000000
1905.281982 280.000000
1906.631470 341.000000
1907.980469 427.000000
1909.328613 371.000000
1910.676147 416.000000
1912.022949 408.000000
1913.368164 454.000000
1914.713135 402.000000
1916.057373 503.000000
1917.400757 388.000000
1918.742798 444.000000
1920.084595 432.000000
1921.425537 447.000000
1922.765747 438.000000
1924.104980 435.000000
1925.443237 381.000000
1926.780884 412.000000
1928.117798 322.000000
1929.453857 387.000000
1930.788696 433.000000
1932.123169 338.000000
1933.456909 417.000000
1934.789795 385.000000
1936.121216 394.000000
1937.452759 439.000000
1938.782959 457.000000
1940.112671 351.000000
1941.441528 318.000000
1942.769165 316.000000
1944.096313 369.000000
1945.422729 374.000000
1946.748413 362.000000
1948.072754 515.000000
1949.396851 457.000000
1950.720093 422.000000
1952.042603 387.000000
1953.364014 363.000000
1954.684448 317.000000
1956.004272 335.000000
1957.323730 356.000000
1958.642212 422.000000
1959.959351 351.000000
1961.276123 386.000000
1962.592163 411.000000
1963.907471 392.000000
1965.221313 332.000000
1966.534912 386.000000
1967.847778 363.000000
1969.159790 342.000000
1970.471191 341.000000
1971.781250 364.000000
1973.090820 337.000000
1974.399658 321.000000
1975.707886 288.000000
1977.014771 362.000000
1978.321045 311.000000
1979.626953 410.000000
1980.931641 395.000000
1982.235840 388.000000
1983.538818 368.000000
1984.841431 346.000000
1986.143066 269.000000
1987.444092 293.000000
1988.743530 303.000000
1990.043091 269.000000
1991.341553 333.000000
1992.639526 334.000000
1993.935913 307.000000
1995.232300 322.000000
1996.527710 262.000000
1997.822388 199.000000
1999.116211 312.000000
2000.408813 205.000000
2001.700928 321.000000
2002.992554 365.000000
2004.283447 227.000000
2005.572754 192.000000
2006.861816 322.000000
2008.150146 391.000000
2009.437744 282.000000
2010.724487 335.000000
2012.010132 253.000000
2013.295410 231.000000
2014.579712 229.000000
2015.863403 305.000000
2017.145752 343.000000
2018.427734 234.000000
2019.709229 302.000000
2020.989746 270.000000
2022.269531 353.000000
2023.548218 209.000000
2024.826172 244.000000
2026.103638 256.000000
2027.380493 335.000000
2028.655640 226.000000
2029.930908 317.000000
2031.205200 215.000000
2032.478516 275.000000
2033.750977 298.000000
2035.023071 212.000000
2036.294067 302.000000
2037.564819 390.000000
2038.834229 286.000000
2040.102539 227.000000
2041.370850 256.000000
2042.638184 269.000000
2043.904785 296.000000
2045.170166 327.000000
2046.434937 206.000000
2047.699463 323.000000
2048.962646 270.000000
2050.225586 276.000000
2051.486572 223.000000
2052.748047 268.000000
2054.008301 285.000000
2055.267822 268.000000
2056.526611 244.000000
2057.784424 287.000000
2059.041748 257.000000
2060.298340 286.000000
2061.553467 308.000000
2062.808594 288.000000
2064.062744 225.000000
2065.316162 230.000000
2066.568848 216.000000
2067.820313 301.000000
2069.071533 244.000000
2070.322021 274.000000
2071.571777 280.000000
2072.820068 580.000000
2074.068359 311.000000
2075.315674 260.000000
2076.562256 225.000000
2077.808105 291.000000
2079.052734 307.000000
2080.296875 249.000000
2081.540527 315.000000
2082.783203 142.000000
2084.024658 249.000000
2085.265869 230.000000
2086.506592 194.000000
2087.746338 289.000000
2088.984863 321.000000
2090.222900 207.000000
2091.460205 327.000000
2092.697266 291.000000
2093.932861 225.000000
2095.167725 206.000000
2096.402344 257.000000
2097.635986 229.000000
2098.868652 251.000000
2100.100586 287.000000
2101.332031 123.000000
2102.562500 245.000000
2103.792236 293.000000
2105.021729 222.000000
2106.249268 161.000000
2107.477051 262.000000
2108.704102 231.000000
2109.930176 250.000000
2111.154785 257.000000
2112.379639 222.000000
2113.603271 216.000000
2114.826416 206.000000
2116.048340 292.000000
2117.270020 106.000000
2118.490723 157.000000
2119.710693 223.000000
2120.930176 259.000000
2122.148193 268.000000
2123.366211 176.000000
2124.583252 102.000000
2125.799805 198.000000
2127.014648 241.000000
2128.229736 275.000000
2129.443848 239.000000
2130.657227 252.000000
2131.869873 244.000000
2133.081055 238.000000
2134.292480 243.000000
2135.502686 70.000000
2136.712402 231.000000
2137.920654 187.000000
2139.128906 247.000000
2140.336426 289.000000
2141.542725 356.000000
2142.748291 247.000000
2143.953613 255.000000
2145.157959 274.000000
2146.361572 257.000000
2147.564697 243.000000
2148.766357 259.000000
2149.967773 266.000000
2151.168457 280.000000
2152.368408 157.000000
2153.567139 246.000000
2154.765625 246.000000
2155.963623 237.000000
2157.160645 243.000000
2158.356934 301.000000
2159.552002 124.000000
2160.746826 285.000000
2161.940918 225.000000
2163.134033 250.000000
2164.326172 186.000000
2165.518066 181.000000
2166.709229 183.000000
2167.899414 153.000000
2169.088867 208.000000
2170.277832 184.000000
2171.465820 119.000000
2172.653564 161.000000
2173.839844 165.000000
2175.025391 161.000000
2176.210693 124.000000
2177.395508 134.000000
2178.579102 90.000000
2179.761963 246.000000
2180.943848 278.000000
2182.125488 127.000000
2183.306641 72.000000
2184.486572 152.000000
2185.665527 168.000000
2186.843994 203.000000
2188.022217 133.000000
2189.199219 192.000000
2190.375244 184.000000
2191.551025 228.000000
2192.726318 178.000000
2193.900146 170.000000
2195.073486 157.000000
2196.246582 203.000000
2197.418457 217.000000
2198.589844 211.000000
2199.760742 257.000000
2200.929932 178.000000
2202.099121 162.000000
2203.267822 190.000000
2204.435547 239.000000
2205.602295 154.000000
2206.768311 164.000000
2207.933838 221.000000
2209.099121 156.000000
2210.262939 170.000000
2211.426270 148.000000
2212.588379 196.000000
2213.750732 158.000000
2214.911865 172.000000
2216.072021 211.000000
2217.231689 221.000000
2218.391113 136.000000
2219.549316 169.000000
2220.706543 257.000000
2221.863525 78.000000
2223.019775 177.000000
2224.175293 156.000000
2225.330078 147.000000
2226.483887 126.000000
2227.636719 107.000000
2228.790039 146.000000
2229.941406 120.000000
2231.092529 213.000000
2232.242920 144.000000
2233.392822 161.000000
2234.541748 111.000000
2235.690186 160.000000
2236.837158 142.000000
2237.984375 179.000000
2239.130371 162.000000
2240.276123 150.000000
2241.420166 139.000000
2242.564453 132.000000
2243.707764 170.000000
2244.850342 192.000000
2245.991943 157.000000
2247.133301 134.000000
2248.273682 113.000000
2249.413330 172.000000
2250.552490 208.000000
2251.690430 210.000000
2252.828369 84.000000
2253.965332 141.000000
2255.101563 104.000000
2256.236816 119.000000
2257.371338 227.000000
2258.505615 212.000000
2259.639404 118.000000
2260.771729 161.000000
2261.903564 215.000000
2263.034912 161.000000
2264.165283 173.000000
2265.295410 107.000000
2266.424316 154.000000
2267.552734 117.000000
2268.680664 141.000000
2269.807617 249.000000
2270.933838 93.000000
2272.059082 27.000000
2273.184326 181.000000
2274.308838 66.000000
2275.432129 209.000000
2276.554688 194.000000
2277.676758 114.000000
2278.798340 195.000000
2279.919189 120.000000
2281.038818 118.000000
2282.157959 172.000000
2283.276855 -8.000000
2284.395020 91.000000
2285.512207 161.000000
2286.628418 136.000000
2287.744385 153.000000
2288.859619 184.000000
2289.974121 93.000000
2291.087402 134.000000
2292.200684 149.000000
2293.313232 82.000000
2294.425049 80.000000
2295.536133 142.000000
2296.645996 131.000000
2297.755371 111.000000
2298.864502 241.000000
2299.972656 168.000000
2301.079834 156.000000
2302.186768 169.000000
2303.292969 121.000000
2304.398682 90.000000
2305.502930 109.000000
2306.606934 100.000000
2307.710449 86.000000
2308.813477 37.000000
2309.915283 216.000000
2311.016357 130.000000
2312.116943 120.000000
2313.217041 101.000000
2314.316406 214.000000
2315.414307 99.000000
2316.512695 221.000000
2317.609619 197.000000
2318.706299 175.000000
2319.802490 180.000000
2320.896973 171.000000
2321.991455 165.000000
2323.085205 174.000000
2324.178711 166.000000
2325.270508 112.000000
2326.362305 105.000000
2327.453369 242.000000
2328.543701 168.000000
2329.633057 228.000000
2330.722412 245.000000
2331.810547 282.000000
2332.898193 137.000000
2333.985596 111.000000
2335.071289 76.000000
2336.156738 86.000000
2337.241943 151.000000
2338.326172 110.000000
2339.409424 198.000000
2340.492432 92.000000
2341.574463 372.000000
2342.656250 169.000000
2343.737305 167.000000
2344.817139 103.000000
2345.896484 56.000000
2346.975342 43.000000
2348.053711 170.000000
2349.130615 219.000000
2350.207275 95.000000
2351.283691 56.000000
2352.359131 57.000000
2353.433594 168.000000
2354.507813 90.000000
2355.581299 121.000000
2356.654297 144.000000
2357.726074 109.000000
2358.797607 115.000000
2359.868164 99.000000
2360.938477 150.000000
2362.007813 51.000000
2363.076172 87.000000
2364.144287 85.000000
2365.211670 73.000000
2366.278564 45.000000
2367.344727 175.000000
2368.409668 83.000000
2369.474609 334.000000
2370.538818 58.000000
2371.602295 138.000000
2372.664551 170.000000
2373.726807 123.000000
2374.788086 128.000000
2375.849121 81.000000
2376.908936 148.000000
2377.968018 128.000000
2379.027100 150.000000
2380.085205 52.000000
2381.142578 114.000000
2382.198975 181.000000
2383.255127 80.000000
2384.310791 97.000000
2385.365723 180.000000
2386.419189 151.000000
2387.472900 143.000000
2388.525635 101.000000
2389.577881 78.000000
2390.629395 52.000000
2391.679932 126.000000
2392.730225 109.000000
2393.779541 41.000000
2394.828857 91.000000
2395.876709 141.000000
2396.924072 49.000000
2397.971191 131.000000
2399.017334 111.000000
2400.062744 106.000000
2401.107422 123.000000
2402.152100 62.000000
2403.195313 82.000000
2404.238525 95.000000
2405.280273 88.000000
2406.322266 66.000000
2407.363525 139.000000
2408.403809 91.000000
2409.443359 54.000000
2410.481934 168.000000
2411.520752 25.000000
2412.558350 99.000000
2413.595703 21.000000
2414.631836 104.000000
2415.667725 55.000000
2416.702881 75.000000
2417.737549 2.000000
2418.770752 70.000000
2419.804199 144.000000
2420.836670 91.000000
2421.868896 59.000000
2422.899658 79.000000
2423.930420 136.000000
2424.960693 160.000000
2425.989746 81.000000
2427.018799 91.000000
2428.046143 22.000000
2429.073975 27.000000
2430.100586 60.000000
2431.126953 30.000000
2432.151855 47.000000
2433.177002 87.000000
2434.201172 55.000000
2435.225098 195.000000
2436.247803 85.000000
2437.269775 174.000000
2438.291504 30.000000
2439.312500 42.000000
2440.333008 2.000000
2441.352295 91.000000
2442.371582 47.000000
2443.389893 52.000000
2444.407959 77.000000
2445.424561 5.000000
2446.441162 45.000000
2447.457031 94.000000
2448.472900 140.000000
2449.487305 193.000000
2450.500977 58.000000
2451.514160 71.000000
2452.527100 52.000000
2453.539307 4.000000
2454.550537 46.000000
2455.561523 72.000000
2456.571777 174.000000
2457.581543 71.000000
2458.590332 101.000000
2459.598389 159.000000
2460.606445 128.000000
2461.613281 112.000000
2462.619873 45.000000
2463.625244 182.000000
2464.630371 66.000000
2465.635254 79.000000
2466.638916 55.000000
2467.642334 67.000000
2468.644775 57.000000
2469.646973 132.000000
2470.648682 62.000000
2471.649414 106.000000
2472.649170 66.000000
2473.648926 106.000000
2474.647705 61.000000
2475.645996 -12.000000
2476.643311 39.000000
2477.640381 123.000000
2478.637451 12.000000
2479.633057 -5.000000
2480.628662 121.000000
2481.622559 -22.000000
2482.616455 34.000000
2483.609863 116.000000
2484.602783 77.000000
2485.594727 150.000000
2486.585938 104.000000
2487.576904 8.000000
2488.567383 168.000000
2489.556885 86.000000
2490.545654 83.000000
2491.534424 135.000000
2492.522217 67.000000
2493.508789 116.000000
2494.495361 -3.000000
2495.481445 81.000000
2496.466797 34.000000
2497.451172 21.000000
2498.435303 13.000000
2499.419434 19.000000
2500.402100 47.000000
2501.384277 20.000000
2502.365967 22.000000
2503.346924 145.000000
2504.327393 113.000000
2505.307617 57.000000
2506.286377 99.000000
2507.264893 13.000000
2508.242920 129.000000
2509.220459 106.000000
2510.197021 49.000000
2511.173340 97.000000
2512.148926 46.000000
2513.124023 105.000000
2514.098633 25.000000
2515.072021 69.000000
2516.045166 -38.000000
2517.018066 124.000000
2517.989990 83.000000
2518.961182 103.000000
2519.931885 11.000000
2520.902344 73.000000
2521.872070 -100.000000
2522.840820 62.000000
2523.808838 -10.000000
2524.776855 -15.000000
2525.743896 94.000000
2526.710693 40.000000
2527.676270 20.000000
2528.641846 81.000000
2529.606689 15.000000
2530.571045 -17.000000
2531.534180 68.000000
2532.497559 -28.000000
2533.459961 21.000000
2534.422119 69.000000
2535.383057 63.000000
2536.343262 131.000000
2537.303711 220.000000
2538.263184 26.000000
2539.221924 34.000000
2540.179688 90.000000
2541.137695 30.000000
2542.094971 77.000000
2543.051270 77.000000
2544.007324 175.000000
2544.962158 124.000000
2545.917236 3.000000
2546.871582 77.000000
2547.825195 -214.000000
2548.777832 -18.000000
2549.730225 81.000000
2550.682129 34.000000
2551.633301 22.000000
2552.583740 76.000000
2553.533691 11.000000
2554.483398 105.000000
2555.432373 48.000000
2556.380859 45.000000
2557.328125 20.000000
2558.275391 89.000000
2559.221924 -30.000000
2560.167969 -33.000000
2561.113037 81.000000
2562.057861 112.000000
2563.002197 45.000000
2563.946045 67.000000
2564.889404 114.000000
2565.831299 -10.000000
2566.773438 16.000000
2567.714844 47.000000
2568.655518 102.000000
2569.595459 101.000000
2570.535400 100.000000
2571.474365 144.000000
2572.413086 67.000000
2573.350830 127.000000
2574.288330 -26.000000
2575.225098 9.000000
2576.161133 -41.000000
2577.096680 73.000000
2578.031494 26.000000
2578.966309 15.000000
2579.900146 66.000000
2580.833496 -86.000000
2581.766113 62.000000
2582.698486 0.000000
2583.630127 67.000000
2584.561279 75.000000
2585.491943 12.000000
2586.421387 80.000000
2587.350830 16.000000
2588.279785 46.000000
2589.208496 110.000000
2590.135498 56.000000
2591.062744 85.000000
2591.989502 4.000000
2592.915527 31.000000
2593.841309 35.000000
2594.765869 68.000000
2595.690186 -30.000000
2596.614014 20.000000
2597.537354 14.000000
2598.459717 -83.000000
2599.381836 23.000000
2600.303467 119.000000
2601.224365 21.000000
2602.144531 16.000000
2603.064453 -1.000000
2603.983887 29.000000
2604.903076 146.000000
2605.821289 57.000000
2606.738281 76.000000
2607.655518 -3.000000
2608.572510 -37.000000
2609.488525 56.000000
2610.403320 81.000000
2611.318604 49.000000
2612.233154 14.000000
2613.146729 47.000000
2614.060303 4.000000
2614.972656 22.000000
2615.885010 -30.000000
2616.796387 35.000000
2617.707520 14.000000
2618.617920 8.000000
2619.528076 15.000000
2620.437500 40.000000
2621.346436 5.000000
2622.254395 -28.000000
2623.162598 -43.000000
2624.069824 126.000000
2624.976563 44.000000
2625.882568 54.000000
2626.788330 17.000000
2627.693359 46.000000
2628.598145 59.000000
2629.502197 27.000000
2630.405273 -41.000000
2631.308350 46.000000
2632.210449 75.000000
2633.112549 50.000000
2634.014404 13.000000
2634.914551 -15.000000
2635.814941 73.000000
2636.714600 -31.000000
2637.614014 45.000000
2638.511963 -3.000000
2639.410400 26.000000
2640.308350 9.000000
2641.205566 21.000000
2642.101563 25.000000
2642.997559 143.000000
2643.893311 -8.000000
2644.788330 37.000000
2645.683105 30.000000
2646.576416 6.000000
2647.469727 -27.000000
2648.362793 4.000000
2649.255615 -51.000000
2650.146729 11.000000
2651.038086 -29.000000
2651.928955 46.000000
2652.819092 40.000000
2653.708984 19.000000
2654.597656 109.000000
2655.486572 62.000000
2656.375000 -52.000000
2657.262451 32.000000
2658.148926 67.000000
2659.035889 -21.000000
2659.922119 53.000000
2660.807861 -44.000000
2661.692383 53.000000
2662.576904 -22.000000
2663.461182 67.000000
2664.344727 18.000000
2665.227783 119.000000
2666.110107 143.000000
2666.991943 29.000000
2667.873047 81.000000
2668.754395 63.000000
2669.634277 30.000000
2670.514404 53.000000
2671.393799 10.000000
2672.273193 -61.000000
2673.151855 78.000000
2674.028809 80.000000
2674.906494 -49.000000
2675.783447 29.000000
2676.659668 33.000000
2677.535400 29.000000
2678.410400 31.000000
2679.285645 1.000000
2680.159912 34.000000
2681.033691 74.000000
2681.906738 54.000000
2682.779541 -22.000000
2683.652100 -19.000000
2684.523926 8.000000
2685.395020 -17.000000
2686.265869 9.000000
2687.136230 99.000000
2688.006348 58.000000
2688.874756 -48.000000
2689.743896 82.000000
2690.612305 27.000000
2691.480469 30.000000
2692.347900 -41.000000
2693.214111 -11.000000
2694.080811 51.000000
2694.946533 65.000000
2695.812256 -15.000000
2696.676514 182.000000
2697.541504 54.000000
2698.405029 30.000000
2699.268799 -59.000000
2700.131104 59.000000
2700.993896 -19.000000
2701.855713 31.000000
2702.717041 35.000000
2703.578369 57.000000
2704.438477 -29.000000
2705.298584 62.000000
2706.158203 -83.000000
2707.017578 10.000000
2707.875244 127.000000
2708.733154 2.000000
2709.591553 28.000000
2710.448730 -97.000000
2711.305176 148.000000
2712.161133 -17.000000
2713.017090 15.000000
2713.872314 31.000000
2714.726807 50.000000
2715.580811 -4.000000
2716.434814 38.000000
2717.287842 -1.000000
2718.141113 -42.000000
2718.992676 40.000000
2719.844727 15.000000
2720.696533 41.000000
2721.547119 -83.000000
2722.397705 20.000000
2723.247803 -40.000000
2724.097168 194.000000
2724.946533 167.500000
2725.794678 141.000000
2726.642334 -12.000000
2727.490479 68.000000
2728.337402 57.000000
2729.184814 35.000000
2730.030762 62.000000
2730.875977 25.000000
2731.721680 16.000000
2732.566406 14.000000
2733.411133 -14.000000
2734.254639 -53.000000
2735.098389 51.000000
2735.941406 68.000000
2736.783936 71.000000
2737.625488 77.000000
2738.467529 51.000000
2739.308594 -33.000000
2740.149414 -49.000000
2740.989990 122.000000
2741.829346 -62.000000
2742.668701 90.000000
2743.508057 -14.000000
2744.346191 30.000000
2745.183838 76.000000
2746.021484 9.000000
2746.858643 -51.000000
2747.695557 -80.000000
2748.531982 15.000000
2749.367188 -60.000000
2750.202637 -17.000000
2751.037598 35.000000
2751.871826 -23.000000
2752.705811 -45.000000
2753.539307 27.000000
2754.372803 43.000000
2755.205322 6.000000
2756.037354 -82.000000
2756.868896 55.000000
2757.700439 51.000000
2758.531006 1.000000
2759.361816 8.000000
2760.191406 100.000000
2761.020996 -6.000000
2761.850342 6.000000
2762.678955 -6.000000
2763.507080 44.000000
2764.334717 20.000000
2765.162354 -12.000000
2765.989502 -16.000000
2766.815918 11.000000
2767.641846 -37.000000
2768.467285 36.000000
2769.292480 -16.000000
2770.117676 -5.000000
2770.941650 -13.000000
2771.765625 7.000000
2772.589600 -16.000000
2773.412354 12.000000
2774.235352 -18.000000
2775.057129 41.000000
2775.878906 6.000000
2776.700684 4.000000
2777.521484 -8.000000
2778.341553 19.000000
2779.161865 -11.000000
2779.981689 -16.000000
2780.801514 71.000000
2781.619385 -1.000000
2782.438477 -58.000000
2783.256348 -107.000000
2784.073975 -89.000000
2784.891113 -86.000000
2785.707764 -25.000000
2786.524170 91.000000
2787.340088 -45.000000
2788.155762 2.000000
2788.970459 55.000000
2789.785645 63.000000
2790.600098 -21.000000
2791.414063 -18.000000
2792.227783 -40.000000
2793.040283 -47.000000
2793.853027 26.000000
2794.665283 -14.000000
2795.477051 -40.000000
2796.288086 -40.000000
2797.099854 -98.000000
2797.910400 -56.000000
2798.720947 -13.000000
2799.530029 69.000000
2800.339844 16.000000
2801.148926 -16.000000
2801.957764 12.000000
2802.766113 -74.000000
2803.573486 -47.000000
2804.381348 -11.000000
2805.188477 -20.000000
2805.995361 28.000000
2806.801025 28.000000
2807.607178 93.000000
2808.412598 -38.000000
2809.218018 -27.000000
2810.022705 -32.000000
2810.826416 5.000000
2811.630615 -51.000000
2812.434326 -16.000000
2813.237793 82.000000
2814.039795 -35.000000
2814.842529 -50.000000
2815.644531 26.000000
2816.446289 -71.000000
2817.247559 4.000000
2818.048340 50.000000
2818.848633 16.000000
2819.649170 -97.000000
2820.448730 -18.000000
2821.247803 12.000000
2822.046875 9.000000
2822.845703 -68.000000
2823.644043 63.000000
2824.441406 92.000000
2825.239014 -36.000000
2826.035889 -107.000000
2826.833008 4.000000
2827.629395 55.000000
2828.425049 -53.000000
2829.220703 -41.000000
2830.016113 -35.000000
2830.811035 56.000000
2831.605225 10.000000
2832.399414 -25.000000
2833.193359 -98.000000
2833.986816 15.000000
2834.779541 -23.000000
2835.572021 140.000000
2836.364502 6.000000
2837.156738 -29.000000
2837.948486 -10.000000
2838.739258 194.000000
2839.530029 -48.000000
2840.321045 48.000000
2841.111084 142.000000
2841.900635 49.000000
2842.690430 36.000000
2843.479248 29.000000
2844.268066 -83.000000
2845.056885 12.000000
2845.844727 2.000000
2846.632080 -29.000000
2847.419678 -5.000000
2848.206787 55.000000
2848.993164 -16.000000
2849.779541 -52.000000
2850.565674 -15.000000
2851.351318 -30.000000
2852.135986 25.000000
2852.921143 43.000000
2853.706055 9.000000
2854.490234 82.000000
2855.274414 -15.000000
2856.057373 -13.000000
2856.840576 11.000000
2857.623535 9.000000
2858.406006 7.000000
2859.188232 -21.000000
2859.969971 -5.000000
2860.751465 -55.000000
2861.533203 146.000000
2862.314209 77.000000
2863.094482 -58.000000
2863.874512 -17.000000
2864.654541 37.000000
2865.434326 164.000000
2866.213135 58.000000
2866.992188 12.000000
2867.770752 87.000000
2868.549072 30.000000
2869.326904 -44.000000
2870.104492 -24.000000
2870.881836 -8.000000
2871.658936 9.000000
2872.435547 21.000000
2873.211670 -33.000000
2873.987793 -19.000000
2874.763428 76.000000
2875.538818 98.000000
2876.313721 -2.000000
2877.088379 9.000000
2877.863037 123.000000
2878.637451 17.000000
2879.411133 56.000000
2880.184082 56.000000
2880.957764 27.000000
2881.730469 35.000000
2882.503174 30.000000
2883.275146 -8.000000
2884.046875 32.000000
2884.819092 46.000000
2885.590088 102.000000
2886.360596 28.000000
2887.131592 1.000000
2887.902588 -24.000000
2888.672852 -16.000000
2889.442139 -49.000000
2890.211670 -20.000000
2890.981201 -7.000000
2891.750244 56.000000
2892.518799 -23.000000
2893.287354 70.000000
2894.054932 52.000000
2894.822998 -55.000000
2895.590576 44.000000
2896.358154 87.000000
2897.124512 68.000000
2897.891846 43.000000
2898.657959 81.000000
2899.424316 80.000000
2900.189209 94.000000
2900.954590 40.000000
2901.720459 10.000000
2902.484863 30.000000
2903.249268 -12.000000
2904.013916 12.000000
2904.777588 -44.000000
2905.541992 8.000000
2906.305664 25.000000
2907.068604 -24.000000
2907.831299 36.000000
2908.594482 -112.000000
2909.357178 84.000000
2910.118652 65.000000
2910.880615 65.000000
spectrumdark 2048
-97.350151 6205.000000
-94.723282 6205.000000
-92.098289 6085.000000
-89.475189 6421.000000
-86.853958 5863.000000
-84.234627 6302.000000
-81.617157 6074.000000
-79.001564 6422.000000
-76.387848 6247.000000
-73.776009 5847.000000
-71.166031 6033.000000
-68.557938 6005.000000
-65.951691 5940.000000
-63.347321 5979.000000
-60.744812 6130.000000
-58.144157 5698.000000
-55.545364 6255.000000
-52.948429 6925.000000
-50.353348 6518.000000
-47.760120 6528.000000
-45.168743 6288.000000
-42.579212 6699.000000
-39.991524 5987.000000
-37.405685 6077.000000
-34.821690 6417.000000
-32.239532 5717.000000
-29.659218 6399.000000
-27.080732 5731.000000
-24.504089 6107.000000
-21.929272 6223.000000
-19.356295 6458.000000
-16.785137 6522.000000
-14.215814 6822.000000
-11.648315 7778.000000
-9.082636 6282.000000
-6.518782 6472.000000
-3.956742 5988.000000
-1.396526 5853.000000
1.161882 6176.000000
3.718469 6937.000000
6.273252 6660.000000
8.826217 6036.000000
11.377381 6759.000000
13.926733 6513.000000
16.474289 6543.000000
19.020033 6048.000000
21.563984 5741.000000
24.106131 6723.000000
26.646481 6822.000000
29.185045 6823.000000
31.721813 6193.000000
34.256779 5786.000000
36.789967 7243.000000
39.321373 6277.000000
41.850986 7138.000000
44.378803 6518.000000
46.904861 7804.000000
49.429131 5735.000000
51.951630 6243.000000
54.472332 6725.000000
56.991280 6248.000000
59.508453 6436.000000
62.023849 6643.000000
64.537468 5639.000000
67.049332 5730.000000
69.559448 6488.000000
72.067772 6588.000000
74.574341 5990.000000
77.079163 6338.000000
79.582230 6476.000000
82.083519 6249.000000
84.583069 6096.000000
87.080864 6388.000000
89.576927 5772.000000
92.071213 7240.000000
94.563759 5754.000000
97.054588 6941.000000
99.543648 7164.000000
102.030960 6364.000000
104.516548 6172.000000
107.000397 6405.000000
109.482498 5795.000000
111.962875 6572.000000
114.441528 6317.000000
116.918457 6421.000000
119.393631 7187.000000
121.867096 6830.000000
124.338829 5917.000000
126.808853 6751.000000
129.277115 6283.000000
131.743713 6346.000000
134.208557 5700.000000
136.671707 6258.000000
139.133118 7295.000000
141.592834 6879.000000
144.050827 6436.000000
146.507126 6008.000000
148.961716 5828.000000
151.414581 6859.000000
153.865768 6335.000000
156.315262 6569.000000
158.763031 6105.000000
161.209091 6596.000000
163.653473 8722.000000
166.096176 6474.000000
168.537186 6774.000000
170.976486 6258.000000
173.414078 7281.000000
175.850037 6624.000000
178.284256 6932.000000
180.716797 7121.000000
183.147690 6741.000000
185.576859 6782.000000
188.004379 6609.000000
190.430222 6325.000000
192.854385 6691.000000
195.276886 7138.000000
197.697693 7396.000000
200.116837 6479.000000
202.534317 6050.000000
204.950104 7567.000000
207.364243 7100.000000
209.776749 6353.000000
212.187576 5999.000000
214.596725 6300.000000
217.004242 7379.000000
219.410049 6201.000000
221.814270 6483.000000
224.216782 6726.000000
226.617676 6932.000000
229.016922 6522.000000
231.414505 6883.000000
233.810425 7190.000000
236.204727 6497.000000
238.597366 5832.000000
240.988388 6764.000000
243.377747 6535.000000
245.765488 6333.000000
248.151581 6962.000000
250.536041 6113.000000
252.918854 7809.000000
255.300095 6531.000000
257.679626 6698.000000
260.057587 6481.000000
262.433868 7542.000000
264.808594 7554.000000
267.181671 7854.000000
269.553101 6192.000000
271.922882 6418.000000
274.291107 5849.000000
276.657684 6344.000000
279.022675 6756.000000
281.386047 6057.000000
283.747772 6221.000000
286.107910 7147.000000
288.466431 5944.000000
290.823364 6585.000000
293.178680 6402.000000
295.532410 5898.000000
297.884491 5998.000000
300.235016 6337.000000
302.583954 6354.000000
304.931244 6776.000000
307.277008 6388.000000
309.621094 6520.000000
311.963654 7394.000000
314.304596 7524.000000
316.643921 7157.000000
318.981689 6896.000000
321.317902 8081.000000
323.652466 6224.000000
325.985474 6449.000000
328.316925 5970.000000
330.646790 6665.000000
332.975067 6371.000000
335.301727 7261.000000
337.626892 6378.000000
339.950439 6229.000000
342.272430 5959.000000
344.592865 7518.000000
346.911682 7682.000000
349.228943 6053.000000
351.544678 5819.000000
353.858826 6995.000000
356.171387 6348.000000
358.482391 6489.000000
360.791870 7130.000000
363.099823 6391.000000
365.406158 5706.000000
367.710907 6353.000000
370.014191 6438.000000
372.315857 6237.000000
374.616028 6351.000000
376.914642 6261.000000
379.211700 5771.000000
381.507202 6056.000000
383.801178 5875.000000
386.093567 5162.000000
388.384460 5606.000000
390.673828 6207.000000
392.961609 6292.000000
395.247864 6511.000000
397.532623 6945.000000
399.815765 6036.000000
402.097473 6406.000000
404.377655 6152.000000
406.656250 7278.000000
408.933319 6490.000000
411.208862 6696.000000
413.482880 6465.000000
415.755463 6312.000000
418.026428 6241.000000
420.295898 6465.000000
422.563873 7069.000000
424.830292 7279.000000
427.095215 6332.000000
429.358673 6263.000000
431.620544 6443.000000
433.880951 5982.000000
436.139801 6603.000000
438.397186 6112.000000
440.653076 5722.000000
442.907471 5818.000000
445.160339 5505.000000
447.411652 6954.000000
449.661560 6081.000000
451.909882 6313.000000
454.156769 5648.000000
456.402191 6454.000000
458.646057 6548.000000
460.888428 6751.000000
463.129303 5691.000000
465.368774 6665.000000
467.606659 5488.000000
469.843109 5833.000000
472.078033 6106.000000
474.311493 7338.000000
476.543518 6683.000000
478.774017 5636.000000
481.003021 6462.000000
483.230560 6352.000000
485.456604 5980.000000
487.681213 6546.000000
489.904358 5817.000000
492.126038 6380.000000
494.346161 6729.000000
496.564880 5624.000000
498.782104 6293.000000
500.997955 5543.000000
503.212189 6141.000000
505.425110 6519.000000
507.636444 6509.000000
509.846344 6830.000000
512.054810 6466.000000
514.261902 6578.000000
516.467407 6430.000000
518.671509 6490.000000
520.874084 6168.000000
523.075256 6589.000000
525.275085 6640.000000
527.473389 6873.000000
529.670166 5304.000000
531.865601 5792.000000
534.059509 5554.000000
536.252075 7553.000000
538.443115 6723.000000
540.632751 6029.000000
542.820984 6932.000000
545.007690 7117.000000
547.192932 6842.000000
549.376892 6234.000000
551.559265 6394.000000
553.740295 6176.000000
555.919800 6074.000000
558.098022 5892.000000
560.274719 6084.000000
562.450012 6392.000000
564.623901 6401.000000
566.796326 5937.000000
568.967346 6089.000000
571.136902 6332.000000
573.305176 5292.000000
575.471924 6338.000000
577.637207 6250.000000
579.801086 6127.000000
581.963684 5680.000000
584.124756 6045.000000
586.284424 5624.000000
588.442749 5721.000000
590.599548 6167.000000
592.755005 6612.000000
594.909058 5795.000000
597.061768 6160.000000
599.212952 7242.000000
601.362793 6706.000000
603.511292 6685.000000
605.658203 6019.000000
607.803894 6481.000000
609.948181 6476.000000
612.091003 6684.000000
614.232361 6166.000000
616.372498 6415.000000
618.511108 7578.000000
620.648438 5708.000000
622.784302 6565.000000
624.918762 6881.000000
627.051758 7147.000000
629.183594 6592.000000
631.313965 6564.000000
633.442932 6739.000000
635.570435 6531.000000
637.696655 6138.000000
639.821350 7316.000000
641.944824 6321.000000
644.066956 6750.000000
646.187622 6887.000000
648.306946 6597.000000
650.424866 5673.000000
652.541443 5686.000000
654.656616 6400.000000
656.770447 6451.000000
658.882813 5834.000000
660.993958 6126.000000
663.103699 5456.000000
665.211975 6097.000000
667.319092 6327.000000
669.424744 6836.000000
671.528931 5732.000000
673.631897 5744.000000
675.733459 6994.000000
677.833679 5274.000000
679.932495 6760.000000
682.029968 6221.000000
684.126160 6953.000000
686.220886 6236.000000
688.314392 6969.000000
690.406555 6584.000000
692.497192 7883.000000
694.586609 6647.000000
696.674744 6481.000000
698.761414 5979.000000
700.846863 6673.000000
702.930786 5215.000000
705.013489 5978.000000
707.094910 5942.000000
709.174866 7607.000000
711.253601 6143.000000
713.330872 5631.000000
715.406860 6528.000000
717.481567 6097.000000
719.554993 6903.000000
721.626892 6323.000000
723.697632 7366.000000
725.767029 5776.000000
727.835022 6470.000000
729.901672 6379.000000
731.967102 7039.000000
734.031189 5768.000000
736.093933 6153.000000
738.155334 6480.000000
740.215454 6618.000000
742.274170 6022.000000
744.331665 6728.000000
746.387878 6474.000000
748.442688 6664.000000
750.496216 6364.000000
752.548340 7444.000000
754.599243 5772.000000
756.648926 6661.000000
758.697144 6377.000000
760.744141 6192.000000
762.789856 7017.000000
764.834167 5361.000000
766.877197 5759.000000
768.919006 15047.000000
770.959473 6901.000000
772.998535 6351.000000
775.036438 6134.000000
777.072998 5918.000000
779.108337 5330.000000
781.142334 5786.000000
783.174927 6846.000000
785.206360 5513.000000
787.236389 12056.000000
789.265137 6033.000000
791.292725 6312.000000
793.318970 6397.000000
795.343811 5806.000000
797.367554 5501.000000
799.389893 6338.000000
801.411011 5833.000000
803.430786 6646.000000
805.449280 4897.000000
807.466553 6715.000000
809.482422 6860.000000
811.497131 5770.000000
813.510498 6453.000000
815.522644 6230.000000
817.533569 6066.000000
819.543152 6633.000000
821.551514 5352.000000
823.558472 5698.000000
825.564209 6076.000000
827.568726 5701.000000
829.571960 5583.000000
831.573914 6461.000000
833.574585 6000.000000
835.574036 5853.000000
837.572144 6330.000000
839.569153 6926.000000
841.564758 6206.000000
843.559204 6024.000000
845.552307 6143.000000
847.544189 6768.000000
849.534729 5521.000000
851.523987 6741.000000
853.512207 5933.000000
855.499023 5639.000000
857.484619 6413.000000
859.468933 7226.000000
861.452148 6262.000000
863.433960 6403.000000
865.414551 5851.000000
867.393860 7691.000000
869.372009 7097.000000
871.348816 6148.000000
873.324341 5810.000000
875.298828 6170.000000
877.271851 6034.000000
879.243835 5458.000000
881.214478 6392.000000
883.183960 6053.000000
885.152100 5572.000000
887.119080 5181.000000
889.084717 6128.000000
891.049194 5797.000000
893.012451 5962.000000
894.974487 6484.000000
896.935242 5842.000000
898.894775 6460.000000
900.853027 6718.000000
902.810181 6304.000000
904.766174 6032.000000
906.720764 6884.000000
908.674133 6469.000000
910.626343 6485.000000
912.577332 6432.000000
914.527039 7085.000000
916.475586 6313.000000
918.422913 6126.000000
920.368958 6090.000000
922.313721 6056.000000
924.257446 6291.000000
926.200012 5939.000000
928.141296 5569.000000
930.081238 6460.000000
932.020081 5737.000000
933.957642 5474.000000
935.893982 5994.000000
937.829163 5802.000000
939.763062 6160.000000
941.695862 5899.000000
943.627441 6761.000000
945.557861 5241.000000
947.487061 6388.000000
949.414917 7092.000000
951.341736 6618.000000
953.267273 5919.000000
955.191528 5375.000000
957.114685 5960.000000
959.036682 6773.000000
960.957397 7268.000000
962.876953 6406.000000
964.795349 5279.000000
966.712708 6389.000000
968.628601 6375.000000
970.543396 6124.000000
972.456970 5901.000000
974.369385 6415.000000
976.280579 6454.000000
978.190613 5514.000000
980.099365 6153.000000
982.007080 6175.000000
983.913574 6391.000000
985.818848 5716.000000
987.723022 6788.000000
989.625977 6215.000000
991.527710 6794.000000
993.428284 6662.000000
995.327698 6564.000000
997.225891 5213.000000
999.122925 6559.000000
1001.018738 6528.000000
1002.913391 7773.000000
1004.806946 5568.000000
1006.699219 7082.000000
1008.590576 6070.000000
1010.480591 5397.000000
1012.369385 6598.000000
1014.257019 6380.000000
1016.143494 6889.000000
1018.028809 6737.000000
1019.912964 5946.000000
1021.795898 5813.000000
1023.677795 6276.000000
1025.558472 5119.000000
1027.437988 5811.000000
1029.316528 6028.000000
1031.193726 5439.000000
1033.069580 6248.000000
1034.944458 5879.000000
1036.818359 6579.000000
1038.690796 7061.000000
1040.562256 6698.000000
1042.432373 5552.000000
1044.301514 5503.000000
1046.169434 5786.000000
1048.036255 7115.000000
1049.901978 6749.000000
1051.766479 6477.000000
1053.629883 6482.000000
1055.491943 6452.000000
1057.353027 5851.000000
1059.213013 6459.000000
1061.071655 6639.000000
1062.929199 5837.000000
1064.785645 6741.000000
1066.640991 5918.000000
1068.495117 5771.000000
1070.348389 6274.000000
1072.200195 6386.000000
1074.051025 6147.000000
1075.900635 6065.000000
1077.749023 5810.000000
1079.596558 7972.000000
1081.442749 5597.000000
1083.287720 6250.000000
1085.131836 5334.000000
1086.974609 5560.000000
1088.816162 6517.000000
1090.656982 5542.000000
1092.496216 5773.000000
1094.334717 6033.000000
1096.171875 6060.000000
1098.007813 6807.000000
1099.842773 6620.000000
1101.676514 5419.000000
1103.509277 5487.000000
1105.340698 6184.000000
1107.171265 7255.000000
1109.000488 6541.000000
1110.828735 6394.000000
1112.655762 7078.000000
1114.481812 5385.000000
1116.306641 6335.000000
1118.130371 7131.000000
1119.952881 6145.000000
1121.774292 5849.000000
1123.594849 5894.000000
1125.413940 6598.000000
1127.232178 7059.000000
1129.049072 6863.000000
1130.865112 6599.000000
1132.679932 6504.000000
1134.493652 5653.000000
1136.306274 5786.000000
1138.117676 5650.000000
1139.928101 6147.000000
1141.737427 6689.000000
1143.545410 6906.000000
1145.352661 5956.000000
1147.158447 5921.000000
1148.963379 5422.000000
1150.767212 5403.000000
1152.569824 6145.000000
1154.371582 6100.000000
1156.171875 6114.000000
1157.971191 6068.000000
1159.769531 5886.000000
1161.566528 5410.000000
1163.362793 5932.000000
1165.157715 6108.000000
1166.951538 6352.000000
1168.744507 7753.000000
1170.536133 5769.000000
1172.326782 6496.000000
1174.116455 5977.000000
1175.904663 5913.000000
1177.692017 7507.000000
1179.478271 6887.000000
1181.263428 5732.000000
1183.047485 6010.000000
1184.830444 7667.000000
1186.612427 5858.000000
1188.393188 5903.000000
1190.172974 6300.000000
1191.951660 6972.000000
1193.729370 6678.000000
1195.505859 7112.000000
1197.281250 6534.000000
1199.055542 6469.000000
1200.828735 6653.000000
1202.601074 6469.000000
1204.372070 6744.000000
1206.142212 5700.000000
1207.911133 6118.000000
1209.678955 6347.000000
1211.445923 5899.000000
1213.211548 5896.000000
1214.976196 6969.000000
1216.739746 6504.000000
1218.502197 5906.000000
1220.263794 6671.000000
1222.024170 5888.000000
1223.783447 6314.000000
1225.541870 6056.000000
1227.299072 7133.000000
1229.055176 6450.000000
1230.810181 5517.000000
1232.564331 5989.000000
1234.317139 5909.000000
1236.068970 5974.000000
1237.819946 5940.000000
1239.569580 4938.000000
1241.318359 6999.000000
1243.065796 6506.000000
1244.812500 6576.000000
1246.557983 6509.000000
1248.302612 6401.000000
1250.045898 6723.000000
1251.788208 6692.000000
1253.529419 5361.000000
1255.269775 5015.000000
1257.009033 5775.000000
1258.747070 6571.000000
1260.484253 7088.000000
1262.220215 6130.000000
1263.955200 6443.000000
1265.689209 7187.000000
1267.422241 5979.000000
1269.154053 6184.000000
1270.884888 6401.000000
1272.614502 7262.000000
1274.343262 5918.000000
1276.070923 5691.000000
1277.797485 5548.000000
1279.523193 5599.000000
1281.247559 6436.000000
1282.971069 5193.000000
1284.693604 6863.000000
1286.415161 6597.000000
1288.135498 6142.000000
1289.854858 6613.000000
1291.573120 7299.000000
1293.290405 6386.000000
1295.006714 5730.000000
1296.721802 6381.000000
1298.435913 6094.000000
1300.149048 5802.000000
1301.861328 6457.000000
1303.572388 8257.000000
1305.282471 5635.000000
1306.991455 6277.000000
1308.699219 6677.000000
1310.406372 7035.000000
1312.112061 5770.000000
1313.817017 6835.000000
1315.520996 6146.000000
1317.223755 5975.000000
1318.925537 6523.000000
1320.626465 6077.000000
1322.326050 8751.000000
1324.024780 30588.000000
1325.722778 5563.000000
1327.419434 6455.000000
1329.114990 7158.000000
1330.809692 6822.000000
1332.503174 5753.000000
1334.195801 5402.000000
1335.887573 7027.000000
1337.578003 6256.000000
1339.267700 6444.000000
1340.956299 6090.000000
1342.643799 7533.000000
1344.330322 5610.000000
1346.015747 6716.000000
1347.700195 5893.000000
1349.383789 7280.000000
1351.066162 6350.000000
1352.747559 5945.000000
1354.428101 6533.000000
1356.107422 6642.000000
1357.786133 5816.000000
1359.463501 6493.000000
1361.139771 5822.000000
1362.815063 5586.000000
1364.489624 6553.000000
1366.162964 6457.000000
1367.835327 6758.000000
1369.506714 5169.000000
1371.177124 6664.000000
1372.846436 6119.000000
1374.514771 5631.000000
1376.182251 5949.000000
1377.848633 6467.000000
1379.514038 6052.000000
1381.178467 5870.000000
1382.841675 5926.000000
1384.504272 5702.000000
1386.165527 6391.000000
1387.825928 6565.000000
1389.485229 6424.000000
1391.143555 6492.000000
1392.801147 6832.000000
1394.457520 6446.000000
1396.113037 6950.000000
1397.767334 6345.000000
1399.420776 5821.000000
1401.073120 6060.000000
1402.724731 6512.000000
1404.375122 7152.000000
1406.024414 6258.000000
1407.672974 7462.000000
1409.320435 7881.000000
1410.966919 6124.000000
1412.612549 6233.000000
1414.257202 5913.000000
1415.900635 7008.000000
1417.543213 7111.000000
1419.184692 6813.000000
1420.825317 6423.000000
1422.464966 6458.000000
1424.103516 5980.000000
1425.741211 6558.000000
1427.377808 6326.000000
1429.013428 6042.000000
1430.648315 6329.000000
1432.282104 5869.000000
1433.914795 6141.000000
1435.546509 5640.000000
1437.177368 6112.000000
1438.807129 6063.000000
1440.435791 7810.000000
1442.063843 5999.000000
1443.690796 6204.000000
1445.316528 6173.000000
1446.941650 6038.000000
1448.565674 6565.000000
1450.188721 6043.000000
1451.810791 5977.000000
1453.431763 7291.000000
1455.051758 6325.000000
1456.671021 6830.000000
1458.288940 5667.000000
1459.906250 14291.000000
1461.522583 5514.000000
1463.137695 7226.000000
1464.751953 6252.000000
1466.365356 5219.000000
1467.977661 5639.000000
1469.589111 6277.000000
1471.199707 6393.000000
1472.809082 5961.000000
1474.417480 5951.000000
1476.025024 6166.000000
1477.631592 6778.000000
1479.237427 5311.000000
1480.842041 6335.000000
1482.445801 5514.000000
1484.048340 6672.000000
1485.650269 5593.000000
1487.250977 5527.000000
1488.850952 5650.000000
1490.449829 6277.000000
1492.047852 6537.000000
1493.644775 6702.000000
1495.240845 6335.000000
1496.835938 6044.000000
1498.430054 5474.000000
1500.023438 6571.000000
1501.615723 5509.000000
1503.206787 6015.000000
1504.797363 6768.000000
1506.386597 6481.000000
1507.975220 6083.000000
1509.562744 6550.000000
1511.149170 6887.000000
1512.734863 6285.000000
1514.319458 6598.000000
1515.903198 6210.000000
1517.485840 6264.000000
1519.067749 6574.000000
1520.648560 6650.000000
1522.228638 6073.000000
1523.807495 6189.000000
1525.385498 6408.000000
1526.962769 6313.000000
1528.538818 5656.000000
1530.114136 5858.000000
1531.688354 6295.000000
1533.261841 5497.000000
1534.834106 5954.000000
1536.405640 6356.000000
1537.976196 6384.000000
1539.545898 6258.000000
1541.114380 5418.000000
1542.682129 6536.000000
1544.249023 5629.000000
1545.814697 6780.000000
1547.379639 5968.000000
1548.943481 5072.000000
1550.506714 7456.000000
1552.068604 6322.000000
1553.629883 5937.000000
1555.190063 5745.000000
1556.749512 5757.000000
1558.307861 5984.000000
1559.865479 6256.000000
1561.421997 7031.000000
1562.977295 5890.000000
1564.531982 6311.000000
1566.085938 5637.000000
1567.638916 6325.000000
1569.190552 5654.000000
1570.741455 5913.000000
1572.291626 6203.000000
1573.840820 6323.000000
1575.388672 5782.000000
1576.936035 5524.000000
1578.482422 5690.000000
1580.027954 5071.000000
1581.572510 6623.000000
1583.115845 6392.000000
1584.658569 6592.000000
1586.200439 6400.000000
1587.741211 6735.000000
1589.281006 5807.000000
1590.820068 6669.000000
1592.358032 5917.000000
1593.895508 6133.000000
1595.431641 5843.000000
1596.966675 6646.000000
1598.501221 6250.000000
1600.034790 5943.000000
1601.567505 5811.000000
1603.098633 6306.000000
1604.629517 6225.000000
1606.159546 5769.000000
1607.688354 6115.000000
1609.216064 6107.000000
1610.743164 6001.000000
1612.269531 5831.000000
1613.794922 6278.000000
1615.319458 5802.000000
1616.842651 5758.000000
1618.365112 5638.000000
1619.886841 6574.000000
1621.407715 6969.000000
1622.927124 15589.000000
1624.446045 6141.000000
1625.964233 6101.000000
1627.481567 5865.000000
1628.997803 6379.000000
1630.512695 7079.000000
1632.027100 6655.000000
1633.540771 5771.000000
1635.053345 6818.000000
1636.564697 5870.000000
1638.075684 6435.000000
1639.585571 6198.000000
1641.094604 6219.000000
1642.602295 5653.000000
1644.109619 6100.000000
1645.616089 7127.000000
1647.121582 6241.000000
1648.626221 6854.000000
1650.129395 6111.000000
1651.631958 6540.000000
1653.134155 6359.000000
1654.635010 6638.000000
1656.134766 7481.000000
1657.633667 5946.000000
1659.132202 6504.000000
1660.629517 6187.000000
1662.126099 5924.000000
1663.621094 6506.000000
1665.115845 6329.000000
1666.609741 5204.000000
1668.102661 5562.000000
1669.594238 5989.000000
1671.085327 6416.000000
1672.575806 6115.000000
1674.065186 5932.000000
1675.553101 6940.000000
1677.040771 6822.000000
1678.527466 6056.000000
1680.013306 5350.000000
1681.498291 6049.000000
1682.981812 6100.000000
1684.465088 6176.000000
1685.947510 5904.000000
1687.428833 6268.000000
1688.908691 6159.000000
1690.388306 5488.000000
1691.867188 6577.000000
1693.345093 6033.000000
1694.822021 6165.000000
1696.297729 5738.000000
1697.773071 6069.000000
1699.247192 6274.000000
1700.720703 5463.000000
1702.192749 5627.000000
1703.664551 6897.000000
1705.135376 6430.000000
1706.605347 7149.000000
1708.073975 5154.000000
1709.542114 5894.000000
1711.009521 6318.000000
1712.475830 5489.000000
1713.941528 5719.000000
1715.405518 6237.000000
1716.869385 5928.000000
1718.332397 6921.000000
1719.794434 6326.000000
1721.255249 6579.000000
1722.715454 5434.000000
1724.174927 5717.000000
1725.633545 6115.000000
1727.091187 5933.000000
1728.547485 6279.000000
1730.003540 6061.000000
1731.458618 6383.000000
1732.912720 6014.000000
1734.365601 6847.000000
1735.818237 5990.000000
1737.269775 6706.000000
1738.720581 5967.000000
1740.170410 6584.000000
1741.618896 5955.000000
1743.067017 7329.000000
1744.514282 6585.000000
1745.960815 6658.000000
1747.405762 6772.000000
1748.850464 6151.000000
1750.294312 5830.000000
1751.737305 5486.000000
1753.178833 6604.000000
1754.620117 6344.000000
1756.060547 19379.000000
1757.500000 6256.000000
1758.938477 5293.000000
1760.375977 6013.000000
1761.812988 7536.000000
1763.249023 5899.000000
1764.684204 7117.000000
1766.117920 6214.000000
1767.551514 6371.000000
1768.984131 6632.000000
1770.415894 5742.000000
1771.846802 5722.000000
1773.276489 6357.000000
1774.705444 6110.000000
1776.133911 6221.000000
1777.561401 6653.000000
1778.987549 6228.000000
1780.413452 5579.000000
1781.838257 6872.000000
1783.262451 5583.000000
1784.685181 6599.000000
1786.107422 6501.000000
1787.528931 6874.000000
1788.949707 5776.000000
1790.369507 5954.000000
1791.787964 6174.000000
1793.205933 6795.000000
1794.623291 5544.000000
1796.039795 6068.000000
1797.454834 6532.000000
1798.869507 5840.000000
1800.283569 6610.000000
1801.696411 6025.000000
1803.108643 6916.000000
1804.519531 7125.000000
1805.929932 7816.000000
1807.339600 6417.000000
1808.748291 5935.000000
1810.155884 5397.000000
1811.562988 6455.000000
1812.969238 6397.000000
1814.374512 6682.000000
1815.778687 5963.000000
1817.182495 5978.000000
1818.585327 6242.000000
1819.987305 5995.000000
1821.388672 5876.000000
1822.788574 6371.000000
1824.187866 6396.000000
1825.586670 6573.000000
1826.984619 7482.000000
1828.381226 5792.000000
1829.777222 6778.000000
1831.172485 5893.000000
1832.567139 8159.000000
1833.960815 5989.000000
1835.353149 6856.000000
1836.744995 6425.000000
1838.136230 5914.000000
1839.526489 7026.000000
1840.915527 6054.000000
1842.304199 6096.000000
1843.691895 5954.000000
1845.078857 5864.000000
1846.464478 6856.000000
1847.849854 5824.000000
1849.234375 6381.000000
1850.618164 6356.000000
1852.000854 6353.000000
1853.382324 5412.000000
1854.763306 6528.000000
1856.143799 6346.000000
1857.523315 5664.000000
1858.901367 5983.000000
1860.279297 6200.000000
1861.656250 7865.000000
1863.032471 6120.000000
1864.407837 6117.000000
1865.781738 5695.000000
1867.155518 5660.000000
1868.528442 6219.000000
1869.900269 6000.000000
1871.271118 6942.000000
1872.641602 5458.000000
1874.010986 6073.000000
1875.379883 6059.000000
1876.747192 7141.000000
1878.114380 6048.000000
1879.480591 6008.000000
1880.846069 6774.000000
1882.210815 7479.000000
1883.573975 6770.000000
1884.937012 6877.000000
1886.299194 6373.000000
1887.660522 6441.000000
1889.020508 5634.000000
1890.380127 5824.000000
1891.739136 6082.000000
1893.097168 6670.000000
1894.454346 7311.000000
1895.810303 5980.000000
1897.166016 7677.000000
1898.520752 5833.000000
1899.874634 5500.000000
1901.227417 5930.000000
1902.579712 5953.000000
1903.931274 5903.000000
1905.281982 6879.000000
1906.631470 6592.000000
1907.980469 6637.000000
1909.328613 5783.000000
1910.676147 6114.000000
1912.022949 6310.000000
1913.368164 6776.000000
1914.713135 6103.000000
1916.057373 5406.000000
1917.400757 6461.000000
1918.742798 5965.000000
1920.084595 6700.000000
1921.425537 6963.000000
1922.765747 6132.000000
1924.104980 6239.000000
1925.443237 6250.000000
1926.780884 6453.000000
1928.117798 7063.000000
1929.453857 6741.000000
1930.788696 5583.000000
1932.123169 6697.000000
1933.456909 7258.000000
1934.789795 6278.000000
1936.121216 5779.000000
1937.452759 6266.000000
1938.782959 6598.000000
1940.112671 5796.000000
1941.441528 6096.000000
1942.769165 5850.000000
1944.096313 5001.000000
1945.422729 5849.000000
1946.748413 6505.000000
1948.072754 5701.000000
1949.396851 6620.000000
1950.720093 6303.000000
1952.042603 6427.000000
1953.364014 5807.000000
1954.684448 7467.000000
1956.004272 6032.000000
1957.323730 5515.000000
1958.642212 6818.000000
1959.959351 5922.000000
1961.276123 5807.000000
1962.592163 6596.000000
1963.907471 6538.000000
1965.221313 6313.000000
1966.534912 5653.000000
1967.847778 6207.000000
1969.159790 5977.000000
1970.471191 6060.000000
1971.781250 6306.000000
1973.090820 5818.000000
1974.399658 6207.000000
1975.707886 6611.000000
1977.014771 6112.000000
1978.321045 7249.000000
1979.626953 5533.000000
1980.931641 6378.000000
1982.235840 5878.000000
1983.538818 5681.000000
1984.841431 7542.000000
1986.143066 6182.000000
1987.444092 6805.000000
1988.743530 6053.000000
1990.043091 6634.000000
1991.341553 5252.000000
1992.639526 6064.000000
1993.935913 6106.000000
1995.232300 5779.000000
1996.527710 5633.000000
1997.822388 6576.000000
1999.116211 5725.000000
2000.408813 6581.000000
2001.700928 5678.000000
2002.992554 7126.000000
2004.283447 6472.000000
2005.572754 6283.000000
2006.861816 6790.000000
2008.150146 5912.000000
2009.437744 6032.000000
2010.724487 6632.000000
2012.010132 5682.000000
2013.295410 6369.000000
2014.579712 5989.000000
2015.863403 5608.000000
2017.145752 6028.000000
2018.427734 6436.000000
2019.709229 6742.000000
2020.989746 5934.000000
2022.269531 6049.000000
2023.548218 6809.000000
2024.826172 5829.000000
2026.103638 5900.000000
2027.380493 6261.000000
2028.655640 5791.000000
2029.930908 6571.000000
2031.205200 6079.000000
2032.478516 5913.000000
2033.750977 5910.000000
2035.023071 6174.000000
2036.294067 6946.000000
2037.564819 6478.000000
2038.834229 6007.000000
2040.102539 6737.000000
2041.370850 6565.000000
2042.638184 5916.000000
2043.904785 6020.000000
2045.170166 5651.000000
2046.434937 5746.000000
2047.699463 5447.000000
2048.962646 5864.000000
2050.225586 6393.000000
2051.486572 6170.000000
2052.748047 6065.000000
2054.008301 5883.000000
2055.267822 6488.000000
2056.526611 6287.000000
2057.784424 6932.000000
2059.041748 6190.000000
2060.298340 5963.000000
2061.553467 6492.000000
2062.808594 5630.000000
2064.062744 5597.000000
2065.316162 5645.000000
2066.568848 6843.000000
2067.820313 6248.000000
2069.071533 6264.000000
2070.322021 5603.000000
2071.571777 5422.000000
2072.820068 6162.000000
2074.068359 6424.000000
2075.315674 7457.000000
2076.562256 5630.000000
2077.808105 6037.000000
2079.052734 6933.000000
2080.296875 7613.000000
2081.540527 5467.000000
2082.783203 6128.000000
2084.024658 6923.000000
2085.265869 5963.000000
2086.506592 6351.000000
2087.746338 6771.000000
2088.984863 7036.000000
2090.222900 6242.000000
2091.460205 5751.000000
2092.697266 6583.000000
2093.932861 6099.000000
2095.167725 6217.000000
2096.402344 6041.000000
2097.635986 5643.000000
2098.868652 6110.000000
2100.100586 6854.000000
2101.332031 6479.000000
2102.562500 6743.000000
2103.792236 5955.000000
2105.021729 6024.000000
2106.249268 6049.000000
2107.477051 5990.000000
2108.704102 6278.000000
2109.930176 5479.000000
2111.154785 6356.000000
2112.379639 6910.000000
2113.603271 7084.000000
2114.826416 6232.000000
2116.048340 7450.000000
2117.270020 6016.000000
2118.490723 6828.000000
2119.710693 6033.000000
2120.930176 6121.000000
2122.148193 6548.000000
2123.366211 7025.000000
2124.583252 5773.000000
2125.799805 5638.000000
2127.014648 6547.000000
2128.229736 6321.000000
2129.443848 6779.000000
2130.657227 5702.000000
2131.869873 6077.000000
2133.081055 5831.000000
2134.292480 6458.000000
2135.502686 6822.000000
2136.712402 5897.000000
2137.920654 6155.000000
2139.128906 5647.000000
2140.336426 5853.000000
2141.542725 7504.000000
2142.748291 5874.000000
2143.953613 5658.000000
2145.157959 5555.000000
2146.361572 6295.000000
2147.564697 6193.000000
2148.766357 6524.000000
2149.967773 5261.000000
2151.168457 6259.000000
2152.368408 6063.000000
2153.567139 5939.000000
2154.765625 6957.000000
2155.963623 6182.000000
2157.160645 5991.000000
2158.356934 5115.000000
2159.552002 5278.000000
2160.746826 6078.000000
2161.940918 5593.000000
2163.134033 5974.000000
2164.326172 6919.000000
2165.518066 5916.000000
2166.709229 6308.000000
2167.899414 6263.000000
2169.088867 6496.000000
2170.277832 6754.000000
2171.465820 6264.000000
2172.653564 5745.000000
2173.839844 5943.000000
2175.025391 6584.000000
2176.210693 6009.000000
2177.395508 5925.000000
2178.579102 6407.000000
2179.761963 7455.000000
2180.943848 6305.000000
2182.125488 6111.000000
2183.306641 6623.000000
2184.486572 5715.000000
2185.665527 5586.000000
2186.843994 6335.000000
2188.022217 6891.000000
2189.199219 7211.000000
2190.375244 6670.000000
2191.551025 6065.000000
2192.726318 5638.000000
2193.900146 6634.000000
2195.073486 6158.000000
2196.246582 6133.000000
2197.418457 6386.000000
2198.589844 7029.000000
2199.760742 6288.000000
2200.929932 6901.000000
2202.099121 7603.000000
2203.267822 6340.000000
2204.435547 5830.000000
2205.602295 5673.000000
2206.768311 7086.000000
2207.933838 6682.000000
2209.099121 5965.000000
2210.262939 6732.000000
2211.426270 5430.000000
2212.588379 6165.000000
2213.750732 6180.000000
2214.911865 6671.000000
2216.072021 6637.000000
2217.231689 6244.000000
2218.391113 6571.000000
2219.549316 6360.000000
2220.706543 6238.000000
2221.863525 6718.000000
2223.019775 6621.000000
2224.175293 6731.000000
2225.330078 6272.000000
2226.483887 6420.000000
2227.636719 6085.000000
2228.790039 6907.000000
2229.941406 6198.000000
2231.092529 6181.000000
2232.242920 6496.000000
2233.392822 7671.000000
2234.541748 6347.000000
2235.690186 5213.000000
2236.837158 6814.000000
2237.984375 7045.000000
2239.130371 6070.000000
2240.276123 7215.000000
2241.420166 7291.000000
2242.564453 6721.000000
2243.707764 6183.000000
2244.850342 5953.000000
2245.991943 5766.000000
2247.133301 5867.000000
2248.273682 6430.000000
2249.413330 6443.000000
2250.552490 5758.000000
2251.690430 5816.000000
2252.828369 6183.000000
2253.965332 5317.000000
2255.101563 6319.000000
2256.236816 6153.000000
2257.371338 7221.000000
2258.505615 6318.000000
2259.639404 5463.000000
2260.771729 6166.000000
2261.903564 6726.000000
2263.034912 6235.000000
2264.165283 6440.000000
2265.295410 8099.000000
2266.424316 6661.000000
2267.552734 6045.000000
2268.680664 5543.000000
2269.807617 6085.000000
2270.933838 6011.000000
2272.059082 6799.000000
2273.184326 6483.000000
2274.308838 6470.000000
2275.432129 5923.000000
2276.554688 6330.000000
2277.676758 5934.000000
2278.798340 7358.000000
2279.919189 6397.000000
2281.038818 6418.000000
2282.157959 7080.000000
2283.276855 7729.000000
2284.395020 7236.000000
2285.512207 5894.000000
2286.628418 6444.000000
2287.744385 7008.000000
2288.859619 6811.000000
2289.974121 7369.000000
2291.087402 5796.000000
2292.200684 6344.000000
2293.313232 6017.000000
2294.425049 5390.000000
2295.536133 6766.000000
2296.645996 6441.000000
2297.755371 6172.000000
2298.864502 6718.000000
2299.972656 6333.000000
2301.079834 6744.000000
2302.186768 5875.000000
2303.292969 6213.000000
2304.398682 6637.000000
2305.502930 6578.000000
2306.606934 5516.000000
2307.710449 5775.000000
2308.813477 6559.000000
2309.915283 7411.000000
2311.016357 7313.000000
2312.116943 6596.000000
2313.217041 5506.000000
2314.316406 6350.000000
2315.414307 6575.000000
2316.512695 6958.000000
2317.609619 8168.000000
2318.706299 6876.000000
2319.802490 5801.000000
2320.896973 6858.000000
2321.991455 7601.000000
2323.085205 5876.000000
2324.178711 6020.000000
2325.270508 6466.000000
2326.362305 7089.000000
2327.453369 6090.000000
2328.543701 6317.000000
2329.633057 6877.000000
2330.722412 6012.000000
2331.810547 6247.000000
2332.898193 6884.000000
2333.985596 6491.000000
2335.071289 6767.000000
2336.156738 7788.000000
2337.241943 6331.000000
2338.326172 6789.000000
2339.409424 5859.000000
2340.492432 6446.000000
2341.574463 7076.000000
2342.656250 6011.000000
2343.737305 7423.000000
2344.817139 6675.000000
2345.896484 5712.000000
2346.975342 6825.000000
2348.053711 6542.000000
2349.130615 6302.000000
2350.207275 6978.000000
2351.283691 6073.000000
2352.359131 6459.000000
2353.433594 5888.000000
2354.507813 6324.000000
2355.581299 6765.000000
2356.654297 6230.000000
2357.726074 7027.000000
2358.797607 6293.000000
2359.868164 6809.000000
2360.938477 7475.000000
2362.007813 7569.000000
2363.076172 6818.000000
2364.144287 6775.000000
2365.211670 7091.000000
2366.278564 7102.000000
2367.344727 6070.000000
2368.409668 6844.000000
2369.474609 6794.000000
2370.538818 6398.000000
2371.602295 6868.000000
2372.664551 5693.000000
2373.726807 6276.000000
2374.788086 6301.000000
2375.849121 5940.000000
2376.908936 6261.000000
2377.968018 7871.000000
2379.027100 6392.000000
2380.085205 7598.000000
2381.142578 6892.000000
2382.198975 7978.000000
2383.255127 7839.000000
2384.310791 6252.000000
2385.365723 7004.000000
2386.419189 6717.000000
2387.472900 6552.000000
2388.525635 6278.000000
2389.577881 6784.000000
2390.629395 6148.000000
2391.679932 6618.000000
2392.730225 6509.000000
2393.779541 6257.000000
2394.828857 6225.000000
2395.876709 6868.000000
2396.924072 6988.000000
2397.971191 6254.000000
2399.017334 6646.000000
2400.062744 6143.000000
2401.107422 6708.000000
2402.152100 7705.000000
2403.195313 7469.000000
2404.238525 6600.000000
2405.280273 5762.000000
2406.322266 6668.000000
2407.363525 7051.000000
2408.403809 6107.000000
2409.443359 6412.000000
2410.481934 6292.000000
2411.520752 6108.000000
2412.558350 6590.000000
2413.595703 6927.000000
2414.631836 7249.000000
2415.667725 6205.000000
2416.702881 6268.000000
2417.737549 6696.000000
2418.770752 7195.000000
2419.804199 6450.000000
2420.836670 6662.000000
2421.868896 6844.000000
2422.899658 7081.000000
2423.930420 6367.000000
2424.960693 6801.000000
2425.989746 6865.000000
2427.018799 6648.000000
2428.046143 7399.000000
2429.073975 6687.000000
2430.100586 7275.000000
2431.126953 6970.000000
2432.151855 7760.000000
2433.177002 6571.000000
2434.201172 7118.000000
2435.225098 6631.000000
2436.247803 5820.000000
2437.269775 6237.000000
2438.291504 6694.000000
2439.312500 6684.000000
2440.333008 6079.000000
2441.352295 6532.000000
2442.371582 6595.000000
2443.389893 8448.000000
2444.407959 6284.000000
2445.424561 6534.000000
2446.441162 6561.000000
2447.457031 5999.000000
2448.472900 6992.000000
2449.487305 6777.000000
2450.500977 5609.000000
2451.514160 7230.000000
2452.527100 5986.000000
2453.539307 7261.000000
2454.550537 6686.000000
2455.561523 7666.000000
2456.571777 6252.000000
2457.581543 7589.000000
2458.590332 5894.000000
2459.598389 5945.000000
2460.606445 6305.000000
2461.613281 7337.000000
2462.619873 5483.000000
2463.625244 7588.000000
2464.630371 6902.000000
2465.635254 5847.000000
2466.638916 6519.000000
2467.642334 6414.000000
2468.644775 7608.000000
2469.646973 7300.000000
2470.648682 6891.000000
2471.649414 6562.000000
2472.649170 6908.000000
2473.648926 6700.000000
2474.647705 5652.000000
2475.645996 6654.000000
2476.643311 7073.000000
2477.640381 6109.000000
2478.637451 6924.000000
2479.633057 5880.000000
2480.628662 7148.000000
2481.622559 6755.000000
2482.616455 8082.000000
2483.609863 6841.000000
2484.602783 6709.000000
2485.594727 7488.000000
2486.585938 7195.000000
2487.576904 6757.000000
2488.567383 5767.000000
2489.556885 6546.000000
2490.545654 6477.000000
2491.534424 5647.000000
2492.522217 6823.000000
2493.508789 6514.000000
2494.495361 8056.000000
2495.481445 6727.000000
2496.466797 7091.000000
2497.451172 8379.000000
2498.435303 6072.000000
2499.419434 6820.000000
2500.402100 5794.000000
2501.384277 6990.000000
2502.365967 6842.000000
2503.346924 7197.000000
2504.327393 6513.000000
2505.307617 5749.000000
2506.286377 6345.000000
2507.264893 7620.000000
2508.242920 6743.000000
2509.220459 7047.000000
2510.197021 6095.000000
2511.173340 5943.000000
2512.148926 6413.000000
2513.124023 6203.000000
2514.098633 6510.000000
2515.072021 7479.000000
2516.045166 6835.000000
2517.018066 6814.000000
2517.989990 6126.000000
2518.961182 6788.000000
2519.931885 6966.000000
2520.902344 7730.000000
2521.872070 8080.000000
2522.840820 6109.000000
2523.808838 6181.000000
2524.776855 7821.000000
2525.743896 6296.000000
2526.710693 5556.000000
2527.676270 7223.000000
2528.641846 6990.000000
2529.606689 7778.000000
2530.571045 6357.000000
2531.534180 6365.000000
2532.497559 5930.000000
2533.459961 6033.000000
2534.422119 6701.000000
2535.383057 6354.000000
2536.343262 6075.000000
2537.303711 6085.000000
2538.263184 6791.000000
2539.221924 6871.000000
2540.179688 6653.000000
2541.137695 6254.000000
2542.094971 6762.000000
2543.051270 6062.000000
2544.007324 7087.000000
2544.962158 6199.000000
2545.917236 7737.000000
2546.871582 7009.000000
2547.825195 6709.000000
2548.777832 7323.000000
2549.730225 6722.000000
2550.682129 6970.000000
2551.633301 6419.000000
2552.583740 7727.000000
2553.533691 7331.000000
2554.483398 7333.000000
2555.432373 6585.000000
2556.380859 6218.000000
2557.328125 7099.000000
2558.275391 6271.000000
2559.221924 6607.000000
2560.167969 6759.000000
2561.113037 7425.000000
2562.057861 6667.000000
2563.002197 7195.000000
2563.946045 6855.000000
2564.889404 6614.000000
2565.831299 6614.000000
2566.773438 6546.000000
2567.714844 6186.000000
2568.655518 7118.000000
2569.595459 7220.000000
2570.535400 5668.000000
2571.474365 6088.000000
2572.413086 7500.000000
2573.350830 7185.000000
2574.288330 5477.000000
2575.225098 7016.000000
2576.161133 6885.000000
2577.096680 7509.000000
2578.031494 6266.000000
2578.966309 5975.000000
2579.900146 7048.000000
2580.833496 7210.000000
2581.766113 5807.000000
2582.698486 6952.000000
2583.630127 5466.000000
2584.561279 7013.000000
2585.491943 7024.000000
2586.421387 6834.000000
2587.350830 7269.000000
2588.279785 6445.000000
2589.208496 7471.000000
2590.135498 7336.000000
2591.062744 5880.000000
2591.989502 6846.000000
2592.915527 6299.000000
2593.841309 5635.000000
2594.765869 7637.000000
2595.690186 7664.000000
2596.614014 5361.000000
2597.537354 7351.000000
2598.459717 6311.000000
2599.381836 6843.000000
2600.303467 8233.000000
2601.224365 6338.000000
2602.144531 5835.000000
2603.064453 6394.000000
2603.983887 6411.000000
2604.903076 6403.000000
2605.821289 5821.000000
2606.738281 5970.000000
2607.655518 7261.000000
2608.572510 5930.000000
2609.488525 7515.000000
2610.403320 6619.000000
2611.318604 6636.000000
2612.233154 6547.000000
2613.146729 6532.000000
2614.060303 6191.000000
2614.972656 7646.000000
2615.885010 7060.000000
2616.796387 6815.000000
2617.707520 5704.000000
2618.617920 7223.000000
2619.528076 6665.000000
2620.437500 6192.000000
2621.346436 6647.000000
2622.254395 6353.000000
2623.162598 6822.000000
2624.069824 6630.000000
2624.976563 7029.000000
2625.882568 6075.000000
2626.788330 6614.000000
2627.693359 6481.000000
2628.598145 7813.000000
2629.502197 6483.000000
2630.405273 6431.000000
2631.308350 6420.000000
2632.210449 5603.000000
2633.112549 6671.000000
2634.014404 6987.000000
2634.914551 6739.000000
2635.814941 6408.000000
2636.714600 6443.000000
2637.614014 5978.000000
2638.511963 6915.000000
2639.410400 6759.000000
2640.308350 6373.000000
2641.205566 6127.000000
2642.101563 6201.000000
2642.997559 6770.000000
2643.893311 6087.000000
2644.788330 6459.000000
2645.683105 6647.000000
2646.576416 7086.000000
2647.469727 6301.000000
2648.362793 6795.000000
2649.255615 6507.000000
2650.146729 7467.000000
2651.038086 6469.000000
2651.928955 7575.000000
2652.819092 7307.000000
2653.708984 6530.000000
2654.597656 7259.000000
2655.486572 6643.000000
2656.375000 6634.000000
2657.262451 7355.000000
2658.148926 6456.000000
2659.035889 7042.000000
2659.922119 6834.000000
2660.807861 6856.000000
2661.692383 6522.000000
2662.576904 6424.000000
2663.461182 6228.000000
2664.344727 7064.000000
2665.227783 7737.000000
2666.110107 7284.000000
2666.991943 6200.000000
2667.873047 6585.000000
2668.754395 6053.000000
2669.634277 6582.000000
2670.514404 7357.000000
2671.393799 7189.000000
2672.273193 6250.000000
2673.151855 6079.000000
2674.028809 6405.000000
2674.906494 6778.000000
2675.783447 6386.000000
2676.659668 8133.000000
2677.535400 7202.000000
2678.410400 6267.000000
2679.285645 7709.000000
2680.159912 7041.000000
2681.033691 7278.000000
2681.906738 7024.000000
2682.779541 6250.000000
2683.652100 6119.000000
2684.523926 6931.000000
2685.395020 6577.000000
2686.265869 6900.000000
2687.136230 7097.000000
2688.006348 6726.000000
2688.874756 6327.000000
2689.743896 7343.000000
2690.612305 7128.000000
2691.480469 6690.000000
2692.347900 6945.000000
2693.214111 5890.000000
2694.080811 7135.000000
2694.946533 7385.000000
2695.812256 7200.000000
2696.676514 7882.000000
2697.541504 6600.000000
2698.405029 7286.000000
2699.268799 5927.000000
2700.131104 7396.000000
2700.993896 6824.000000
2701.855713 5941.000000
2702.717041 6869.000000
2703.578369 6751.000000
2704.438477 7488.000000
2705.298584 7317.000000
2706.158203 6671.000000
2707.017578 6850.000000
2707.875244 7138.000000
2708.733154 6905.000000
2709.591553 7343.000000
2710.448730 6818.000000
2711.305176 5901.000000
2712.161133 6872.000000
2713.017090 6131.000000
2713.872314 6943.000000
2714.726807 6121.000000
2715.580811 6811.000000
2716.434814 7265.000000
2717.287842 6282.000000
2718.141113 6498.000000
2718.992676 7762.000000
2719.844727 6787.000000
2720.696533 6286.000000
2721.547119 6517.000000
2722.397705 6460.000000
2723.247803 7140.000000
2724.097168 7031.000000
2724.946533 6843.000000
2725.794678 6655.000000
2726.642334 6533.000000
2727.490479 7012.000000
2728.337402 6886.000000
2729.184814 5540.000000
2730.030762 7430.000000
2730.875977 6986.000000
2731.721680 6461.000000
2732.566406 6968.000000
2733.411133 7385.000000
2734.254639 6861.000000
2735.098389 7824.000000
2735.941406 7115.000000
2736.783936 6033.000000
2737.625488 6214.000000
2738.467529 6786.000000
2739.308594 6940.000000
2740.149414 5899.000000
2740.989990 5858.000000
2741.829346 7821.000000
2742.668701 6777.000000
2743.508057 6949.000000
2744.346191 6782.000000
2745.183838 7777.000000
2746.021484 6338.000000
2746.858643 7154.000000
2747.695557 6243.000000
2748.531982 6013.000000
2749.367188 6659.000000
2750.202637 6356.000000
2751.037598 6332.000000
2751.871826 6274.000000
2752.705811 6922.000000
2753.539307 6835.000000
2754.372803 7948.000000
2755.205322 6756.000000
2756.037354 7372.000000
2756.868896 6788.000000
2757.700439 7098.000000
2758.531006 7277.000000
2759.361816 7225.000000
2760.191406 7229.000000
2761.020996 6693.000000
2761.850342 7292.000000
2762.678955 6887.000000
2763.507080 6783.000000
2764.334717 6978.000000
2765.162354 6726.000000
2765.989502 7905.000000
2766.815918 5799.000000
2767.641846 7491.000000
2768.467285 6837.000000
2769.292480 7757.000000
2770.117676 7115.000000
2770.941650 6782.000000
2771.765625 6494.000000
2772.589600 7690.000000
2773.412354 6367.000000
2774.235352 6962.000000
2775.057129 6913.000000
2775.878906 6960.000000
2776.700684 6493.000000
2777.521484 7958.000000
2778.341553 6561.000000
2779.161865 7035.000000
2779.981689 7300.000000
2780.801514 6403.000000
2781.619385 5985.000000
2782.438477 8107.000000
2783.256348 6579.000000
2784.073975 6793.000000
2784.891113 7222.000000
2785.707764 7290.000000
2786.524170 7187.000000
2787.340088 6286.000000
2788.155762 5966.000000
2788.970459 6361.000000
2789.785645 6980.000000
2790.600098 7158.000000
2791.414063 6624.000000
2792.227783 7469.000000
2793.040283 8775.000000
2793.853027 6932.000000
2794.665283 7476.000000
2795.477051 7193.000000
2796.288086 7375.000000
2797.099854 6574.000000
2797.910400 7280.000000
2798.720947 7025.000000
2799.530029 7362.000000
2800.339844 8159.000000
2801.148926 7761.000000
2801.957764 6624.000000
2802.766113 7239.000000
2803.573486 6237.000000
2804.381348 6506.000000
2805.188477 6942.000000
2805.995361 6828.000000
2806.801025 7078.000000
2807.607178 6627.000000
2808.412598 6537.000000
2809.218018 7348.000000
2810.022705 6212.000000
2810.826416 7580.000000
2811.630615 7507.000000
2812.434326 6382.000000
2813.237793 6032.000000
2814.039795 6644.000000
2814.842529 7349.000000
2815.644531 7810.000000
2816.446289 6164.000000
2817.247559 6528.000000
2818.048340 7241.000000
2818.848633 6518.000000
2819.649170 6725.000000
2820.448730 8009.000000
2821.247803 7164.000000
2822.046875 6494.000000
2822.845703 6965.000000
2823.644043 6346.000000
2824.441406 6951.000000
2825.239014 7444.000000
2826.035889 6737.000000
2826.833008 7318.000000
2827.629395 7932.000000
2828.425049 7035.000000
2829.220703 7361.000000
2830.016113 7547.000000
2830.811035 7444.000000
2831.605225 6669.000000
2832.399414 6870.000000
2833.193359 5819.000000
2833.986816 6866.000000
2834.779541 7172.000000
2835.572021 8138.000000
2836.364502 7741.000000
2837.156738 7487.000000
2837.948486 6524.000000
2838.739258 6708.000000
2839.530029 8869.000000
2840.321045 7498.000000
2841.111084 6183.000000
2841.900635 7644.000000
2842.690430 7200.000000
2843.479248 7318.000000
2844.268066 7896.000000
2845.056885 7747.000000
2845.844727 7508.000000
2846.632080 7269.000000
2847.419678 7572.000000
2848.206787 7312.000000
2848.993164 6707.000000
2849.779541 7484.000000
2850.565674 7263.000000
2851.351318 7529.000000
2852.135986 7185.000000
2852.921143 6863.000000
2853.706055 7464.000000
2854.490234 7078.000000
2855.274414 6978.000000
2856.057373 8266.000000
2856.840576 6790.000000
2857.623535 6805.000000
2858.406006 7773.000000
2859.188232 6260.000000
2859.969971 6708.000000
2860.751465 7673.000000
2861.533203 7423.000000
2862.314209 7575.000000
2863.094482 6652.000000
2863.874512 6748.000000
2864.654541 8207.000000
2865.434326 7451.000000
2866.213135 8090.000000
2866.992188 7656.000000
2867.770752 6788.000000
2868.549072 7046.000000
2869.326904 7271.000000
2870.104492 6964.000000
2870.881836 7512.000000
2871.658936 7017.000000
2872.435547 6424.000000
2873.211670 7507.000000
2873.987793 7228.000000
2874.763428 8289.000000
2875.538818 7202.000000
2876.313721 6661.000000
2877.088379 8087.000000
2877.863037 6576.000000
2878.637451 7882.000000
2879.411133 6828.000000
2880.184082 7190.000000
2880.957764 6738.000000
2881.730469 7652.000000
2882.503174 7845.000000
2883.275146 8237.000000
2884.046875 6320.000000
2884.819092 6789.000000
2885.590088 6928.000000
2886.360596 6135.000000
2887.131592 8386.000000
2887.902588 7369.000000
2888.672852 8031.000000
2889.442139 7725.000000
2890.211670 7010.000000
2890.981201 7281.000000
2891.750244 7366.000000
2892.518799 7898.000000
2893.287354 7934.000000
2894.054932 6992.000000
2894.822998 6627.000000
2895.590576 7440.000000
2896.358154 8348.000000
2897.124512 7352.000000
2897.891846 6525.000000
2898.657959 7231.000000
2899.424316 6929.000000
2900.189209 8216.000000
2900.954590 7004.000000
2901.720459 6439.000000
2902.484863 7686.000000
2903.249268 7751.000000
2904.013916 8461.000000
2904.777588 6637.000000
2905.541992 8455.000000
2906.305664 6708.000000
2907.068604 8447.000000
2907.831299 6531.000000
2908.594482 9038.000000
2909.357178 6986.000000
2910.118652 6793.000000
2910.880615 6793.000000
