scanname Analyse069
timestamp 2017-02-10 21:33:17
ccdbias 891.425293
ccdgain 3.473401
sigmaread 8.960639
laserwavenum -1.058664
wavenumcorrection -0.535700
scancount 1
totalexposurems 10000
singleexposurems 10000
measurementstate Unknown
scanmode Manual
snr 178.380402 5.115703 3.878612
replacelist 4
374 33672.000000 14995.000000
383 33178.000000 11938.000000
671 31020.000000 8633.000000
672 35133.000000 30502.000000
peaks 24
275.731232 0.517409 0.000000 1.249344 0.000149
288.055969 0.506709 0.000000 0.119744 0.000019
333.980713 0.500158 0.000000 0.548395 0.000100
389.353851 0.510215 0.000000 1.170883 0.000236
445.424866 0.502922 0.000000 0.426942 0.000018
495.025238 0.502112 0.000000 0.639461 0.000023
533.204956 0.498853 0.000000 0.677714 0.000127
579.348022 0.500130 0.000000 0.392966 0.000025
676.225037 0.486663 0.000000 0.747410 0.000051
708.385803 0.477579 0.000000 0.653004 0.000048
716.647705 0.486043 0.000000 3.317712 0.000619
742.396729 0.475374 0.000000 0.424721 0.000030
767.226624 0.501819 0.000000 4.812520 0.000888
773.118225 0.485502 0.000000 1.040816 0.000040
786.154358 0.488446 0.000000 2.255728 0.000491
804.118469 0.467981 0.000000 0.078159 0.000036
877.178528 0.540760 0.000000 3.578091 0.000776
930.117310 0.451083 0.000000 0.230775 0.000027
1046.468506 0.459960 0.000000 0.867331 0.000366
1086.557495 0.455296 0.000000 0.507065 0.000179
1152.454102 0.423450 0.000000 0.341756 0.000104
1275.616089 0.407973 0.000000 0.066208 0.000039
1325.214111 0.414455 0.000000 0.932895 0.000336
1455.443237 0.445327 0.000000 5.233315 0.002067
finalresult GLS_NotPositive 2
A8461	Ethanol	2.879248e-004
A12040	Ethanol w/ sweetener	2.483802e-004
spectrum 2048
-96.542793 45282.000000
-93.915924 45282.000000
-91.290932 46010.000000
-88.667831 45949.000000
-86.046600 46944.000000
-83.427269 46542.000000
-80.809799 46908.000000
-78.194206 46741.000000
-75.580490 47030.000000
-72.968651 47324.000000
-70.358673 47256.000000
-67.750580 47356.000000
-65.144333 47473.000000
-62.539959 47420.000000
-59.937450 47308.000000
-57.336796 47825.000000
-54.738003 47164.000000
-52.141068 46574.000000
-49.545986 47021.000000
-46.952759 46979.000000
-44.361382 47158.000000
-41.771851 46744.000000
-39.184162 47544.000000
-36.598324 47410.000000
-34.014328 46982.000000
-31.432171 47681.000000
-28.851858 47048.000000
-26.273373 47592.000000
-23.696730 47204.000000
-21.121912 47052.000000
-18.548935 46746.000000
-15.977777 46668.000000
-13.408454 46419.000000
-10.840956 45344.000000
-8.275276 46812.000000
-5.711422 46451.000000
-3.149382 46880.000000
-0.589166 46993.000000
1.969242 46521.000000
4.525829 45608.000000
7.080612 45626.000000
9.633576 45839.000000
12.184741 44526.000000
14.734093 44009.000000
17.281649 42960.000000
19.827393 43048.000000
22.371344 42297.000000
24.913490 39432.000000
27.453840 36986.000000
29.992405 33195.000000
32.529175 29123.000000
35.064140 22342.000000
37.597328 14461.000000
40.128735 8551.000000
42.658348 7902.000000
45.186165 7487.000000
47.712223 6699.000000
50.236492 5705.000000
52.758991 4797.000000
55.279694 4499.000000
57.798641 4982.000000
60.315815 5971.000000
62.831211 7310.000000
65.344826 8827.000000
67.856689 9117.000000
70.366806 6596.000000
72.875130 4202.000000
75.381699 3445.000000
77.886520 2847.000000
80.389587 2358.000000
82.890877 1943.000000
85.390427 1932.000000
87.888222 1774.000000
90.384285 1947.000000
92.878571 2437.000000
95.371117 2817.000000
97.861946 2843.000000
100.351006 2584.000000
102.838318 1966.000000
105.323906 1625.000000
107.807755 1319.000000
110.289856 1353.000000
112.770233 1272.000000
115.248886 1224.000000
117.725815 1114.000000
120.200989 1218.000000
122.674454 1293.000000
125.146187 1216.000000
127.616211 1353.000000
130.084488 1412.000000
132.551086 1708.000000
135.015930 1809.000000
137.479080 2097.000000
139.940491 2433.000000
142.400208 2941.000000
144.858200 3820.000000
147.314499 4555.000000
149.769089 5847.000000
152.221954 7117.000000
154.673141 8546.000000
157.122635 10580.000000
159.570404 12582.000000
162.016464 14782.000000
164.460846 16650.000000
166.903549 18607.000000
169.344559 20061.000000
171.783859 21505.000000
174.221451 21867.000000
176.657410 22759.000000
179.091629 22855.000000
181.524170 22765.000000
183.955063 23034.000000
186.384232 22947.000000
188.811752 22822.000000
191.237595 23066.000000
193.661758 23097.000000
196.084259 23405.000000
198.505066 23899.000000
200.924210 25680.000000
203.341690 26996.000000
205.757477 26577.000000
208.171616 28047.000000
210.584122 29803.000000
212.994949 31288.000000
215.404099 32705.000000
217.811615 33101.000000
220.217422 35186.000000
222.621643 35347.000000
225.024155 35649.000000
227.425049 35709.000000
229.824295 36310.000000
232.221878 35980.000000
234.617798 35542.000000
237.012100 36157.000000
239.404739 36763.000000
241.795761 35795.000000
244.185120 35847.000000
246.572861 36024.000000
248.958954 35271.000000
251.343414 36077.000000
253.726227 34165.000000
256.107452 35318.000000
258.487000 34996.000000
260.864960 35057.000000
263.241241 33842.000000
265.615967 33679.000000
267.989044 33148.000000
270.360474 34437.000000
272.730255 33923.000000
275.098480 34311.000000
277.465057 33854.000000
279.830048 33253.000000
282.193420 33850.000000
284.555145 33497.000000
286.915283 32562.000000
289.273804 33572.000000
291.630737 32937.000000
293.986053 33064.000000
296.339783 33287.000000
298.691864 33180.000000
301.042389 32797.000000
303.391327 32706.000000
305.738617 32224.000000
308.084381 32466.000000
310.428467 32457.000000
312.771027 31527.000000
315.111969 31368.000000
317.451294 31651.000000
319.789063 31680.000000
322.125275 30438.000000
324.459839 31878.000000
326.792847 31508.000000
329.124298 32003.000000
331.454163 31399.000000
333.782440 31659.000000
336.109100 30887.000000
338.434265 31600.000000
340.757813 31611.000000
343.079803 31978.000000
345.400238 30542.000000
347.719055 30209.000000
350.036316 31667.000000
352.352051 31762.000000
354.666199 30788.000000
356.978760 31385.000000
359.289764 31157.000000
361.599243 30574.000000
363.907196 31143.000000
366.213531 31823.000000
368.518280 31171.000000
370.821564 31242.000000
373.123230 31319.000000
375.423401 31318.000000
377.722015 31314.000000
380.019073 31941.000000
382.314575 31668.000000
384.608551 32038.000000
386.900940 32704.000000
389.191833 32611.000000
391.481201 32281.000000
393.768982 32449.000000
396.055237 32389.000000
398.339996 31992.000000
400.623138 32955.000000
402.904846 32483.000000
405.185028 32795.000000
407.463623 31758.000000
409.740692 32443.000000
412.016235 32089.000000
414.290253 32181.000000
416.562836 32182.000000
418.833801 32435.000000
421.103271 32346.000000
423.371246 31705.000000
425.637665 31422.000000
427.902588 32240.000000
430.166046 32030.000000
432.427917 31760.000000
434.688324 32098.000000
436.947174 31379.000000
439.204559 31784.000000
441.460449 32024.000000
443.714844 31721.000000
445.967712 32035.000000
448.219025 30615.000000
450.468933 31172.000000
452.717255 30824.000000
454.964142 31413.000000
457.209564 30651.000000
459.453430 30613.000000
461.695801 30176.000000
463.936676 31203.000000
466.176147 30158.000000
468.414032 31327.000000
470.650482 30958.000000
472.885406 30712.000000
475.118866 29570.000000
477.350891 30120.000000
479.581390 30969.000000
481.810394 30128.000000
484.037933 30300.000000
486.263977 30571.000000
488.488586 30024.000000
490.711731 30810.000000
492.933411 30216.000000
495.153534 29956.000000
497.372253 31010.000000
499.589478 30405.000000
501.805328 31211.000000
504.019562 30723.000000
506.232483 30493.000000
508.443817 30569.000000
510.653717 30190.000000
512.862183 30502.000000
515.069275 30314.000000
517.274780 30398.000000
519.478882 30213.000000
521.681458 30508.000000
523.882629 30091.000000
526.082458 29927.000000
528.280762 29532.000000
530.477539 30919.000000
532.672974 30335.000000
534.866882 30711.000000
537.059448 28787.000000
539.250488 29553.000000
541.440125 30098.000000
543.628357 29111.000000
545.815063 28707.000000
548.000305 28746.000000
550.184265 28995.000000
552.366638 28599.000000
554.547668 28701.000000
556.727173 28794.000000
558.905396 28740.000000
561.082092 28622.000000
563.257385 28269.000000
565.431274 28242.000000
567.603699 28588.000000
569.774719 28533.000000
571.944275 28188.000000
574.112549 29283.000000
576.279297 28219.000000
578.444580 28469.000000
580.608459 28458.000000
582.771057 28937.000000
584.932129 28638.000000
587.091797 29163.000000
589.250122 29054.000000
591.406921 28925.000000
593.562378 28450.000000
595.716431 29388.000000
597.869141 29070.000000
600.020325 28125.000000
602.170166 28542.000000
604.318665 28545.000000
606.465576 29192.000000
608.611267 28747.000000
610.755554 28933.000000
612.898376 28264.000000
615.039734 29103.000000
617.179871 28804.000000
619.318481 27494.000000
621.455811 29333.000000
623.591675 28389.000000
625.726135 27990.000000
627.859131 27728.000000
629.990967 28028.000000
632.121338 27891.000000
634.250305 27646.000000
636.377808 27819.000000
638.504028 27869.000000
640.628723 26717.000000
642.752197 27537.000000
644.874329 26964.000000
646.994995 26823.000000
649.114319 26875.000000
651.232239 27542.000000
653.348816 27418.000000
655.463989 26733.000000
657.577820 26519.000000
659.690186 27058.000000
661.801331 26684.000000
663.911072 27316.000000
666.019348 26862.000000
668.126465 26801.000000
670.232117 26264.000000
672.336304 27124.000000
674.439270 27412.000000
676.540833 26387.000000
678.641052 28046.000000
680.739868 26780.000000
682.837341 27557.000000
684.933533 26807.000000
687.028259 27518.000000
689.121765 26860.000000
691.213928 27264.000000
693.304565 25961.000000
695.393982 27179.000000
697.482117 27172.000000
699.568787 27488.000000
701.654236 26704.000000
703.738159 27970.000000
705.820862 27194.000000
707.902283 27049.000000
709.982239 25327.000000
712.060974 26192.000000
714.138245 26619.000000
716.214233 25897.000000
718.288940 26542.000000
720.362366 25734.000000
722.434265 26519.000000
724.505005 25354.000000
726.574402 26506.000000
728.642395 25664.000000
730.709045 25816.000000
732.774475 25070.000000
734.838562 25941.000000
736.901306 25607.000000
738.962708 25420.000000
741.022827 25315.000000
743.081543 25713.000000
745.139038 25169.000000
747.195251 25286.000000
749.250061 24995.000000
751.303589 25391.000000
753.355713 24418.000000
755.406616 25471.000000
757.456299 24747.000000
759.504517 25085.000000
761.551514 25386.000000
763.597229 24883.000000
765.641541 26730.000000
767.684570 27077.000000
769.726379 26054.500000
771.766846 25032.000000
773.805908 24826.000000
775.843811 24953.000000
777.880371 25094.000000
779.915710 25858.000000
781.949707 25985.000000
783.982300 25448.000000
786.013733 27131.000000
788.043762 26503.500000
790.072510 25876.000000
792.100098 25394.000000
794.126343 25247.000000
796.151184 25559.000000
798.174927 26036.000000
800.197266 25452.000000
802.218384 25900.000000
804.238159 25254.000000
806.256653 26819.000000
808.273926 25479.000000
810.289795 25357.000000
812.304504 25895.000000
814.317871 25256.000000
816.330017 25207.000000
818.340942 25098.000000
820.350525 24497.000000
822.358887 25027.000000
824.365845 24740.000000
826.371582 24486.000000
828.376099 24497.000000
830.379333 24622.000000
832.381287 24133.000000
834.381958 24267.000000
836.381409 24389.000000
838.379517 24359.000000
840.376526 23889.000000
842.372131 24321.000000
844.366577 24330.000000
846.359680 24066.000000
848.351563 23513.000000
850.342102 24058.000000
852.331360 23414.000000
854.319580 23597.000000
856.306396 23759.000000
858.291992 23801.000000
860.276306 23308.000000
862.259521 23840.000000
864.241333 24041.000000
866.221924 24967.000000
868.201233 24062.000000
870.179382 25032.000000
872.156189 26256.000000
874.131714 27082.000000
876.106201 27270.000000
878.079224 27621.000000
880.051208 28156.000000
882.021851 27065.000000
883.991333 26844.000000
885.959473 26689.000000
887.926453 26130.000000
889.892090 25091.000000
891.856567 24794.000000
893.819824 24512.000000
895.781860 23969.000000
897.742615 24177.000000
899.702148 23794.000000
901.660400 23579.000000
903.617554 23528.000000
905.573547 23809.000000
907.528137 23418.000000
909.481506 23500.000000
911.433716 23477.000000
913.384705 23431.000000
915.334412 22811.000000
917.282959 22767.000000
919.230286 22743.000000
921.176331 22663.000000
923.121094 22337.000000
925.064819 22051.000000
927.007385 21922.000000
928.948669 21829.000000
930.888611 21386.000000
932.827454 21210.000000
934.765015 21378.000000
936.701355 21124.000000
938.636536 21187.000000
940.570435 21092.000000
942.503235 21152.000000
944.434814 21032.000000
946.365234 21301.000000
948.294434 21042.000000
950.222290 20905.000000
952.149109 20889.000000
954.074646 21137.000000
955.998901 21103.000000
957.922058 21189.000000
959.844055 21230.000000
961.764771 21254.000000
963.684326 21366.000000
965.602722 21727.000000
967.520081 21535.000000
969.435974 21645.000000
971.350769 21648.000000
973.264343 21708.000000
975.176758 21695.000000
977.087952 21651.000000
978.997986 21718.000000
980.906738 21683.000000
982.814453 21887.000000
984.720947 21618.000000
986.626221 21710.000000
988.530396 21471.000000
990.433350 21362.000000
992.335083 21210.000000
994.235657 21752.000000
996.135071 21160.000000
998.033264 21291.000000
999.930298 21087.000000
1001.826111 20797.000000
1003.720764 20360.000000
1005.614319 20400.000000
1007.506592 20217.000000
1009.397949 20074.000000
1011.287964 20090.000000
1013.176758 19772.000000
1015.064392 19763.000000
1016.950867 19609.000000
1018.836182 19808.000000
1020.720337 19735.000000
1022.603271 19868.000000
1024.485107 19835.000000
1026.365723 19921.000000
1028.245239 19953.000000
1030.123779 20198.000000
1032.000977 20107.000000
1033.876831 20057.000000
1035.751709 20391.000000
1037.625610 20411.000000
1039.498047 20599.000000
1041.369507 20589.000000
1043.239624 20755.000000
1045.108765 21038.000000
1046.976685 21066.000000
1048.843506 21046.000000
1050.709229 21002.000000
1052.573730 20918.000000
1054.437134 20883.000000
1056.299194 20876.000000
1058.160278 20708.000000
1060.020264 20593.000000
1061.878906 20475.000000
1063.736450 20641.000000
1065.592896 20565.000000
1067.448242 20812.000000
1069.302368 21031.000000
1071.155640 20954.000000
1073.007446 20849.000000
1074.858276 20962.000000
1076.707886 21048.000000
1078.556274 21430.000000
1080.403809 20879.000000
1082.250000 21393.000000
1084.094971 21301.000000
1085.939087 21468.000000
1087.781860 21344.000000
1089.623413 21114.000000
1091.464233 20878.000000
1093.303467 20450.000000
1095.141968 20576.000000
1096.979126 20464.000000
1098.815063 20056.000000
1100.650024 19519.000000
1102.483765 19172.000000
1104.316528 18948.000000
1106.147949 19044.000000
1107.978516 19403.000000
1109.807739 18967.000000
1111.635986 18495.000000
1113.463013 18259.000000
1115.289063 18460.000000
1117.113892 18365.000000
1118.937622 18390.000000
1120.760132 18458.000000
1122.581543 18287.000000
1124.402100 18460.000000
1126.221191 18357.000000
1128.039429 18316.000000
1129.856323 18437.000000
1131.672363 18421.000000
1133.487183 18580.000000
1135.300903 18679.000000
1137.113525 18609.000000
1138.924927 18862.000000
1140.735352 18879.000000
1142.544678 18777.000000
1144.352661 18794.000000
1146.159912 18974.000000
1147.965698 18977.000000
1149.770630 18834.000000
1151.574463 19118.000000
1153.377075 19032.000000
1155.178833 18891.000000
1156.979126 18921.000000
1158.778442 18749.000000
1160.576782 18635.000000
1162.373779 18488.000000
1164.170044 18207.000000
1165.964966 18149.000000
1167.758789 18047.000000
1169.551758 17883.000000
1171.343384 17916.000000
1173.134033 17469.000000
1174.923706 17458.000000
1176.711914 17441.000000
1178.499268 17319.000000
1180.285522 17421.000000
1182.070679 17614.000000
1183.854736 17375.000000
1185.637695 17278.000000
1187.419678 17241.000000
1189.200439 17253.000000
1190.980225 17144.000000
1192.758911 17098.000000
1194.536621 17049.000000
1196.313110 16894.000000
1198.088501 16734.000000
1199.862793 16440.000000
1201.635986 16457.000000
1203.408325 16383.000000
1205.179321 16217.000000
1206.949463 16289.000000
1208.718384 16308.000000
1210.486206 16230.000000
1212.253174 16118.000000
1214.018799 16203.000000
1215.783447 16110.000000
1217.546997 16219.000000
1219.309448 16173.000000
1221.071045 16121.000000
1222.831421 15934.000000
1224.590698 15788.000000
1226.349121 15861.000000
1228.106323 15907.000000
1229.862427 16114.000000
1231.617432 16224.000000
1233.371582 16156.000000
1235.124390 16226.000000
1236.876221 16382.000000
1238.627197 16475.000000
1240.376831 16552.000000
1242.125610 16484.000000
1243.873047 16609.000000
1245.619751 16521.000000
1247.365234 16649.000000
1249.109863 16584.000000
1250.853149 16476.000000
1252.595459 16521.000000
1254.336670 16486.000000
1256.077026 16326.000000
1257.816284 16116.000000
1259.554321 15640.000000
1261.291504 15557.000000
1263.027466 15567.000000
1264.762451 15833.000000
1266.496460 16181.000000
1268.229492 16359.000000
1269.961304 16598.000000
1271.692139 16670.000000
1273.421753 16765.000000
1275.150513 16814.000000
1276.878174 16798.000000
1278.604736 16881.000000
1280.330444 16964.000000
1282.054810 16679.000000
1283.778320 16833.000000
1285.500854 16436.000000
1287.222412 16542.000000
1288.942749 16352.000000
1290.662109 16263.000000
1292.380371 16306.000000
1294.097656 16208.000000
1295.813965 16216.000000
1297.529053 16360.000000
1299.243164 16442.000000
1300.956299 16080.000000
1302.668579 15756.000000
1304.379639 15651.000000
1306.089722 15727.000000
1307.798706 15471.000000
1309.506470 15384.000000
1311.213623 15316.000000
1312.919312 15419.000000
1314.624268 15334.000000
1316.328247 15397.000000
1318.031006 15663.000000
1319.732788 15724.000000
1321.433716 17846.000000
1323.133301 11238.500000
1324.832031 18690.000000
1326.530029 14993.000000
1328.226685 14933.000000
1329.922241 14741.000000
1331.616943 14781.000000
1333.310425 14790.000000
1335.003052 14715.000000
1336.694824 14645.000000
1338.385254 14706.000000
1340.074951 14529.000000
1341.763550 14623.000000
1343.451050 14342.000000
1345.137573 14435.000000
1346.822998 14380.000000
1348.507446 14451.000000
1350.191040 14330.000000
1351.873413 14532.000000
1353.554810 14627.000000
1355.235352 14851.000000
1356.914673 15006.000000
1358.593384 15064.000000
1360.270752 15164.000000
1361.947021 15194.000000
1363.622314 15202.000000
1365.296875 15139.000000
1366.970215 15109.000000
1368.642578 15111.000000
1370.313965 15128.000000
1371.984375 15052.000000
1373.653687 15030.000000
1375.322021 15082.000000
1376.989502 14991.000000
1378.655884 14879.000000
1380.321289 15044.000000
1381.985718 14960.000000
1383.648926 14736.000000
1385.311523 14794.000000
1386.972778 14733.000000
1388.633179 14416.000000
1390.292480 14507.000000
1391.950806 14401.000000
1393.608398 14308.000000
1395.264771 14378.000000
1396.920288 14316.000000
1398.574585 14286.000000
1400.228027 14422.000000
1401.880371 14568.000000
1403.531982 14524.000000
1405.182373 14176.000000
1406.831665 14001.000000
1408.480225 13607.000000
1410.127686 13483.000000
1411.774170 13487.000000
1413.419800 13455.000000
1415.064453 13217.000000
1416.707886 13195.000000
1418.350464 13298.000000
1419.991943 13246.000000
1421.632568 13231.000000
1423.272217 13390.000000
1424.910767 13274.000000
1426.548462 13203.000000
1428.185059 13171.000000
1429.820679 13146.000000
1431.455566 12924.000000
1433.089355 13036.000000
1434.722046 13098.000000
1436.353760 13122.000000
1437.984619 13124.000000
1439.614380 13072.000000
1441.243042 13104.000000
1442.871094 13164.000000
1444.498047 13220.000000
1446.123779 13380.000000
1447.748901 13467.000000
1449.372925 13773.000000
1450.995972 14057.000000
1452.618042 14228.000000
1454.239014 14516.000000
1455.859009 14654.000000
1457.478271 14511.000000
1459.096191 16518.000000
1460.713501 11724.000000
1462.329834 13872.000000
1463.944946 13704.000000
1465.559204 13434.000000
1467.172607 13647.000000
1468.784912 13583.000000
1470.396362 13584.000000
1472.006958 13391.000000
1473.616333 13233.000000
1475.224731 13262.000000
1476.832275 13367.000000
1478.438843 13161.000000
1480.044678 13314.000000
1481.649292 13293.000000
1483.253052 13179.000000
1484.855591 12626.000000
1486.457520 12423.000000
1488.058228 12412.000000
1489.658203 12209.000000
1491.257080 11962.000000
1492.855103 12056.000000
1494.452026 11943.000000
1496.048096 12440.000000
1497.643188 12875.000000
1499.237305 12693.000000
1500.830688 12648.000000
1502.422974 12459.000000
1504.014038 12497.000000
1505.604614 12486.000000
1507.193848 12302.000000
1508.782471 12152.000000
1510.369995 12062.000000
1511.956421 11967.000000
1513.542114 11943.000000
1515.126709 11912.000000
1516.710449 12036.000000
1518.293091 11928.000000
1519.875000 11902.000000
1521.455811 12001.000000
1523.035889 11897.000000
1524.614746 11648.000000
1526.192749 11488.000000
1527.770020 11485.000000
1529.346069 11483.000000
1530.921387 11338.000000
1532.495605 11265.000000
1534.069092 11356.000000
1535.641357 11302.000000
1537.212891 11362.000000
1538.783447 11269.000000
1540.353149 11202.000000
1541.921631 11129.000000
1543.489380 11068.000000
1545.056274 11044.000000
1546.621948 11017.000000
1548.186890 11096.000000
1549.750732 11002.000000
1551.313965 10960.000000
1552.875854 10965.000000
1554.437134 11062.000000
1555.997314 11016.000000
1557.556763 10943.000000
1559.115112 10880.000000
1560.672729 10743.000000
1562.229248 10860.000000
1563.784546 10852.000000
1565.339233 10697.000000
1566.893188 10887.000000
1568.446167 10859.000000
1569.997803 10893.000000
1571.548706 10872.000000
1573.098877 10927.000000
1574.648071 10959.000000
1576.195923 11074.000000
1577.743286 10830.000000
1579.289673 10889.000000
1580.835205 11025.000000
1582.379761 11058.000000
1583.923096 11011.000000
1585.465820 10968.000000
1587.007690 11014.000000
1588.548462 10875.000000
1590.088257 11096.000000
1591.627319 10821.000000
1593.165283 10911.000000
1594.702759 10908.000000
1596.238892 11034.000000
1597.773926 10949.000000
1599.308472 10859.000000
1600.842041 10758.000000
1602.374756 10937.000000
1603.905884 10960.000000
1605.436768 10999.000000
1606.966797 10938.000000
1608.495605 10783.000000
1610.023315 10893.000000
1611.550415 10837.000000
1613.076782 10970.000000
1614.602173 11045.000000
1616.126709 11003.000000
1617.649902 10825.000000
1619.172363 10946.000000
1620.694092 11013.000000
1622.214966 11118.000000
1623.734375 10454.000000
1625.253296 10873.000000
1626.771484 10813.000000
1628.288818 10822.000000
1629.805054 10768.000000
1631.319946 10672.000000
1632.834351 10602.000000
1634.348022 10670.000000
1635.860596 10663.000000
1637.371948 10641.000000
1638.882935 10624.000000
1640.392822 10488.000000
1641.901855 10611.000000
1643.409546 10497.000000
1644.916870 10414.000000
1646.423340 10384.000000
1647.928833 10376.000000
1649.433472 10281.000000
1650.936646 10190.000000
1652.439209 10261.000000
1653.941406 10092.000000
1655.442261 10097.000000
1656.942017 10037.000000
1658.440918 9879.000000
1659.939453 9927.000000
1661.436768 9885.000000
1662.933350 9806.000000
1664.428345 9738.000000
1665.923096 9679.000000
1667.416992 9598.000000
1668.909912 10482.000000
1670.401489 8497.000000
1671.892578 9224.000000
1673.383057 9319.000000
1674.872437 9284.000000
1676.360352 9340.000000
1677.848022 9237.000000
1679.334717 9343.000000
1680.820557 9443.000000
1682.305542 9337.000000
1683.789063 9063.000000
1685.272339 9055.000000
1686.754761 9002.000000
1688.236084 9067.000000
1689.715942 9102.000000
1691.195557 8894.000000
1692.674438 8906.000000
1694.152344 8903.000000
1695.629272 8905.000000
1697.104980 8961.000000
1698.580322 8812.000000
1700.054443 8899.000000
1701.527954 8771.000000
1703.000000 8837.000000
1704.471802 8753.000000
1705.942627 8775.000000
1707.412598 8778.000000
1708.881226 8773.000000
1710.349365 8694.000000
1711.816772 8706.000000
1713.283081 8755.000000
1714.748779 8733.000000
1716.212769 8695.000000
1717.676636 8628.000000
1719.139648 8680.000000
1720.601685 8706.000000
1722.062500 8575.000000
1723.522705 8530.000000
1724.982178 8647.000000
1726.440796 8689.000000
1727.898438 8568.000000
1729.354736 8513.000000
1730.810791 8520.000000
1732.265869 8523.000000
1733.719971 8590.000000
1735.172852 8392.000000
1736.625488 8410.000000
1738.077026 8475.000000
1739.527832 8337.000000
1740.977661 8405.000000
1742.426147 8400.000000
1743.874268 8269.000000
1745.321533 8294.000000
1746.768066 8302.000000
1748.213013 8177.000000
1749.657715 8131.000000
1751.101563 8077.000000
1752.544556 8088.000000
1753.986084 8011.000000
1755.427368 8341.000000
1756.867798 7442.000000
1758.307251 7954.000000
1759.745728 8041.000000
1761.183228 7813.000000
1762.620239 7785.000000
1764.056274 7815.000000
1765.491455 7780.000000
1766.925171 7723.000000
1768.358765 7926.000000
1769.791382 7826.000000
1771.223145 7927.000000
1772.654053 7888.000000
1774.083740 7787.000000
1775.512695 7720.000000
1776.941162 7493.000000
1778.368652 7227.000000
1779.794800 6899.000000
1781.220703 7329.000000
1782.645508 7359.000000
1784.069702 7286.000000
1785.492432 7366.000000
1786.914673 7258.000000
1788.336182 7310.000000
1789.756958 7333.000000
1791.176758 7275.000000
1792.595215 7108.000000
1794.013184 7081.000000
1795.430542 7052.000000
1796.847046 7135.000000
1798.262085 7038.000000
1799.676758 7097.000000
1801.090820 7123.000000
1802.503662 7015.000000
1803.915894 6949.000000
1805.326782 6939.000000
1806.737183 6958.000000
1808.146851 6961.000000
1809.555542 6966.000000
1810.963135 6978.000000
1812.370239 6958.000000
1813.776489 6975.000000
1815.181763 7033.000000
1816.585938 7037.000000
1817.989746 7036.000000
1819.392578 7091.000000
1820.794556 6987.000000
1822.195923 6914.000000
1823.595825 7019.000000
1824.995117 6984.000000
1826.393921 7005.000000
1827.791870 6949.000000
1829.188477 6983.000000
1830.584473 7047.000000
1831.979736 6888.000000
1833.374390 6831.000000
1834.768066 6878.000000
1836.160400 6901.000000
1837.552246 6890.000000
1838.943481 6859.000000
1840.333740 6854.000000
1841.722778 6860.000000
1843.111450 6886.000000
1844.499146 6740.000000
1845.886108 6862.000000
1847.271729 6816.000000
1848.657104 6741.000000
1850.041626 6835.000000
1851.425415 6659.000000
1852.808105 6781.000000
1854.189575 6660.000000
1855.570557 6502.000000
1856.951050 6571.000000
1858.330566 6511.000000
1859.708618 6382.000000
1861.086548 6500.000000
1862.463501 6452.000000
1863.839722 6345.000000
1865.215088 6417.000000
1866.588989 6348.000000
1867.962769 6400.000000
1869.335693 6271.000000
1870.707520 6185.000000
1872.078369 6250.000000
1873.448853 6136.000000
1874.818237 6219.000000
1876.187134 6094.000000
1877.554443 6154.000000
1878.921631 6181.000000
1880.287842 6040.000000
1881.653320 6098.000000
1883.018066 5984.000000
1884.381226 6007.000000
1885.744263 5891.000000
1887.106445 6025.000000
1888.467773 5975.000000
1889.827759 5991.000000
1891.187378 5870.000000
1892.546387 5822.000000
1893.904419 5953.000000
1895.261597 5954.000000
1896.617554 5882.000000
1897.973267 5712.000000
1899.328003 5889.000000
1900.681885 5830.000000
1902.034668 5772.000000
1903.386963 5920.000000
1904.738525 5999.000000
1906.089233 5846.000000
1907.438721 5880.000000
1908.787720 5872.000000
1910.135864 5940.000000
1911.483398 5858.000000
1912.830200 5857.000000
1914.175415 5852.000000
1915.520386 5896.000000
1916.864624 5921.000000
1918.208008 5853.000000
1919.550049 5939.000000
1920.891846 5888.000000
1922.232788 5736.000000
1923.572998 5886.000000
1924.912231 5794.000000
1926.250488 5902.000000
1927.588135 5713.000000
1928.925049 5716.000000
1930.261108 5712.000000
1931.595947 5909.000000
1932.930420 5779.000000
1934.264160 5734.000000
1935.597046 5631.000000
1936.928467 5737.000000
1938.260010 5713.000000
1939.590210 5575.000000
1940.919922 5791.000000
1942.248779 5685.000000
1943.576416 5673.000000
1944.903564 5695.000000
1946.229980 5698.000000
1947.555664 5651.000000
1948.880005 5599.000000
1950.204102 5633.000000
1951.527344 5570.000000
1952.849854 5544.000000
1954.171265 5541.000000
1955.491699 5474.000000
1956.811523 5626.000000
1958.130981 5455.000000
1959.449463 5416.000000
1960.766602 5397.000000
1962.083374 5381.000000
1963.399414 5292.000000
1964.714722 5346.000000
1966.028564 5344.000000
1967.342163 5230.000000
1968.655029 5291.000000
1969.967041 5431.000000
1971.278442 5237.000000
1972.588501 5268.000000
1973.898071 5228.000000
1975.206909 5230.000000
1976.515137 5185.000000
1977.822021 5035.000000
1979.128296 5124.000000
1980.434204 5180.000000
1981.738892 5232.000000
1983.043091 5257.000000
1984.346069 5230.000000
1985.648682 5076.000000
1986.950317 5204.000000
1988.251343 4960.000000
1989.550781 4922.000000
1990.850342 4935.000000
1992.148804 4836.000000
1993.446777 5081.000000
1994.743164 4884.000000
1996.039551 5016.000000
1997.334961 4929.000000
1998.629639 4844.000000
1999.923462 4890.000000
2001.216064 4792.000000
2002.508179 4807.000000
2003.799805 4761.000000
2005.090698 4832.000000
2006.380005 5095.000000
2007.669067 4785.000000
2008.957397 4783.000000
2010.244995 4658.000000
2011.531738 4701.000000
2012.817383 4825.000000
2014.102661 4702.000000
2015.386963 4890.000000
2016.670654 4757.000000
2017.953003 4650.000000
2019.234985 4630.000000
2020.516479 4593.000000
2021.796997 4736.000000
2023.076782 4611.000000
2024.355469 4679.000000
2025.633423 4621.000000
2026.910889 4653.000000
2028.187744 4675.000000
2029.462891 4726.000000
2030.738159 4765.000000
2032.012451 4795.000000
2033.285767 4706.000000
2034.558228 4726.000000
2035.830322 4684.000000
2037.101318 4682.000000
2038.372070 4669.000000
2039.641479 4707.000000
2040.909790 4647.000000
2042.178101 4697.000000
2043.445435 4696.000000
2044.712036 4738.000000
2045.977417 4677.000000
2047.242188 4234.000000
2048.506836 4619.000000
2049.770020 4661.000000
2051.032959 4568.000000
2052.293945 4622.000000
2053.555420 4617.000000
2054.815674 4541.000000
2056.075195 4477.000000
2057.333984 4564.000000
2058.591797 4448.000000
2059.849121 4522.000000
2061.105713 4422.000000
2062.360840 4377.000000
2063.615967 4569.000000
2064.870117 4512.000000
2066.123535 4451.000000
2067.376221 4311.000000
2068.627686 4358.000000
2069.878906 4422.000000
2071.129395 4484.000000
2072.379150 4425.000000
2073.627441 4067.000000
2074.875732 4468.000000
2076.123047 4379.000000
2077.369629 4324.000000
2078.615479 4294.000000
2079.860107 4246.000000
2081.104248 4315.000000
2082.347900 4250.000000
2083.590576 4344.000000
2084.832031 4244.000000
2086.073242 4219.000000
2087.313965 4279.000000
2088.553711 4272.000000
2089.792236 4143.000000
2091.030273 4093.000000
2092.267578 4218.000000
2093.504639 4146.000000
2094.740234 4108.000000
2095.975098 4050.000000
2097.209717 4077.000000
2098.443359 4095.000000
2099.676025 4148.000000
2100.907959 4111.000000
2102.139404 4103.000000
2103.369873 4015.000000
2104.599609 4102.000000
2105.829102 4013.000000
2107.056641 4010.000000
2108.284424 4002.000000
2109.511475 3869.000000
2110.737549 3912.000000
2111.962158 3917.000000
2113.187012 3791.000000
2114.410645 3768.000000
2115.633789 3915.000000
2116.855713 3928.000000
2118.077393 3841.000000
2119.298096 3805.000000
2120.518066 3855.000000
2121.737549 4018.000000
2122.955566 3919.000000
2124.173584 3949.000000
2125.390625 3970.000000
2126.607178 3943.000000
2127.822021 4032.000000
2129.037109 4031.000000
2130.251221 4073.000000
2131.464600 3875.000000
2132.677246 3730.000000
2133.888428 3808.000000
2135.099854 3887.000000
2136.310059 3805.000000
2137.519775 3818.000000
2138.728027 3869.000000
2139.936279 3788.000000
2141.143799 3898.000000
2142.350098 3758.000000
2143.555664 3943.000000
2144.760986 3826.000000
2145.965332 3787.000000
2147.168945 3887.000000
2148.372070 3861.000000
2149.573730 3798.000000
2150.775146 3844.000000
2151.975830 3789.000000
2153.175781 3745.000000
2154.374512 3737.000000
2155.572998 3633.000000
2156.770996 3744.000000
2157.968018 3649.000000
2159.164307 3626.000000
2160.359375 3591.000000
2161.554199 3502.000000
2162.748291 3560.000000
2163.941406 3625.000000
2165.133545 3629.000000
2166.325439 3511.000000
2167.516602 3335.000000
2168.706787 3480.000000
2169.896240 3487.000000
2171.085205 3365.000000
2172.273193 3394.000000
2173.460938 3422.000000
2174.647217 3317.000000
2175.832764 3291.000000
2177.018066 3299.000000
2178.202881 3344.000000
2179.386475 3321.000000
2180.569336 3311.000000
2181.751221 3401.000000
2182.932861 3338.000000
2184.114014 3340.000000
2185.293945 3370.000000
2186.472900 3346.000000
2187.651367 3199.000000
2188.829590 3204.000000
2190.006592 3157.000000
2191.182617 3241.000000
2192.358398 3260.000000
2193.533691 3242.000000
2194.707520 3224.000000
2195.880859 3191.000000
2197.053955 3271.000000
2198.225830 3288.000000
2199.397217 3332.000000
2200.568115 3220.000000
2201.737305 3246.000000
2202.906494 3330.000000
2204.075195 3287.000000
2205.242920 3287.000000
2206.409668 3175.000000
2207.575684 3291.000000
2208.741211 3332.000000
2209.906494 3182.000000
2211.070313 3246.000000
2212.233643 3178.000000
2213.395752 3330.000000
2214.558105 3156.000000
2215.719238 3136.000000
2216.879395 3193.000000
2218.039063 3196.000000
2219.198486 3137.000000
2220.356689 3148.000000
2221.513916 3036.000000
2222.670898 3077.000000
2223.827148 3120.000000
2224.982666 3079.000000
2226.137451 3056.000000
2227.291260 3040.000000
2228.444092 3103.000000
2229.597412 3044.000000
2230.748779 3030.000000
2231.899902 3019.000000
2233.050293 3067.000000
2234.200195 2963.000000
2235.349121 3056.000000
2236.497559 3024.000000
2237.644531 3053.000000
2238.791748 2950.000000
2239.937744 2882.000000
2241.083496 2915.000000
2242.227539 2856.000000
2243.371826 2802.000000
2244.515137 2851.000000
2245.657715 2819.000000
2246.799316 2942.000000
2247.940674 2728.000000
2249.081055 2795.000000
2250.220703 2818.000000
2251.359863 2727.000000
2252.497803 2683.000000
2253.635742 2707.000000
2254.772705 2717.000000
2255.908936 2651.000000
2257.044189 2722.000000
2258.178711 2625.000000
2259.312988 2727.000000
2260.446777 2799.000000
2261.579102 2774.000000
2262.710938 2704.000000
2263.842285 2647.000000
2264.972656 2638.000000
2266.102783 2517.000000
2267.231689 2627.000000
2268.360107 2592.000000
2269.488037 2474.000000
2270.614990 2509.000000
2271.741211 2610.000000
2272.866455 2617.000000
2273.991699 2548.000000
2275.116211 2624.000000
2276.239502 2615.000000
2277.362061 2581.000000
2278.484131 2570.000000
2279.605713 2556.000000
2280.726563 2556.000000
2281.846191 2459.000000
2282.965332 2565.000000
2284.084229 2549.000000
2285.202393 2455.000000
2286.319580 2420.000000
2287.435791 2514.000000
2288.551758 2434.000000
2289.666992 2522.000000
2290.781494 2574.000000
2291.894775 2583.000000
2293.008057 2484.000000
2294.120605 2471.000000
2295.232422 2492.000000
2296.343506 2580.000000
2297.453369 2605.000000
2298.562744 2629.000000
2299.671875 2574.000000
2300.780029 2624.000000
2301.887207 2503.000000
2302.994141 2466.000000
2304.100342 2543.000000
2305.206055 2540.000000
2306.310303 2568.000000
2307.414307 2427.000000
2308.517822 2568.000000
2309.620850 2495.000000
2310.722656 2440.000000
2311.823730 2445.000000
2312.924316 2362.000000
2314.024414 2472.000000
2315.123779 2395.000000
2316.221680 2500.000000
2317.320068 2474.000000
2318.416992 2373.000000
2319.513672 2339.000000
2320.609863 2474.000000
2321.704346 2352.000000
2322.798828 2355.000000
2323.892578 2374.000000
2324.986084 2295.000000
2326.077881 2272.000000
2327.169678 2428.000000
2328.260742 2355.000000
2329.351074 2437.000000
2330.440430 2350.000000
2331.529785 2368.000000
2332.617920 2319.000000
2333.705566 2314.000000
2334.792969 2311.000000
2335.878662 2227.000000
2336.964111 2319.000000
2338.049316 2261.000000
2339.133545 2240.000000
2340.216797 2199.000000
2341.299805 2231.000000
2342.381836 2265.000000
2343.463623 2139.000000
2344.544678 2183.000000
2345.624512 2174.000000
2346.703857 2114.000000
2347.782715 2131.000000
2348.861084 2186.000000
2349.937988 2103.000000
2351.014648 2051.000000
2352.091064 2081.000000
2353.166504 2161.000000
2354.240967 2147.000000
2355.315186 2038.000000
2356.388672 2078.000000
2357.461670 2111.000000
2358.533447 2086.000000
2359.604980 2155.000000
2360.675537 2075.000000
2361.745850 2061.000000
2362.815186 1986.000000
2363.883545 2104.000000
2364.951660 1986.000000
2366.019043 1950.000000
2367.085938 2035.000000
2368.152100 2059.000000
2369.217041 1887.000000
2370.281982 1992.000000
2371.346191 1944.000000
2372.409668 1979.000000
2373.471924 1918.000000
2374.534180 1991.000000
2375.595459 1993.000000
2376.656494 1867.000000
2377.716309 1994.000000
2378.775391 1996.000000
2379.834473 1910.000000
2380.892578 1907.000000
2381.949951 1918.000000
2383.006348 1884.000000
2384.062500 1880.000000
2385.118164 1900.000000
2386.173096 1885.000000
2387.226563 1843.000000
2388.280273 1841.000000
2389.333008 1917.000000
2390.385254 1763.000000
2391.436768 1921.000000
2392.487305 1847.000000
2393.537598 1934.000000
2394.586914 1886.000000
2395.636230 1886.000000
2396.684082 1898.000000
2397.731445 1874.000000
2398.778564 1879.000000
2399.824707 1920.000000
2400.870117 1793.000000
2401.914795 1856.000000
2402.959473 1735.000000
2404.002686 1829.000000
2405.045898 1760.000000
2406.087646 1949.000000
2407.129639 1844.000000
2408.170898 1802.000000
2409.211182 1907.000000
2410.250732 1964.000000
2411.289307 1882.000000
2412.328125 1852.000000
2413.365723 1757.000000
2414.403076 1949.000000
2415.439209 1843.000000
2416.475098 1872.000000
2417.510254 1760.000000
2418.544922 1778.000000
2419.578125 1878.000000
2420.611572 1794.000000
2421.644043 1860.000000
2422.676270 1832.000000
2423.707031 1836.000000
2424.737793 1775.000000
2425.768066 1836.000000
2426.797119 1813.000000
2427.826172 1765.000000
2428.853516 1697.000000
2429.881348 1690.000000
2430.907959 1783.000000
2431.934326 1846.000000
2432.959229 1658.000000
2433.984375 1691.000000
2435.008545 1591.000000
2436.032471 1774.000000
2437.055176 1647.000000
2438.077148 1589.000000
2439.098877 1637.000000
2440.119873 1674.000000
2441.140381 1640.000000
2442.159668 1567.000000
2443.178955 1582.000000
2444.197266 1546.000000
2445.215332 1629.000000
2446.231934 1460.000000
2447.248535 1586.000000
2448.264404 1591.000000
2449.280273 1612.000000
2450.294678 1477.000000
2451.308350 1541.000000
2452.321533 1585.000000
2453.334473 1522.000000
2454.346680 1484.000000
2455.357910 1489.000000
2456.368896 1607.000000
2457.379150 1558.000000
2458.388916 1503.000000
2459.397705 1476.000000
2460.405762 1683.000000
2461.413818 1451.000000
2462.420654 1463.000000
2463.427246 1478.000000
2464.432617 1496.000000
2465.437744 1461.000000
2466.442627 1550.000000
2467.446289 1577.000000
2468.449707 1443.000000
2469.452148 1596.000000
2470.454346 1518.000000
2471.456055 1507.000000
2472.456787 1466.000000
2473.456543 1459.000000
2474.456299 1419.000000
2475.455078 1489.000000
2476.453369 1426.000000
2477.450684 1440.000000
2478.447754 1517.000000
2479.444824 1410.000000
2480.440430 1327.000000
2481.436035 1456.000000
2482.429932 1460.000000
2483.423828 1370.000000
2484.417236 1436.000000
2485.410156 1369.000000
2486.402100 1495.000000
2487.393311 1493.000000
2488.384277 1483.000000
2489.374756 1417.000000
2490.364258 1510.000000
2491.353027 1439.000000
2492.341797 1398.000000
2493.329590 1411.000000
2494.316162 1425.000000
2495.302734 1124.000000
2496.288818 1414.000000
2497.274170 1481.000000
2498.258545 1451.000000
2499.242676 1431.000000
2500.226807 1324.000000
2501.209473 1457.000000
2502.191650 1425.000000
2503.173340 1401.000000
2504.154297 1383.000000
2505.134766 1300.000000
2506.114990 1395.000000
2507.093750 1373.000000
2508.072266 1310.000000
2509.050293 1357.000000
2510.027832 1248.000000
2511.004395 1429.000000
2511.980713 1318.000000
2512.956299 1319.000000
2513.931396 1330.000000
2514.906006 1420.000000
2515.879395 1366.000000
2516.852539 1360.000000
2517.825439 1303.000000
2518.797363 1301.000000
2519.768555 1328.000000
2520.739258 1459.000000
2521.709717 1280.000000
2522.679443 1227.000000
2523.648193 1302.000000
2524.616211 1296.000000
2525.584229 1310.000000
2526.551270 1209.000000
2527.518066 1249.000000
2528.483643 1289.000000
2529.449219 1243.000000
2530.414063 1192.000000
2531.378418 1210.000000
2532.341553 1177.000000
2533.304932 1307.000000
2534.267334 1294.000000
2535.229492 1240.000000
2536.190430 1191.000000
2537.150635 1235.000000
2538.111084 1210.000000
2539.070557 1219.000000
2540.029297 1275.000000
2540.987061 1174.000000
2541.945068 1286.000000
2542.902344 1156.000000
2543.858643 1242.000000
2544.814697 1163.000000
2545.769531 1132.000000
2546.724609 1215.000000
2547.678955 1179.000000
2548.632568 584.000000
2549.585205 1117.000000
2550.537598 1120.000000
2551.489502 1251.000000
2552.440674 1154.000000
2553.391113 1029.000000
2554.341064 1049.000000
2555.290771 1076.000000
2556.239746 1210.000000
2557.188232 1124.000000
2558.135498 1062.000000
2559.082764 1106.000000
2560.029297 1129.000000
2560.975342 1115.000000
2561.920410 1032.000000
2562.865234 1184.000000
2563.809570 1048.000000
2564.753418 1146.000000
2565.696777 1178.000000
2566.638672 1168.000000
2567.580811 1072.000000
2568.522217 953.000000
2569.462891 1164.000000
2570.402832 1035.000000
2571.342773 1096.000000
2572.281738 1108.000000
2573.220459 994.000000
2574.158203 1104.000000
2575.095703 1109.000000
2576.032471 1028.000000
2576.968506 1025.000000
2577.904053 1116.000000
2578.838867 1028.000000
2579.773682 1029.000000
2580.707520 1040.000000
2581.640869 854.000000
2582.573486 1041.000000
2583.505859 959.000000
2584.437500 1105.000000
2585.368652 1057.000000
2586.299316 1085.000000
2587.228760 973.000000
2588.158203 961.000000
2589.087158 983.000000
2590.015869 1203.000000
2590.942871 1125.000000
2591.870117 930.000000
2592.796875 1135.000000
2593.722900 1070.000000
2594.648682 1098.000000
2595.573242 977.000000
2596.497559 1068.000000
2597.421387 1042.000000
2598.344727 976.000000
2599.267090 1080.000000
2600.189209 1085.000000
2601.110840 1120.000000
2602.031738 1104.000000
2602.951904 1056.000000
2603.871826 940.000000
2604.791260 1070.000000
2605.710449 961.000000
2606.628662 1025.000000
2607.545654 971.000000
2608.462891 1012.000000
2609.379883 980.000000
2610.295898 974.000000
2611.210693 1057.000000
2612.125977 883.000000
2613.040527 973.000000
2613.954102 960.000000
2614.867676 977.000000
2615.780029 1018.000000
2616.692383 902.000000
2617.603760 1033.000000
2618.514893 947.000000
2619.425293 906.000000
2620.335449 1065.000000
2621.244873 1127.000000
2622.153809 902.000000
2623.061768 986.000000
2623.969971 1011.000000
2624.877197 902.000000
2625.783936 858.000000
2626.689941 885.000000
2627.595703 968.000000
2628.500732 993.000000
2629.405518 896.000000
2630.309570 873.000000
2631.212646 845.000000
2632.115723 932.000000
2633.017822 899.000000
2633.919922 928.000000
2634.821777 919.000000
2635.721924 894.000000
2636.622314 868.000000
2637.521973 798.000000
2638.421387 948.000000
2639.319336 866.000000
2640.217773 863.000000
2641.115723 947.000000
2642.012939 760.000000
2642.908936 828.000000
2643.804932 872.000000
2644.700684 818.000000
2645.595703 894.000000
2646.490479 895.000000
2647.383789 808.000000
2648.277100 832.000000
2649.170166 888.000000
2650.062988 812.000000
2650.954102 823.000000
2651.845459 876.000000
2652.736328 807.000000
2653.626465 884.000000
2654.516357 820.000000
2655.405029 826.000000
2656.293945 816.000000
2657.182373 829.000000
2658.069824 860.000000
2658.956299 748.000000
2659.843262 859.000000
2660.729492 800.000000
2661.615234 870.000000
2662.499756 780.000000
2663.384277 761.000000
2664.268555 810.000000
2665.152100 844.000000
2666.035156 821.000000
2666.917480 752.000000
2667.799316 870.000000
2668.680420 816.000000
2669.561768 820.000000
2670.441650 894.000000
2671.321777 904.000000
2672.201172 692.000000
2673.080566 817.000000
2673.959229 772.000000
2674.836182 809.000000
2675.713867 771.000000
2676.590820 788.000000
2677.467041 785.000000
2678.342773 833.000000
2679.217773 781.000000
2680.093018 839.000000
2680.967285 831.000000
2681.841064 790.000000
2682.714111 757.000000
2683.586914 775.000000
2684.459473 846.000000
2685.331299 830.000000
2686.202393 743.000000
2687.073242 734.000000
2687.943604 729.000000
2688.813721 835.000000
2689.682129 780.000000
2690.551270 747.000000
2691.419678 771.000000
2692.287842 770.000000
2693.155273 643.000000
2694.021484 689.000000
2694.888184 775.000000
2695.753906 793.000000
2696.619629 696.000000
2697.483887 946.000000
2698.348877 717.000000
2699.212402 753.000000
2700.076172 733.000000
2700.938477 764.000000
2701.801270 692.000000
2702.663086 654.000000
2703.524414 782.000000
2704.385742 739.000000
2705.245850 685.000000
2706.105957 776.000000
2706.965576 619.000000
2707.824951 700.000000
2708.682617 758.000000
2709.540527 826.000000
2710.398926 677.000000
2711.256104 850.000000
2712.112549 633.000000
2712.968506 792.000000
2713.824463 648.000000
2714.679688 674.000000
2715.534180 599.000000
2716.388184 733.000000
2717.242188 775.000000
2718.095215 659.000000
2718.948486 709.000000
2719.800049 682.000000
2720.652100 702.000000
2721.503906 682.000000
2722.354492 550.000000
2723.205078 678.000000
2724.055176 684.000000
2724.904541 700.000000
2725.753906 767.000000
2726.602051 647.000000
2727.449707 756.000000
2728.297852 728.000000
2729.144775 669.000000
2729.992188 710.000000
2730.838135 674.000000
2731.683350 748.000000
2732.529053 708.000000
2733.373779 735.000000
2734.218506 704.000000
2735.062012 660.000000
2735.905762 689.000000
2736.748779 605.000000
2737.591309 671.000000
2738.432861 676.000000
2739.274902 728.000000
2740.115967 726.000000
2740.956787 698.000000
2741.797363 666.000000
2742.636719 700.000000
2743.476074 692.000000
2744.315430 732.000000
2745.153564 744.000000
2745.991211 744.000000
2746.828857 547.000000
2747.666016 639.000000
2748.502930 648.000000
2749.339355 659.000000
2750.174561 724.000000
2751.010010 634.000000
2751.844971 657.000000
2752.679199 636.000000
2753.513184 634.000000
2754.346680 696.000000
2755.180176 632.000000
2756.012695 654.000000
2756.844727 627.000000
2757.676270 665.000000
2758.507813 603.000000
2759.338379 729.000000
2760.169189 627.000000
2760.998779 561.000000
2761.828369 569.000000
2762.657715 707.000000
2763.486328 619.000000
2764.314453 599.000000
2765.142090 639.000000
2765.969727 543.000000
2766.796875 589.000000
2767.623291 594.000000
2768.449219 658.000000
2769.274658 735.000000
2770.099854 539.000000
2770.925049 474.000000
2771.749023 689.000000
2772.572998 544.000000
2773.396973 566.000000
2774.219727 503.000000
2775.042725 688.000000
2775.864502 670.000000
2776.686279 551.000000
2777.508057 615.000000
2778.328857 589.000000
2779.148926 576.000000
2779.969238 576.000000
2780.789063 502.000000
2781.608887 489.000000
2782.426758 531.000000
2783.245850 517.000000
2784.063721 512.000000
2784.881348 620.000000
2785.698486 566.000000
2786.515137 525.000000
2787.331543 505.000000
2788.147461 616.000000
2788.963135 477.000000
2789.777832 488.000000
2790.593018 613.000000
2791.407471 483.000000
2792.221436 527.000000
2793.035156 519.000000
2793.847656 439.000000
2794.660400 550.000000
2795.472656 595.000000
2796.284424 599.000000
2797.095459 539.000000
2797.907227 522.000000
2798.717773 492.000000
2799.528320 523.000000
2800.337402 562.000000
2801.147217 502.000000
2801.956299 424.000000
2802.765137 485.000000
2803.573486 493.000000
2804.380859 552.000000
2805.188721 565.000000
2805.995850 567.000000
2806.802734 521.000000
2807.608398 574.000000
2808.414551 513.000000
2809.219971 542.000000
2810.025391 514.000000
2810.830078 570.000000
2811.633789 491.000000
2812.437988 501.000000
2813.241699 567.000000
2814.045166 440.000000
2814.847168 577.000000
2815.649902 494.000000
2816.451904 491.000000
2817.253662 454.000000
2818.054932 420.000000
2818.855713 517.000000
2819.656006 565.000000
2820.456543 526.000000
2821.256104 529.000000
2822.055176 435.000000
2822.854248 603.000000
2823.653076 538.000000
2824.451416 443.000000
2825.248779 490.000000
2826.046387 519.000000
2826.843262 514.000000
2827.640381 528.000000
2828.436768 502.000000
2829.232422 540.000000
2830.028076 518.000000
2830.823486 540.000000
2831.618408 541.000000
2832.412598 617.000000
2833.206787 437.000000
2834.000732 553.000000
2834.794189 548.000000
2835.586914 461.000000
2836.379395 502.000000
2837.171875 506.000000
2837.964111 505.000000
2838.755859 591.000000
2839.546631 543.000000
2840.337402 535.000000
2841.128418 556.000000
2841.918457 442.000000
2842.708008 522.000000
2843.497803 606.000000
2844.286621 547.000000
2845.075439 556.000000
2845.864258 557.000000
2846.652100 601.000000
2847.439453 580.000000
2848.227051 531.000000
2849.014160 567.000000
2849.800537 618.000000
2850.586914 477.000000
2851.373047 368.000000
2852.158691 473.000000
2852.943359 514.000000
2853.728516 491.000000
2854.513428 497.000000
2855.297607 561.000000
2856.081787 645.000000
2856.864746 563.000000
2857.647949 526.000000
2858.430908 538.000000
2859.213379 546.000000
2859.995605 551.000000
2860.777344 518.000000
2861.558838 580.000000
2862.340576 519.000000
2863.121582 560.000000
2863.901855 503.000000
2864.681885 585.000000
2865.461914 547.000000
2866.241699 638.000000
2867.020508 613.000000
2867.799561 570.000000
2868.578125 613.000000
2869.356445 553.000000
2870.134277 561.000000
2870.911865 531.000000
2871.689209 744.000000
2872.466309 697.000000
2873.242920 618.000000
2874.019043 789.000000
2874.795166 722.000000
2875.570801 689.000000
2876.346191 774.000000
2877.121094 724.000000
2877.895752 739.000000
2878.670410 688.000000
2879.444824 843.000000
2880.218506 807.000000
2880.991455 736.000000
2881.765137 750.000000
2882.537842 745.000000
2883.310547 713.000000
2884.082520 829.000000
2884.854248 760.000000
2885.626465 795.000000
2886.397461 774.000000
2887.167969 778.000000
2887.938965 734.000000
2888.709961 841.000000
2889.480225 795.000000
2890.249512 809.000000
2891.019043 753.000000
2891.788574 864.000000
2892.557617 849.000000
2893.326172 630.000000
2894.094727 874.000000
2894.862305 786.000000
2895.630371 748.000000
2896.397949 826.000000
2897.165527 799.000000
2897.931885 744.000000
2898.699219 757.000000
2899.465332 756.000000
2900.231689 656.000000
2900.996582 725.000000
2901.761963 617.000000
2902.527832 703.000000
2903.292236 668.000000
2904.056641 695.000000
2904.821289 726.000000
2905.584961 698.000000
2906.349365 753.000000
2907.113037 700.000000
2907.875977 657.000000
2908.638672 672.000000
2909.401855 591.000000
2910.164551 714.000000
2910.926025 628.000000
2911.687988 628.000000
spectrumdark 2048
-96.542793 6173.000000
-93.915924 6173.000000
-91.290932 6000.000000
-88.667831 6410.000000
-86.046600 5726.000000
-83.427269 6274.000000
-80.809799 6079.000000
-78.194206 6384.000000
-75.580490 6164.000000
-72.968651 5857.000000
-70.358673 6021.000000
-67.750580 5975.000000
-65.144333 5913.000000
-62.539959 5964.000000
-59.937450 6055.000000
-57.336796 5582.000000
-54.738003 6230.000000
-52.141068 6839.000000
-49.545986 6384.000000
-46.952759 6463.000000
-44.361382 6241.000000
-41.771851 6661.000000
-39.184162 5902.000000
-36.598324 5997.000000
-34.014328 6395.000000
-31.432171 5674.000000
-28.851858 6235.000000
-26.273373 5692.000000
-23.696730 6091.000000
-21.121912 6194.000000
-18.548935 6453.000000
-15.977777 6499.000000
-13.408454 6737.000000
-10.840956 7770.000000
-8.275276 6261.000000
-5.711422 6527.000000
-3.149382 5998.000000
-0.589166 5779.000000
1.969242 6120.000000
4.525829 6922.000000
7.080612 6630.000000
9.633576 5969.000000
12.184741 6646.000000
14.734093 6477.000000
17.281649 6677.000000
19.827393 5940.000000
22.371344 5687.000000
24.913490 6652.000000
27.453840 6742.000000
29.992405 6771.000000
32.529175 6153.000000
35.064140 5762.000000
37.597328 7184.000000
40.128735 6237.000000
42.658348 7059.000000
45.186165 6522.000000
47.712223 7749.000000
50.236492 5657.000000
52.758991 6247.000000
55.279694 6691.000000
57.798641 6237.000000
60.315815 6422.000000
62.831211 6591.000000
65.344826 5558.000000
67.856689 5735.000000
70.366806 6494.000000
72.875130 6528.000000
75.381699 5882.000000
77.886520 6316.000000
80.389587 6386.000000
82.890877 6269.000000
85.390427 6092.000000
87.888222 6377.000000
90.384285 5752.000000
92.878571 7196.000000
95.371117 5787.000000
97.861946 6845.000000
100.351006 7115.000000
102.838318 6369.000000
105.323906 6149.000000
107.807755 6386.000000
110.289856 5735.000000
112.770233 6499.000000
115.248886 6122.000000
117.725815 6511.000000
120.200989 7137.000000
122.674454 6763.000000
125.146187 5895.000000
127.616211 6712.000000
130.084488 6247.000000
132.551086 6190.000000
135.015930 5639.000000
137.479080 6186.000000
139.940491 7241.000000
142.400208 6834.000000
144.858200 6284.000000
147.314499 5962.000000
149.769089 5800.000000
152.221954 6795.000000
154.673141 6413.000000
157.122635 6552.000000
159.570404 6033.000000
162.016464 6545.000000
164.460846 8726.000000
166.903549 6375.000000
169.344559 6812.000000
171.783859 6174.000000
174.221451 7195.000000
176.657410 6569.000000
179.091629 6918.000000
181.524170 7101.000000
183.955063 6665.000000
186.384232 6914.000000
188.811752 6686.000000
191.237595 6241.000000
193.661758 6655.000000
196.084259 7078.000000
198.505066 7364.000000
200.924210 6417.000000
203.341690 6023.000000
205.757477 7567.000000
208.171616 7060.000000
210.584122 6328.000000
212.994949 6087.000000
215.404099 6214.000000
217.811615 7319.000000
220.217422 6105.000000
222.621643 6512.000000
225.024155 6658.000000
227.425049 6865.000000
229.824295 6447.000000
232.221878 6803.000000
234.617798 7241.000000
237.012100 6501.000000
239.404739 5782.000000
241.795761 6699.000000
244.185120 6591.000000
246.572861 6287.000000
248.958954 6938.000000
251.343414 6041.000000
253.726227 7807.000000
256.107452 6583.000000
258.487000 6630.000000
260.864960 6473.000000
263.241241 7563.000000
265.615967 7578.000000
267.989044 7838.000000
270.360474 6132.000000
272.730255 6390.000000
275.098480 5855.000000
277.465057 6280.000000
279.830048 6768.000000
282.193420 6008.000000
284.555145 6233.000000
286.915283 7090.000000
289.273804 5928.000000
291.630737 6469.000000
293.986053 6308.000000
296.339783 5882.000000
298.691864 5916.000000
301.042389 6284.000000
303.391327 6302.000000
305.738617 6780.000000
308.084381 6401.000000
310.428467 6452.000000
312.771027 7420.000000
315.111969 7573.000000
317.451294 7101.000000
319.789063 6954.000000
322.125275 8045.000000
324.459839 6268.000000
326.792847 6463.000000
329.124298 5954.000000
331.454163 6589.000000
333.782440 6351.000000
336.109100 7185.000000
338.434265 6350.000000
340.757813 6216.000000
343.079803 5935.000000
345.400238 7471.000000
347.719055 7659.000000
350.036316 5981.000000
352.352051 5792.000000
354.666199 6918.000000
356.978760 6274.000000
359.289764 6479.000000
361.599243 7059.000000
363.907196 6357.000000
366.213531 5625.000000
368.518280 6392.000000
370.821564 6362.000000
373.123230 6319.000000
375.423401 6326.000000
377.722015 6299.000000
380.019073 5697.000000
382.314575 6065.000000
384.608551 5843.000000
386.900940 5208.000000
389.191833 5531.000000
391.481201 6199.000000
393.768982 6246.000000
396.055237 6478.000000
398.339996 6976.000000
400.623138 5950.000000
402.904846 6390.000000
405.185028 6124.000000
407.463623 7236.000000
409.740692 6401.000000
412.016235 6661.000000
414.290253 6481.000000
416.562836 6425.000000
418.833801 6201.000000
421.103271 6371.000000
423.371246 7019.000000
425.637665 7266.000000
427.902588 6222.000000
430.166046 6255.000000
432.427917 6471.000000
434.688324 5986.000000
436.947174 6601.000000
439.204559 6045.000000
441.460449 5638.000000
443.714844 5790.000000
445.967712 5393.000000
448.219025 6858.000000
450.468933 6095.000000
452.717255 6296.000000
454.964142 5645.000000
457.209564 6442.000000
459.453430 6469.000000
461.695801 6758.000000
463.936676 5609.000000
466.176147 6699.000000
468.414032 5488.000000
470.650482 5839.000000
472.885406 6109.000000
475.118866 7282.000000
477.350891 6627.000000
479.581390 5589.000000
481.810394 6395.000000
484.037933 6258.000000
486.263977 5961.000000
488.488586 6535.000000
490.711731 5803.000000
492.933411 6415.000000
495.153534 6745.000000
497.372253 5610.000000
499.589478 6266.000000
501.805328 5487.000000
504.019562 6067.000000
506.232483 6442.000000
508.443817 6424.000000
510.653717 6825.000000
512.862183 6467.000000
515.069275 6562.000000
517.274780 6408.000000
519.478882 6529.000000
521.681458 6158.000000
523.882629 6551.000000
526.082458 6621.000000
528.280762 6876.000000
530.477539 5278.000000
532.672974 5813.000000
534.866882 5530.000000
537.059448 7550.000000
539.250488 6688.000000
541.440125 5976.000000
543.628357 6846.000000
545.815063 7116.000000
548.000305 6764.000000
550.184265 6204.000000
552.366638 6405.000000
554.547668 6181.000000
556.727173 5964.000000
558.905396 5921.000000
561.082092 5988.000000
563.257385 6367.000000
565.431274 6363.000000
567.603699 5928.000000
569.774719 5990.000000
571.944275 6380.000000
574.112549 5266.000000
576.279297 6419.000000
578.444580 6260.000000
580.608459 6200.000000
582.771057 5684.000000
584.932129 6005.000000
587.091797 5574.000000
589.250122 5789.000000
591.406921 6104.000000
593.562378 6581.000000
595.716431 5682.000000
597.869141 6045.000000
600.020325 7190.000000
602.170166 6749.000000
604.318665 6674.000000
606.465576 5960.000000
608.611267 6455.000000
610.755554 6353.000000
612.898376 6986.000000
615.039734 6096.000000
617.179871 6357.000000
619.318481 7678.000000
621.455811 5663.000000
623.591675 6544.000000
625.726135 6909.000000
627.859131 7118.000000
629.990967 6632.000000
632.121338 6530.000000
634.250305 6741.000000
636.377808 6419.000000
638.504028 6204.000000
640.628723 7332.000000
642.752197 6357.000000
644.874329 6795.000000
646.994995 6822.000000
649.114319 6524.000000
651.232239 5641.000000
653.348816 5647.000000
655.463989 6358.000000
657.577820 6464.000000
659.690186 5772.000000
661.801331 6074.000000
663.911072 5410.000000
666.019348 5993.000000
668.126465 6229.000000
670.232117 6788.000000
672.336304 5876.000000
674.439270 5677.000000
676.540833 6903.000000
678.641052 5314.000000
680.739868 6792.000000
682.837341 6196.000000
684.933533 7007.000000
687.028259 6338.000000
689.121765 7020.000000
691.213928 6612.000000
693.304565 7981.000000
695.393982 6646.000000
697.482117 6456.000000
699.568787 5964.000000
701.654236 6657.000000
703.738159 5114.000000
705.820862 5812.000000
707.902283 5900.000000
709.982239 7533.000000
712.060974 6127.000000
714.138245 5541.000000
716.214233 6572.000000
718.288940 6069.000000
720.362366 6967.000000
722.434265 6275.000000
724.505005 7386.000000
726.574402 5729.000000
728.642395 6503.000000
730.709045 6351.000000
732.774475 7022.000000
734.838562 5760.000000
736.901306 6151.000000
738.962708 6459.000000
741.022827 6515.000000
743.081543 5952.000000
745.139038 6569.000000
747.195251 6442.000000
749.250061 6683.000000
751.303589 6298.000000
753.355713 7380.000000
755.406616 5738.000000
757.456299 6673.000000
759.504517 6307.000000
761.551514 6128.000000
763.597229 6965.000000
765.641541 5309.000000
767.684570 5739.000000
769.726379 6346.000000
771.766846 6953.000000
773.805908 6395.000000
775.843811 6050.000000
777.880371 5927.000000
779.915710 5299.000000
781.949707 5710.000000
783.982300 6826.000000
786.013733 5468.000000
788.043762 5745.000000
790.072510 6022.000000
792.100098 6228.000000
794.126343 6317.000000
796.151184 5792.000000
798.174927 5477.000000
800.197266 6333.000000
802.218384 5853.000000
804.238159 6618.000000
806.256653 4848.000000
808.273926 6615.000000
810.289795 6730.000000
812.304504 5747.000000
814.317871 6385.000000
816.330017 6224.000000
818.340942 6051.000000
820.350525 6577.000000
822.358887 5258.000000
824.365845 5707.000000
826.371582 6096.000000
828.376099 5742.000000
830.379333 5607.000000
832.381287 6393.000000
834.381958 6047.000000
836.381409 5908.000000
838.379517 6284.000000
840.376526 6938.000000
842.372131 6127.000000
844.366577 5914.000000
846.359680 6141.000000
848.351563 6825.000000
850.342102 5612.000000
852.331360 6783.000000
854.319580 5900.000000
856.306396 5779.000000
858.291992 6415.000000
860.276306 7225.000000
862.259521 6267.000000
864.241333 6369.000000
866.221924 5830.000000
868.201233 7679.000000
870.179382 7023.000000
872.156189 6175.000000
874.131714 5859.000000
876.106201 6112.000000
878.079224 6018.000000
880.051208 5403.000000
882.021851 6338.000000
883.991333 6102.000000
885.959473 5500.000000
887.926453 5205.000000
889.892090 6071.000000
891.856567 5848.000000
893.819824 5936.000000
895.781860 6437.000000
897.742615 5786.000000
899.702148 6403.000000
901.660400 6669.000000
903.617554 6321.000000
905.573547 6023.000000
907.528137 6845.000000
909.481506 6435.000000
911.433716 6355.000000
913.384705 6371.000000
915.334412 7050.000000
917.282959 6283.000000
919.230286 6139.000000
921.176331 6106.000000
923.121094 6023.000000
925.064819 6220.000000
927.007385 5879.000000
928.948669 5567.000000
930.888611 6457.000000
932.827454 5774.000000
934.765015 5472.000000
936.701355 5955.000000
938.636536 5814.000000
940.570435 6071.000000
942.503235 5840.000000
944.434814 6732.000000
946.365234 5138.000000
948.294434 6364.000000
950.222290 7006.000000
952.149109 6656.000000
954.074646 5864.000000
955.998901 5368.000000
957.922058 5956.000000
959.844055 6708.000000
961.764771 7248.000000
963.684326 6445.000000
965.602722 5268.000000
967.520081 6440.000000
969.435974 6392.000000
971.350769 6048.000000
973.264343 5955.000000
975.176758 6384.000000
977.087952 6424.000000
978.997986 5477.000000
980.906738 6221.000000
982.814453 6039.000000
984.720947 6333.000000
986.626221 5668.000000
988.530396 6723.000000
990.433350 6174.000000
992.335083 6747.000000
994.235657 6234.000000
996.135071 6617.000000
998.033264 5238.000000
999.930298 6513.000000
1001.826111 6454.000000
1003.720764 7637.000000
1005.614319 5602.000000
1007.506592 7145.000000
1009.397949 6086.000000
1011.287964 5308.000000
1013.176758 6626.000000
1015.064392 6297.000000
1016.950867 6887.000000
1018.836182 6685.000000
1020.720337 6001.000000
1022.603271 5784.000000
1024.485107 6190.000000
1026.365723 5151.000000
1028.245239 5822.000000
1030.123779 6034.000000
1032.000977 5425.000000
1033.876831 6133.000000
1035.751709 5842.000000
1037.625610 6564.000000
1039.498047 6961.000000
1041.369507 6703.000000
1043.239624 5474.000000
1045.108765 5484.000000
1046.976685 5749.000000
1048.843506 6939.000000
1050.709229 6686.000000
1052.573730 6388.000000
1054.437134 6449.000000
1056.299194 6523.000000
1058.160278 5867.000000
1060.020264 6484.000000
1061.878906 6597.000000
1063.736450 5799.000000
1065.592896 6674.000000
1067.448242 5907.000000
1069.302368 5732.000000
1071.155640 6131.000000
1073.007446 6303.000000
1074.858276 6141.000000
1076.707886 6122.000000
1078.556274 5777.000000
1080.403809 7907.000000
1082.250000 5539.000000
1084.094971 6174.000000
1085.939087 5361.000000
1087.781860 5539.000000
1089.623413 6507.000000
1091.464233 5454.000000
1093.303467 5809.000000
1095.141968 6027.000000
1096.979126 6063.000000
1098.815063 6726.000000
1100.650024 6581.000000
1102.483765 5379.000000
1104.316528 5678.000000
1106.147949 6138.000000
1107.978516 7209.000000
1109.807739 6518.000000
1111.635986 6363.000000
1113.463013 7085.000000
1115.289063 5401.000000
1117.113892 6303.000000
1118.937622 7065.000000
1120.760132 6087.000000
1122.581543 5870.000000
1124.402100 5847.000000
1126.221191 6563.000000
1128.039429 7062.000000
1129.856323 6838.000000
1131.672363 6717.000000
1133.487183 6386.000000
1135.300903 5598.000000
1137.113525 5812.000000
1138.924927 5568.000000
1140.735352 6146.000000
1142.544678 6696.000000
1144.352661 6945.000000
1146.159912 5896.000000
1147.965698 5876.000000
1149.770630 5392.000000
1151.574463 5365.000000
1153.377075 6082.000000
1155.178833 6101.000000
1156.979126 6045.000000
1158.778442 6104.000000
1160.576782 5859.000000
1162.373779 5461.000000
1164.170044 5870.000000
1165.964966 6079.000000
1167.758789 6300.000000
1169.551758 7690.000000
1171.343384 5559.000000
1173.134033 6545.000000
1174.923706 5955.000000
1176.711914 5801.000000
1178.499268 7468.000000
1180.285522 6850.000000
1182.070679 5734.000000
1183.854736 5871.000000
1185.637695 7595.000000
1187.419678 5829.000000
1189.200439 5865.000000
1190.980225 6296.000000
1192.758911 6858.000000
1194.536621 6646.000000
1196.313110 7122.000000
1198.088501 6543.000000
1199.862793 6460.000000
1201.635986 6648.000000
1203.408325 6432.000000
1205.179321 6700.000000
1206.949463 5670.000000
1208.718384 6077.000000
1210.486206 6300.000000
1212.253174 5773.000000
1214.018799 5824.000000
1215.783447 6852.000000
1217.546997 6455.000000
1219.309448 5912.000000
1221.071045 6646.000000
1222.831421 5872.000000
1224.590698 6281.000000
1226.349121 6039.000000
1228.106323 7072.000000
1229.862427 6425.000000
1231.617432 5553.000000
1233.371582 5938.000000
1235.124390 5818.000000
1236.876221 6004.000000
1238.627197 5871.000000
1240.376831 4851.000000
1242.125610 6980.000000
1243.873047 6440.000000
1245.619751 6592.000000
1247.365234 6407.000000
1249.109863 6399.000000
1250.853149 6737.000000
1252.595459 6713.000000
1254.336670 5340.000000
1256.077026 5043.000000
1257.816284 5762.000000
1259.554321 6531.000000
1261.291504 7067.000000
1263.027466 6101.000000
1264.762451 6450.000000
1266.496460 7212.000000
1268.229492 5903.000000
1269.961304 6202.000000
1271.692139 6459.000000
1273.421753 7197.000000
1275.150513 5832.000000
1276.878174 5678.000000
1278.604736 5544.000000
1280.330444 5519.000000
1282.054810 6462.000000
1283.778320 5116.000000
1285.500854 6924.000000
1287.222412 6597.000000
1288.942749 6135.000000
1290.662109 6624.000000
1292.380371 7217.000000
1294.097656 6473.000000
1295.813965 5726.000000
1297.529053 6266.000000
1299.243164 6065.000000
1300.956299 5711.000000
1302.668579 6418.000000
1304.379639 8221.000000
1306.089722 5241.000000
1307.798706 6259.000000
1309.506470 6654.000000
1311.213623 6977.000000
1312.919312 5738.000000
1314.624268 6838.000000
1316.328247 6119.000000
1318.031006 5929.000000
1319.732788 6543.000000
1321.433716 6036.000000
1323.133301 18269.000000
1324.832031 7092.000000
1326.530029 5551.000000
1328.226685 6438.000000
1329.922241 7044.000000
1331.616943 6823.000000
1333.310425 5669.000000
1335.003052 5374.000000
1336.694824 7221.000000
1338.385254 6176.000000
1340.074951 6571.000000
1341.763550 6071.000000
1343.451050 7544.000000
1345.137573 5594.000000
1346.822998 6781.000000
1348.507446 5902.000000
1350.191040 7306.000000
1351.873413 6396.000000
1353.554810 5900.000000
1355.235352 6459.000000
1356.914673 6621.000000
1358.593384 5860.000000
1360.270752 6577.000000
1361.947021 5765.000000
1363.622314 5627.000000
1365.296875 6519.000000
1366.970215 6448.000000
1368.642578 6759.000000
1370.313965 5158.000000
1371.984375 6823.000000
1373.653687 6155.000000
1375.322021 5708.000000
1376.989502 5970.000000
1378.655884 6497.000000
1380.321289 6127.000000
1381.985718 5802.000000
1383.648926 5961.000000
1385.311523 5648.000000
1386.972778 6335.000000
1388.633179 6559.000000
1390.292480 6381.000000
1391.950806 6434.000000
1393.608398 6820.000000
1395.264771 6426.000000
1396.920288 6994.000000
1398.574585 6322.000000
1400.228027 5789.000000
1401.880371 6076.000000
1403.531982 6368.000000
1405.182373 7189.000000
1406.831665 6220.000000
1408.480225 7471.000000
1410.127686 7893.000000
1411.774170 6097.000000
1413.419800 6207.000000
1415.064453 6013.000000
1416.707886 6970.000000
1418.350464 7138.000000
1419.991943 6863.000000
1421.632568 6490.000000
1423.272217 6467.000000
1424.910767 6009.000000
1426.548462 6565.000000
1428.185059 6295.000000
1429.820679 5981.000000
1431.455566 6379.000000
1433.089355 5862.000000
1434.722046 6098.000000
1436.353760 5586.000000
1437.984619 6119.000000
1439.614380 5987.000000
1441.243042 7760.000000
1442.871094 5944.000000
1444.498047 6200.000000
1446.123779 6142.000000
1447.748901 6131.000000
1449.372925 6452.000000
1450.995972 5992.000000
1452.618042 5989.000000
1454.239014 7384.000000
1455.859009 6258.000000
1457.478271 6848.000000
1459.096191 5605.000000
1460.713501 19098.000000
1462.329834 5497.000000
1463.944946 7169.000000
1465.559204 6224.000000
1467.172607 5111.000000
1468.784912 5617.000000
1470.396362 6130.000000
1472.006958 6283.000000
1473.616333 6008.000000
1475.224731 5931.000000
1476.832275 6154.000000
1478.438843 6776.000000
1480.044678 5271.000000
1481.649292 6249.000000
1483.253052 5483.000000
1484.855591 6752.000000
1486.457520 5496.000000
1488.058228 5503.000000
1489.658203 5587.000000
1491.257080 6271.000000
1492.855103 6481.000000
1494.452026 6700.000000
1496.048096 6206.000000
1497.643188 5926.000000
1499.237305 5398.000000
1500.830688 6543.000000
1502.422974 5504.000000
1504.014038 6140.000000
1505.604614 6696.000000
1507.193848 6424.000000
1508.782471 6142.000000
1510.369995 6505.000000
1511.956421 6856.000000
1513.542114 6201.000000
1515.126709 6617.000000
1516.710449 6189.000000
1518.293091 6218.000000
1519.875000 6549.000000
1521.455811 6639.000000
1523.035889 6022.000000
1524.614746 6170.000000
1526.192749 6372.000000
1527.770020 6246.000000
1529.346069 5626.000000
1530.921387 5876.000000
1532.495605 6308.000000
1534.069092 5453.000000
1535.641357 5877.000000
1537.212891 6337.000000
1538.783447 6376.000000
1540.353149 6245.000000
1541.921631 5418.000000
1543.489380 6531.000000
1545.056274 5558.000000
1546.621948 6765.000000
1548.186890 5934.000000
1549.750732 4992.000000
1551.313965 7470.000000
1552.875854 6288.000000
1554.437134 5958.000000
1555.997314 5632.000000
1557.556763 5709.000000
1559.115112 5880.000000
1560.672729 6272.000000
1562.229248 6944.000000
1563.784546 5801.000000
1565.339233 6347.000000
1566.893188 5637.000000
1568.446167 6308.000000
1569.997803 5712.000000
1571.548706 5858.000000
1573.098877 6162.000000
1574.648071 6298.000000
1576.195923 5776.000000
1577.743286 5541.000000
1579.289673 5696.000000
1580.835205 5057.000000
1582.379761 6589.000000
1583.923096 6361.000000
1585.465820 6587.000000
1587.007690 6364.000000
1588.548462 6734.000000
1590.088257 5806.000000
1591.627319 6747.000000
1593.165283 5911.000000
1594.702759 6069.000000
1596.238892 5865.000000
1597.773926 6668.000000
1599.308472 6198.000000
1600.842041 5910.000000
1602.374756 6054.000000
1603.905884 6250.000000
1605.436768 6276.000000
1606.966797 5733.000000
1608.495605 6109.000000
1610.023315 6077.000000
1611.550415 6000.000000
1613.076782 5816.000000
1614.602173 6158.000000
1616.126709 5754.000000
1617.649902 5787.000000
1619.172363 5576.000000
1620.694092 6548.000000
1622.214966 6909.000000
1623.734375 15568.000000
1625.253296 6235.000000
1626.771484 6096.000000
1628.288818 5905.000000
1629.805054 6351.000000
1631.319946 6984.000000
1632.834351 6703.000000
1634.348022 5749.000000
1635.860596 6803.000000
1637.371948 5914.000000
1638.882935 6408.000000
1640.392822 6258.000000
1641.901855 6175.000000
1643.409546 5603.000000
1644.916870 6032.000000
1646.423340 7073.000000
1647.928833 6189.000000
1649.433472 6791.000000
1650.936646 6158.000000
1652.439209 6520.000000
1653.941406 6354.000000
1655.442261 6578.000000
1656.942017 7551.000000
1658.440918 5933.000000
1659.939453 6416.000000
1661.436768 6232.000000
1662.933350 5933.000000
1664.428345 6431.000000
1665.923096 6346.000000
1667.416992 5181.000000
1668.909912 5576.000000
1670.401489 20654.000000
1671.892578 6527.000000
1673.383057 6088.000000
1674.872437 5971.000000
1676.360352 6880.000000
1677.848022 6885.000000
1679.334717 6043.000000
1680.820557 5328.000000
1682.305542 5982.000000
1683.789063 6149.000000
1685.272339 6198.000000
1686.754761 5882.000000
1688.236084 6208.000000
1689.715942 6125.000000
1691.195557 5519.000000
1692.674438 6585.000000
1694.152344 6009.000000
1695.629272 6029.000000
1697.104980 5746.000000
1698.580322 5982.000000
1700.054443 6239.000000
1701.527954 5454.000000
1703.000000 5567.000000
1704.471802 6849.000000
1705.942627 6373.000000
1707.412598 7054.000000
1708.881226 5165.000000
1710.349365 5814.000000
1711.816772 6366.000000
1713.283081 5446.000000
1714.748779 5676.000000
1716.212769 6222.000000
1717.676636 5929.000000
1719.139648 6881.000000
1720.601685 6272.000000
1722.062500 6552.000000
1723.522705 5496.000000
1724.982178 6375.000000
1726.440796 6074.000000
1727.898438 6000.000000
1729.354736 6209.000000
1730.810791 6040.000000
1732.265869 6434.000000
1733.719971 5996.000000
1735.172852 6849.000000
1736.625488 5970.000000
1738.077026 6685.000000
1739.527832 5909.000000
1740.977661 6560.000000
1742.426147 5935.000000
1743.874268 7272.000000
1745.321533 6494.000000
1746.768066 6594.000000
1748.213013 6625.000000
1749.657715 6155.000000
1751.101563 5841.000000
1752.544556 5544.000000
1753.986084 6505.000000
1755.427368 6291.000000
1756.867798 19391.000000
1758.307251 6282.000000
1759.745728 5224.000000
1761.183228 6027.000000
1762.620239 7491.000000
1764.056274 5843.000000
1765.491455 7109.000000
1766.925171 6164.000000
1768.358765 6470.000000
1769.791382 6634.000000
1771.223145 5786.000000
1772.654053 5743.000000
1774.083740 6356.000000
1775.512695 6008.000000
1776.941162 6316.000000
1778.368652 6684.000000
1779.794800 6215.000000
1781.220703 5601.000000
1782.645508 6825.000000
1784.069702 5557.000000
1785.492432 6593.000000
1786.914673 6487.000000
1788.336182 6818.000000
1789.756958 5699.000000
1791.176758 6067.000000
1792.595215 6142.000000
1794.013184 6806.000000
1795.430542 5520.000000
1796.847046 6022.000000
1798.262085 6538.000000
1799.676758 5820.000000
1801.090820 6540.000000
1802.503662 5969.000000
1803.915894 6961.000000
1805.326782 7125.000000
1806.737183 7740.000000
1808.146851 6489.000000
1809.555542 5938.000000
1810.963135 5391.000000
1812.370239 6402.000000
1813.776489 6397.000000
1815.181763 6703.000000
1816.585938 5900.000000
1817.989746 5907.000000
1819.392578 6125.000000
1820.794556 6002.000000
1822.195923 5891.000000
1823.595825 6284.000000
1824.995117 6494.000000
1826.393921 6547.000000
1827.791870 7449.000000
1829.188477 5699.000000
1830.584473 6684.000000
1831.979736 5956.000000
1833.374390 8082.000000
1834.768066 5963.000000
1836.160400 6835.000000
1837.552246 6392.000000
1838.943481 5845.000000
1840.333740 7101.000000
1841.722778 5979.000000
1843.111450 6011.000000
1844.499146 5964.000000
1845.886108 5783.000000
1847.271729 6866.000000
1848.657104 5858.000000
1850.041626 6315.000000
1851.425415 6337.000000
1852.808105 6282.000000
1854.189575 5345.000000
1855.570557 6484.000000
1856.951050 6270.000000
1858.330566 5718.000000
1859.708618 5957.000000
1861.086548 6202.000000
1862.463501 7856.000000
1863.839722 6081.000000
1865.215088 6041.000000
1866.588989 5623.000000
1867.962769 5664.000000
1869.335693 6209.000000
1870.707520 5907.000000
1872.078369 6855.000000
1873.448853 5447.000000
1874.818237 6069.000000
1876.187134 6079.000000
1877.554443 7079.000000
1878.921631 6018.000000
1880.287842 5963.000000
1881.653320 6742.000000
1883.018066 7507.000000
1884.381226 6715.000000
1885.744263 6952.000000
1887.106445 6282.000000
1888.467773 6437.000000
1889.827759 5579.000000
1891.187378 5751.000000
1892.546387 6144.000000
1893.904419 6629.000000
1895.261597 7230.000000
1896.617554 5915.000000
1897.973267 7651.000000
1899.328003 5772.000000
1900.681885 5543.000000
1902.034668 5984.000000
1903.386963 5870.000000
1904.738525 5887.000000
1906.089233 6864.000000
1907.438721 6526.000000
1908.787720 6653.000000
1910.135864 5820.000000
1911.483398 6094.000000
1912.830200 6260.000000
1914.175415 6772.000000
1915.520386 5983.000000
1916.864624 5472.000000
1918.208008 6456.000000
1919.550049 5976.000000
1920.891846 6669.000000
1922.232788 6994.000000
1923.572998 6148.000000
1924.912231 6257.000000
1926.250488 6281.000000
1927.588135 6498.000000
1928.925049 7028.000000
1930.261108 6781.000000
1931.595947 5526.000000
1932.930420 6611.000000
1934.264160 7257.000000
1935.597046 6253.000000
1936.928467 5754.000000
1938.260010 6257.000000
1939.590210 6662.000000
1940.919922 5703.000000
1942.248779 6079.000000
1943.576416 5829.000000
1944.903564 5026.000000
1946.229980 5816.000000
1947.555664 6498.000000
1948.880005 5810.000000
1950.204102 6591.000000
1951.527344 6297.000000
1952.849854 6365.000000
1954.171265 5761.000000
1955.491699 7416.000000
1956.811523 5926.000000
1958.130981 5543.000000
1959.449463 6810.000000
1960.766602 5907.000000
1962.083374 5848.000000
1963.399414 6580.000000
1964.714722 6566.000000
1966.028564 6260.000000
1967.342163 5658.000000
1968.655029 6220.000000
1969.967041 5941.000000
1971.278442 6068.000000
1972.588501 6281.000000
1973.898071 5861.000000
1975.206909 6180.000000
1976.515137 6551.000000
1977.822021 6076.000000
1979.128296 7267.000000
1980.434204 5526.000000
1981.738892 6353.000000
1983.043091 5827.000000
1984.346069 5664.000000
1985.648682 7583.000000
1986.950317 6041.000000
1988.251343 6791.000000
1989.550781 6094.000000
1990.850342 6593.000000
1992.148804 5254.000000
1993.446777 5974.000000
1994.743164 6174.000000
1996.039551 5773.000000
1997.334961 5543.000000
1998.629639 6505.000000
1999.923462 5640.000000
2001.216064 6552.000000
2002.508179 5735.000000
2003.799805 7071.000000
2005.090698 6398.000000
2006.380005 6085.000000
2007.669067 6740.000000
2008.957397 5906.000000
2010.244995 6030.000000
2011.531738 6604.000000
2012.817383 5587.000000
2014.102661 6292.000000
2015.386963 5892.000000
2016.670654 5584.000000
2017.953003 5968.000000
2019.234985 6418.000000
2020.516479 6824.000000
2021.796997 5885.000000
2023.076782 6120.000000
2024.355469 6709.000000
2025.633423 5788.000000
2026.910889 5893.000000
2028.187744 6271.000000
2029.462891 5732.000000
2030.738159 6595.000000
2032.012451 6008.000000
2033.285767 5947.000000
2034.558228 5935.000000
2035.830322 6116.000000
2037.101318 6946.000000
2038.372070 6525.000000
2039.641479 5991.000000
2040.909790 6747.000000
2042.178101 6548.000000
2043.445435 5884.000000
2044.712036 5911.000000
2045.977417 5671.000000
2047.242188 5875.000000
2048.506836 5412.000000
2049.770020 5852.000000
2051.032959 6398.000000
2052.293945 6091.000000
2053.555420 6046.000000
2054.815674 5845.000000
2056.075195 6441.000000
2057.333984 6201.000000
2058.591797 6927.000000
2059.849121 6133.000000
2061.105713 5990.000000
2062.360840 6543.000000
2063.615967 5586.000000
2064.870117 5546.000000
2066.123535 5631.000000
2067.376221 6885.000000
2068.627686 6231.000000
2069.878906 6249.000000
2071.129395 5573.000000
2072.379150 5403.000000
2073.627441 6446.000000
2074.875732 6458.000000
2076.123047 7375.000000
2077.369629 5554.000000
2078.615479 6026.000000
2079.860107 7004.000000
2081.104248 7553.000000
2082.347900 5491.000000
2083.590576 5988.000000
2084.832031 6916.000000
2086.073242 5929.000000
2087.313965 6274.000000
2088.553711 6706.000000
2089.792236 7061.000000
2091.030273 6180.000000
2092.267578 5719.000000
2093.504639 6553.000000
2094.740234 6021.000000
2095.975098 6182.000000
2097.209717 6109.000000
2098.443359 5575.000000
2099.676025 6010.000000
2100.907959 6771.000000
2102.139404 6361.000000
2103.369873 6806.000000
2104.599609 5982.000000
2105.829102 5952.000000
2107.056641 5966.000000
2108.284424 5979.000000
2109.511475 6281.000000
2110.737549 5473.000000
2111.962158 6357.000000
2113.187012 6941.000000
2114.410645 7126.000000
2115.633789 6218.000000
2116.855713 7467.000000
2118.077393 6015.000000
2119.298096 6839.000000
2120.518066 6017.000000
2121.737549 6108.000000
2122.955566 6599.000000
2124.173584 7015.000000
2125.390625 5702.000000
2126.607178 5786.000000
2127.822021 6489.000000
2129.037109 6294.000000
2130.251221 6879.000000
2131.464600 5645.000000
2132.677246 6064.000000
2133.888428 5838.000000
2135.099854 6516.000000
2136.310059 6747.000000
2137.519775 5935.000000
2138.728027 6180.000000
2139.936279 5649.000000
2141.143799 5785.000000
2142.350098 7414.000000
2143.555664 5839.000000
2144.760986 5636.000000
2145.965332 5527.000000
2147.168945 6235.000000
2148.372070 6156.000000
2149.573730 6515.000000
2150.775146 5301.000000
2151.975830 6235.000000
2153.175781 5975.000000
2154.374512 5909.000000
2155.572998 6954.000000
2156.770996 6154.000000
2157.968018 5987.000000
2159.164307 5139.000000
2160.359375 5242.000000
2161.554199 6141.000000
2162.748291 5536.000000
2163.941406 5967.000000
2165.133545 6838.000000
2166.325439 5908.000000
2167.516602 6347.000000
2168.706787 6257.000000
2169.896240 6454.000000
2171.085205 6841.000000
2172.273193 6224.000000
2173.460938 5770.000000
2174.647217 5898.000000
2175.832764 6564.000000
2177.018066 5986.000000
2178.202881 5745.000000
2179.386475 6336.000000
2180.569336 7520.000000
2181.751221 6249.000000
2182.932861 5932.000000
2184.114014 6518.000000
2185.293945 5676.000000
2186.472900 5529.000000
2187.651367 6318.000000
2188.829590 6860.000000
2190.006592 7228.000000
2191.182617 6732.000000
2192.358398 6031.000000
2193.533691 5612.000000
2194.707520 6673.000000
2195.880859 6160.000000
2197.053955 6128.000000
2198.225830 6395.000000
2199.397217 7045.000000
2200.568115 6314.000000
2201.737305 6872.000000
2202.906494 7488.000000
2204.075195 6227.000000
2205.242920 5899.000000
2206.409668 5669.000000
2207.575684 7069.000000
2208.741211 6608.000000
2209.906494 5966.000000
2211.070313 6691.000000
2212.233643 5427.000000
2213.395752 6151.000000
2214.558105 6168.000000
2215.719238 6673.000000
2216.879395 6618.000000
2218.039063 6231.000000
2219.198486 6586.000000
2220.356689 6341.000000
2221.513916 6287.000000
2222.670898 6749.000000
2223.827148 6567.000000
2224.982666 6760.000000
2226.137451 6282.000000
2227.291260 6407.000000
2228.444092 5966.000000
2229.597412 6871.000000
2230.748779 6232.000000
2231.899902 6177.000000
2233.050293 6487.000000
2234.200195 7684.000000
2235.349121 6275.000000
2236.497559 5169.000000
2237.644531 6743.000000
2238.791748 7026.000000
2239.937744 6057.000000
2241.083496 7243.000000
2242.227539 7318.000000
2243.371826 6734.000000
2244.515137 6173.000000
2245.657715 5959.000000
2246.799316 5722.000000
2247.940674 5884.000000
2249.081055 6361.000000
2250.220703 6394.000000
2251.359863 5778.000000
2252.497803 5829.000000
2253.635742 6141.000000
2254.772705 5315.000000
2255.908936 6401.000000
2257.044189 6088.000000
2258.178711 7247.000000
2259.312988 6394.000000
2260.446777 5394.000000
2261.579102 6103.000000
2262.710938 6793.000000
2263.842285 6262.000000
2264.972656 6417.000000
2266.102783 8033.000000
2267.231689 6643.000000
2268.360107 6011.000000
2269.488037 5569.000000
2270.614990 6098.000000
2271.741211 5886.000000
2272.866455 6675.000000
2273.991699 6502.000000
2275.116211 6375.000000
2276.239502 5916.000000
2277.362061 6336.000000
2278.484131 5958.000000
2279.605713 7345.000000
2280.726563 6338.000000
2281.846191 6452.000000
2282.965332 7073.000000
2284.084229 7644.000000
2285.202393 7187.000000
2286.319580 5905.000000
2287.435791 6413.000000
2288.551758 7002.000000
2289.666992 6873.000000
2290.781494 7319.000000
2291.894775 5759.000000
2293.008057 6355.000000
2294.120605 6021.000000
2295.232422 5359.000000
2296.343506 6751.000000
2297.453369 6371.000000
2298.562744 6110.000000
2299.671875 6678.000000
2300.780029 6263.000000
2301.887207 6731.000000
2302.994141 5894.000000
2304.100342 6192.000000
2305.206055 6552.000000
2306.310303 6551.000000
2307.414307 5466.000000
2308.517822 5669.000000
2309.620850 6500.000000
2310.722656 7416.000000
2311.823730 7334.000000
2312.924316 6584.000000
2314.024414 5490.000000
2315.123779 6364.000000
2316.221680 6481.000000
2317.320068 6936.000000
2318.416992 8156.000000
2319.513672 6873.000000
2320.609863 5764.000000
2321.704346 6858.000000
2322.798828 7541.000000
2323.892578 5768.000000
2324.986084 6046.000000
2326.077881 6448.000000
2327.169678 6917.000000
2328.260742 6094.000000
2329.351074 6204.000000
2330.440430 6876.000000
2331.529785 5997.000000
2332.617920 6287.000000
2333.705566 6824.000000
2334.792969 6468.000000
2335.878662 6669.000000
2336.964111 7687.000000
2338.049316 6275.000000
2339.133545 6716.000000
2340.216797 5900.000000
2341.299805 6386.000000
2342.381836 7059.000000
2343.463623 5978.000000
2344.544678 7429.000000
2345.624512 6576.000000
2346.703857 5724.000000
2347.782715 6774.000000
2348.861084 6461.000000
2349.937988 6278.000000
2351.014648 6969.000000
2352.091064 6056.000000
2353.166504 6349.000000
2354.240967 5867.000000
2355.315186 6313.000000
2356.388672 6734.000000
2357.461670 6244.000000
2358.533447 6959.000000
2359.604980 6174.000000
2360.675537 6715.000000
2361.745850 7448.000000
2362.815186 7520.000000
2363.883545 6747.000000
2364.951660 6728.000000
2366.019043 7043.000000
2367.085938 7088.000000
2368.152100 5993.000000
2369.217041 6851.000000
2370.281982 6937.000000
2371.346191 6315.000000
2372.409668 6912.000000
2373.471924 5698.000000
2374.534180 6278.000000
2375.595459 6306.000000
2376.656494 5915.000000
2377.716309 6184.000000
2378.775391 7789.000000
2379.834473 6481.000000
2380.892578 7528.000000
2381.949951 6891.000000
2383.006348 8036.000000
2384.062500 7767.000000
2385.118164 6215.000000
2386.173096 7033.000000
2387.226563 6751.000000
2388.280273 6524.000000
2389.333008 6286.000000
2390.385254 6763.000000
2391.436768 6099.000000
2392.487305 6638.000000
2393.537598 6448.000000
2394.586914 6133.000000
2395.636230 6166.000000
2396.684082 6830.000000
2397.731445 6965.000000
2398.778564 6241.000000
2399.824707 6651.000000
2400.870117 6152.000000
2401.914795 6696.000000
2402.959473 7699.000000
2404.002686 7427.000000
2405.045898 6534.000000
2406.087646 5729.000000
2407.129639 6688.000000
2408.170898 7138.000000
2409.211182 6082.000000
2410.250732 6316.000000
2411.289307 6322.000000
2412.328125 6052.000000
2413.365723 6472.000000
2414.403076 6817.000000
2415.439209 7341.000000
2416.475098 6160.000000
2417.510254 6253.000000
2418.544922 6616.000000
2419.578125 7163.000000
2420.611572 6459.000000
2421.644043 6617.000000
2422.676270 6750.000000
2423.707031 6989.000000
2424.737793 6351.000000
2425.768066 6778.000000
2426.797119 6818.000000
2427.826172 6612.000000
2428.853516 7366.000000
2429.881348 6674.000000
2430.907959 7213.000000
2431.934326 6880.000000
2432.959229 7785.000000
2433.984375 6504.000000
2435.008545 7153.000000
2436.032471 6646.000000
2437.055176 5761.000000
2438.077148 6286.000000
2439.098877 6601.000000
2440.119873 6631.000000
2441.140381 6020.000000
2442.159668 6494.000000
2443.178955 6473.000000
2444.197266 8403.000000
2445.215332 6290.000000
2446.231934 6509.000000
2447.248535 6529.000000
2448.264404 5959.000000
2449.280273 6939.000000
2450.294678 6813.000000
2451.308350 5550.000000
2452.321533 7202.000000
2453.334473 5962.000000
2454.346680 7191.000000
2455.357910 6751.000000
2456.368896 7644.000000
2457.379150 6356.000000
2458.388916 7613.000000
2459.397705 5863.000000
2460.405762 5810.000000
2461.413818 6332.000000
2462.420654 7285.000000
2463.427246 5387.000000
2464.432617 7378.000000
2465.437744 6905.000000
2466.442627 5764.000000
2467.446289 6411.000000
2468.449707 6403.000000
2469.452148 7508.000000
2470.454346 7306.000000
2471.456055 6845.000000
2472.456787 6534.000000
2473.456543 6874.000000
2474.456299 6749.000000
2475.455078 5672.000000
2476.453369 6559.000000
2477.450684 6980.000000
2478.447754 6025.000000
2479.444824 6955.000000
2480.440430 5852.000000
2481.436035 7098.000000
2482.429932 6684.000000
2483.423828 8074.000000
2484.417236 6822.000000
2485.410156 6793.000000
2486.402100 7437.000000
2487.393311 7148.000000
2488.384277 6669.000000
2489.374756 5804.000000
2490.364258 6510.000000
2491.353027 6466.000000
2492.341797 5648.000000
2493.329590 6758.000000
2494.316162 6589.000000
2495.302734 8017.000000
2496.288818 6748.000000
2497.274170 7024.000000
2498.258545 7996.000000
2499.242676 5962.000000
2500.226807 6871.000000
2501.209473 5716.000000
2502.191650 6897.000000
2503.173340 6805.000000
2504.154297 7224.000000
2505.134766 6558.000000
2506.114990 5696.000000
2507.093750 6299.000000
2508.072266 7575.000000
2509.050293 6741.000000
2510.027832 7077.000000
2511.004395 6021.000000
2511.980713 5954.000000
2512.956299 6359.000000
2513.931396 6182.000000
2514.906006 6411.000000
2515.879395 7490.000000
2516.852539 6705.000000
2517.825439 6830.000000
2518.797363 6084.000000
2519.768555 6779.000000
2520.739258 6825.000000
2521.709717 7855.000000
2522.679443 8028.000000
2523.648193 6044.000000
2524.616211 6111.000000
2525.584229 7723.000000
2526.551270 6314.000000
2527.518066 5517.000000
2528.483643 7232.000000
2529.449219 6991.000000
2530.414063 7718.000000
2531.378418 6300.000000
2532.341553 6407.000000
2533.304932 5828.000000
2534.267334 5902.000000
2535.229492 6685.000000
2536.190430 6333.000000
2537.150635 6154.000000
2538.111084 6116.000000
2539.070557 6761.000000
2540.029297 6779.000000
2540.987061 6686.000000
2541.945068 6152.000000
2542.902344 6744.000000
2543.858643 6066.000000
2544.814697 7054.000000
2545.769531 6244.000000
2546.724609 7697.000000
2547.678955 6981.000000
2548.632568 6980.000000
2549.585205 7221.000000
2550.537598 6712.000000
2551.489502 6874.000000
2552.440674 6354.000000
2553.391113 7700.000000
2554.341064 7307.000000
2555.290771 7453.000000
2556.239746 6544.000000
2557.188232 6220.000000
2558.135498 7104.000000
2559.082764 6290.000000
2560.029297 6510.000000
2560.975342 6725.000000
2561.920410 7441.000000
2562.865234 6664.000000
2563.809570 7185.000000
2564.753418 6788.000000
2565.696777 6551.000000
2566.638672 6542.000000
2567.580811 6557.000000
2568.522217 6250.000000
2569.462891 7117.000000
2570.402832 7231.000000
2571.342773 5652.000000
2572.281738 6078.000000
2573.220459 7485.000000
2574.158203 7127.000000
2575.095703 5447.000000
2576.032471 6924.000000
2576.968506 6804.000000
2577.904053 7443.000000
2578.838867 6314.000000
2579.773682 5899.000000
2580.707520 7048.000000
2581.640869 7213.000000
2582.573486 5854.000000
2583.505859 6965.000000
2584.437500 5455.000000
2585.368652 7028.000000
2586.299316 6922.000000
2587.228760 6905.000000
2588.158203 7179.000000
2589.087158 6466.000000
2590.015869 7412.000000
2590.942871 7209.000000
2591.870117 5903.000000
2592.796875 6762.000000
2593.722900 6245.000000
2594.648682 5616.000000
2595.573242 7643.000000
2596.497559 7551.000000
2597.421387 5364.000000
2598.344727 7315.000000
2599.267090 6260.000000
2600.189209 6807.000000
2601.110840 8259.000000
2602.031738 6373.000000
2602.951904 5731.000000
2603.871826 6384.000000
2604.791260 6311.000000
2605.710449 6430.000000
2606.628662 5814.000000
2607.545654 5983.000000
2608.462891 7209.000000
2609.379883 5851.000000
2610.295898 7577.000000
2611.210693 6569.000000
2612.125977 6658.000000
2613.040527 6578.000000
2613.954102 6535.000000
2614.867676 6034.000000
2615.780029 7539.000000
2616.692383 7053.000000
2617.603760 6729.000000
2618.514893 5731.000000
2619.425293 7201.000000
2620.335449 6606.000000
2621.244873 6003.000000
2622.153809 6614.000000
2623.061768 6178.000000
2623.969971 6767.000000
2624.877197 6640.000000
2625.783936 7070.000000
2626.689941 5932.000000
2627.595703 6564.000000
2628.500732 6411.000000
2629.405518 7825.000000
2630.309570 6424.000000
2631.212646 6389.000000
2632.115723 6397.000000
2633.017822 5582.000000
2633.919922 6727.000000
2634.821777 6984.000000
2635.721924 6691.000000
2636.622314 6375.000000
2637.521973 6437.000000
2638.421387 5875.000000
2639.319336 6933.000000
2640.217773 6707.000000
2641.115723 6335.000000
2642.012939 6175.000000
2642.908936 6170.000000
2643.804932 6791.000000
2644.700684 6074.000000
2645.595703 6407.000000
2646.490479 6607.000000
2647.383789 7053.000000
2648.277100 6258.000000
2649.170166 6704.000000
2650.062988 6434.000000
2650.954102 7454.000000
2651.845459 6350.000000
2652.736328 7593.000000
2653.626465 7284.000000
2654.516357 6572.000000
2655.405029 7276.000000
2656.293945 6580.000000
2657.182373 6583.000000
2658.069824 7276.000000
2658.956299 6484.000000
2659.843262 7021.000000
2660.729492 6816.000000
2661.615234 6746.000000
2662.499756 6493.000000
2663.384277 6356.000000
2664.268555 6214.000000
2665.152100 7040.000000
2666.035156 7736.000000
2666.917480 7299.000000
2667.799316 6140.000000
2668.680420 6532.000000
2669.561768 6029.000000
2670.441650 6529.000000
2671.321777 7303.000000
2672.201172 7260.000000
2673.080566 6200.000000
2673.959229 6170.000000
2674.836182 6422.000000
2675.713867 6731.000000
2676.590820 6361.000000
2677.467041 8053.000000
2678.342773 7156.000000
2679.217773 6253.000000
2680.093018 7642.000000
2680.967285 6959.000000
2681.841064 7291.000000
2682.714111 6961.000000
2683.586914 6174.000000
2684.459473 6041.000000
2685.331299 6894.000000
2686.202393 6507.000000
2687.073242 6862.000000
2687.943604 7093.000000
2688.813721 6651.000000
2689.682129 6249.000000
2690.551270 7366.000000
2691.419678 7121.000000
2692.287842 6659.000000
2693.155273 6938.000000
2694.021484 5866.000000
2694.888184 7108.000000
2695.753906 7347.000000
2696.619629 7187.000000
2697.483887 7908.000000
2698.348877 6589.000000
2699.212402 7241.000000
2700.076172 5779.000000
2700.938477 7407.000000
2701.801270 6808.000000
2702.663086 5899.000000
2703.524414 6831.000000
2704.385742 6698.000000
2705.245850 7494.000000
2706.105957 7257.000000
2706.965576 6599.000000
2707.824951 6814.000000
2708.682617 7148.000000
2709.540527 6829.000000
2710.398926 7294.000000
2711.256104 6690.000000
2712.112549 6016.000000
2712.968506 6752.000000
2713.824463 6142.000000
2714.679688 6933.000000
2715.534180 6133.000000
2716.388184 6769.000000
2717.242188 7245.000000
2718.095215 6293.000000
2718.948486 6582.000000
2719.800049 7727.000000
2720.652100 6723.000000
2721.503906 6250.000000
2722.354492 6547.000000
2723.205078 6404.000000
2724.055176 7106.000000
2724.904541 6999.000000
2725.753906 6941.000000
2726.602051 6619.000000
2727.449707 6509.000000
2728.297852 6969.000000
2729.144775 6822.000000
2729.992188 5490.000000
2730.838135 7463.000000
2731.683350 6955.000000
2732.529053 6399.000000
2733.373779 6948.000000
2734.218506 7304.000000
2735.062012 6866.000000
2735.905762 7710.000000
2736.748779 7178.000000
2737.591309 6036.000000
2738.432861 6208.000000
2739.274902 6744.000000
2740.115967 6829.000000
2740.956787 5772.000000
2741.797363 5892.000000
2742.636719 7740.000000
2743.476074 6784.000000
2744.315430 6819.000000
2745.153564 6745.000000
2745.991211 7792.000000
2746.828857 6389.000000
2747.666016 7089.000000
2748.502930 6154.000000
2749.339355 5963.000000
2750.174561 6612.000000
2751.010010 6287.000000
2751.844971 6319.000000
2752.679199 6236.000000
2753.513184 6847.000000
2754.346680 6768.000000
2755.180176 7975.000000
2756.012695 6726.000000
2756.844727 7285.000000
2757.676270 6770.000000
2758.507813 7117.000000
2759.338379 7122.000000
2760.169189 7245.000000
2760.998779 7335.000000
2761.828369 6645.000000
2762.657715 7250.000000
2763.486328 6808.000000
2764.314453 6742.000000
2765.142090 6866.000000
2765.969727 6658.000000
2766.796875 7961.000000
2767.623291 5756.000000
2768.449219 7380.000000
2769.274658 6784.000000
2770.099854 7796.000000
2770.925049 7103.000000
2771.749023 6724.000000
2772.572998 6488.000000
2773.396973 7636.000000
2774.219727 6660.000000
2775.042725 6843.000000
2775.864502 6844.000000
2776.686279 6933.000000
2777.508057 6481.000000
2778.328857 7993.000000
2779.148926 6571.000000
2779.969238 6976.000000
2780.789063 7279.000000
2781.608887 6467.000000
2782.426758 5962.000000
2783.245850 8022.000000
2784.063721 6436.000000
2784.881348 6687.000000
2785.698486 7083.000000
2786.515137 7245.000000
2787.331543 7241.000000
2788.147461 6152.000000
2788.963135 5970.000000
2789.777832 6406.000000
2790.593018 6919.000000
2791.407471 7170.000000
2792.221436 6569.000000
2793.035156 7408.000000
2793.847656 8821.000000
2794.660400 6934.000000
2795.472656 7344.000000
2796.284424 7158.000000
2797.095459 7356.000000
2797.907227 6494.000000
2798.717773 7208.000000
2799.528320 6996.000000
2800.337402 7369.000000
2801.147217 8052.000000
2801.956299 7824.000000
2802.765137 6648.000000
2803.573486 7165.000000
2804.380859 6151.000000
2805.188721 6452.000000
2805.995850 6873.000000
2806.802734 6977.000000
2807.608398 7098.000000
2808.414551 6622.000000
2809.219971 6436.000000
2810.025391 7303.000000
2810.830078 6186.000000
2811.633789 7609.000000
2812.437988 7489.000000
2813.241699 6289.000000
2814.045166 6111.000000
2814.847168 6528.000000
2815.649902 7270.000000
2816.451904 7766.000000
2817.253662 6171.000000
2818.054932 6531.000000
2818.855713 7201.000000
2819.656006 6468.000000
2820.456543 6621.000000
2821.256104 8034.000000
2822.055176 7251.000000
2822.854248 6418.000000
2823.653076 6928.000000
2824.451416 6367.000000
2825.248779 7041.000000
2826.046387 7366.000000
2826.843262 6697.000000
2827.640381 7376.000000
2828.436768 7983.000000
2829.232422 6946.000000
2830.028076 7324.000000
2830.823486 7502.000000
2831.618408 7440.000000
2832.412598 6590.000000
2833.206787 6816.000000
2834.000732 5644.000000
2834.794189 6817.000000
2835.586914 7145.000000
2836.379395 8057.000000
2837.171875 7641.000000
2837.964111 7741.000000
2838.755859 6395.000000
2839.546631 6694.000000
2840.337402 8779.000000
2841.128418 7474.000000
2841.918457 6266.000000
2842.708008 7642.000000
2843.497803 7125.000000
2844.286621 7362.000000
2845.075439 7788.000000
2845.864258 7704.000000
2846.652100 7464.000000
2847.439453 7239.000000
2848.227051 7484.000000
2849.014160 7293.000000
2849.800537 6560.000000
2850.586914 7433.000000
2851.373047 7210.000000
2852.158691 7565.000000
2852.943359 7182.000000
2853.728516 6881.000000
2854.513428 7459.000000
2855.297607 7060.000000
2856.081787 6855.000000
2856.864746 8281.000000
2857.647949 6834.000000
2858.430908 6779.000000
2859.213379 7752.000000
2859.995605 6230.000000
2860.777344 6642.000000
2861.558838 7525.000000
2862.340576 7471.000000
2863.121582 7656.000000
2863.901855 6572.000000
2864.681885 6664.000000
2865.461914 8155.000000
2866.241699 7395.000000
2867.020508 8068.000000
2867.799561 7652.000000
2868.578125 6753.000000
2869.356445 7051.000000
2870.134277 7246.000000
2870.911865 6952.000000
2871.689209 7381.000000
2872.466309 6935.000000
2873.242920 6390.000000
2874.019043 7405.000000
2874.795166 7132.000000
2875.570801 8226.000000
2876.346191 7119.000000
2877.121094 6589.000000
2877.895752 7982.000000
2878.670410 6600.000000
2879.444824 7788.000000
2880.218506 6747.000000
2880.991455 7186.000000
2881.765137 6732.000000
2882.537842 7612.000000
2883.310547 7861.000000
2884.082520 8191.000000
2884.854248 6192.000000
2885.626465 6741.000000
2886.397461 6876.000000
2887.167969 6139.000000
2887.938965 8299.000000
2888.709961 7248.000000
2889.480225 7898.000000
2890.249512 7660.000000
2891.019043 6962.000000
2891.788574 7182.000000
2892.557617 7313.000000
2893.326172 7920.000000
2894.094727 7593.000000
2894.862305 6932.000000
2895.630371 6556.000000
2896.397949 7375.000000
2897.165527 8305.000000
2897.931885 7343.000000
2898.699219 6484.000000
2899.465332 7217.000000
2900.231689 7014.000000
2900.996582 8279.000000
2901.761963 7022.000000
2902.527832 6416.000000
2903.292236 7779.000000
2904.056641 7737.000000
2904.821289 8418.000000
2905.584961 6600.000000
2906.349365 8417.000000
2907.113037 6674.000000
2907.875977 8375.000000
2908.638672 6532.000000
2909.401855 8957.000000
2910.164551 6998.000000
2910.926025 6833.000000
2911.687988 6833.000000
