scanname Analyse046
timestamp 2017-02-10 21:00:17
ccdbias 898.124023
ccdgain 3.473401
sigmaread 8.960639
laserwavenum -0.691109
wavenumcorrection -0.168145
scancount 1
totalexposurems 10000
singleexposurems 10000
measurementstate Unknown
scanmode Manual
snr 203.182495 4.321977 3.762310
replacelist 3
374 38416.000000 14968.000000
383 38144.000000 12213.000000
672 35945.000000 30869.000000
peaks 27
278.355255 0.579997 0.000000 1.466361 0.000172
288.227020 0.579518 0.000000 0.618545 0.000035
299.317383 0.581201 0.000000 0.435654 0.000030
334.395325 0.592594 0.000000 0.755644 0.000123
348.559814 0.592768 0.000000 0.518197 0.000019
387.109131 0.604076 0.000000 1.462163 0.000286
416.646576 0.581198 0.000000 1.158603 0.000253
455.645782 0.589611 0.000000 0.494862 0.000020
502.153809 0.601658 0.000000 0.573303 0.000201
533.041687 0.596027 0.000000 0.791298 0.000147
572.040039 0.604880 0.000000 0.565953 0.000032
581.943726 0.607615 0.000000 0.399711 0.000037
671.070923 0.596017 0.000000 0.654315 0.000050
677.600708 0.596061 0.000000 0.999898 0.000091
716.044678 0.593477 0.000000 4.104573 0.000786
738.167786 0.580163 0.000000 0.989871 0.000070
767.044006 0.601059 0.000000 3.248308 0.000696
785.552063 0.588505 0.000000 1.615286 0.000423
828.351318 0.562761 0.000000 0.751173 0.000084
851.679443 0.561584 0.000000 0.457120 0.000151
875.472717 0.564345 0.000000 1.065405 0.000363
938.005615 0.543619 0.000000 0.399052 0.000069
955.473694 0.547233 0.000000 2.987741 0.000757
1322.622559 0.586845 0.000000 17.152571 0.005196
1446.342651 0.453483 0.000000 0.286558 0.000074
1663.072754 0.402699 0.000000 0.520896 0.000403
2047.503784 0.292873 0.000000 0.119828 0.000136
finalresult GLS_NoMatch 0
spectrum 2048
-96.910347 45875.000000
-94.283478 45875.000000
-91.658485 46318.000000
-89.035385 46289.000000
-86.414154 47004.000000
-83.794823 46769.000000
-81.177353 47079.000000
-78.561760 46801.000000
-75.948044 47007.000000
-73.336205 47396.000000
-70.726227 47215.000000
-68.118134 47397.000000
-65.511887 47463.000000
-62.907516 47410.000000
-60.305008 47376.000000
-57.704353 47809.000000
-55.105560 47179.000000
-52.508625 46474.000000
-49.913544 46879.000000
-47.320316 46888.000000
-44.728939 47103.000000
-42.139408 46666.000000
-39.551720 47515.000000
-36.965881 47334.000000
-34.381886 46888.000000
-31.799726 47673.000000
-29.219414 46971.000000
-26.640928 47674.000000
-24.064285 47172.000000
-21.489468 47023.000000
-18.916491 46767.000000
-16.345333 46691.000000
-13.776010 46404.000000
-11.208511 45372.000000
-8.642832 46773.000000
-6.078978 46641.000000
-3.516937 46981.000000
-0.956721 47000.000000
1.601687 46625.000000
4.158274 45687.000000
6.713056 45891.000000
9.266021 46262.000000
11.817185 45207.000000
14.366537 45078.000000
16.914093 44450.000000
19.459837 44630.000000
22.003788 44292.000000
24.545935 42101.000000
27.086285 39828.000000
29.624849 36392.000000
32.161617 32036.000000
34.696583 25523.000000
37.229771 15790.000000
39.761177 9512.000000
42.290791 8284.000000
44.818607 7905.000000
47.344666 7183.000000
49.868935 6372.000000
52.391434 5449.000000
54.912136 5032.000000
57.431084 5539.000000
59.948257 6598.000000
62.463654 7924.000000
64.977272 8710.000000
67.489136 8543.000000
69.999252 6643.000000
72.507576 4528.000000
75.014145 3716.000000
77.518967 2995.000000
80.022034 2438.000000
82.523323 2378.000000
85.022873 2279.000000
87.520668 2047.000000
90.016731 2382.000000
92.511017 2839.000000
95.003563 3091.000000
97.494392 2987.000000
99.983452 2761.000000
102.470764 2079.000000
104.956352 1675.000000
107.440201 1618.000000
109.922302 1518.000000
112.402679 1329.000000
114.881332 1393.000000
117.358261 1302.000000
119.833435 1272.000000
122.306900 1277.000000
124.778633 1310.000000
127.248657 1262.000000
129.716934 1408.000000
132.183533 1637.000000
134.648376 1738.000000
137.111526 1932.000000
139.572937 2288.000000
142.032654 2628.000000
144.490646 3118.000000
146.946945 3913.000000
149.401535 4753.000000
151.854401 5736.000000
154.305588 6960.000000
156.755081 8492.000000
159.202850 9993.000000
161.648911 11703.000000
164.093292 13289.000000
166.535995 14900.000000
168.977005 15935.000000
171.416306 17101.000000
173.853897 17619.000000
176.289856 18394.000000
178.724075 18543.000000
181.156616 18801.000000
183.587509 19035.000000
186.016678 19053.000000
188.444199 19325.000000
190.870041 19353.000000
193.294205 19422.000000
195.716705 19837.000000
198.137512 20127.000000
200.556656 21266.000000
202.974136 24179.000000
205.389923 24701.000000
207.804062 26583.000000
210.216568 28594.000000
212.627396 30575.000000
215.036545 32333.000000
217.444061 33234.000000
219.849869 35510.000000
222.254089 35724.000000
224.656601 36325.000000
227.057495 36550.000000
229.456741 37317.000000
231.854324 37116.000000
234.250244 36727.000000
236.644547 37539.000000
239.037186 38315.000000
241.428207 37414.000000
243.817566 37700.000000
246.205307 37966.000000
248.591400 37431.000000
250.975861 38265.000000
253.358673 36596.000000
255.739914 37868.000000
258.119446 37828.000000
260.497406 37986.000000
262.873688 36957.000000
265.248413 36859.000000
267.621490 36519.000000
269.992920 38047.000000
272.362701 37796.000000
274.730927 38330.000000
277.097504 37951.000000
279.462494 37514.000000
281.825867 38202.000000
284.187592 37932.000000
286.547729 37184.000000
288.906250 38285.000000
291.263184 37648.000000
293.618500 37785.000000
295.972229 38204.000000
298.324310 38309.000000
300.674835 37887.000000
303.023773 37792.000000
305.371063 37295.000000
307.716827 37732.000000
310.060913 37623.000000
312.403473 36729.000000
314.744415 36516.000000
317.083740 36853.000000
319.421509 36961.000000
321.757721 35831.000000
324.092285 37590.000000
326.425293 37352.000000
328.756744 37770.000000
331.086609 37262.000000
333.414886 37394.000000
335.741547 36607.000000
338.066711 37468.000000
340.390259 37552.000000
342.712250 37753.000000
345.032684 36212.000000
347.351501 36053.000000
349.668762 37691.000000
351.984497 37831.000000
354.298645 36743.000000
356.611206 37444.000000
358.922211 37310.000000
361.231689 36765.000000
363.539642 37381.000000
365.845978 38074.000000
368.150726 37348.000000
370.454010 37432.000000
372.755676 37546.000000
375.055847 37635.000000
377.354462 37641.000000
379.651520 38161.000000
381.947021 37865.000000
384.240997 38211.000000
386.533386 38857.000000
388.824280 38503.000000
391.113647 38047.000000
393.401428 37990.000000
395.687683 37827.000000
397.972443 37343.000000
400.255585 38207.000000
402.537292 37757.000000
404.817474 37972.000000
407.096069 36774.000000
409.373138 37578.000000
411.648682 37297.000000
413.922699 37466.000000
416.195282 37500.000000
418.466248 37548.000000
420.735718 37179.000000
423.003693 36522.000000
425.270111 36240.000000
427.535034 37131.000000
429.798492 37040.000000
432.060364 36769.000000
434.320770 37180.000000
436.579620 36437.000000
438.837006 36850.000000
441.092896 37217.000000
443.347290 36986.000000
445.600159 37331.000000
447.851471 35886.000000
450.101379 36636.000000
452.349701 36322.000000
454.596588 36945.000000
456.842010 36085.000000
459.085876 36093.000000
461.328247 35791.000000
463.569122 36841.000000
465.808594 35743.000000
468.046478 37038.000000
470.282928 36547.000000
472.517853 36445.000000
474.751312 35214.000000
476.983337 35758.000000
479.213837 36707.000000
481.442841 35906.000000
483.670380 36239.000000
485.896423 36535.000000
488.121033 35933.000000
490.344177 36753.000000
492.565857 36108.000000
494.785980 35913.000000
497.004700 36966.000000
499.221924 36398.000000
501.437775 37206.000000
503.652008 36680.000000
505.864929 36362.000000
508.076263 36416.000000
510.286163 35923.000000
512.494629 36365.000000
514.701721 36103.000000
516.907227 36236.000000
519.111328 36036.000000
521.313904 36322.000000
523.515076 35886.000000
525.714905 35727.000000
527.913208 35369.000000
530.109985 36836.000000
532.305420 36263.000000
534.499329 36552.000000
536.691895 34630.000000
538.882935 35334.000000
541.072571 35921.000000
543.260803 34877.000000
545.447510 34529.000000
547.632751 34579.000000
549.816711 34840.000000
551.999084 34489.000000
554.180115 34625.000000
556.359619 34594.000000
558.537842 34731.000000
560.714539 34637.000000
562.889832 34254.000000
565.063721 34206.000000
567.236145 34576.000000
569.407166 34507.000000
571.576721 34294.000000
573.744995 35376.000000
575.911743 34371.000000
578.077026 34616.000000
580.240906 34739.000000
582.403503 35056.000000
584.564575 34884.000000
586.724243 35406.000000
588.882568 35332.000000
591.039368 35090.000000
593.194824 34804.000000
595.348877 35657.000000
597.501587 35411.000000
599.652771 34365.000000
601.802612 34804.000000
603.951111 34791.000000
606.098022 35310.000000
608.243713 34947.000000
610.388000 34977.000000
612.530823 34363.000000
614.672180 35198.000000
616.812317 34937.000000
618.950928 33655.000000
621.088257 35470.000000
623.224121 34454.000000
625.358582 34119.000000
627.491577 33766.000000
629.623413 34057.000000
631.753784 33881.000000
633.882751 33589.000000
636.010254 33739.000000
638.136475 33831.000000
640.261169 32637.000000
642.384644 33291.000000
644.506775 32845.000000
646.627441 32621.000000
648.746765 32638.000000
650.864685 33442.000000
652.981262 33266.000000
655.096436 32554.000000
657.210266 32421.000000
659.322632 32940.000000
661.433777 32575.000000
663.543518 33340.000000
665.651794 32823.000000
667.758911 32753.000000
669.864563 32265.000000
671.968750 33126.000000
674.071716 33431.000000
676.173279 32343.000000
678.273499 34167.000000
680.372314 32953.000000
682.469788 33568.000000
684.565979 32886.000000
686.660706 33598.000000
688.754211 32917.000000
690.846375 33293.000000
692.937012 32141.000000
695.026428 33268.000000
697.114563 33168.000000
699.201233 33434.000000
701.286682 32606.000000
703.370605 33830.000000
705.453308 33020.000000
707.534729 32896.000000
709.614685 30995.000000
711.693420 32036.000000
713.770691 32495.000000
715.846680 31699.000000
717.921387 32307.000000
719.994812 31366.000000
722.066711 32184.000000
724.137451 31055.000000
726.206848 32213.000000
728.274841 31349.000000
730.341492 31444.000000
732.406921 30576.000000
734.471008 31723.000000
736.533752 31190.000000
738.595154 30994.000000
740.655273 30804.000000
742.713989 31215.000000
744.771484 30577.000000
746.827698 30776.000000
748.882507 30451.000000
750.936035 30677.000000
752.988159 29618.000000
755.039063 31145.000000
757.088745 30217.000000
759.136963 30658.000000
761.183960 30902.000000
763.229675 30189.000000
765.273987 32079.000000
767.317017 31997.000000
769.358826 31439.000000
771.399292 30881.000000
773.438354 30431.000000
775.476257 30669.000000
777.512817 30970.000000
779.548157 31716.000000
781.582153 31545.000000
783.614746 30902.000000
785.646179 32257.000000
787.676208 31936.500000
789.704956 31616.000000
791.732544 30835.000000
793.758789 30824.000000
795.783630 31237.000000
797.807373 31695.000000
799.829712 30939.000000
801.850830 31418.000000
803.870605 30551.000000
805.889099 32198.000000
807.906372 30365.000000
809.922241 30215.000000
811.936951 31020.000000
813.950317 30190.000000
815.962463 30096.000000
817.973389 29957.000000
819.982971 29354.000000
821.991333 30353.000000
823.998291 29924.000000
826.004028 29499.000000
828.008545 29657.000000
830.011780 29628.000000
832.013733 28834.000000
834.014404 29241.000000
836.013855 29293.000000
838.011963 28865.000000
840.008972 28181.000000
842.004578 28820.000000
843.999023 28741.000000
845.992126 28490.000000
847.984009 27793.000000
849.974548 28866.000000
851.963806 27680.000000
853.952026 28338.000000
855.938843 28540.000000
857.924438 28101.000000
859.908752 27309.000000
861.891968 28292.000000
863.873779 28097.000000
865.854370 28701.000000
867.833679 26801.000000
869.811829 27475.000000
871.788635 28288.000000
873.764160 28543.000000
875.738647 28490.000000
877.711670 28749.000000
879.683655 29419.000000
881.654297 28512.000000
883.623779 28782.000000
885.591919 29160.000000
887.558899 29447.000000
889.524536 28657.000000
891.489014 28928.000000
893.452271 28712.000000
895.414307 28237.000000
897.375061 28785.000000
899.334595 28234.000000
901.292847 28045.000000
903.250000 28271.000000
905.205994 28494.000000
907.160583 27614.000000
909.113953 27992.000000
911.066162 27786.000000
913.017151 27597.000000
914.966858 26663.000000
916.915405 27169.000000
918.862732 27092.000000
920.808777 26947.000000
922.753540 26574.000000
924.697266 26110.000000
926.639832 26146.000000
928.581116 26181.000000
930.521057 25274.000000
932.459900 25660.000000
934.397461 25803.000000
936.333801 25487.000000
938.268982 25683.000000
940.202881 25471.000000
942.135681 25777.000000
944.067261 25050.000000
945.997681 26306.000000
947.926880 25609.000000
949.854736 25179.000000
951.781555 25413.000000
953.707092 25961.000000
955.631348 26675.000000
957.554504 26395.000000
959.476501 26001.000000
961.397217 25510.000000
963.316772 26158.000000
965.235168 27062.000000
967.152527 26206.000000
969.068420 26275.000000
970.983215 26416.000000
972.896790 26576.000000
974.809204 26205.000000
976.720398 26151.000000
978.630432 26910.000000
980.539185 26279.000000
982.446899 26364.000000
984.353394 26049.000000
986.258667 26726.000000
988.162842 25723.000000
990.065796 26202.000000
991.967529 25660.000000
993.868103 25701.000000
995.767517 25377.000000
997.665710 26301.000000
999.562744 25248.000000
1001.458557 25148.000000
1003.353210 23978.000000
1005.246765 25203.000000
1007.139038 23929.000000
1009.030396 24312.000000
1010.920410 24511.000000
1012.809204 23941.000000
1014.696838 23990.000000
1016.583313 23682.000000
1018.468628 23619.000000
1020.352783 23906.000000
1022.235718 23869.000000
1024.117554 23668.000000
1025.998169 24000.000000
1027.877686 23798.000000
1029.756226 23824.000000
1031.633423 24101.000000
1033.509277 23764.000000
1035.384155 24019.000000
1037.258057 23897.000000
1039.130493 23432.000000
1041.001953 23430.000000
1042.872070 23828.000000
1044.741211 23833.000000
1046.609131 23962.000000
1048.475952 23596.000000
1050.341675 23811.000000
1052.206177 24061.000000
1054.069580 24189.000000
1055.931641 24071.000000
1057.792725 24332.000000
1059.652710 24138.000000
1061.511353 24031.000000
1063.368896 24530.000000
1065.225342 23923.000000
1067.080688 24365.000000
1068.934814 24527.000000
1070.788086 24147.000000
1072.639893 24169.000000
1074.490723 24217.000000
1076.340332 24071.000000
1078.188721 24514.000000
1080.036255 23083.000000
1081.882446 24334.000000
1083.727417 23821.000000
1085.571533 24179.000000
1087.414307 24180.000000
1089.255859 23637.000000
1091.096680 23760.000000
1092.935913 23422.000000
1094.774414 23641.000000
1096.611572 23653.000000
1098.447510 23069.000000
1100.282471 22508.000000
1102.116211 22504.000000
1103.948975 22255.000000
1105.780396 22434.000000
1107.610962 22433.000000
1109.440186 22069.000000
1111.268433 21655.000000
1113.095459 21438.000000
1114.921509 21612.000000
1116.746338 21714.000000
1118.570068 21261.000000
1120.392578 21435.000000
1122.213989 21287.000000
1124.034546 21597.000000
1125.853638 21352.000000
1127.671875 21371.000000
1129.488770 21542.000000
1131.304810 21643.000000
1133.119629 21669.000000
1134.933350 21989.000000
1136.745972 22013.000000
1138.557373 22229.000000
1140.367798 22522.000000
1142.177124 22318.000000
1143.985107 22278.000000
1145.792358 22558.000000
1147.598145 22378.000000
1149.403076 22519.000000
1151.206909 22284.000000
1153.009521 22463.000000
1154.811279 22424.000000
1156.611572 22283.000000
1158.410889 22335.000000
1160.209229 22096.000000
1162.006226 22295.000000
1163.802490 22176.000000
1165.597412 21931.000000
1167.391235 21774.000000
1169.184204 21227.000000
1170.975830 21403.000000
1172.766479 21151.000000
1174.556152 21083.000000
1176.344360 21092.000000
1178.131714 20898.000000
1179.917969 20998.000000
1181.703125 21073.000000
1183.487183 21043.000000
1185.270142 20620.000000
1187.052124 20729.000000
1188.832886 20871.000000
1190.612671 20894.000000
1192.391357 20567.000000
1194.169067 20688.000000
1195.945557 20438.000000
1197.720947 20226.000000
1199.495239 20044.000000
1201.268433 19865.000000
1203.040771 19799.000000
1204.811768 19584.000000
1206.581909 19736.000000
1208.350830 19649.000000
1210.118652 19517.000000
1211.885620 19578.000000
1213.651245 19544.000000
1215.415894 19500.000000
1217.179443 19353.000000
1218.941895 19557.000000
1220.703491 19344.000000
1222.463867 19339.000000
1224.223145 19159.000000
1225.981567 19159.000000
1227.738770 19190.000000
1229.494873 19433.000000
1231.249878 19438.000000
1233.004028 19647.000000
1234.756836 19723.000000
1236.508667 19729.000000
1238.259644 19747.000000
1240.009277 19817.000000
1241.758057 19825.000000
1243.505493 19977.000000
1245.252197 19854.000000
1246.997681 19770.000000
1248.742310 19983.000000
1250.485596 19858.000000
1252.227905 19719.000000
1253.969116 19800.000000
1255.709473 19604.000000
1257.448730 19173.000000
1259.186768 18532.000000
1260.923950 18385.000000
1262.659912 18588.000000
1264.394897 18852.000000
1266.128906 18966.000000
1267.861938 19243.000000
1269.593750 19405.000000
1271.324585 19496.000000
1273.054199 19564.000000
1274.782959 19631.000000
1276.510620 19701.000000
1278.237183 19821.000000
1279.962891 19696.000000
1281.687256 19444.000000
1283.410767 19586.000000
1285.133301 19439.000000
1286.854858 19643.000000
1288.575195 19216.000000
1290.294556 19133.000000
1292.012817 19140.000000
1293.730103 19122.000000
1295.446411 19282.000000
1297.161499 19364.000000
1298.875610 19178.000000
1300.588745 19051.000000
1302.301025 18784.000000
1304.012085 18371.000000
1305.722168 18567.000000
1307.431152 18248.000000
1309.138916 18369.000000
1310.846069 18120.000000
1312.551758 18177.000000
1314.256714 18055.000000
1315.960693 18188.000000
1317.663452 18586.000000
1319.365234 19112.000000
1321.066162 23379.000000
1322.765747 23666.000000
1324.464478 20630.500000
1326.162476 17595.000000
1327.859131 17315.000000
1329.554688 17231.000000
1331.249390 17275.000000
1332.942871 17340.000000
1334.635498 17187.000000
1336.327271 16681.000000
1338.017700 17106.000000
1339.707397 16977.000000
1341.395996 16983.000000
1343.083496 16803.000000
1344.770020 16847.000000
1346.455444 16732.000000
1348.139893 16906.000000
1349.823486 16863.000000
1351.505859 16893.000000
1353.187256 17190.000000
1354.867798 17388.000000
1356.547119 17452.000000
1358.225830 17554.000000
1359.903198 17642.000000
1361.579468 17928.000000
1363.254761 17837.000000
1364.929321 17716.000000
1366.602661 17816.000000
1368.275024 17784.000000
1369.946411 17903.000000
1371.616821 17719.000000
1373.286133 17741.000000
1374.954468 17649.000000
1376.621948 17704.000000
1378.288330 17446.000000
1379.953735 17561.000000
1381.618164 17417.000000
1383.281372 17259.000000
1384.943970 17024.000000
1386.605225 16936.000000
1388.265625 16927.000000
1389.924927 16746.000000
1391.583252 16685.000000
1393.240845 16700.000000
1394.897217 16820.000000
1396.552734 16759.000000
1398.207031 16876.000000
1399.860474 16866.000000
1401.512817 16827.000000
1403.164429 16872.000000
1404.814819 16837.000000
1406.464111 16227.000000
1408.112671 15944.000000
1409.760132 15895.000000
1411.406616 15796.000000
1413.052246 15807.000000
1414.696899 15582.000000
1416.340332 15561.000000
1417.982910 15411.000000
1419.624390 15416.000000
1421.265015 15410.000000
1422.904663 15556.000000
1424.543213 15441.000000
1426.180908 15218.000000
1427.817505 15188.000000
1429.453125 15260.000000
1431.088013 14920.000000
1432.721802 15113.000000
1434.354492 15044.000000
1435.986206 14988.000000
1437.617065 15180.000000
1439.246826 15008.000000
1440.875488 14950.000000
1442.503540 14965.000000
1444.130493 15084.000000
1445.756226 14947.000000
1447.381348 15128.000000
1449.005371 15172.000000
1450.628418 15098.000000
1452.250488 15072.000000
1453.871460 15119.000000
1455.491455 15412.000000
1457.110718 15203.000000
1458.728638 16348.000000
1460.345947 13544.000000
1461.962280 15047.000000
1463.577393 14944.000000
1465.191650 14949.000000
1466.805054 15305.000000
1468.417358 15496.000000
1470.028809 15419.000000
1471.639404 15321.000000
1473.248779 15215.000000
1474.857178 15339.000000
1476.464722 15359.000000
1478.071289 15405.000000
1479.677124 15455.000000
1481.281738 15209.000000
1482.885498 15138.000000
1484.488037 14531.000000
1486.089966 14298.000000
1487.690674 14142.000000
1489.290649 14071.000000
1490.889526 13872.000000
1492.487549 14186.000000
1494.084473 13996.000000
1495.680542 14532.000000
1497.275635 15107.000000
1498.869751 14920.000000
1500.463135 14936.000000
1502.055420 14836.000000
1503.646484 14868.000000
1505.237061 14661.000000
1506.826294 14585.000000
1508.414917 14480.000000
1510.002441 14264.000000
1511.588867 14088.000000
1513.174561 14279.000000
1514.759155 14129.000000
1516.342896 14159.000000
1517.925537 14124.000000
1519.507446 14048.000000
1521.088257 14378.000000
1522.668335 14202.000000
1524.247192 13809.000000
1525.825195 13768.000000
1527.402466 13604.000000
1528.978516 13624.000000
1530.553833 13596.000000
1532.128052 13422.000000
1533.701538 13476.000000
1535.273804 13404.000000
1536.845337 13419.000000
1538.415894 13492.000000
1539.985596 13268.000000
1541.554077 13275.000000
1543.121826 13164.000000
1544.688721 13203.000000
1546.254395 12996.000000
1547.819336 13152.000000
1549.383179 12993.000000
1550.946411 12968.000000
1552.508301 13027.000000
1554.069580 12976.000000
1555.629761 12837.000000
1557.189209 12889.000000
1558.747559 12924.000000
1560.305176 12663.000000
1561.861694 12671.000000
1563.416992 12787.000000
1564.971680 12711.000000
1566.525635 12799.000000
1568.078613 12781.000000
1569.630249 12765.000000
1571.181152 12855.000000
1572.731323 12679.000000
1574.280518 12883.000000
1575.828369 13098.000000
1577.375732 12825.000000
1578.922119 12809.000000
1580.467651 12919.000000
1582.012207 12861.000000
1583.555542 12824.000000
1585.098267 12829.000000
1586.640137 12693.000000
1588.180908 12599.000000
1589.720703 12727.000000
1591.259766 12600.000000
1592.797729 12683.000000
1594.335205 12446.000000
1595.871338 12507.000000
1597.406372 12633.000000
1598.940918 12461.000000
1600.474487 12454.000000
1602.007202 12424.000000
1603.538330 12602.000000
1605.069214 12495.000000
1606.599243 12507.000000
1608.128052 12367.000000
1609.655762 12332.000000
1611.182861 12352.000000
1612.709229 12694.000000
1614.234619 12502.000000
1615.759155 12369.000000
1617.282349 12461.000000
1618.804810 12339.000000
1620.326538 12380.000000
1621.847412 12587.000000
1623.366821 11654.000000
1624.885742 12129.000000
1626.403931 12134.000000
1627.921265 12133.000000
1629.437500 12111.000000
1630.952393 11947.000000
1632.466797 11935.000000
1633.980469 11816.000000
1635.493042 11710.000000
1637.004395 11930.000000
1638.515381 11842.000000
1640.025269 11614.000000
1641.534302 11824.000000
1643.041992 11687.000000
1644.549316 11627.000000
1646.055786 11591.000000
1647.561279 11651.000000
1649.065918 11527.000000
1650.569092 11455.000000
1652.071655 11483.000000
1653.573853 11342.000000
1655.074707 11354.000000
1656.574463 11242.000000
1658.073364 11242.000000
1659.571899 11181.000000
1661.069214 11084.000000
1662.565796 11027.000000
1664.060791 10965.000000
1665.555542 10959.000000
1667.049438 10794.000000
1668.542358 12300.000000
1670.033936 9334.000000
1671.525024 10626.000000
1673.015503 10678.000000
1674.504883 10588.000000
1675.992798 10500.000000
1677.480469 10676.000000
1678.967163 10792.000000
1680.453003 10727.000000
1681.937988 10575.000000
1683.421509 10453.000000
1684.904785 10364.000000
1686.387207 10464.000000
1687.868530 10446.000000
1689.348389 10331.000000
1690.828003 10234.000000
1692.306885 10224.000000
1693.784790 9955.000000
1695.261719 10300.000000
1696.737427 10281.000000
1698.212769 10169.000000
1699.686890 10143.000000
1701.160400 10242.000000
1702.632446 10288.000000
1704.104248 10275.000000
1705.575073 10162.000000
1707.045044 10238.000000
1708.513672 10239.000000
1709.981812 10296.000000
1711.449219 10242.000000
1712.915527 10279.000000
1714.381226 10196.000000
1715.845215 10094.000000
1717.309082 10228.000000
1718.772095 10229.000000
1720.234131 10139.000000
1721.694946 10284.000000
1723.155151 10229.000000
1724.614624 10249.000000
1726.073242 10255.000000
1727.530884 10235.000000
1728.987183 10245.000000
1730.443237 10230.000000
1731.898315 10175.000000
1733.352417 10106.000000
1734.805298 10037.000000
1736.257935 10070.000000
1737.709473 9972.000000
1739.160278 10071.000000
1740.610107 9975.000000
1742.058594 9842.000000
1743.506714 9833.000000
1744.953979 9840.000000
1746.400513 9810.000000
1747.845459 9749.000000
1749.290161 9795.000000
1750.734009 9502.000000
1752.177002 9807.000000
1753.618530 9671.000000
1755.059814 10227.000000
1756.500244 8766.000000
1757.939697 9583.000000
1759.378174 9566.000000
1760.815674 9397.000000
1762.252686 9350.000000
1763.688721 9353.000000
1765.123901 9382.000000
1766.557617 9488.000000
1767.991211 9590.000000
1769.423828 9404.000000
1770.855591 9409.000000
1772.286499 9536.000000
1773.716187 9440.000000
1775.145142 8992.000000
1776.573608 9001.000000
1778.001099 8658.000000
1779.427246 8343.000000
1780.853149 8997.000000
1782.277954 8988.000000
1783.702148 8910.000000
1785.124878 8796.000000
1786.547119 8866.000000
1787.968628 8873.000000
1789.389404 8697.000000
1790.809204 8779.000000
1792.227661 8609.000000
1793.645630 8604.000000
1795.062988 8621.000000
1796.479492 8526.000000
1797.894531 8690.000000
1799.309204 8526.000000
1800.723267 8468.000000
1802.136108 8610.000000
1803.548340 8432.000000
1804.959229 8232.000000
1806.369629 8355.000000
1807.779297 8464.000000
1809.187988 8452.000000
1810.595581 8457.000000
1812.002686 8469.000000
1813.408936 8510.000000
1814.814209 8592.000000
1816.218384 8480.000000
1817.622192 8438.000000
1819.025024 8590.000000
1820.427002 8392.000000
1821.828369 8376.000000
1823.228271 8417.000000
1824.627563 8435.000000
1826.026367 8335.000000
1827.424316 8380.000000
1828.820923 8353.000000
1830.216919 8406.000000
1831.612183 8494.000000
1833.006836 8291.000000
1834.400513 8360.000000
1835.792847 8282.000000
1837.184692 8289.000000
1838.575928 8320.000000
1839.966187 8298.000000
1841.355225 8328.000000
1842.743896 8296.000000
1844.131592 8282.000000
1845.518555 8267.000000
1846.904175 8169.000000
1848.289551 8096.000000
1849.674072 8129.000000
1851.057861 8125.000000
1852.440552 8042.000000
1853.822021 7969.000000
1855.203003 7907.000000
1856.583496 7894.000000
1857.963013 7974.000000
1859.341064 7824.000000
1860.718994 7805.000000
1862.095947 7914.000000
1863.472168 7801.000000
1864.847534 7743.000000
1866.221436 7688.000000
1867.595215 7574.000000
1868.968140 7589.000000
1870.339966 7566.000000
1871.710815 7495.000000
1873.081299 7489.000000
1874.450684 7544.000000
1875.819580 7385.000000
1877.186890 7405.000000
1878.554077 7330.000000
1879.920288 7306.000000
1881.285767 7256.000000
1882.650513 7198.000000
1884.013672 7263.000000
1885.376709 7333.000000
1886.738892 7084.000000
1888.100220 7224.000000
1889.460205 7244.000000
1890.819824 7186.000000
1892.178833 7142.000000
1893.536865 7176.000000
1894.894043 6943.000000
1896.250000 7000.000000
1897.605713 7027.000000
1898.960449 7112.000000
1900.314331 7108.000000
1901.667114 7077.000000
1903.019409 7081.000000
1904.370972 7118.000000
1905.721680 7076.000000
1907.071167 7108.000000
1908.420166 7118.000000
1909.768311 7107.000000
1911.115845 7069.000000
1912.462646 6940.000000
1913.807861 6969.000000
1915.152832 7037.000000
1916.497070 7146.000000
1917.840454 7122.000000
1919.182495 7184.000000
1920.524292 7078.000000
1921.865234 7058.000000
1923.205444 7088.000000
1924.544678 7064.000000
1925.882935 7188.000000
1927.220581 7080.000000
1928.557495 6989.000000
1929.893555 7012.000000
1931.228394 6947.000000
1932.562866 6853.000000
1933.896606 6796.000000
1935.229492 6886.000000
1936.560913 6772.000000
1937.892456 6826.000000
1939.222656 6690.000000
1940.552368 6708.000000
1941.881226 6848.000000
1943.208862 6743.000000
1944.536011 6701.000000
1945.862427 6692.000000
1947.188110 6736.000000
1948.512451 6756.000000
1949.836548 6670.000000
1951.159790 6598.000000
1952.482300 6668.000000
1953.803711 6580.000000
1955.124146 6568.000000
1956.443970 6544.000000
1957.763428 6572.000000
1959.081909 6500.000000
1960.399048 6480.000000
1961.715820 6379.000000
1963.031860 6348.000000
1964.347168 6437.000000
1965.661011 6436.000000
1966.974609 6348.000000
1968.287476 6343.000000
1969.599487 6416.000000
1970.910889 6278.000000
1972.220947 6227.000000
1973.530518 6216.000000
1974.839355 6138.000000
1976.147583 6084.000000
1977.454468 6175.000000
1978.760742 5994.000000
1980.066650 6192.000000
1981.371338 6251.000000
1982.675537 6124.000000
1983.978516 6134.000000
1985.281128 5947.000000
1986.582764 5976.000000
1987.883789 5794.000000
1989.183228 5805.000000
1990.482788 5816.000000
1991.781250 5786.000000
1993.079224 5787.000000
1994.375610 5879.000000
1995.671997 5762.000000
1996.967407 5828.000000
1998.262085 5657.000000
1999.555908 5750.000000
2000.848511 5625.000000
2002.140625 5651.000000
2003.432251 5608.000000
2004.723145 5554.000000
2006.012451 5605.000000
2007.301514 5538.000000
2008.589844 5654.000000
2009.877441 5408.000000
2011.164185 5556.000000
2012.449829 5430.000000
2013.735107 5517.000000
2015.019409 5400.000000
2016.303101 5428.000000
2017.585449 5412.000000
2018.867432 5512.000000
2020.148926 5438.000000
2021.429443 5479.000000
2022.709229 5328.000000
2023.987915 5404.000000
2025.265869 5296.000000
2026.543335 5413.000000
2027.820190 5350.000000
2029.095337 5388.000000
2030.370605 5376.000000
2031.644897 5568.000000
2032.918213 5567.000000
2034.190674 5531.000000
2035.462769 5488.000000
2036.733765 5397.000000
2038.004517 5448.000000
2039.273926 5426.000000
2040.542236 5351.000000
2041.810547 5424.000000
2043.077881 5418.000000
2044.344482 5387.000000
2045.609863 5477.000000
2046.874634 5786.000000
2048.139160 5233.000000
2049.402588 5367.000000
2050.665527 5486.000000
2051.926514 5265.000000
2053.187988 5312.000000
2054.448242 5178.000000
2055.707764 5077.000000
2056.966553 5136.000000
2058.224365 5093.000000
2059.481689 5119.000000
2060.738281 5136.000000
2061.993408 5077.000000
2063.248535 5075.000000
2064.502686 5105.000000
2065.756104 5114.000000
2067.008789 4997.000000
2068.260254 5014.000000
2069.511475 4970.000000
2070.761963 5083.000000
2072.011719 5123.000000
2073.260010 5302.000000
2074.508301 4959.000000
2075.755615 5040.000000
2077.002197 4849.000000
2078.248047 4867.000000
2079.492676 4889.000000
2080.736816 4834.000000
2081.980469 4761.000000
2083.223145 4858.000000
2084.464600 4674.000000
2085.705811 4777.000000
2086.946533 4617.000000
2088.186279 4746.000000
2089.424805 4672.000000
2090.662842 4672.000000
2091.900146 4674.000000
2093.137207 4597.000000
2094.372803 4669.000000
2095.607666 4649.000000
2096.842285 4659.000000
2098.075928 4704.000000
2099.308594 4661.000000
2100.540527 4687.000000
2101.771973 4587.000000
2103.002441 4706.000000
2104.232178 4515.000000
2105.461670 4510.000000
2106.689209 4562.000000
2107.916992 4442.000000
2109.144043 4351.000000
2110.370117 4423.000000
2111.594727 4420.000000
2112.819580 4372.000000
2114.043213 4359.000000
2115.266357 4366.000000
2116.488281 4391.000000
2117.709961 4352.000000
2118.930664 4424.000000
2120.150635 4375.000000
2121.370117 4456.000000
2122.588135 4398.000000
2123.806152 4360.000000
2125.023193 4393.000000
2126.239746 4393.000000
2127.454590 4321.000000
2128.669678 4365.000000
2129.883789 4460.000000
2131.097168 4374.000000
2132.309814 4206.000000
2133.520996 4338.000000
2134.732422 4273.000000
2135.942627 4372.000000
2137.152344 4320.000000
2138.360596 4439.000000
2139.568848 4305.000000
2140.776367 4287.000000
2141.982666 4267.000000
2143.188232 4275.000000
2144.393555 4190.000000
2145.597900 4185.000000
2146.801514 4242.000000
2148.004639 4166.000000
2149.206299 4133.000000
2150.407715 4271.000000
2151.608398 4182.000000
2152.808350 4197.000000
2154.007080 4233.000000
2155.205566 4131.000000
2156.403564 4154.000000
2157.600586 4028.000000
2158.796875 4102.000000
2159.991943 3910.000000
2161.186768 3954.000000
2162.380859 3948.000000
2163.573975 3840.000000
2164.766113 3931.000000
2165.958008 3924.000000
2167.149170 3840.000000
2168.339355 3916.000000
2169.528809 3787.000000
2170.717773 3857.000000
2171.905762 3755.000000
2173.093506 3728.000000
2174.279785 3625.000000
2175.465332 3702.000000
2176.650635 3606.000000
2177.835449 3707.000000
2179.019043 3559.000000
2180.201904 3591.000000
2181.383789 3657.000000
2182.565430 3664.000000
2183.746582 3606.000000
2184.926514 3566.000000
2186.105469 3622.000000
2187.283936 3402.000000
2188.462158 3572.000000
2189.639160 3564.000000
2190.815186 3436.000000
2191.990967 3548.000000
2193.166260 3536.000000
2194.340088 3383.000000
2195.513428 3540.000000
2196.686523 3516.000000
2197.858398 3399.000000
2199.029785 3509.000000
2200.200684 3559.000000
2201.369873 3584.000000
2202.539063 3549.000000
2203.707764 3490.000000
2204.875488 3606.000000
2206.042236 3549.000000
2207.208252 3505.000000
2208.373779 3533.000000
2209.539063 3552.000000
2210.702881 3464.000000
2211.866211 3483.000000
2213.028320 3426.000000
2214.190674 3518.000000
2215.351807 3397.000000
2216.511963 3392.000000
2217.671631 3498.000000
2218.831055 3415.000000
2219.989258 3344.000000
2221.146484 3306.000000
2222.303467 3327.000000
2223.459717 3329.000000
2224.615234 3350.000000
2225.770020 3357.000000
2226.923828 3288.000000
2228.076660 3293.000000
2229.229980 3270.000000
2230.381348 3236.000000
2231.532471 3286.000000
2232.682861 3240.000000
2233.832764 3206.000000
2234.981689 3249.000000
2236.130127 3209.000000
2237.277100 3557.000000
2238.424316 3035.000000
2239.570313 3153.000000
2240.716064 3106.000000
2241.860107 3115.000000
2243.004395 3007.000000
2244.147705 3063.000000
2245.290283 3129.000000
2246.431885 3021.000000
2247.573242 3034.000000
2248.713623 2835.000000
2249.853271 2915.000000
2250.992432 2979.000000
2252.130371 2882.000000
2253.268311 2979.000000
2254.405273 2914.000000
2255.541504 2922.000000
2256.676758 2834.000000
2257.811279 2928.000000
2258.945557 2802.000000
2260.079346 3024.000000
2261.211670 2964.000000
2262.343506 2932.000000
2263.474854 2851.000000
2264.605225 2753.000000
2265.735352 2631.000000
2266.864258 2728.000000
2267.992676 2824.000000
2269.120605 2741.000000
2270.247559 2703.000000
2271.373779 2747.000000
2272.499023 2576.000000
2273.624268 2756.000000
2274.748779 2714.000000
2275.872070 2662.000000
2276.994629 2733.000000
2278.116699 2841.000000
2279.238281 2753.000000
2280.359131 2627.000000
2281.478760 2652.000000
2282.597900 2667.000000
2283.716797 2671.000000
2284.834961 2606.000000
2285.952148 2663.000000
2287.068359 2549.000000
2288.184326 2718.000000
2289.299561 2559.000000
2290.414063 2651.000000
2291.527344 2545.000000
2292.640625 2698.000000
2293.753174 2612.000000
2294.864990 2665.000000
2295.976074 2558.000000
2297.085938 2613.000000
2298.195313 2684.000000
2299.304443 2593.000000
2300.412598 2735.000000
2301.519775 2708.000000
2302.626709 2679.000000
2303.732910 2653.000000
2304.838623 2685.000000
2305.942871 2590.000000
2307.046875 2732.000000
2308.150391 2562.000000
2309.253418 2558.000000
2310.355225 2555.000000
2311.456299 2573.000000
2312.556885 2608.000000
2313.656982 2556.000000
2314.756348 2620.000000
2315.854248 2478.000000
2316.952637 2567.000000
2318.049561 2399.000000
2319.146240 2479.000000
2320.242432 2525.000000
2321.336914 2467.000000
2322.431396 2590.000000
2323.525146 2535.000000
2324.618652 2374.000000
2325.710449 2462.000000
2326.802246 2414.000000
2327.893311 2505.000000
2328.983643 2522.000000
2330.072998 2577.000000
2331.162354 2616.000000
2332.250488 2465.000000
2333.338135 2499.000000
2334.425537 2364.000000
2335.511230 2343.000000
2336.596680 2459.000000
2337.681885 2335.000000
2338.766113 2322.000000
2339.849365 2363.000000
2340.932373 2203.000000
2342.014404 2330.000000
2343.096191 2233.000000
2344.177246 2220.000000
2345.257080 2213.000000
2346.336426 2210.000000
2347.415283 2285.000000
2348.493652 2210.000000
2349.570557 2244.000000
2350.647217 2226.000000
2351.723633 2160.000000
2352.799072 2222.000000
2353.873535 2300.000000
2354.947754 2201.000000
2356.021240 2168.000000
2357.094238 2205.000000
2358.166016 2053.000000
2359.237549 2085.000000
2360.308105 2078.000000
2361.378418 2101.000000
2362.447754 2018.000000
2363.516113 2105.000000
2364.584229 2118.000000
2365.651611 1956.000000
2366.718506 2054.000000
2367.784668 2045.000000
2368.849609 1954.000000
2369.914551 2067.000000
2370.978760 1953.000000
2372.042236 2003.000000
2373.104492 1949.000000
2374.166748 1976.000000
2375.228027 2077.000000
2376.289063 2065.000000
2377.348877 1962.000000
2378.407959 1845.000000
2379.467041 1929.000000
2380.525146 1994.000000
2381.582520 2006.000000
2382.638916 1993.000000
2383.695068 1951.000000
2384.750732 2045.000000
2385.805664 1920.000000
2386.859131 1889.000000
2387.912842 1906.000000
2388.965576 1938.000000
2390.017822 2002.000000
2391.069336 1932.000000
2392.119873 1938.000000
2393.170166 1968.000000
2394.219482 1859.000000
2395.268799 1908.000000
2396.316650 1901.000000
2397.364014 1956.000000
2398.411133 1751.000000
2399.457275 1954.000000
2400.502686 1888.000000
2401.547363 1946.000000
2402.592041 1841.000000
2403.635254 1862.000000
2404.678467 1899.000000
2405.720215 1880.000000
2406.762207 1880.000000
2407.803467 1915.000000
2408.843750 1829.000000
2409.883301 1857.000000
2410.921875 1964.000000
2411.960693 1853.000000
2412.998291 1850.000000
2414.035645 1834.000000
2415.071777 1859.000000
2416.107666 1884.000000
2417.142822 1898.000000
2418.177490 1877.000000
2419.210693 1856.000000
2420.244141 1891.000000
2421.276611 1821.000000
2422.308838 1887.000000
2423.339600 1741.000000
2424.370361 1872.000000
2425.400635 1751.000000
2426.429688 1815.000000
2427.458740 1758.000000
2428.486084 1806.000000
2429.513916 1795.000000
2430.540527 1787.000000
2431.566895 1798.000000
2432.591797 1753.000000
2433.616943 1752.000000
2434.641113 1751.000000
2435.665039 1714.000000
2436.687744 1728.000000
2437.709717 1690.000000
2438.731445 1700.000000
2439.752441 1706.000000
2440.772949 1669.000000
2441.792236 1676.000000
2442.811523 1700.000000
2443.829834 1724.000000
2444.847900 1608.000000
2445.864502 1699.000000
2446.881104 1573.000000
2447.896973 1601.000000
2448.912842 1636.000000
2449.927246 1631.000000
2450.940918 1466.000000
2451.954102 1557.000000
2452.967041 1651.000000
2453.979248 1568.000000
2454.990479 1550.000000
2456.001465 1584.000000
2457.011719 1630.000000
2458.021484 1543.000000
2459.030273 1596.000000
2460.038330 1569.000000
2461.046387 1591.000000
2462.053223 1528.000000
2463.059814 1519.000000
2464.065186 1443.000000
2465.070313 1554.000000
2466.075195 1498.000000
2467.078857 1571.000000
2468.082275 1470.000000
2469.084717 1350.000000
2470.086914 1573.000000
2471.088623 1517.000000
2472.089355 1455.000000
2473.089111 1428.000000
2474.088867 1367.000000
2475.087646 1426.000000
2476.085938 1558.000000
2477.083252 1522.000000
2478.080322 1459.000000
2479.077393 1410.000000
2480.072998 1480.000000
2481.068604 1479.000000
2482.062500 1456.000000
2483.056396 1443.000000
2484.049805 1487.000000
2485.042725 1529.000000
2486.034668 1574.000000
2487.025879 1449.000000
2488.016846 1338.000000
2489.007324 1459.000000
2489.996826 1475.000000
2490.985596 1504.000000
2491.974365 1430.000000
2492.962158 1509.000000
2493.948730 1486.000000
2494.935303 1313.000000
2495.921387 1372.000000
2496.906738 1465.000000
2497.891113 1401.000000
2498.875244 1335.000000
2499.859375 1469.000000
2500.842041 1451.000000
2501.824219 1437.000000
2502.805908 1422.000000
2503.786865 1353.000000
2504.767334 1449.000000
2505.747559 1445.000000
2506.726318 1329.000000
2507.704834 1412.000000
2508.682861 1426.000000
2509.660400 1238.000000
2510.636963 1354.000000
2511.613281 1471.000000
2512.588867 1372.000000
2513.563965 1349.000000
2514.538574 1364.000000
2515.511963 1368.000000
2516.485107 1165.000000
2517.458008 1265.000000
2518.429932 1338.000000
2519.401123 1312.000000
2520.371826 1405.000000
2521.342285 1233.000000
2522.312012 1265.000000
2523.280762 1280.000000
2524.248779 1384.000000
2525.216797 1246.000000
2526.183838 1319.000000
2527.150635 1306.000000
2528.116211 1311.000000
2529.081787 1216.000000
2530.046631 1307.000000
2531.010986 1278.000000
2531.974121 1264.000000
2532.937500 1201.000000
2533.899902 1260.000000
2534.862061 1230.000000
2535.822998 1324.000000
2536.783203 1340.000000
2537.743652 1279.000000
2538.703125 1300.000000
2539.661865 1284.000000
2540.619629 1336.000000
2541.577637 1319.000000
2542.534912 1170.000000
2543.491211 1204.000000
2544.447266 1212.000000
2545.402100 1255.000000
2546.357178 1211.000000
2547.311523 1132.000000
2548.265137 1663.000000
2549.217773 1285.000000
2550.170166 1271.000000
2551.122070 1085.000000
2552.073242 1176.000000
2553.023682 1225.000000
2553.973633 1194.000000
2554.923340 1126.000000
2555.872314 1181.000000
2556.820801 1191.000000
2557.768066 1166.000000
2558.715332 1123.000000
2559.661865 1109.000000
2560.607910 1118.000000
2561.552979 1102.000000
2562.497803 1107.000000
2563.442139 1122.000000
2564.385986 1086.000000
2565.329346 1016.000000
2566.271240 1076.000000
2567.213379 1086.000000
2568.154785 1108.000000
2569.095459 1089.000000
2570.035400 1151.000000
2570.975342 1148.000000
2571.914307 1088.000000
2572.853027 1036.000000
2573.790771 1137.000000
2574.728271 1087.000000
2575.665039 1072.000000
2576.601074 1100.000000
2577.536621 1057.000000
2578.471436 1102.000000
2579.406250 1073.000000
2580.340088 1072.000000
2581.273438 960.000000
2582.206055 1034.000000
2583.138428 1111.000000
2584.070068 1014.000000
2585.001221 1080.000000
2585.931885 1080.000000
2586.861328 1164.000000
2587.790771 1098.000000
2588.719727 1056.000000
2589.648438 972.000000
2590.575439 1052.000000
2591.502686 1040.000000
2592.429443 1055.000000
2593.355469 1007.000000
2594.281250 984.000000
2595.205811 961.000000
2596.130127 957.000000
2597.053955 1009.000000
2597.977295 1162.000000
2598.899658 1081.000000
2599.821777 1081.000000
2600.743408 919.000000
2601.664307 1025.000000
2602.584473 1080.000000
2603.504395 1045.000000
2604.423828 999.000000
2605.343018 1066.000000
2606.261230 1034.000000
2607.178223 1035.000000
2608.095459 1010.000000
2609.012451 974.000000
2609.928467 983.000000
2610.843262 1044.000000
2611.758545 970.000000
2612.673096 977.000000
2613.586670 980.000000
2614.500244 1006.000000
2615.412598 1076.000000
2616.324951 963.000000
2617.236328 926.000000
2618.147461 927.000000
2619.057861 1016.000000
2619.968018 965.000000
2620.877441 901.000000
2621.786377 979.000000
2622.694336 910.000000
2623.602539 1016.000000
2624.509766 966.000000
2625.416504 950.000000
2626.322510 911.000000
2627.228271 869.000000
2628.133301 852.000000
2629.038086 893.000000
2629.942139 912.000000
2630.845215 994.000000
2631.748291 939.000000
2632.650391 885.000000
2633.552490 902.000000
2634.454346 849.000000
2635.354492 952.000000
2636.254883 834.000000
2637.154541 929.000000
2638.053955 872.000000
2638.951904 917.000000
2639.850342 933.000000
2640.748291 901.000000
2641.645508 959.000000
2642.541504 864.000000
2643.437500 958.000000
2644.333252 862.000000
2645.228271 802.000000
2646.123047 886.000000
2647.016357 824.000000
2647.909668 836.000000
2648.802734 857.000000
2649.695557 907.000000
2650.586670 848.000000
2651.478027 872.000000
2652.368896 845.000000
2653.259033 806.000000
2654.148926 759.000000
2655.037598 832.000000
2655.926514 812.000000
2656.814941 862.000000
2657.702393 828.000000
2658.588867 822.000000
2659.475830 839.000000
2660.362061 848.000000
2661.247803 789.000000
2662.132324 764.000000
2663.016846 879.000000
2663.901123 850.000000
2664.784668 716.000000
2665.667725 783.000000
2666.550049 756.000000
2667.431885 830.000000
2668.312988 705.000000
2669.194336 848.000000
2670.074219 830.000000
2670.954346 824.000000
2671.833740 735.000000
2672.713135 970.000000
2673.591797 760.000000
2674.468750 812.000000
2675.346436 928.000000
2676.223389 791.000000
2677.099609 880.000000
2677.975342 696.000000
2678.850342 717.000000
2679.725586 784.000000
2680.599854 786.000000
2681.473633 728.000000
2682.346680 856.000000
2683.219482 779.000000
2684.092041 728.000000
2684.963867 767.000000
2685.834961 777.000000
2686.705811 764.000000
2687.576172 686.000000
2688.446289 767.000000
2689.314697 742.000000
2690.183838 757.000000
2691.052246 671.000000
2691.920410 736.000000
2692.787842 677.000000
2693.654053 732.000000
2694.520752 658.000000
2695.386475 689.000000
2696.252197 856.000000
2697.116455 750.000000
2697.981445 796.000000
2698.844971 708.000000
2699.708740 734.000000
2700.571045 703.000000
2701.433838 656.000000
2702.295654 704.000000
2703.156982 745.000000
2704.018311 672.000000
2704.878418 617.000000
2705.738525 629.000000
2706.598145 625.000000
2707.457520 738.000000
2708.315186 627.000000
2709.173096 637.000000
2710.031494 623.000000
2710.888672 715.000000
2711.745117 720.000000
2712.601074 694.000000
2713.457031 733.000000
2714.312256 637.000000
2715.166748 662.000000
2716.020752 615.000000
2716.874756 584.000000
2717.727783 678.000000
2718.581055 689.000000
2719.432617 636.000000
2720.284668 610.000000
2721.136475 673.000000
2721.987061 649.000000
2722.837646 642.000000
2723.687744 603.000000
2724.537109 552.000000
2725.386475 642.000000
2726.234619 602.000000
2727.082275 673.000000
2727.930420 587.000000
2728.777344 688.000000
2729.624756 736.000000
2730.470703 588.000000
2731.315918 673.000000
2732.161621 605.000000
2733.006348 616.000000
2733.851074 525.000000
2734.694580 564.000000
2735.538330 671.000000
2736.381348 541.000000
2737.223877 583.000000
2738.065430 623.000000
2738.907471 603.000000
2739.748535 622.000000
2740.589355 653.000000
2741.429932 705.000000
2742.269287 519.000000
2743.108643 582.000000
2743.947998 645.000000
2744.786133 570.000000
2745.623779 622.000000
2746.461426 595.000000
2747.298584 524.000000
2748.135498 509.000000
2748.971924 580.000000
2749.807129 552.000000
2750.642578 551.000000
2751.477539 660.000000
2752.311768 589.000000
2753.145752 640.000000
2753.979248 644.000000
2754.812744 594.000000
2755.645264 624.000000
2756.477295 547.000000
2757.308838 569.000000
2758.140381 553.000000
2758.970947 532.000000
2759.801758 476.000000
2760.631348 667.000000
2761.460938 609.000000
2762.290283 575.000000
2763.118896 460.000000
2763.947021 497.000000
2764.774658 446.000000
2765.602295 518.000000
2766.429443 557.000000
2767.255859 609.000000
2768.081787 510.000000
2768.907227 536.000000
2769.732422 497.000000
2770.557617 506.000000
2771.381592 575.000000
2772.205566 515.000000
2773.029541 511.000000
2773.852295 629.000000
2774.675293 555.000000
2775.497070 639.000000
2776.318848 499.000000
2777.140625 394.000000
2777.961426 546.000000
2778.781494 554.000000
2779.601807 606.000000
2780.421631 474.000000
2781.241455 521.000000
2782.059326 557.000000
2782.878418 519.000000
2783.696289 501.000000
2784.513916 612.000000
2785.331055 457.000000
2786.147705 501.000000
2786.964111 461.000000
2787.780029 474.000000
2788.595703 499.000000
2789.410400 513.000000
2790.225586 549.000000
2791.040039 421.000000
2791.854004 492.000000
2792.667725 558.000000
2793.480225 430.000000
2794.292969 395.000000
2795.105225 549.000000
2795.916992 449.000000
2796.728027 472.000000
2797.539795 541.000000
2798.350342 491.000000
2799.160889 522.000000
2799.969971 509.000000
2800.779785 471.000000
2801.588867 483.000000
2802.397705 554.000000
2803.206055 504.000000
2804.013428 446.000000
2804.821289 486.000000
2805.628418 553.000000
2806.435303 447.000000
2807.240967 469.000000
2808.047119 381.000000
2808.852539 508.000000
2809.657959 394.000000
2810.462646 522.000000
2811.266357 545.000000
2812.070557 386.000000
2812.874268 480.000000
2813.677734 467.000000
2814.479736 477.000000
2815.282471 491.000000
2816.084473 428.000000
2816.886230 489.000000
2817.687500 430.000000
2818.488281 409.000000
2819.288574 423.000000
2820.089111 503.000000
2820.888672 522.000000
2821.687744 380.000000
2822.486816 459.000000
2823.285645 302.000000
2824.083984 426.000000
2824.881348 443.000000
2825.678955 411.000000
2826.475830 477.000000
2827.272949 420.000000
2828.069336 500.000000
2828.864990 421.000000
2829.660645 386.000000
2830.456055 442.000000
2831.250977 444.000000
2832.045166 412.000000
2832.839355 470.000000
2833.633301 487.000000
2834.426758 457.000000
2835.219482 419.000000
2836.011963 425.000000
2836.804443 456.000000
2837.596680 393.000000
2838.388428 430.000000
2839.179199 387.000000
2839.969971 502.000000
2840.760986 392.000000
2841.551025 395.000000
2842.340576 425.000000
2843.130371 318.000000
2843.919189 401.000000
2844.708008 444.000000
2845.496826 459.000000
2846.284668 286.000000
2847.072021 376.000000
2847.859619 413.000000
2848.646729 353.000000
2849.433105 366.000000
2850.219482 375.000000
2851.005615 385.000000
2851.791260 430.000000
2852.575928 383.000000
2853.361084 332.000000
2854.145996 415.000000
2854.930176 326.000000
2855.714355 435.000000
2856.497314 255.000000
2857.280518 385.000000
2858.063477 267.000000
2858.845947 344.000000
2859.628174 391.000000
2860.409912 433.000000
2861.191406 431.000000
2861.973145 430.000000
2862.754150 429.000000
2863.534424 354.000000
2864.314453 378.000000
2865.094482 318.000000
2865.874268 404.000000
2866.653076 442.000000
2867.432129 403.000000
2868.210693 311.000000
2868.989014 464.000000
2869.766846 316.000000
2870.544434 420.000000
2871.321777 406.000000
2872.098877 463.000000
2872.875488 356.000000
2873.651611 383.000000
2874.427734 355.000000
2875.203369 399.000000
2875.978760 430.000000
2876.753662 452.000000
2877.528320 338.000000
2878.302979 438.000000
2879.077393 337.000000
2879.851074 289.000000
2880.624023 415.000000
2881.397705 419.000000
2882.170410 348.000000
2882.943115 361.000000
2883.715088 371.000000
2884.486816 358.000000
2885.259033 415.000000
2886.030029 347.000000
2886.800537 349.000000
2887.571533 266.000000
2888.342529 333.000000
2889.112793 461.000000
2889.882080 278.000000
2890.651611 357.000000
2891.421143 408.000000
2892.190186 414.000000
2892.958740 270.000000
2893.727295 385.000000
2894.494873 361.000000
2895.262939 376.000000
2896.030518 335.000000
2896.798096 273.000000
2897.564453 390.000000
2898.331787 314.000000
2899.097900 352.000000
2899.864258 377.000000
2900.629150 257.000000
2901.394531 240.000000
2902.160400 344.000000
2902.924805 364.000000
2903.689209 326.000000
2904.453857 367.000000
2905.217529 269.000000
2905.981934 351.000000
2906.745605 363.000000
2907.508545 384.000000
2908.271240 338.000000
2909.034424 409.000000
2909.797119 349.000000
2910.558594 262.000000
2911.320557 262.000000
spectrumdark 2048
-96.910347 6188.000000
-94.283478 6188.000000
-91.658485 6055.000000
-89.035385 6375.000000
-86.414154 5825.000000
-83.794823 6218.000000
-81.177353 6016.000000
-78.561760 6358.000000
-75.948044 6206.000000
-73.336205 5870.000000
-70.726227 6092.000000
-68.118134 5945.000000
-65.511887 5960.000000
-62.907516 5976.000000
-60.305008 6064.000000
-57.704353 5609.000000
-55.105560 6202.000000
-52.508625 6860.000000
-49.913544 6489.000000
-47.320316 6501.000000
-44.728939 6254.000000
-42.139408 6692.000000
-39.551720 5861.000000
-36.965881 6018.000000
-34.381886 6475.000000
-31.799726 5673.000000
-29.219414 6309.000000
-26.640928 5675.000000
-24.064285 6137.000000
-21.489468 6215.000000
-18.916491 6458.000000
-16.345333 6494.000000
-13.776010 6754.000000
-11.208511 7775.000000
-8.642832 6299.000000
-6.078978 6417.000000
-3.516937 5989.000000
-0.956721 5844.000000
1.601687 6162.000000
4.158274 6958.000000
6.713056 6626.000000
9.266021 6011.000000
11.817185 6781.000000
14.366537 6444.000000
16.914093 6681.000000
19.459837 6016.000000
22.003788 5743.000000
24.545935 6603.000000
27.086285 6769.000000
29.624849 6859.000000
32.161617 6181.000000
34.696583 5763.000000
37.229771 7251.000000
39.761177 6283.000000
42.290791 7103.000000
44.818607 6506.000000
47.344666 7806.000000
49.868935 5598.000000
52.391434 6266.000000
54.912136 6770.000000
57.431084 6220.000000
59.948257 6412.000000
62.463654 6597.000000
64.977272 5617.000000
67.489136 5701.000000
69.999252 6444.000000
72.507576 6509.000000
75.014145 5959.000000
77.518967 6359.000000
80.022034 6451.000000
82.523323 6228.000000
85.022873 6047.000000
87.520668 6339.000000
90.016731 5682.000000
92.511017 7219.000000
95.003563 5789.000000
97.494392 6946.000000
99.983452 7163.000000
102.470764 6409.000000
104.956352 6186.000000
107.440201 6394.000000
109.922302 5772.000000
112.402679 6563.000000
114.881332 6143.000000
117.358261 6453.000000
119.833435 7188.000000
122.306900 6796.000000
124.778633 5863.000000
127.248657 6814.000000
129.716934 6262.000000
132.183533 6216.000000
134.648376 5744.000000
137.111526 6170.000000
139.572937 7228.000000
142.032654 6984.000000
144.490646 6337.000000
146.946945 5940.000000
149.401535 5780.000000
151.854401 6836.000000
154.305588 6356.000000
156.755081 6534.000000
159.202850 6049.000000
161.648911 6544.000000
164.093292 8660.000000
166.535995 6416.000000
168.977005 6737.000000
171.416306 6207.000000
173.853897 7244.000000
176.289856 6513.000000
178.724075 6961.000000
181.156616 7135.000000
183.587509 6634.000000
186.016678 7065.000000
188.444199 6670.000000
190.870041 6303.000000
193.294205 6682.000000
195.716705 7177.000000
198.137512 7358.000000
200.556656 6469.000000
202.974136 5930.000000
205.389923 7596.000000
207.804062 7046.000000
210.216568 6333.000000
212.627396 5995.000000
215.036545 6257.000000
217.444061 7392.000000
219.849869 6133.000000
222.254089 6630.000000
224.656601 6683.000000
227.057495 6914.000000
229.456741 6456.000000
231.854324 6791.000000
234.250244 7277.000000
236.644547 6554.000000
239.037186 5841.000000
241.428207 6813.000000
243.817566 6619.000000
246.205307 6387.000000
248.591400 6972.000000
250.975861 6155.000000
253.358673 7806.000000
255.739914 6602.000000
258.119446 6618.000000
260.497406 6444.000000
262.873688 7439.000000
265.248413 7537.000000
267.621490 7813.000000
269.992920 6221.000000
272.362701 6405.000000
274.730927 5867.000000
277.097504 6262.000000
279.462494 6691.000000
281.825867 6030.000000
284.187592 6250.000000
286.547729 7038.000000
288.906250 5965.000000
291.263184 6502.000000
293.618500 6392.000000
295.972229 5960.000000
298.324310 5884.000000
300.674835 6274.000000
303.023773 6348.000000
305.371063 6844.000000
307.716827 6397.000000
310.060913 6488.000000
312.403473 7297.000000
314.744415 7544.000000
317.083740 7165.000000
319.421509 6978.000000
321.757721 8076.000000
324.092285 6247.000000
326.425293 6424.000000
328.756744 6002.000000
331.086609 6537.000000
333.414886 6416.000000
335.741547 7179.000000
338.066711 6297.000000
340.390259 6169.000000
342.712250 5974.000000
345.032684 7524.000000
347.351501 7683.000000
349.668762 5991.000000
351.984497 5831.000000
354.298645 6940.000000
356.611206 6296.000000
358.922211 6406.000000
361.231689 6987.000000
363.539642 6371.000000
365.845978 5676.000000
368.150726 6460.000000
370.454010 6421.000000
372.755676 6287.000000
375.055847 6270.000000
377.354462 6228.000000
379.651520 5736.000000
381.947021 6106.000000
384.240997 5827.000000
386.533386 5205.000000
388.824280 5604.000000
391.113647 6168.000000
393.401428 6249.000000
395.687683 6446.000000
397.972443 6958.000000
400.255585 6016.000000
402.537292 6389.000000
404.817474 6130.000000
407.096069 7260.000000
409.373138 6437.000000
411.648682 6669.000000
413.922699 6427.000000
416.195282 6308.000000
418.466248 6173.000000
420.735718 6499.000000
423.003693 7123.000000
425.270111 7322.000000
427.535034 6265.000000
429.798492 6247.000000
432.060364 6467.000000
434.320770 5966.000000
436.579620 6624.000000
438.837006 6154.000000
441.092896 5642.000000
443.347290 5842.000000
445.600159 5381.000000
447.851471 6841.000000
450.101379 6076.000000
452.349701 6248.000000
454.596588 5632.000000
456.842010 6455.000000
459.085876 6458.000000
461.328247 6689.000000
463.569122 5628.000000
465.808594 6720.000000
468.046478 5419.000000
470.282928 5896.000000
472.517853 6031.000000
474.751312 7217.000000
476.983337 6684.000000
479.213837 5631.000000
481.442841 6456.000000
483.670380 6218.000000
485.896423 5935.000000
488.121033 6548.000000
490.344177 5819.000000
492.565857 6408.000000
494.785980 6729.000000
497.004700 5666.000000
499.221924 6237.000000
501.437775 5483.000000
503.652008 6056.000000
505.864929 6422.000000
508.076263 6412.000000
510.286163 6935.000000
512.494629 6454.000000
514.701721 6597.000000
516.907227 6401.000000
519.111328 6521.000000
521.313904 6174.000000
523.515076 6549.000000
525.714905 6670.000000
527.913208 6922.000000
530.109985 5295.000000
532.305420 5821.000000
534.499329 5530.000000
536.691895 7536.000000
538.882935 6716.000000
541.072571 5962.000000
543.260803 6871.000000
545.447510 7124.000000
547.632751 6761.000000
549.816711 6193.000000
551.999084 6381.000000
554.180115 6155.000000
556.359619 6049.000000
558.537842 5846.000000
560.714539 5990.000000
562.889832 6338.000000
565.063721 6366.000000
567.236145 5871.000000
569.407166 6020.000000
571.576721 6300.000000
573.744995 5225.000000
575.911743 6413.000000
578.077026 6238.000000
580.240906 6104.000000
582.403503 5760.000000
584.564575 6010.000000
586.724243 5602.000000
588.882568 5785.000000
591.039368 6189.000000
593.194824 6581.000000
595.348877 5728.000000
597.501587 6105.000000
599.652771 7226.000000
601.802612 6774.000000
603.951111 6663.000000
606.098022 6100.000000
608.243713 6470.000000
610.388000 6421.000000
612.530823 7033.000000
614.672180 6143.000000
616.812317 6400.000000
618.950928 7624.000000
621.088257 5671.000000
623.224121 6571.000000
625.358582 6875.000000
627.491577 7125.000000
629.623413 6625.000000
631.753784 6598.000000
633.882751 6782.000000
636.010254 6442.000000
638.136475 6183.000000
640.261169 7323.000000
642.384644 6452.000000
644.506775 6749.000000
646.627441 6797.000000
648.746765 6539.000000
650.864685 5587.000000
652.981262 5648.000000
655.096436 6394.000000
657.210266 6435.000000
659.322632 5811.000000
661.433777 6143.000000
663.543518 5393.000000
665.651794 6001.000000
667.758911 6247.000000
669.864563 6782.000000
671.968750 5850.000000
674.071716 5667.000000
676.173279 7038.000000
678.273499 5262.000000
680.372314 6713.000000
682.469788 6216.000000
684.565979 6943.000000
686.660706 6232.000000
688.754211 6965.000000
690.846375 6591.000000
692.937012 7892.000000
695.026428 6598.000000
697.114563 6469.000000
699.201233 6006.000000
701.286682 6658.000000
703.370605 5117.000000
705.453308 5841.000000
707.534729 5851.000000
709.614685 7625.000000
711.693420 6193.000000
713.770691 5571.000000
715.846680 6551.000000
717.921387 6067.000000
719.994812 7043.000000
722.066711 6282.000000
724.137451 7290.000000
726.206848 5803.000000
728.274841 6475.000000
730.341492 6331.000000
732.406921 7109.000000
734.471008 5752.000000
736.533752 6203.000000
738.595154 6426.000000
740.655273 6546.000000
742.713989 6019.000000
744.771484 6637.000000
746.827698 6423.000000
748.882507 6729.000000
750.936035 6388.000000
752.988159 7490.000000
755.039063 5795.000000
757.088745 6722.000000
759.136963 6354.000000
761.183960 6197.000000
763.229675 7052.000000
765.273987 5286.000000
767.317017 5785.000000
769.358826 6359.500000
771.399292 6934.000000
773.438354 6392.000000
775.476257 6089.000000
777.512817 5946.000000
779.548157 5316.000000
781.582153 5765.000000
783.614746 6812.000000
785.646179 5563.000000
787.676208 5806.000000
789.704956 6049.000000
791.732544 6274.000000
793.758789 6353.000000
795.783630 5867.000000
797.807373 5466.000000
799.829712 6307.000000
801.850830 5852.000000
803.870605 6643.000000
805.889099 4867.000000
807.906372 6713.000000
809.922241 6786.000000
811.936951 5761.000000
813.950317 6374.000000
815.962463 6267.000000
817.973389 6151.000000
819.982971 6601.000000
821.991333 5334.000000
823.998291 5616.000000
826.004028 6027.000000
828.008545 5711.000000
830.011780 5651.000000
832.013733 6501.000000
834.014404 6076.000000
836.013855 5895.000000
838.011963 6335.000000
840.008972 6998.000000
842.004578 6174.000000
843.999023 6009.000000
845.992126 6170.000000
847.984009 6795.000000
849.974548 5601.000000
851.963806 6725.000000
853.952026 6015.000000
855.938843 5737.000000
857.924438 6379.000000
859.908752 7250.000000
861.891968 6239.000000
863.873779 6386.000000
865.854370 5778.000000
867.833679 7811.000000
869.811829 7092.000000
871.788635 6171.000000
873.764160 5984.000000
875.738647 6164.000000
877.711670 6019.000000
879.683655 5364.000000
881.654297 6318.000000
883.623779 6076.000000
885.591919 5552.000000
887.558899 5194.000000
889.524536 6061.000000
891.489014 5813.000000
893.452271 6020.000000
895.414307 6488.000000
897.375061 5889.000000
899.334595 6434.000000
901.292847 6654.000000
903.250000 6333.000000
905.205994 6048.000000
907.160583 6854.000000
909.113953 6396.000000
911.066162 6396.000000
913.017151 6407.000000
914.966858 7117.000000
916.915405 6312.000000
918.862732 6132.000000
920.808777 6077.000000
922.753540 6071.000000
924.697266 6263.000000
926.639832 5929.000000
928.581116 5600.000000
930.521057 6470.000000
932.459900 5762.000000
934.397461 5523.000000
936.333801 5951.000000
938.268982 5784.000000
940.202881 6129.000000
942.135681 5884.000000
944.067261 6775.000000
945.997681 5203.000000
947.926880 6397.000000
949.854736 7082.000000
951.781555 6665.000000
953.707092 5950.000000
955.631348 5323.000000
957.554504 5978.000000
959.476501 6697.000000
961.397217 7251.000000
963.316772 6436.000000
965.235168 5326.000000
967.152527 6376.000000
969.068420 6406.000000
970.983215 6166.000000
972.896790 5976.000000
974.809204 6404.000000
976.720398 6437.000000
978.630432 5501.000000
980.539185 6221.000000
982.446899 6189.000000
984.353394 6385.000000
986.258667 5638.000000
988.162842 6775.000000
990.065796 6198.000000
991.967529 6766.000000
993.868103 6575.000000
995.767517 6588.000000
997.665710 5263.000000
999.562744 6501.000000
1001.458557 6461.000000
1003.353210 7667.000000
1005.246765 5568.000000
1007.139038 7075.000000
1009.030396 6035.000000
1010.920410 5331.000000
1012.809204 6590.000000
1014.696838 6344.000000
1016.583313 6926.000000
1018.468628 6707.000000
1020.352783 5959.000000
1022.235718 5873.000000
1024.117554 6165.000000
1025.998169 5189.000000
1027.877686 5823.000000
1029.756226 6047.000000
1031.633423 5395.000000
1033.509277 6134.000000
1035.384155 5939.000000
1037.258057 6558.000000
1039.130493 7059.000000
1041.001953 6635.000000
1042.872070 5481.000000
1044.741211 5447.000000
1046.609131 5801.000000
1048.475952 6943.000000
1050.341675 6699.000000
1052.206177 6422.000000
1054.069580 6411.000000
1055.931641 6519.000000
1057.792725 5866.000000
1059.652710 6446.000000
1061.511353 6536.000000
1063.368896 5723.000000
1065.225342 6754.000000
1067.080688 5900.000000
1068.934814 5761.000000
1070.788086 6264.000000
1072.639893 6302.000000
1074.490723 6157.000000
1076.340332 6136.000000
1078.188721 5742.000000
1080.036255 7940.000000
1081.882446 5500.000000
1083.727417 6175.000000
1085.571533 5344.000000
1087.414307 5500.000000
1089.255859 6497.000000
1091.096680 5452.000000
1092.935913 5786.000000
1094.774414 5981.000000
1096.611572 6012.000000
1098.447510 6779.000000
1100.282471 6661.000000
1102.116211 5384.000000
1103.948975 5694.000000
1105.780396 6140.000000
1107.610962 7195.000000
1109.440186 6502.000000
1111.268433 6377.000000
1113.095459 7076.000000
1114.921509 5404.000000
1116.746338 6262.000000
1118.570068 7129.000000
1120.392578 6082.000000
1122.213989 5865.000000
1124.034546 5856.000000
1125.853638 6653.000000
1127.671875 7098.000000
1129.488770 6828.000000
1131.304810 6674.000000
1133.119629 6461.000000
1134.933350 5602.000000
1136.745972 5813.000000
1138.557373 5600.000000
1140.367798 6060.000000
1142.177124 6722.000000
1143.985107 6936.000000
1145.792358 5942.000000
1147.598145 5953.000000
1149.403076 5333.000000
1151.206909 5509.000000
1153.009521 6133.000000
1154.811279 6104.000000
1156.611572 6119.000000
1158.410889 6090.000000
1160.209229 5899.000000
1162.006226 5450.000000
1163.802490 5840.000000
1165.597412 6086.000000
1167.391235 6320.000000
1169.184204 7687.000000
1170.975830 5672.000000
1172.766479 6449.000000
1174.556152 5996.000000
1176.344360 5877.000000
1178.131714 7431.000000
1179.917969 6793.000000
1181.703125 5707.000000
1183.487183 5932.000000
1185.270142 7638.000000
1187.052124 5874.000000
1188.832886 5911.000000
1190.612671 6299.000000
1192.391357 6916.000000
1194.169067 6657.000000
1195.945557 7137.000000
1197.720947 6562.000000
1199.495239 6522.000000
1201.268433 6609.000000
1203.040771 6499.000000
1204.811768 6714.000000
1206.581909 5664.000000
1208.350830 6144.000000
1210.118652 6303.000000
1211.885620 5803.000000
1213.651245 5888.000000
1215.415894 6944.000000
1217.179443 6513.000000
1218.941895 5899.000000
1220.703491 6714.000000
1222.463867 5897.000000
1224.223145 6277.000000
1225.981567 6070.000000
1227.738770 7102.000000
1229.494873 6424.000000
1231.249878 5515.000000
1233.004028 5966.000000
1234.756836 5776.000000
1236.508667 5988.000000
1238.259644 5956.000000
1240.009277 4930.000000
1241.758057 7005.000000
1243.505493 6497.000000
1245.252197 6604.000000
1246.997681 6441.000000
1248.742310 6376.000000
1250.485596 6819.000000
1252.227905 6662.000000
1253.969116 5312.000000
1255.709473 5051.000000
1257.448730 5773.000000
1259.186768 6547.000000
1260.923950 7089.000000
1262.659912 6045.000000
1264.394897 6378.000000
1266.128906 7231.000000
1267.861938 5975.000000
1269.593750 6223.000000
1271.324585 6498.000000
1273.054199 7216.000000
1274.782959 5927.000000
1276.510620 5687.000000
1278.237183 5471.000000
1279.962891 5524.000000
1281.687256 6504.000000
1283.410767 5190.000000
1285.133301 6814.000000
1286.854858 6542.000000
1288.575195 6213.000000
1290.294556 6624.000000
1292.012817 7237.000000
1293.730103 6441.000000
1295.446411 5737.000000
1297.161499 6370.000000
1298.875610 6125.000000
1300.588745 5755.000000
1302.301025 6374.000000
1304.012085 8303.000000
1305.722168 5269.000000
1307.431152 6315.000000
1309.138916 6643.000000
1310.846069 7021.000000
1312.551758 5755.000000
1314.256714 6822.000000
1315.960693 6130.000000
1317.663452 5987.000000
1319.365234 6590.000000
1321.066162 6006.000000
1322.765747 9172.000000
1324.464478 7351.500000
1326.162476 5531.000000
1327.859131 6509.000000
1329.554688 7124.000000
1331.249390 6793.000000
1332.942871 5686.000000
1334.635498 5362.000000
1336.327271 7483.000000
1338.017700 6264.000000
1339.707397 6611.000000
1341.395996 6113.000000
1343.083496 7580.000000
1344.770020 5586.000000
1346.455444 6753.000000
1348.139893 5962.000000
1349.823486 7250.000000
1351.505859 6337.000000
1353.187256 5916.000000
1354.867798 6542.000000
1356.547119 6700.000000
1358.225830 5909.000000
1359.903198 6614.000000
1361.579468 5721.000000
1363.254761 5560.000000
1364.929321 6605.000000
1366.602661 6463.000000
1368.275024 6720.000000
1369.946411 5107.000000
1371.616821 6828.000000
1373.286133 6162.000000
1374.954468 5674.000000
1376.621948 5953.000000
1378.288330 6494.000000
1379.953735 6073.000000
1381.618164 5837.000000
1383.281372 5892.000000
1384.943970 5718.000000
1386.605225 6324.000000
1388.265625 6578.000000
1389.924927 6463.000000
1391.583252 6453.000000
1393.240845 6832.000000
1394.897217 6476.000000
1396.552734 7012.000000
1398.207031 6331.000000
1399.860474 5806.000000
1401.512817 6105.000000
1403.164429 6421.000000
1404.814819 7113.000000
1406.464111 6323.000000
1408.112671 7549.000000
1409.760132 7854.000000
1411.406616 6155.000000
1413.052246 6202.000000
1414.696899 5947.000000
1416.340332 6990.000000
1417.982910 7164.000000
1419.624390 6894.000000
1421.265015 6456.000000
1422.904663 6394.000000
1424.543213 6017.000000
1426.180908 6633.000000
1427.817505 6357.000000
1429.453125 5964.000000
1431.088013 6393.000000
1432.721802 5875.000000
1434.354492 6139.000000
1435.986206 5642.000000
1437.617065 6064.000000
1439.246826 5983.000000
1440.875488 7715.000000
1442.503540 5954.000000
1444.130493 6221.000000
1445.756226 6149.000000
1447.381348 6158.000000
1449.005371 6471.000000
1450.628418 6032.000000
1452.250488 6062.000000
1453.871460 7326.000000
1455.491455 6232.000000
1457.110718 6899.000000
1458.728638 5641.000000
1460.345947 16385.000000
1461.962280 5516.000000
1463.577393 7180.000000
1465.191650 6363.000000
1466.805054 5214.000000
1468.417358 5538.000000
1470.028809 6264.000000
1471.639404 6328.000000
1473.248779 5966.000000
1474.857178 5996.000000
1476.464722 6157.000000
1478.071289 6625.000000
1479.677124 5344.000000
1481.281738 6301.000000
1482.885498 5468.000000
1484.488037 6698.000000
1486.089966 5531.000000
1487.690674 5545.000000
1489.290649 5662.000000
1490.889526 6300.000000
1492.487549 6380.000000
1494.084473 6683.000000
1495.680542 6315.000000
1497.275635 5980.000000
1498.869751 5493.000000
1500.463135 6585.000000
1502.055420 5499.000000
1503.646484 6154.000000
1505.237061 6745.000000
1506.826294 6462.000000
1508.414917 6163.000000
1510.002441 6534.000000
1511.588867 6877.000000
1513.174561 6138.000000
1514.759155 6577.000000
1516.342896 6263.000000
1517.925537 6140.000000
1519.507446 6626.000000
1521.088257 6649.000000
1522.668335 6011.000000
1524.247192 6275.000000
1525.825195 6353.000000
1527.402466 6301.000000
1528.978516 5626.000000
1530.553833 5822.000000
1532.128052 6318.000000
1533.701538 5458.000000
1535.273804 5966.000000
1536.845337 6349.000000
1538.415894 6376.000000
1539.985596 6192.000000
1541.554077 5469.000000
1543.121826 6553.000000
1544.688721 5594.000000
1546.254395 6748.000000
1547.819336 5957.000000
1549.383179 5003.000000
1550.946411 7450.000000
1552.508301 6260.000000
1554.069580 5933.000000
1555.629761 5718.000000
1557.189209 5759.000000
1558.747559 6044.000000
1560.305176 6252.000000
1561.861694 7111.000000
1563.416992 5856.000000
1564.971680 6386.000000
1566.525635 5589.000000
1568.078613 6289.000000
1569.630249 5683.000000
1571.181152 5884.000000
1572.731323 6220.000000
1574.280518 6318.000000
1575.828369 5702.000000
1577.375732 5495.000000
1578.922119 5721.000000
1580.467651 5040.000000
1582.012207 6649.000000
1583.555542 6360.000000
1585.098267 6675.000000
1586.640137 6419.000000
1588.180908 6728.000000
1589.720703 5746.000000
1591.259766 6696.000000
1592.797729 5862.000000
1594.335205 6091.000000
1595.871338 5928.000000
1597.406372 6677.000000
1598.940918 6228.000000
1600.474487 5924.000000
1602.007202 6038.000000
1603.538330 6313.000000
1605.069214 6218.000000
1606.599243 5740.000000
1608.128052 6105.000000
1609.655762 6193.000000
1611.182861 5987.000000
1612.709229 5848.000000
1614.234619 6256.000000
1615.759155 5855.000000
1617.282349 5778.000000
1618.804810 5611.000000
1620.326538 6597.000000
1621.847412 6973.000000
1623.366821 15563.000000
1624.885742 6281.000000
1626.403931 6110.000000
1627.921265 5934.000000
1629.437500 6402.000000
1630.952393 7023.000000
1632.466797 6790.000000
1633.980469 5753.000000
1635.493042 6833.000000
1637.004395 5957.000000
1638.515381 6442.000000
1640.025269 6320.000000
1641.534302 6111.000000
1643.041992 5611.000000
1644.549316 6103.000000
1646.055786 7101.000000
1647.561279 6253.000000
1649.065918 6851.000000
1650.569092 6126.000000
1652.071655 6566.000000
1653.573853 6319.000000
1655.074707 6635.000000
1656.574463 7558.000000
1658.073364 5917.000000
1659.571899 6497.000000
1661.069214 6194.000000
1662.565796 5955.000000
1664.060791 6476.000000
1665.555542 6311.000000
1667.049438 5218.000000
1668.542358 5660.000000
1670.033936 20702.000000
1671.525024 6516.000000
1673.015503 6090.000000
1674.504883 5888.000000
1675.992798 6949.000000
1677.480469 6829.000000
1678.967163 6024.000000
1680.453003 5325.000000
1681.937988 6097.000000
1683.421509 6070.000000
1684.904785 6171.000000
1686.387207 5869.000000
1687.868530 6207.000000
1689.348389 6178.000000
1690.828003 5529.000000
1692.306885 6595.000000
1693.784790 6019.000000
1695.261719 6107.000000
1696.737427 5721.000000
1698.212769 6002.000000
1699.686890 6307.000000
1701.160400 5442.000000
1702.632446 5566.000000
1704.104248 6886.000000
1705.575073 6425.000000
1707.045044 7039.000000
1708.513672 5141.000000
1709.981812 5828.000000
1711.449219 6340.000000
1712.915527 5503.000000
1714.381226 5710.000000
1715.845215 6255.000000
1717.309082 5965.000000
1718.772095 6912.000000
1720.234131 6386.000000
1721.694946 6653.000000
1723.155151 5438.000000
1724.614624 6394.000000
1726.073242 6088.000000
1727.530884 5972.000000
1728.987183 6194.000000
1730.443237 6060.000000
1731.898315 6388.000000
1733.352417 6060.000000
1734.805298 6901.000000
1736.257935 5960.000000
1737.709473 6813.000000
1739.160278 5924.000000
1740.610107 6529.000000
1742.058594 6043.000000
1743.506714 7304.000000
1744.953979 6563.000000
1746.400513 6572.000000
1747.845459 6695.000000
1749.290161 6183.000000
1750.734009 6033.000000
1752.177002 5471.000000
1753.618530 6593.000000
1755.059814 6310.000000
1756.500244 19446.000000
1757.939697 6247.000000
1759.378174 5235.000000
1760.815674 6107.000000
1762.252686 7532.000000
1763.688721 5868.000000
1765.123901 7094.000000
1766.557617 6155.000000
1767.991211 6431.000000
1769.423828 6681.000000
1770.855591 5817.000000
1772.286499 5688.000000
1773.716187 6327.000000
1775.145142 6194.000000
1776.573608 6242.000000
1778.001099 6719.000000
1779.427246 6265.000000
1780.853149 5582.000000
1782.277954 6916.000000
1783.702148 5537.000000
1785.124878 6662.000000
1786.547119 6510.000000
1787.968628 6877.000000
1789.389404 5916.000000
1790.809204 6007.000000
1792.227661 6208.000000
1793.645630 6868.000000
1795.062988 5511.000000
1796.479492 6056.000000
1797.894531 6519.000000
1799.309204 5912.000000
1800.723267 6537.000000
1802.136108 6003.000000
1803.548340 6968.000000
1804.959229 7159.000000
1806.369629 7793.000000
1807.779297 6447.000000
1809.187988 5955.000000
1810.595581 5352.000000
1812.002686 6426.000000
1813.408936 6283.000000
1814.814209 6662.000000
1816.218384 5967.000000
1817.622192 5956.000000
1819.025024 6180.000000
1820.427002 5986.000000
1821.828369 5825.000000
1823.228271 6362.000000
1824.627563 6481.000000
1826.026367 6553.000000
1827.424316 7405.000000
1828.820923 5722.000000
1830.216919 6733.000000
1831.612183 5882.000000
1833.006836 8162.000000
1834.400513 5994.000000
1835.792847 6884.000000
1837.184692 6402.000000
1838.575928 5881.000000
1839.966187 7112.000000
1841.355225 5992.000000
1842.743896 6033.000000
1844.131592 5948.000000
1845.518555 5827.000000
1846.904175 6880.000000
1848.289551 5872.000000
1849.674072 6374.000000
1851.057861 6276.000000
1852.440552 6363.000000
1853.822021 5397.000000
1855.203003 6525.000000
1856.583496 6305.000000
1857.963013 5660.000000
1859.341064 5931.000000
1860.718994 6291.000000
1862.095947 7810.000000
1863.472168 6094.000000
1864.847534 6021.000000
1866.221436 5627.000000
1867.595215 5759.000000
1868.968140 6196.000000
1870.339966 5896.000000
1871.710815 6906.000000
1873.081299 5434.000000
1874.450684 5983.000000
1875.819580 6137.000000
1877.186890 7144.000000
1878.554077 6068.000000
1879.920288 6041.000000
1881.285767 6767.000000
1882.650513 7499.000000
1884.013672 6760.000000
1885.376709 6868.000000
1886.738892 6335.000000
1888.100220 6478.000000
1889.460205 5602.000000
1890.819824 5825.000000
1892.178833 6125.000000
1893.536865 6598.000000
1894.894043 7293.000000
1896.250000 5996.000000
1897.605713 7631.000000
1898.960449 5767.000000
1900.314331 5500.000000
1901.667114 5887.000000
1903.019409 5844.000000
1904.370972 5931.000000
1905.721680 6846.000000
1907.071167 6489.000000
1908.420166 6639.000000
1909.768311 5768.000000
1911.115845 6078.000000
1912.462646 6308.000000
1913.807861 6894.000000
1915.152832 6038.000000
1916.497070 5396.000000
1917.840454 6449.000000
1919.182495 5961.000000
1920.524292 6696.000000
1921.865234 6984.000000
1923.205444 6176.000000
1924.544678 6306.000000
1925.882935 6278.000000
1927.220581 6457.000000
1928.557495 6972.000000
1929.893555 6737.000000
1931.228394 5561.000000
1932.562866 6736.000000
1933.896606 7230.000000
1935.229492 6217.000000
1936.560913 5755.000000
1937.892456 6298.000000
1939.222656 6716.000000
1940.552368 5809.000000
1941.881226 6062.000000
1943.208862 5871.000000
1944.536011 5020.000000
1945.862427 5821.000000
1947.188110 6486.000000
1948.512451 5753.000000
1949.836548 6686.000000
1951.159790 6348.000000
1952.482300 6367.000000
1953.803711 5817.000000
1955.124146 7395.000000
1956.443970 6032.000000
1957.763428 5536.000000
1959.081909 6766.000000
1960.399048 5854.000000
1961.715820 5807.000000
1963.031860 6624.000000
1964.347168 6572.000000
1965.661011 6248.000000
1966.974609 5677.000000
1968.287476 6230.000000
1969.599487 5972.000000
1970.910889 6000.000000
1972.220947 6297.000000
1973.530518 5854.000000
1974.839355 6177.000000
1976.147583 6593.000000
1977.454468 6053.000000
1978.760742 7263.000000
1980.066650 5540.000000
1981.371338 6379.000000
1982.675537 5902.000000
1983.978516 5679.000000
1985.281128 7687.000000
1986.582764 6152.000000
1987.883789 6803.000000
1989.183228 6060.000000
1990.482788 6607.000000
1991.781250 5338.000000
1993.079224 6057.000000
1994.375610 6099.000000
1995.671997 5829.000000
1996.967407 5582.000000
1998.262085 6484.000000
1999.555908 5667.000000
2000.848511 6571.000000
2002.140625 5727.000000
2003.432251 7132.000000
2004.723145 6433.000000
2006.012451 6266.000000
2007.301514 6846.000000
2008.589844 5879.000000
2009.877441 6088.000000
2011.164185 6786.000000
2012.449829 5672.000000
2013.735107 6376.000000
2015.019409 6027.000000
2016.303101 5588.000000
2017.585449 6076.000000
2018.867432 6440.000000
2020.148926 6728.000000
2021.429443 5851.000000
2022.709229 6160.000000
2023.987915 6725.000000
2025.265869 5793.000000
2026.543335 5948.000000
2027.820190 6231.000000
2029.095337 5748.000000
2030.370605 6575.000000
2031.644897 6027.000000
2032.918213 5896.000000
2034.190674 5951.000000
2035.462769 6140.000000
2036.733765 6990.000000
2038.004517 6526.000000
2039.273926 5993.000000
2040.542236 6774.000000
2041.810547 6621.000000
2043.077881 5916.000000
2044.344482 6005.000000
2045.609863 5638.000000
2046.874634 5516.000000
2048.139160 5426.000000
2049.402588 5857.000000
2050.665527 6351.000000
2051.926514 6153.000000
2053.187988 6077.000000
2054.448242 5868.000000
2055.707764 6499.000000
2056.966553 6327.000000
2058.224365 6871.000000
2059.481689 6163.000000
2060.738281 5968.000000
2061.993408 6491.000000
2063.248535 5627.000000
2064.502686 5623.000000
2065.756104 5631.000000
2067.008789 6824.000000
2068.260254 6294.000000
2069.511475 6358.000000
2070.761963 5610.000000
2072.011719 5391.000000
2073.260010 6176.000000
2074.508301 6501.000000
2075.755615 7365.000000
2077.002197 5637.000000
2078.248047 6034.000000
2079.492676 7000.000000
2080.736816 7619.000000
2081.980469 5510.000000
2083.223145 5994.000000
2084.464600 6953.000000
2085.705811 5969.000000
2086.946533 6390.000000
2088.186279 6693.000000
2089.424805 7105.000000
2090.662842 6186.000000
2091.900146 5802.000000
2093.137207 6641.000000
2094.372803 6078.000000
2095.607666 6222.000000
2096.842285 6029.000000
2098.075928 5585.000000
2099.308594 6079.000000
2100.540527 6872.000000
2101.771973 6424.000000
2103.002441 6699.000000
2104.232178 6011.000000
2105.461670 5926.000000
2106.689209 5953.000000
2107.916992 5981.000000
2109.144043 6235.000000
2110.370117 5506.000000
2111.594727 6381.000000
2112.819580 6942.000000
2114.043213 6995.000000
2115.266357 6207.000000
2116.488281 7512.000000
2117.709961 5942.000000
2118.930664 6781.000000
2120.150635 6006.000000
2121.370117 6095.000000
2122.588135 6544.000000
2123.806152 7076.000000
2125.023193 5738.000000
2126.239746 5785.000000
2127.454590 6586.000000
2128.669678 6332.000000
2129.883789 6761.000000
2131.097168 5641.000000
2132.309814 6051.000000
2133.520996 5833.000000
2134.732422 6585.000000
2135.942627 6586.000000
2137.152344 5895.000000
2138.360596 6155.000000
2139.568848 5622.000000
2140.776367 5846.000000
2141.982666 7617.000000
2143.188232 5867.000000
2144.393555 5662.000000
2145.597900 5573.000000
2146.801514 6320.000000
2148.004639 6215.000000
2149.206299 6455.000000
2150.407715 5281.000000
2151.608398 6295.000000
2152.808350 6056.000000
2154.007080 5946.000000
2155.205566 6946.000000
2156.403564 6138.000000
2157.600586 5967.000000
2158.796875 5113.000000
2159.991943 5292.000000
2161.186768 6185.000000
2162.380859 5557.000000
2163.573975 6086.000000
2164.766113 6911.000000
2165.958008 5916.000000
2167.149170 6294.000000
2168.339355 6255.000000
2169.528809 6509.000000
2170.717773 6803.000000
2171.905762 5973.000000
2173.093506 5701.000000
2174.279785 5946.000000
2175.465332 6571.000000
2176.650635 6018.000000
2177.835449 5818.000000
2179.019043 6399.000000
2180.201904 7544.000000
2181.383789 6290.000000
2182.565430 5880.000000
2183.746582 6581.000000
2184.926514 5687.000000
2186.105469 5541.000000
2187.283936 6433.000000
2188.462158 6861.000000
2189.639160 7182.000000
2190.815186 6779.000000
2191.990967 6067.000000
2193.166260 5599.000000
2194.340088 6747.000000
2195.513428 6184.000000
2196.686523 6158.000000
2197.858398 6399.000000
2199.029785 7082.000000
2200.200684 6282.000000
2201.369873 6893.000000
2202.539063 7524.000000
2203.707764 6287.000000
2204.875488 5905.000000
2206.042236 5693.000000
2207.208252 7142.000000
2208.373779 6653.000000
2209.539063 5958.000000
2210.702881 6687.000000
2211.866211 5398.000000
2213.028320 6192.000000
2214.190674 6099.000000
2215.351807 6688.000000
2216.511963 6642.000000
2217.671631 6293.000000
2218.831055 6605.000000
2219.989258 6342.000000
2221.146484 6321.000000
2222.303467 6841.000000
2223.459717 6570.000000
2224.615234 6718.000000
2225.770020 6180.000000
2226.923828 6422.000000
2228.076660 6115.000000
2229.229980 6881.000000
2230.381348 6236.000000
2231.532471 6168.000000
2232.682861 6497.000000
2233.832764 7682.000000
2234.981689 6266.000000
2236.130127 5204.000000
2237.277100 6516.000000
2238.424316 7043.000000
2239.570313 6048.000000
2240.716064 7245.000000
2241.860107 7252.000000
2243.004395 6724.000000
2244.147705 6198.000000
2245.290283 5929.000000
2246.431885 5754.000000
2247.573242 5812.000000
2248.713623 6456.000000
2249.853271 6432.000000
2250.992432 5774.000000
2252.130371 5869.000000
2253.268311 6217.000000
2254.405273 5313.000000
2255.541504 6296.000000
2256.676758 6133.000000
2257.811279 7251.000000
2258.945557 6443.000000
2260.079346 5390.000000
2261.211670 6129.000000
2262.343506 6750.000000
2263.474854 6243.000000
2264.605225 6438.000000
2265.735352 8161.000000
2266.864258 6675.000000
2267.992676 6041.000000
2269.120605 5515.000000
2270.247559 6160.000000
2271.373779 5962.000000
2272.499023 6790.000000
2273.624268 6510.000000
2274.748779 6383.000000
2275.872070 5913.000000
2276.994629 6321.000000
2278.116699 5896.000000
2279.238281 7340.000000
2280.359131 6419.000000
2281.478760 6454.000000
2282.597900 7110.000000
2283.716797 7672.000000
2284.834961 7228.000000
2285.952148 5854.000000
2287.068359 6440.000000
2288.184326 6957.000000
2289.299561 6876.000000
2290.414063 7329.000000
2291.527344 5773.000000
2292.640625 6321.000000
2293.753174 6003.000000
2294.864990 5349.000000
2295.976074 6747.000000
2297.085938 6471.000000
2298.195313 6182.000000
2299.304443 6698.000000
2300.412598 6286.000000
2301.519775 6763.000000
2302.626709 5838.000000
2303.732910 6204.000000
2304.838623 6597.000000
2305.942871 6661.000000
2307.046875 5411.000000
2308.150391 5777.000000
2309.253418 6520.000000
2310.355225 7394.000000
2311.456299 7310.000000
2312.556885 6575.000000
2313.656982 5495.000000
2314.756348 6297.000000
2315.854248 6449.000000
2316.952637 6928.000000
2318.049561 8187.000000
2319.146240 6855.000000
2320.242432 5766.000000
2321.336914 6843.000000
2322.431396 7485.000000
2323.525146 5802.000000
2324.618652 6079.000000
2325.710449 6384.000000
2326.802246 6987.000000
2327.893311 6138.000000
2328.983643 6284.000000
2330.072998 6930.000000
2331.162354 5965.000000
2332.250488 6310.000000
2333.338135 6816.000000
2334.425537 6493.000000
2335.511230 6672.000000
2336.596680 7659.000000
2337.681885 6288.000000
2338.766113 6761.000000
2339.849365 5895.000000
2340.932373 6452.000000
2342.014404 7071.000000
2343.096191 5973.000000
2344.177246 7423.000000
2345.257080 6679.000000
2346.336426 5741.000000
2347.415283 6738.000000
2348.493652 6575.000000
2349.570557 6295.000000
2350.647217 6987.000000
2351.723633 6139.000000
2352.799072 6448.000000
2353.873535 5831.000000
2354.947754 6286.000000
2356.021240 6807.000000
2357.094238 6202.000000
2358.166016 6980.000000
2359.237549 6262.000000
2360.308105 6761.000000
2361.378418 7482.000000
2362.447754 7521.000000
2363.516113 6809.000000
2364.584229 6673.000000
2365.651611 7103.000000
2366.718506 7141.000000
2367.784668 6082.000000
2368.849609 6915.000000
2369.914551 6931.000000
2370.978760 6302.000000
2372.042236 6887.000000
2373.104492 5837.000000
2374.166748 6303.000000
2375.228027 6275.000000
2376.289063 5845.000000
2377.348877 6319.000000
2378.407959 7923.000000
2379.467041 6518.000000
2380.525146 7515.000000
2381.582520 6894.000000
2382.638916 8018.000000
2383.695068 7802.000000
2384.750732 6185.000000
2385.805664 7035.000000
2386.859131 6760.000000
2387.912842 6552.000000
2388.965576 6317.000000
2390.017822 6714.000000
2391.069336 6118.000000
2392.119873 6613.000000
2393.170166 6448.000000
2394.219482 6163.000000
2395.268799 6193.000000
2396.316650 6900.000000
2397.364014 6986.000000
2398.411133 6353.000000
2399.457275 6618.000000
2400.502686 6126.000000
2401.547363 6749.000000
2402.592041 7748.000000
2403.635254 7474.000000
2404.678467 6525.000000
2405.720215 5765.000000
2406.762207 6686.000000
2407.803467 7072.000000
2408.843750 6136.000000
2409.883301 6395.000000
2410.921875 6274.000000
2411.960693 6056.000000
2412.998291 6496.000000
2414.035645 6833.000000
2415.071777 7366.000000
2416.107666 6173.000000
2417.142822 6268.000000
2418.177490 6628.000000
2419.210693 7234.000000
2420.244141 6428.000000
2421.276611 6706.000000
2422.308838 6793.000000
2423.339600 7101.000000
2424.370361 6376.000000
2425.400635 6832.000000
2426.429688 6848.000000
2427.458740 6622.000000
2428.486084 7415.000000
2429.513916 6669.000000
2430.540527 7228.000000
2431.566895 6897.000000
2432.591797 7724.000000
2433.616943 6555.000000
2434.641113 7070.000000
2435.665039 6744.000000
2436.687744 5810.000000
2437.709717 6321.000000
2438.731445 6623.000000
2439.752441 6608.000000
2440.772949 6012.000000
2441.792236 6497.000000
2442.811523 6539.000000
2443.829834 8399.000000
2444.847900 6236.000000
2445.864502 6416.000000
2446.881104 6566.000000
2447.896973 5986.000000
2448.912842 6978.000000
2449.927246 6841.000000
2450.940918 5573.000000
2451.954102 7181.000000
2452.967041 5928.000000
2453.979248 7245.000000
2454.990479 6643.000000
2456.001465 7667.000000
2457.011719 6359.000000
2458.021484 7624.000000
2459.030273 5943.000000
2460.038330 5914.000000
2461.046387 6251.000000
2462.053223 7330.000000
2463.059814 5424.000000
2464.065186 7431.000000
2465.070313 6837.000000
2466.075195 5807.000000
2467.078857 6541.000000
2468.082275 6385.000000
2469.084717 7679.000000
2470.086914 7326.000000
2471.088623 6874.000000
2472.089355 6570.000000
2473.089111 7007.000000
2474.088867 6815.000000
2475.087646 5704.000000
2476.085938 6569.000000
2477.083252 6989.000000
2478.080322 6031.000000
2479.077393 6991.000000
2480.072998 5749.000000
2481.068604 7099.000000
2482.062500 6679.000000
2483.056396 8046.000000
2484.049805 6759.000000
2485.042725 6834.000000
2486.034668 7434.000000
2487.025879 7162.000000
2488.016846 6761.000000
2489.007324 5830.000000
2489.996826 6580.000000
2490.985596 6441.000000
2491.974365 5656.000000
2492.962158 6794.000000
2493.948730 6525.000000
2494.935303 8057.000000
2495.921387 6723.000000
2496.906738 7044.000000
2497.891113 8069.000000
2498.875244 6047.000000
2499.859375 6863.000000
2500.842041 5779.000000
2501.824219 6941.000000
2502.805908 6851.000000
2503.786865 7299.000000
2504.767334 6579.000000
2505.747559 5687.000000
2506.726318 6359.000000
2507.704834 7578.000000
2508.682861 6655.000000
2509.660400 7126.000000
2510.636963 6119.000000
2511.613281 5866.000000
2512.588867 6408.000000
2513.563965 6166.000000
2514.538574 6457.000000
2515.511963 7598.000000
2516.485107 6853.000000
2517.458008 6948.000000
2518.429932 6088.000000
2519.401123 6763.000000
2520.371826 6868.000000
2521.342285 7891.000000
2522.312012 8037.000000
2523.280762 6112.000000
2524.248779 6103.000000
2525.216797 7701.000000
2526.183838 6274.000000
2527.150635 5519.000000
2528.116211 7229.000000
2529.081787 7038.000000
2530.046631 7727.000000
2531.010986 6301.000000
2531.974121 6331.000000
2532.937500 5867.000000
2533.899902 5944.000000
2534.862061 6671.000000
2535.822998 6354.000000
2536.783203 6083.000000
2537.743652 6122.000000
2538.703125 6688.000000
2539.661865 6798.000000
2540.619629 6624.000000
2541.577637 6187.000000
2542.534912 6789.000000
2543.491211 6088.000000
2544.447266 7056.000000
2545.402100 6213.000000
2546.357178 7706.000000
2547.311523 7047.000000
2548.265137 6353.000000
2549.217773 7108.000000
2550.170166 6686.000000
2551.122070 6961.000000
2552.073242 6458.000000
2553.023682 7719.000000
2553.973633 7273.000000
2554.923340 7352.000000
2555.872314 6591.000000
2556.820801 6209.000000
2557.768066 7095.000000
2558.715332 6243.000000
2559.661865 6596.000000
2560.607910 6767.000000
2561.552979 7406.000000
2562.497803 6683.000000
2563.442139 7198.000000
2564.385986 6841.000000
2565.329346 6707.000000
2566.271240 6592.000000
2567.213379 6570.000000
2568.154785 6164.000000
2569.095459 7134.000000
2570.035400 7235.000000
2570.975342 5672.000000
2571.914307 6144.000000
2572.853027 7540.000000
2573.790771 7153.000000
2574.728271 5454.000000
2575.665039 6973.000000
2576.601074 6813.000000
2577.536621 7492.000000
2578.471436 6262.000000
2579.406250 5917.000000
2580.340088 7018.000000
2581.273438 7194.000000
2582.206055 5857.000000
2583.138428 6885.000000
2584.070068 5446.000000
2585.001221 6988.000000
2585.931885 7013.000000
2586.861328 6827.000000
2587.790771 7218.000000
2588.719727 6469.000000
2589.648438 7624.000000
2590.575439 7331.000000
2591.502686 5894.000000
2592.429443 6753.000000
2593.355469 6303.000000
2594.281250 5633.000000
2595.205811 7630.000000
2596.130127 7660.000000
2597.053955 5367.000000
2597.977295 7183.000000
2598.899658 6234.000000
2599.821777 6833.000000
2600.743408 8352.000000
2601.664307 6427.000000
2602.584473 5731.000000
2603.504395 6317.000000
2604.423828 6358.000000
2605.343018 6389.000000
2606.261230 5811.000000
2607.178223 5971.000000
2608.095459 7254.000000
2609.012451 5885.000000
2609.928467 7547.000000
2610.843262 6571.000000
2611.758545 6611.000000
2612.673096 6532.000000
2613.586670 6531.000000
2614.500244 6166.000000
2615.412598 7542.000000
2616.324951 7039.000000
2617.236328 6812.000000
2618.147461 5731.000000
2619.057861 7176.000000
2619.968018 6636.000000
2620.877441 6135.000000
2621.786377 6585.000000
2622.694336 6254.000000
2623.602539 6764.000000
2624.509766 6601.000000
2625.416504 7074.000000
2626.322510 5962.000000
2627.228271 6624.000000
2628.133301 6592.000000
2629.038086 7826.000000
2629.942139 6448.000000
2630.845215 6337.000000
2631.748291 6432.000000
2632.650391 5672.000000
2633.552490 6737.000000
2634.454346 7016.000000
2635.354492 6695.000000
2636.254883 6449.000000
2637.154541 6369.000000
2638.053955 5978.000000
2638.951904 6901.000000
2639.850342 6670.000000
2640.748291 6358.000000
2641.645508 6078.000000
2642.541504 6177.000000
2643.437500 6750.000000
2644.333252 6036.000000
2645.228271 6464.000000
2646.123047 6665.000000
2647.016357 7078.000000
2647.909668 6289.000000
2648.802734 6772.000000
2649.695557 6377.000000
2650.586670 7462.000000
2651.478027 6397.000000
2652.368896 7610.000000
2653.259033 7284.000000
2654.148926 6538.000000
2655.037598 7305.000000
2655.926514 6646.000000
2656.814941 6545.000000
2657.702393 7341.000000
2658.588867 6404.000000
2659.475830 7067.000000
2660.362061 6816.000000
2661.247803 6814.000000
2662.132324 6542.000000
2663.016846 6317.000000
2663.901123 6163.000000
2664.784668 7096.000000
2665.667725 7776.000000
2666.550049 7304.000000
2667.431885 6199.000000
2668.312988 6654.000000
2669.194336 6033.000000
2670.074219 6517.000000
2670.954346 7389.000000
2671.833740 7239.000000
2672.713135 6192.000000
2673.591797 6127.000000
2674.468750 6386.000000
2675.346436 6699.000000
2676.223389 6394.000000
2677.099609 8036.000000
2677.975342 7170.000000
2678.850342 6244.000000
2679.725586 7714.000000
2680.599854 6909.000000
2681.473633 7372.000000
2682.346680 6953.000000
2683.219482 6160.000000
2684.092041 6105.000000
2684.963867 6891.000000
2685.834961 6500.000000
2686.705811 6850.000000
2687.576172 7148.000000
2688.446289 6635.000000
2689.314697 6294.000000
2690.183838 7325.000000
2691.052246 7097.000000
2691.920410 6668.000000
2692.787842 6867.000000
2693.654053 5881.000000
2694.520752 7171.000000
2695.386475 7375.000000
2696.252197 7116.000000
2697.116455 7927.000000
2697.981445 6510.000000
2698.844971 7203.000000
2699.708740 5826.000000
2700.571045 7429.000000
2701.433838 6798.000000
2702.295654 5892.000000
2703.156982 6842.000000
2704.018311 6736.000000
2704.878418 7475.000000
2705.738525 7336.000000
2706.598145 6616.000000
2707.457520 6788.000000
2708.315186 7161.000000
2709.173096 6879.000000
2710.031494 7352.000000
2710.888672 6740.000000
2711.745117 5949.000000
2712.601074 6846.000000
2713.457031 6007.000000
2714.312256 6949.000000
2715.166748 6124.000000
2716.020752 6811.000000
2716.874756 7301.000000
2717.727783 6247.000000
2718.581055 6587.000000
2719.432617 7732.000000
2720.284668 6759.000000
2721.136475 6262.000000
2721.987061 6470.000000
2722.837646 6702.000000
2723.687744 7113.000000
2724.537109 7039.000000
2725.386475 7009.000000
2726.234619 6665.000000
2727.082275 6516.000000
2727.930420 7018.000000
2728.777344 6778.000000
2729.624756 5514.000000
2730.470703 7478.000000
2731.315918 6953.000000
2732.161621 6409.000000
2733.006348 6920.000000
2733.851074 7396.000000
2734.694580 6893.000000
2735.538330 7774.000000
2736.381348 7131.000000
2737.223877 6061.000000
2738.065430 6288.000000
2738.907471 6807.000000
2739.748535 6901.000000
2740.589355 5783.000000
2741.429932 5831.000000
2742.269287 7804.000000
2743.108643 6854.000000
2743.947998 6878.000000
2744.786133 6790.000000
2745.623779 7906.000000
2746.461426 6320.000000
2747.298584 7192.000000
2748.135498 6221.000000
2748.971924 6049.000000
2749.807129 6645.000000
2750.642578 6312.000000
2751.477539 6292.000000
2752.311768 6255.000000
2753.145752 6866.000000
2753.979248 6811.000000
2754.812744 8032.000000
2755.645264 6752.000000
2756.477295 7282.000000
2757.308838 6832.000000
2758.140381 7086.000000
2758.970947 7221.000000
2759.801758 7264.000000
2760.631348 7236.000000
2761.460938 6645.000000
2762.290283 7232.000000
2763.118896 6835.000000
2763.947021 6812.000000
2764.774658 6901.000000
2765.602295 6654.000000
2766.429443 7937.000000
2767.255859 5758.000000
2768.081787 7517.000000
2768.907227 6891.000000
2769.732422 7812.000000
2770.557617 7123.000000
2771.381592 6752.000000
2772.205566 6503.000000
2773.029541 7639.000000
2773.852295 6569.000000
2774.675293 6899.000000
2775.497070 6796.000000
2776.318848 6970.000000
2777.140625 6550.000000
2777.961426 7939.000000
2778.781494 6559.000000
2779.601807 6936.000000
2780.421631 7296.000000
2781.241455 6444.000000
2782.059326 5886.000000
2782.878418 8039.000000
2783.696289 6504.000000
2784.513916 6669.000000
2785.331055 7149.000000
2786.147705 7245.000000
2786.964111 7223.000000
2787.780029 6280.000000
2788.595703 6003.000000
2789.410400 6367.000000
2790.225586 7015.000000
2791.040039 7199.000000
2791.854004 6612.000000
2792.667725 7383.000000
2793.480225 8823.000000
2794.292969 7030.000000
2795.105225 7415.000000
2795.916992 7232.000000
2796.728027 7359.000000
2797.539795 6498.000000
2798.350342 7172.000000
2799.160889 7047.000000
2799.969971 7377.000000
2800.779785 8183.000000
2801.588867 7780.000000
2802.397705 6588.000000
2803.206055 7147.000000
2804.013428 6123.000000
2804.821289 6470.000000
2805.628418 6869.000000
2806.435303 7037.000000
2807.240967 7218.000000
2808.047119 6678.000000
2808.852539 6461.000000
2809.657959 7330.000000
2810.462646 6186.000000
2811.266357 7573.000000
2812.070557 7501.000000
2812.874268 6358.000000
2813.677734 6105.000000
2814.479736 6288.000000
2815.282471 7266.000000
2816.084473 7830.000000
2816.886230 6072.000000
2817.687500 6487.000000
2818.488281 7285.000000
2819.288574 6508.000000
2820.089111 6621.000000
2820.888672 8069.000000
2821.687744 7199.000000
2822.486816 6454.000000
2823.285645 6881.000000
2824.083984 6363.000000
2824.881348 7019.000000
2825.678955 7423.000000
2826.475830 6645.000000
2827.272949 7374.000000
2828.069336 7918.000000
2828.864990 7019.000000
2829.660645 7339.000000
2830.456055 7599.000000
2831.250977 7473.000000
2832.045166 6641.000000
2832.839355 6806.000000
2833.633301 5635.000000
2834.426758 6822.000000
2835.219482 7163.000000
2836.011963 8182.000000
2836.804443 7657.000000
2837.596680 7743.000000
2838.388428 6420.000000
2839.179199 6762.000000
2839.969971 8845.000000
2840.760986 7434.000000
2841.551025 6254.000000
2842.340576 7660.000000
2843.130371 7232.000000
2843.919189 7386.000000
2844.708008 7732.000000
2845.496826 7712.000000
2846.284668 7512.000000
2847.072021 7209.000000
2847.859619 7473.000000
2848.646729 7292.000000
2849.433105 6645.000000
2850.219482 7473.000000
2851.005615 7238.000000
2851.791260 7447.000000
2852.575928 7148.000000
2853.361084 6930.000000
2854.145996 7418.000000
2854.930176 7140.000000
2855.714355 6883.000000
2856.497314 8272.000000
2857.280518 6808.000000
2858.063477 6848.000000
2858.845947 7769.000000
2859.628174 6266.000000
2860.409912 6637.000000
2861.191406 7580.000000
2861.973145 7425.000000
2862.754150 7638.000000
2863.534424 6601.000000
2864.314453 6678.000000
2865.094482 8237.000000
2865.874268 7470.000000
2866.653076 8060.000000
2867.432129 7639.000000
2868.210693 6817.000000
2868.989014 7002.000000
2869.766846 7261.000000
2870.544434 6896.000000
2871.321777 7462.000000
2872.098877 6914.000000
2872.875488 6449.000000
2873.651611 7487.000000
2874.427734 7189.000000
2875.203369 8285.000000
2875.978760 7152.000000
2876.753662 6538.000000
2877.528320 7998.000000
2878.302979 6586.000000
2879.077393 7863.000000
2879.851074 6832.000000
2880.624023 7117.000000
2881.397705 6729.000000
2882.170410 7581.000000
2882.943115 7855.000000
2883.715088 8204.000000
2884.486816 6223.000000
2885.259033 6754.000000
2886.030029 6891.000000
2886.800537 6155.000000
2887.571533 8320.000000
2888.342529 7354.000000
2889.112793 7917.000000
2889.882080 7663.000000
2890.651611 6959.000000
2891.421143 7152.000000
2892.190186 7277.000000
2892.958740 7907.000000
2893.727295 7638.000000
2894.494873 6991.000000
2895.262939 6544.000000
2896.030518 7443.000000
2896.798096 8374.000000
2897.564453 7329.000000
2898.331787 6535.000000
2899.097900 7205.000000
2899.864258 6963.000000
2900.629150 8317.000000
2901.394531 7083.000000
2902.160400 6495.000000
2902.924805 7746.000000
2903.689209 7703.000000
2904.453857 8422.000000
2905.217529 6630.000000
2905.981934 8403.000000
2906.745605 6665.000000
2907.508545 8351.000000
2908.271240 6469.000000
2909.034424 9109.000000
2909.797119 6955.000000
2910.558594 6818.000000
2911.320557 6818.000000
