scanname Analyse077
timestamp 2017-02-10 21:50:35
ccdbias 888.967285
ccdgain 3.473401
sigmaread 8.960639
laserwavenum -0.365218
wavenumcorrection 0.157746
scancount 1
totalexposurems 10000
singleexposurems 10000
measurementstate Unknown
scanmode Manual
snr 341.229004 9.813815 8.217655
replacelist 4
672 53973.000000 30216.000000
754 53971.000000 17010.000000
889 53994.000000 20750.000000
948 54016.000000 19399.000000
peaks 109
278.264496 0.728120 0.000000 1.410924 0.000184
285.027496 0.728235 0.000000 0.777370 0.000060
293.839539 0.730447 0.000000 0.616962 0.000029
302.855438 0.731267 0.000000 0.102249 0.000021
332.125122 0.752171 0.000000 0.878161 0.000146
341.458801 0.752787 0.000000 0.855882 0.000037
347.919617 0.755190 0.000000 0.720718 0.000026
360.652313 0.759544 0.000000 0.717461 0.000063
385.982117 0.759163 0.000000 1.423988 0.000308
460.278381 0.775907 0.000000 0.226913 0.000040
487.155853 0.789846 0.000000 0.940449 0.000117
534.754089 0.792904 0.000000 0.719913 0.000156
559.388062 0.833193 0.000000 1.374526 0.000239
572.826782 0.838924 0.000000 0.320191 0.000077
582.845764 0.833177 0.000000 0.645366 0.000105
659.928650 0.866175 0.000000 0.910028 0.000139
672.945007 0.863204 0.000000 1.259937 0.000254
715.514221 0.885582 0.000000 5.535756 0.001172
724.448792 0.867144 0.000000 1.271170 0.000054
741.832886 0.891282 0.000000 1.132030 0.000122
756.898193 0.917320 0.000000 5.976120 0.000690
777.127502 0.924493 0.000000 11.067122 0.002334
832.169861 0.918480 0.000000 0.403269 0.000164
842.997681 0.924984 0.000000 1.153506 0.000057
852.937378 0.951853 0.000000 1.285304 0.000317
868.190063 0.946412 0.000000 0.662273 0.000145
935.476318 1.021610 0.000000 0.760344 0.000417
953.975891 1.003447 0.000000 3.418466 0.001056
1013.497742 1.049635 0.000000 2.168624 0.000822
1020.034119 1.051214 0.000000 1.048580 0.000160
1026.440552 1.061796 0.000000 0.673959 0.000271
1043.971558 1.058597 0.000000 4.086041 0.001353
1104.351440 1.081946 0.000000 2.253791 0.000629
1117.486816 1.122788 0.000000 2.294254 0.000665
1134.335571 1.099323 0.000000 1.972092 0.000878
1150.070557 1.082337 0.000000 2.429990 0.000999
1174.452637 1.115623 0.000000 1.401322 0.000485
1187.749268 1.121675 0.000000 0.818444 0.000070
1210.610718 1.198487 0.000000 0.970457 0.000284
1222.529297 1.211172 0.000000 1.517271 0.000574
1231.882202 1.193099 0.000000 1.141767 0.000322
1259.817505 1.232281 0.000000 3.081240 0.001452
1282.717651 1.170049 0.000000 0.683258 0.000241
1313.397461 1.240873 0.000000 2.183348 0.001211
1328.063110 1.291623 0.000000 2.651800 0.001449
1347.598999 1.315173 0.000000 0.853493 0.000768
1389.545776 1.296543 0.000000 0.599480 0.000266
1414.357422 1.382830 0.000000 3.107532 0.001861
1433.930054 1.438479 0.000000 1.709523 0.000860
1446.486816 1.441684 0.000000 2.701801 0.001231
1459.851318 1.431881 0.000000 2.454214 0.001662
1489.714722 1.508844 0.000000 4.286422 0.002679
1518.653442 1.454254 0.000000 0.168209 0.000140
1532.960693 1.544959 0.000000 0.758545 0.000964
1547.635132 1.568641 0.000000 0.533610 0.000342
1558.134277 1.593787 0.000000 1.432573 0.000924
1563.884888 1.587260 0.000000 0.796288 0.000166
1577.928833 1.588572 0.000000 1.709270 0.001581
1598.432373 1.579130 0.000000 0.322328 0.000290
1617.038086 1.632021 0.000000 12.750730 0.008405
1635.216064 1.651121 0.000000 5.439116 0.001506
1671.318726 1.778808 0.000000 1.516519 0.001159
1687.668335 1.807488 0.000000 0.853925 0.000565
1698.985718 1.823394 0.000000 1.139458 0.001579
1711.689575 1.798747 0.000000 1.009649 0.000947
1762.371582 1.867639 0.000000 0.900361 0.000646
1778.687378 2.005502 0.000000 5.806742 0.005831
1796.985474 2.011540 0.000000 0.671613 0.000605
1809.666260 2.023274 0.000000 1.756855 0.001665
1856.523193 2.094493 0.000000 1.376307 0.002308
1873.057495 2.174670 0.000000 1.191135 0.000975
1890.383301 2.245962 0.000000 1.662025 0.002862
1901.939331 2.249721 0.000000 1.726430 0.001983
1912.807861 2.228441 0.000000 0.691551 0.000756
1943.652954 2.282733 0.000000 0.965260 0.000675
1978.985229 2.417266 0.000000 0.662223 0.000427
1992.458862 2.524915 0.000000 1.214438 0.002900
2014.215332 2.601957 0.000000 0.963978 0.001170
2024.902954 2.616698 0.000000 1.592888 0.002423
2046.718506 2.609863 0.000000 0.860579 0.002663
2056.211914 2.615298 0.000000 0.318078 0.000254
2064.635742 2.675103 0.000000 0.294757 0.001948
2099.271240 2.797172 0.000000 0.462846 0.000260
2109.054688 2.908917 0.000000 1.420929 0.004135
2131.990479 2.906640 0.000000 2.174986 0.005557
2143.321777 2.918290 0.000000 0.513578 0.001053
2161.235352 3.049821 0.000000 1.717744 0.005047
2175.531494 3.219064 0.000000 2.491504 0.004822
2193.471191 3.220865 0.000000 0.995547 0.004154
2253.091797 3.559438 0.000000 1.249902 0.005502
2270.329590 3.674306 0.000000 3.013312 0.007167
2286.505371 3.700102 0.000000 3.455484 0.011960
2293.697510 3.639528 0.000000 1.240996 0.003879
2306.619385 3.622549 0.000000 0.844903 0.003107
2325.587158 3.743079 0.000000 0.740143 0.004977
2339.770996 3.808670 0.000000 0.997224 0.005993
2354.913330 3.927513 0.000000 0.650298 0.001487
2373.396729 4.043699 0.000000 1.721024 0.006117
2388.542725 3.994722 0.000000 1.428381 0.003768
2411.634766 3.891891 0.000000 0.094010 0.000341
2438.107178 3.790182 0.000000 0.580102 0.001189
2449.658447 3.825884 0.000000 0.538433 0.003659
2465.263916 3.815587 0.000000 1.982210 0.008237
2475.286621 3.777596 0.000000 0.534658 0.003852
2490.588135 3.753964 0.000000 0.994919 0.003662
2505.868652 3.659361 0.000000 1.287182 0.009937
2524.300293 3.577540 0.000000 0.919773 0.003732
2534.885986 3.610800 0.000000 0.662456 0.004755
2557.636719 3.522107 0.000000 0.253245 0.002295
finalresult GLS_NoMatch 0
spectrum 2048
-97.236237 47780.000000
-94.609367 47780.000000
-91.984375 47903.000000
-89.361275 47562.000000
-86.740044 48142.000000
-84.120712 47727.000000
-81.503242 47889.000000
-78.887650 47566.000000
-76.273933 47737.000000
-73.662094 48096.000000
-71.052116 47881.000000
-68.444023 48014.000000
-65.837776 47963.000000
-63.233406 48021.000000
-60.630898 47884.000000
-58.030243 48331.000000
-55.431450 47701.000000
-52.834515 47102.000000
-50.239433 47470.000000
-47.646206 47609.000000
-45.054829 47739.000000
-42.465298 47270.000000
-39.877609 48091.000000
-37.291771 47948.000000
-34.707775 47619.000000
-32.125618 48270.000000
-29.545303 47588.000000
-26.966818 48310.000000
-24.390175 47812.000000
-21.815357 47706.000000
-19.242380 47567.000000
-16.671223 47503.000000
-14.101899 47220.000000
-11.534401 46228.000000
-8.968721 47661.000000
-6.404868 47527.000000
-3.842827 47982.000000
-1.282611 48136.000000
1.275797 47788.000000
3.832384 46994.000000
6.387166 47289.000000
8.940131 47995.000000
11.491296 47280.000000
14.040648 47529.000000
16.588203 47352.000000
19.133947 47987.000000
21.677898 48241.000000
24.220045 47325.000000
26.760395 47185.000000
29.298960 47188.000000
31.835728 47749.000000
34.370693 48207.000000
36.903881 46734.000000
39.435287 47771.000000
41.964901 46927.000000
44.492718 47457.000000
47.018776 46130.000000
49.543045 48313.000000
52.065544 47831.000000
54.586246 47189.000000
57.105194 47794.000000
59.622368 47541.000000
62.137764 47299.000000
64.651382 48354.000000
67.163246 48249.000000
69.673363 47424.000000
72.181686 47391.000000
74.688255 48089.000000
77.193077 47655.000000
79.696144 47533.000000
82.197433 47708.000000
84.696983 47846.000000
87.194778 47606.000000
89.690842 48187.000000
92.185127 46786.000000
94.677673 48201.000000
97.168503 47092.000000
99.657562 46760.000000
102.144875 47622.000000
104.630463 47839.000000
107.114311 47551.000000
109.596413 48216.000000
112.076790 47428.000000
114.555443 47756.000000
117.032372 47627.000000
119.507545 46782.000000
121.981010 47205.000000
124.452744 48108.000000
126.922768 47268.000000
129.391037 47754.000000
131.857635 47672.000000
134.322479 48287.000000
136.785629 47733.000000
139.247040 46729.000000
141.706757 47120.000000
144.164749 47635.000000
146.621048 47951.000000
149.075638 48198.000000
151.528503 47162.000000
153.979691 47647.000000
156.429184 47427.000000
158.876953 47894.000000
161.323013 47409.000000
163.767395 45225.000000
166.210098 47583.000000
168.651108 47274.000000
171.090408 47767.000000
173.528000 46789.000000
175.963959 47370.000000
178.398178 47058.000000
180.830719 46845.000000
183.261612 47263.000000
185.690781 47234.000000
188.118301 47341.000000
190.544144 47639.000000
192.968307 47302.000000
195.390808 46806.000000
197.811615 46668.000000
200.230759 47475.000000
202.648239 47974.000000
205.064026 46309.000000
207.478165 46892.000000
209.890671 47656.000000
212.301498 47905.000000
214.710648 47727.000000
217.118164 46629.000000
219.523972 47841.000000
221.928192 47452.000000
224.330704 47278.000000
226.731598 47010.000000
229.130844 47526.000000
231.528427 47119.000000
233.924347 46687.000000
236.318649 47432.000000
238.711288 48195.000000
241.102310 47212.000000
243.491669 47425.000000
245.879410 47623.000000
248.265503 47067.000000
250.649963 47850.000000
253.032776 46165.000000
255.414017 47377.000000
257.793549 47314.000000
260.171509 47538.000000
262.547791 46441.000000
264.922516 46457.000000
267.295593 46090.000000
269.667023 47787.000000
272.036804 47480.000000
274.405029 48129.000000
276.771606 47642.000000
279.136597 47185.000000
281.499969 47927.000000
283.861694 47764.000000
286.221832 46851.000000
288.580353 48079.000000
290.937286 47425.000000
293.292603 47594.000000
295.646332 48033.000000
297.998413 48022.000000
300.348938 47650.000000
302.697876 47590.000000
305.045166 47109.000000
307.390930 47529.000000
309.735016 47496.000000
312.077576 46568.000000
314.418518 46444.000000
316.757843 46794.000000
319.095612 46994.000000
321.431824 45917.000000
323.766388 47675.000000
326.099396 47548.000000
328.430847 47992.000000
330.760712 47467.000000
333.088989 47645.000000
335.415649 46790.000000
337.740814 47644.000000
340.064362 47796.000000
342.386353 47958.000000
344.706787 46461.000000
347.025604 46249.000000
349.342865 47955.000000
351.658600 48049.000000
353.972748 46968.000000
356.285309 47629.000000
358.596313 47735.000000
360.905792 46982.000000
363.213745 47626.000000
365.520081 48264.000000
367.824829 47602.000000
370.128113 47542.000000
372.429779 47708.000000
374.729950 47640.000000
377.028564 47716.000000
379.325623 48311.000000
381.621124 47859.000000
383.915100 48140.000000
386.207489 48697.000000
388.498383 48364.000000
390.787750 47771.000000
393.075531 47745.000000
395.361786 47420.000000
397.646545 47025.000000
399.929688 47931.000000
402.211395 47527.000000
404.491577 47874.000000
406.770172 46708.000000
409.047241 47554.000000
411.322784 47226.000000
413.596802 47553.000000
415.869385 47601.000000
418.140350 47736.000000
420.409821 47569.000000
422.677795 46911.000000
424.944214 46750.000000
427.209137 47805.000000
429.472595 47733.000000
431.734467 47482.000000
433.994873 47991.000000
436.253723 47316.000000
438.511108 47837.000000
440.766998 48357.000000
443.021393 48251.000000
445.274261 48513.000000
447.525574 47032.000000
449.775482 47918.000000
452.023804 47767.000000
454.270691 48315.000000
456.516113 47557.000000
458.759979 47508.000000
461.002350 47243.000000
463.243225 48289.000000
465.482697 47306.000000
467.720581 48539.000000
469.957031 48132.000000
472.191956 47871.000000
474.425415 46659.000000
476.657440 47181.000000
478.887939 48314.000000
481.116943 47525.000000
483.344482 47738.000000
485.570526 48049.000000
487.795135 47471.000000
490.018280 48155.000000
492.239960 47547.000000
494.460083 47260.000000
496.678802 48318.000000
498.896027 47710.000000
501.111877 48391.000000
503.326111 47870.000000
505.539032 47560.000000
507.750366 47532.000000
509.960266 47039.000000
512.168701 47479.000000
514.375793 47432.000000
516.581299 47588.000000
518.785400 47400.000000
520.987976 47778.000000
523.189148 47447.000000
525.388977 47292.000000
527.587280 47093.000000
529.784058 48640.000000
531.979492 48215.000000
534.173401 48441.000000
536.365967 46469.000000
538.557007 47359.000000
540.746643 48044.000000
542.934875 47022.000000
545.121582 46826.000000
547.306824 47139.000000
549.490784 47762.000000
551.673157 47576.000000
553.854187 47891.000000
556.033691 47975.000000
558.211914 48078.000000
560.388611 48013.000000
562.563904 47623.000000
564.737793 47517.000000
566.910217 48086.000000
569.081238 47995.000000
571.250793 47629.000000
573.419067 48758.000000
575.585815 47573.000000
577.751099 47660.000000
579.914978 47814.000000
582.077576 48286.000000
584.238647 47908.000000
586.398315 48389.000000
588.556641 48189.000000
590.713440 47927.000000
592.868896 47376.000000
595.022949 48221.000000
597.175659 47913.000000
599.326843 46750.000000
601.476685 47230.000000
603.625183 47333.000000
605.772095 47926.000000
607.917786 47469.000000
610.062073 47536.000000
612.204895 47360.000000
614.346252 47818.000000
616.486389 47517.000000
618.625000 46275.000000
620.762329 48248.000000
622.898193 47368.000000
625.032654 47092.000000
627.165649 46790.000000
629.297485 47351.000000
631.427856 47360.000000
633.556824 47132.000000
635.684326 47559.000000
637.810547 47820.000000
639.935242 46661.000000
642.058716 47592.000000
644.180847 47233.000000
646.301514 47163.000000
648.420837 47443.000000
650.538757 48406.000000
652.655334 48357.000000
654.770508 47625.000000
656.884338 47433.000000
658.996704 48189.000000
661.107849 47820.000000
663.217590 48599.000000
665.325867 47479.000000
667.432983 47742.000000
669.538635 47142.000000
671.642822 48080.000000
673.745789 48214.000000
675.847351 46986.000000
677.947571 48628.000000
680.046387 47240.000000
682.143860 47747.000000
684.240051 47000.000000
686.334778 47768.000000
688.428284 46960.000000
690.520447 47324.000000
692.611084 46073.000000
694.700500 47436.000000
696.788635 47553.000000
698.875305 47984.000000
700.960754 47317.000000
703.044678 48837.000000
705.127380 48055.000000
707.208801 48042.000000
709.288757 46496.000000
711.367493 47866.000000
713.444763 48426.000000
715.520752 47431.000000
717.595459 47957.000000
719.668884 47032.000000
721.740784 47697.000000
723.811523 46633.000000
725.880920 48146.000000
727.948914 47549.000000
730.015564 47631.000000
732.080994 46978.000000
734.145081 48278.000000
736.207825 47901.000000
738.269226 47494.000000
740.329346 47406.000000
742.388062 47953.000000
744.445557 47379.000000
746.501770 47526.000000
748.556580 47356.000000
750.610107 47641.000000
752.662231 46581.000000
754.713135 48289.000000
756.762817 47356.000000
758.811035 47597.000000
760.858032 47789.000000
762.903748 46982.000000
764.948059 48657.000000
766.991089 48228.000000
769.032898 38945.000000
771.073364 47001.000000
773.112427 47611.000000
775.150330 47938.000000
777.186890 48031.000000
779.222229 48642.000000
781.256226 48295.000000
783.288818 47165.000000
785.320251 48468.000000
787.350281 41958.000000
789.379028 48007.000000
791.406616 47626.000000
793.432861 47623.000000
795.457703 48192.000000
797.481445 48472.000000
799.503784 47603.000000
801.524902 48113.000000
803.544678 47275.000000
805.563171 49004.000000
807.580444 47275.000000
809.596313 47130.000000
811.611023 48303.000000
813.624390 47579.000000
815.636536 47719.000000
817.647461 47933.000000
819.657043 47424.000000
821.665405 48646.000000
823.672363 48342.000000
825.678101 47966.000000
827.682617 48237.000000
829.685852 48304.000000
831.687805 47493.000000
833.688477 47860.000000
835.687927 48024.000000
837.686035 47651.000000
839.683044 47091.000000
841.678650 47742.000000
843.673096 47960.000000
845.666199 47839.000000
847.658081 47166.000000
849.648621 48531.000000
851.637878 47240.000000
853.626099 48003.000000
855.612915 48285.000000
857.598511 47537.000000
859.582825 46725.000000
861.566040 47692.000000
863.547852 47574.000000
865.528442 48170.000000
867.507751 46271.000000
869.485901 46934.000000
871.462708 47788.000000
873.438232 48085.000000
875.412720 47688.000000
877.385742 47989.000000
879.357727 48561.000000
881.328369 47631.000000
883.297852 47945.000000
885.265991 48349.000000
887.232971 48790.000000
889.198608 47834.000000
891.163086 48099.000000
893.126343 47994.000000
895.088379 47505.000000
897.049133 48171.000000
899.008667 47603.000000
900.966919 47287.000000
902.924072 47648.000000
904.880066 47974.000000
906.834656 47102.000000
908.788025 47437.000000
910.740234 47550.000000
912.691223 47592.000000
914.640930 46935.000000
916.589478 47699.000000
918.536804 47898.000000
920.482849 47875.000000
922.427612 47884.000000
924.371338 47690.000000
926.313904 48002.000000
928.255188 48423.000000
930.195129 47541.000000
932.133972 48363.000000
934.071533 48488.000000
936.007874 47993.000000
937.943054 48125.000000
939.876953 47921.000000
941.809753 48137.000000
943.741333 47192.000000
945.671753 48802.000000
947.600952 47622.000000
949.528809 47055.000000
951.455627 47410.000000
953.381165 48064.000000
955.305420 48613.000000
957.228577 48047.000000
959.150574 47262.000000
961.071289 46705.000000
962.990845 47600.000000
964.909241 48719.000000
966.826599 47573.000000
968.742493 47647.000000
970.657288 47849.000000
972.570862 48015.000000
974.483276 47649.000000
976.394470 47522.000000
978.304504 48518.000000
980.213257 47822.000000
982.120972 47918.000000
984.027466 47631.000000
985.932739 48307.000000
987.836914 47181.000000
989.739868 47840.000000
991.641602 47167.000000
993.542175 47411.000000
995.441589 47342.000000
997.339783 48706.000000
999.236816 47445.000000
1001.132629 47522.000000
1003.027283 46385.000000
1004.920837 48380.000000
1006.813110 46800.000000
1008.704468 47902.000000
1010.594482 48684.000000
1012.483276 47379.000000
1014.370911 47789.000000
1016.257385 47085.000000
1018.142700 47296.000000
1020.026855 48064.000000
1021.909790 48146.000000
1023.791687 47818.000000
1025.672363 48762.000000
1027.551880 48136.000000
1029.430420 47936.000000
1031.307617 48531.000000
1033.183472 47777.000000
1035.058350 48121.000000
1036.932251 47393.000000
1038.804688 47004.000000
1040.676147 47370.000000
1042.546265 48493.000000
1044.415405 48466.000000
1046.283325 48231.000000
1048.150146 46925.000000
1050.015869 47295.000000
1051.880371 47485.000000
1053.743774 47585.000000
1055.605835 47479.000000
1057.466919 48127.000000
1059.326904 47466.000000
1061.185547 47306.000000
1063.043091 48182.000000
1064.899536 47230.000000
1066.754883 48062.000000
1068.609009 48152.000000
1070.462280 47728.000000
1072.314087 47608.000000
1074.164917 47884.000000
1076.014526 47856.000000
1077.862915 48343.000000
1079.710449 46061.000000
1081.556641 48441.000000
1083.401611 47824.000000
1085.245728 48567.000000
1087.088501 48483.000000
1088.930054 47511.000000
1090.770874 48533.000000
1092.610107 48264.000000
1094.448608 47938.000000
1096.285767 47994.000000
1098.121704 47261.000000
1099.956665 47403.000000
1101.790405 48557.000000
1103.623169 48348.000000
1105.454590 47881.000000
1107.285156 46827.000000
1109.114380 47494.000000
1110.942627 47589.000000
1112.769653 46891.000000
1114.595703 48594.000000
1116.420532 47765.000000
1118.244263 46899.000000
1120.066772 47902.000000
1121.888184 48141.000000
1123.708740 48080.000000
1125.527832 47431.000000
1127.346069 46950.000000
1129.162964 47144.000000
1130.979004 47362.000000
1132.793823 47487.000000
1134.607544 48401.000000
1136.420166 48229.000000
1138.231567 48331.000000
1140.041992 47855.000000
1141.851318 47295.000000
1143.659302 47030.000000
1145.466553 48090.000000
1147.272339 48098.000000
1149.077271 48570.000000
1150.881104 48633.000000
1152.683716 47881.000000
1154.485474 47900.000000
1156.285767 47976.000000
1158.085083 47912.000000
1159.883423 48158.000000
1161.680420 48561.000000
1163.476685 48125.000000
1165.271606 47952.000000
1167.065430 47664.000000
1168.858398 46221.000000
1170.650024 48427.000000
1172.440674 47466.000000
1174.230347 47991.000000
1176.018555 48119.000000
1177.805908 46507.000000
1179.592163 47250.000000
1181.377319 48192.000000
1183.161377 48030.000000
1184.944336 46277.000000
1186.726318 48125.000000
1188.507080 48140.000000
1190.286865 47669.000000
1192.065552 47067.000000
1193.843262 47366.000000
1195.619751 46890.000000
1197.395142 47384.000000
1199.169434 47498.000000
1200.942627 47378.000000
1202.714966 47572.000000
1204.485962 47276.000000
1206.256104 48373.000000
1208.025024 47889.000000
1209.792847 47664.000000
1211.559814 48253.000000
1213.325439 48108.000000
1215.090088 47019.000000
1216.853638 47425.000000
1218.616089 48023.000000
1220.377686 47262.000000
1222.138062 48096.000000
1223.897339 47737.000000
1225.655762 48042.000000
1227.412964 46938.000000
1229.169067 47632.000000
1230.924072 48483.000000
1232.678223 48006.000000
1234.431030 48221.000000
1236.182861 47992.000000
1237.933838 48072.000000
1239.683472 49053.000000
1241.432251 47072.000000
1243.179688 47486.000000
1244.926392 47441.000000
1246.671875 47600.000000
1248.416504 47626.000000
1250.159790 47272.000000
1251.902100 47331.000000
1253.643311 48686.000000
1255.383667 48957.000000
1257.122925 48219.000000
1258.860962 47471.000000
1260.598145 46910.000000
1262.334106 47872.000000
1264.069092 47555.000000
1265.803101 46734.000000
1267.536133 47977.000000
1269.267944 47769.000000
1270.998779 47560.000000
1272.728394 46725.000000
1274.457153 48016.000000
1276.184814 48310.000000
1277.911377 48418.000000
1279.637085 48472.000000
1281.361450 47582.000000
1283.084961 48761.000000
1284.807495 47064.000000
1286.529053 47404.000000
1288.249390 47928.000000
1289.968750 47360.000000
1291.687012 46758.000000
1293.404297 47568.000000
1295.120605 48285.000000
1296.835693 47620.000000
1298.549805 47829.000000
1300.262939 48212.000000
1301.975220 47609.000000
1303.686279 45661.000000
1305.396362 48648.000000
1307.105347 47722.000000
1308.813110 47335.000000
1310.520264 46911.000000
1312.225952 48171.000000
1313.930908 47183.000000
1315.634888 47896.000000
1317.337646 47985.000000
1319.039429 47451.000000
1320.740356 47962.000000
1322.439941 45775.000000
1324.138672 47091.000000
1325.836670 48407.000000
1327.533325 47563.000000
1329.228882 46875.000000
1330.923584 47139.000000
1332.617065 48245.000000
1334.309692 48585.000000
1336.001465 46687.000000
1337.691895 47734.000000
1339.381592 47391.000000
1341.070190 47822.000000
1342.757690 46438.000000
1344.444214 48374.000000
1346.129639 47295.000000
1347.814087 48070.000000
1349.497681 46784.000000
1351.180054 47672.000000
1352.861450 48023.000000
1354.541992 47555.000000
1356.221313 47271.000000
1357.900024 48077.000000
1359.577393 47480.000000
1361.253662 48202.000000
1362.928955 48399.000000
1364.603516 47361.000000
1366.276855 47521.000000
1367.949219 47168.000000
1369.620605 48860.000000
1371.291016 47226.000000
1372.960327 47891.000000
1374.628662 48339.000000
1376.296143 48079.000000
1377.962524 47552.000000
1379.627930 47963.000000
1381.292358 48226.000000
1382.955566 48050.000000
1384.618164 48385.000000
1386.279419 47576.000000
1387.939819 47385.000000
1389.599121 47565.000000
1391.257446 47464.000000
1392.915039 47181.000000
1394.571411 47544.000000
1396.226929 46965.000000
1397.881226 47630.000000
1399.534668 48219.000000
1401.187012 47819.000000
1402.838623 47520.000000
1404.489014 46798.000000
1406.138306 47692.000000
1407.786865 46431.000000
1409.434326 46114.000000
1411.080811 47808.000000
1412.726440 47817.000000
1414.371094 48075.000000
1416.014526 46959.000000
1417.657104 46840.000000
1419.298584 47055.000000
1420.939209 47498.000000
1422.578857 47522.000000
1424.217407 47929.000000
1425.855103 47333.000000
1427.491699 47678.000000
1429.127319 47992.000000
1430.762207 47580.000000
1432.395996 48114.000000
1434.028687 47913.000000
1435.660400 48336.000000
1437.291260 47875.000000
1438.921021 47971.000000
1440.549683 46065.000000
1442.177734 47978.000000
1443.804688 47833.000000
1445.430420 47897.000000
1447.055542 47846.000000
1448.679565 47554.000000
1450.302612 47925.000000
1451.924683 48010.000000
1453.545654 46591.000000
1455.165649 47648.000000
1456.784912 47077.000000
1458.402832 48425.000000
1460.020142 48479.000000
1461.636475 48533.000000
1463.251587 46775.000000
1464.865845 47802.000000
1466.479248 48834.000000
1468.091553 48391.000000
1469.703003 47730.000000
1471.313599 47674.000000
1472.922974 48021.000000
1474.531372 48101.000000
1476.138916 47794.000000
1477.745483 47236.000000
1479.351318 48804.000000
1480.955933 47635.000000
1482.559692 48502.000000
1484.162231 47147.000000
1485.764160 48496.000000
1487.364868 48460.000000
1488.964844 48353.000000
1490.563721 47723.000000
1492.161743 47526.000000
1493.758667 47304.000000
1495.354736 47669.000000
1496.949829 48007.000000
1498.543945 48591.000000
1500.137329 47500.000000
1501.729614 48508.000000
1503.320679 47794.000000
1504.911255 47294.000000
1506.500488 47466.000000
1508.089111 47899.000000
1509.676636 47420.000000
1511.263062 47112.000000
1512.848755 47836.000000
1514.433350 47373.000000
1516.017090 47822.000000
1517.599731 47800.000000
1519.181641 47407.000000
1520.762451 47407.000000
1522.342529 47990.000000
1523.921387 47784.000000
1525.499390 47589.000000
1527.076660 47718.000000
1528.652710 48321.000000
1530.228027 48144.000000
1531.802246 47656.000000
1533.375732 48511.000000
1534.947998 48099.000000
1536.519531 47667.000000
1538.090088 47528.000000
1539.659790 47671.000000
1541.228271 48501.000000
1542.796021 47438.000000
1544.362915 48391.000000
1545.928589 47235.000000
1547.493530 48031.000000
1549.057373 48927.000000
1550.620605 46505.000000
1552.182495 47669.000000
1553.743774 48014.000000
1555.303955 48265.000000
1556.863403 48185.000000
1558.421753 48089.000000
1559.979370 47670.000000
1561.535889 46951.000000
1563.091187 48153.000000
1564.645874 47671.000000
1566.199829 48329.000000
1567.752808 47756.000000
1569.304443 48365.000000
1570.855347 48037.000000
1572.405518 47803.000000
1573.954712 47626.000000
1575.502563 48276.000000
1577.049927 48511.000000
1578.596313 48341.000000
1580.141846 48943.000000
1581.686401 47351.000000
1583.229736 47636.000000
1584.772461 47430.000000
1586.314331 47610.000000
1587.855103 47285.000000
1589.394897 48157.000000
1590.933960 47329.000000
1592.471924 48099.000000
1594.009399 47916.000000
1595.545532 48170.000000
1597.080566 47266.000000
1598.615112 47798.000000
1600.148682 48031.000000
1601.681396 47999.000000
1603.212524 47737.000000
1604.743408 47732.000000
1606.273438 48303.000000
1607.802246 47854.000000
1609.329956 47899.000000
1610.857056 47994.000000
1612.383423 48160.000000
1613.908813 47765.000000
1615.433350 48199.000000
1616.956543 48243.000000
1618.479004 48456.000000
1620.000732 47316.000000
1621.521606 47077.000000
1623.041016 38446.000000
1624.559937 47890.000000
1626.078125 47960.000000
1627.595459 48099.000000
1629.111694 47621.000000
1630.626587 47003.000000
1632.140991 47259.000000
1633.654663 48257.000000
1635.167236 47309.000000
1636.678589 48105.000000
1638.189575 47562.000000
1639.699463 47694.000000
1641.208496 47830.000000
1642.716187 48398.000000
1644.223511 47921.000000
1645.729980 46884.000000
1647.235474 47779.000000
1648.740112 47213.000000
1650.243286 47900.000000
1651.745850 47450.000000
1653.248047 47692.000000
1654.748901 47465.000000
1656.248657 46502.000000
1657.747559 48088.000000
1659.246094 47448.000000
1660.743408 47764.000000
1662.239990 48038.000000
1663.734985 47504.000000
1665.229736 47729.000000
1666.723633 48919.000000
1668.216553 48359.000000
1669.708130 47983.500000
1671.199219 47608.000000
1672.689697 47962.000000
1674.179077 48055.000000
1675.666992 47130.000000
1677.154663 47204.000000
1678.641357 48015.000000
1680.127197 48692.000000
1681.612183 47965.000000
1683.095703 47971.000000
1684.578979 47703.000000
1686.061401 48154.000000
1687.542725 47857.000000
1689.022583 47773.000000
1690.502197 48518.000000
1691.981079 47506.000000
1693.458984 48045.000000
1694.935913 47934.000000
1696.411621 48254.000000
1697.886963 47995.000000
1699.361084 47756.000000
1700.834595 48538.000000
1702.306641 48424.000000
1703.778442 47121.000000
1705.249268 47619.000000
1706.719238 46884.000000
1708.187866 48887.000000
1709.656006 48205.000000
1711.123413 47651.000000
1712.589722 48567.000000
1714.055420 48261.000000
1715.519409 47814.000000
1716.983276 48051.000000
1718.446289 47106.000000
1719.908325 47755.000000
1721.369141 47410.000000
1722.829346 48564.000000
1724.288818 48334.000000
1725.747437 47937.000000
1727.205078 48018.000000
1728.661377 47748.000000
1730.117432 47948.000000
1731.572510 47620.000000
1733.026611 48042.000000
1734.479492 47167.000000
1735.932129 48068.000000
1737.383667 47344.000000
1738.834473 48093.000000
1740.284302 47493.000000
1741.732788 48037.000000
1743.180908 46669.000000
1744.628174 47536.000000
1746.074707 47390.000000
1747.519653 47342.000000
1748.964355 47841.000000
1750.408203 48021.000000
1751.851196 48580.000000
1753.292725 47512.000000
1754.734009 47653.000000
1756.174438 47707.500000
1757.613892 47762.000000
1759.052368 48785.000000
1760.489868 47951.000000
1761.926880 46519.000000
1763.362915 48231.000000
1764.798096 46909.000000
1766.231812 47867.000000
1767.665405 47585.000000
1769.098022 47395.000000
1770.529785 48262.000000
1771.960693 48285.000000
1773.390381 47601.000000
1774.819336 47885.000000
1776.247803 47802.000000
1777.675293 47332.000000
1779.101440 47794.000000
1780.527344 48462.000000
1781.952148 47078.000000
1783.376343 48464.000000
1784.799072 47427.000000
1786.221313 47537.000000
1787.642822 47188.000000
1789.063599 48153.000000
1790.483398 47876.000000
1791.901855 47857.000000
1793.319824 47143.000000
1794.737183 48509.000000
1796.153687 47978.000000
1797.568726 47448.000000
1798.983398 48178.000000
1800.397461 47499.000000
1801.810303 48027.000000
1803.222534 46991.000000
1804.633423 46872.000000
1806.043823 46247.000000
1807.453491 47490.000000
1808.862183 48133.000000
1810.269775 48634.000000
1811.676880 47628.000000
1813.083130 47633.000000
1814.488403 47328.000000
1815.892578 48054.000000
1817.296387 48077.000000
1818.699219 47804.000000
1820.101196 47971.000000
1821.502563 48128.000000
1822.902466 47648.000000
1824.301758 47582.000000
1825.700562 47536.000000
1827.098511 46633.000000
1828.495117 48273.000000
1829.891113 47297.000000
1831.286377 48155.000000
1832.681030 45897.000000
1834.074707 47995.000000
1835.467041 47194.000000
1836.858887 47674.000000
1838.250122 48142.000000
1839.640381 47054.000000
1841.029419 48041.000000
1842.418091 48028.000000
1843.805786 48085.000000
1845.192749 48159.000000
1846.578369 47148.000000
1847.963745 48246.000000
1849.348267 47657.000000
1850.732056 47718.000000
1852.114746 47649.000000
1853.496216 48601.000000
1854.877197 47539.000000
1856.257690 47733.000000
1857.637207 48305.000000
1859.015259 48125.000000
1860.393188 47897.000000
1861.770142 46170.000000
1863.146362 47958.000000
1864.521729 47938.000000
1865.895630 48419.000000
1867.269409 48345.000000
1868.642334 47779.000000
1870.014160 48091.000000
1871.385010 47139.000000
1872.755493 48623.000000
1874.124878 48023.000000
1875.493774 48030.000000
1876.861084 46925.000000
1878.228271 47974.000000
1879.594482 48073.000000
1880.959961 47225.000000
1882.324707 46624.000000
1883.687866 47314.000000
1885.050903 47109.000000
1886.413086 47691.000000
1887.774414 47661.000000
1889.134399 48436.000000
1890.494019 48300.000000
1891.853027 47962.000000
1893.211060 47495.000000
1894.568237 46783.000000
1895.924194 48104.000000
1897.279907 46419.000000
1898.634644 48207.000000
1899.988525 48479.000000
1901.341309 48134.000000
1902.693604 48172.000000
1904.045166 48134.000000
1905.395874 47161.000000
1906.745361 47511.000000
1908.094360 47323.000000
1909.442505 48339.000000
1910.790039 47924.000000
1912.136841 47829.000000
1913.482056 47230.000000
1914.827026 47915.000000
1916.171265 48631.000000
1917.514648 47528.000000
1918.856689 48034.000000
1920.198486 47340.000000
1921.539429 47071.000000
1922.879639 47882.000000
1924.218872 47712.000000
1925.557129 47711.000000
1926.894775 47563.000000
1928.231689 47041.000000
1929.567749 47343.000000
1930.902588 48536.000000
1932.237061 47322.000000
1933.570801 46758.000000
1934.903687 47758.000000
1936.235107 48302.000000
1937.566650 47708.000000
1938.896851 47439.000000
1940.226563 48301.000000
1941.555420 47983.000000
1942.883057 48256.000000
1944.210205 49035.000000
1945.536621 48238.000000
1946.862305 47594.000000
1948.186646 48298.000000
1949.510742 47505.000000
1950.833984 47734.000000
1952.156494 47576.000000
1953.477905 48337.000000
1954.798340 46627.000000
1956.118164 48022.000000
1957.437622 48531.000000
1958.756104 47184.000000
1960.073242 48149.000000
1961.390015 48170.000000
1962.706055 47483.000000
1964.021362 47409.000000
1965.335205 47800.000000
1966.648804 48427.000000
1967.961670 47835.000000
1969.273682 48010.000000
1970.585083 48067.000000
1971.895142 47772.000000
1973.204712 48287.000000
1974.513550 47854.000000
1975.821777 47460.000000
1977.128662 48010.000000
1978.434937 46876.000000
1979.740845 48518.000000
1981.045532 47680.000000
1982.349731 48159.000000
1983.652710 48344.000000
1984.955322 46576.000000
1986.256958 47948.000000
1987.557983 47285.000000
1988.857422 48054.000000
1990.156982 47445.000000
1991.455444 48773.000000
1992.753418 47945.000000
1994.049805 47903.000000
1995.346191 48304.000000
1996.641602 48522.000000
1997.936279 47555.000000
1999.230103 48377.000000
2000.522705 47635.000000
2001.814819 48313.000000
2003.106445 46936.000000
2004.397339 47591.000000
2005.686646 47934.000000
2006.975708 47302.000000
2008.264038 48151.000000
2009.551636 48060.000000
2010.838379 47406.000000
2012.124023 48297.000000
2013.409302 47720.000000
2014.693604 48095.000000
2015.977295 48435.000000
2017.259644 48064.000000
2018.541626 47613.000000
2019.823120 47236.000000
2021.103638 48158.000000
2022.383423 47982.000000
2023.662109 47335.000000
2024.940063 48213.000000
2026.217529 48195.000000
2027.494385 47777.000000
2028.769531 48293.000000
2030.044800 47494.000000
2031.319092 48074.000000
2032.592407 48082.000000
2033.864868 48125.000000
2035.136963 47882.000000
2036.407959 47129.000000
2037.678711 47423.000000
2038.948120 48160.000000
2040.216431 47354.000000
2041.484741 47501.000000
2042.752075 48190.000000
2044.018677 48035.000000
2045.284058 48455.000000
2046.548828 48539.000000
2047.813354 48610.000000
2049.076660 48175.000000
2050.339600 47594.000000
2051.600586 47902.000000
2052.862061 47955.000000
2054.122314 48140.000000
2055.381836 47601.000000
2056.640625 47792.000000
2057.898438 47069.000000
2059.155762 47890.000000
2060.412354 48035.000000
2061.667480 47505.000000
2062.922607 48448.000000
2064.176758 48441.000000
2065.430176 48388.000000
2066.682861 47178.000000
2067.934326 47746.000000
2069.185547 47755.000000
2070.436035 48410.000000
2071.685791 48700.000000
2072.934082 47868.000000
2074.182373 47556.000000
2075.429688 46601.000000
2076.676270 48389.000000
2077.922119 48021.000000
2079.166748 47009.000000
2080.410889 46400.000000
2081.654541 48563.000000
2082.897217 47971.000000
2084.138672 47101.000000
2085.379883 48085.000000
2086.620605 47716.000000
2087.860352 47263.000000
2089.098877 46962.000000
2090.336914 47774.000000
2091.574219 48142.000000
2092.811279 47385.000000
2094.046875 47986.000000
2095.281738 47753.000000
2096.516357 47877.000000
2097.750000 48336.000000
2098.982666 47917.000000
2100.214600 47148.000000
2101.446045 47522.000000
2102.676514 47139.000000
2103.906250 47952.000000
2105.135742 48038.000000
2106.363281 48028.000000
2107.591064 47973.000000
2108.818115 47669.000000
2110.044189 48455.000000
2111.268799 47579.000000
2112.493652 47028.000000
2113.717285 46922.000000
2114.940430 47770.000000
2116.162354 46451.000000
2117.384033 47950.000000
2118.604736 47161.000000
2119.824707 47899.000000
2121.044189 47848.000000
2122.262207 47365.000000
2123.480225 46976.000000
2124.697266 48214.000000
2125.913818 48194.000000
2127.128662 47419.000000
2128.343750 47686.000000
2129.557861 46961.000000
2130.771240 48217.000000
2131.983887 47848.000000
2133.195068 48118.000000
2134.406494 47277.000000
2135.616699 47194.000000
2136.826416 47974.000000
2138.034668 47772.000000
2139.242920 48277.000000
2140.450439 48067.000000
2141.656738 46255.000000
2142.862305 48091.000000
2144.067627 48271.000000
2145.271973 48493.000000
2146.475586 47522.000000
2147.678711 47681.000000
2148.880371 47350.000000
2150.081787 48591.000000
2151.282471 47653.000000
2152.482422 47885.000000
2153.681152 47981.000000
2154.879639 46871.000000
2156.077637 47721.000000
2157.274658 47874.000000
2158.470947 48749.000000
2159.666016 48530.000000
2160.860840 47675.000000
2162.054932 48357.000000
2163.248047 47780.000000
2164.440186 46894.000000
2165.632080 47913.000000
2166.823242 47482.000000
2168.013428 47546.000000
2169.202881 47320.000000
2170.391846 46945.000000
2171.579834 47793.000000
2172.767578 48051.000000
2173.953857 47876.000000
2175.139404 47168.000000
2176.324707 47811.000000
2177.509521 47883.000000
2178.693115 47426.000000
2179.875977 46244.000000
2181.057861 47468.000000
2182.239502 47797.000000
2183.420654 47233.000000
2184.600586 48105.000000
2185.779541 48140.000000
2186.958008 47407.000000
2188.136230 46902.000000
2189.313232 46586.000000
2190.489258 47030.000000
2191.665039 47689.000000
2192.840332 48170.000000
2194.014160 47100.000000
2195.187500 47688.000000
2196.360596 47564.000000
2197.532471 47338.000000
2198.703857 46700.000000
2199.874756 47373.000000
2201.043945 46885.000000
2202.213135 46187.000000
2203.381836 47447.000000
2204.549561 47837.000000
2205.716309 48086.000000
2206.882324 46622.000000
2208.047852 47069.000000
2209.213135 47670.000000
2210.376953 46922.000000
2211.540283 48304.000000
2212.702393 47457.000000
2213.864746 47495.000000
2215.025879 46936.000000
2216.186035 47056.000000
2217.345703 47347.000000
2218.505127 46994.000000
2219.663330 47298.000000
2220.820557 47364.000000
2221.977539 46800.000000
2223.133789 46998.000000
2224.289307 46768.000000
2225.444092 47296.000000
2226.597900 47124.000000
2227.750732 47484.000000
2228.904053 46551.000000
2230.055420 47309.000000
2231.206543 47257.000000
2232.356934 46984.000000
2233.506836 45740.000000
2234.655762 47121.000000
2235.804199 48226.000000
2236.951172 46669.000000
2238.098389 46417.000000
2239.244385 47388.000000
2240.390137 46177.000000
2241.534180 46112.000000
2242.678467 46649.000000
2243.821777 47233.000000
2244.964355 47376.000000
2246.105957 47482.000000
2247.247314 47469.000000
2248.387695 46778.000000
2249.527344 46758.000000
2250.666504 47411.000000
2251.804443 47304.000000
2252.942383 47006.000000
2254.079346 47881.000000
2255.215576 46820.000000
2256.350830 47038.000000
2257.485352 45924.000000
2258.619629 46761.000000
2259.753418 47713.000000
2260.885742 47064.000000
2262.017578 46245.000000
2263.148926 46828.000000
2264.279297 46574.000000
2265.409424 44862.000000
2266.538330 46357.000000
2267.666748 46914.000000
2268.794678 47417.000000
2269.921631 46833.000000
2271.047852 46977.000000
2272.173096 46254.000000
2273.298340 46495.000000
2274.422852 46559.000000
2275.546143 47049.000000
2276.668701 46663.000000
2277.790771 47059.000000
2278.912354 45634.000000
2280.033203 46551.000000
2281.152832 46533.000000
2282.271973 45759.000000
2283.390869 45227.000000
2284.509033 45665.000000
2285.626221 46981.000000
2286.742432 46518.000000
2287.858398 45970.000000
2288.973633 46031.000000
2290.088135 45495.000000
2291.201416 47086.000000
2292.314697 46485.000000
2293.427246 46823.000000
2294.539063 47497.000000
2295.650146 46069.000000
2296.760010 46360.000000
2297.869385 46714.000000
2298.978516 46194.000000
2300.086670 46474.000000
2301.193848 46047.000000
2302.300781 46935.000000
2303.406982 46583.000000
2304.512695 46192.000000
2305.616943 46204.000000
2306.720947 47297.000000
2307.824463 46915.000000
2308.927490 46129.000000
2310.029297 45292.000000
2311.130371 45332.000000
2312.230957 45930.000000
2313.331055 47099.000000
2314.430420 46222.000000
2315.528320 45960.000000
2316.626709 45436.000000
2317.723633 44349.000000
2318.820313 45582.000000
2319.916504 46573.000000
2321.010986 45476.000000
2322.105469 44697.000000
2323.199219 46482.000000
2324.292725 46164.000000
2325.384521 45717.000000
2326.476318 45180.000000
2327.567383 46118.000000
2328.657715 45872.000000
2329.747070 45183.000000
2330.836426 46097.000000
2331.924561 45712.000000
2333.012207 45195.000000
2334.099609 45400.000000
2335.185303 45141.000000
2336.270752 44094.000000
2337.355957 45456.000000
2338.440186 44985.000000
2339.523438 45776.000000
2340.606445 45201.000000
2341.688477 44359.000000
2342.770264 45528.000000
2343.851318 43977.000000
2344.931152 44720.000000
2346.010498 45610.000000
2347.089355 44550.000000
2348.167725 44632.000000
2349.244629 44803.000000
2350.321289 44188.000000
2351.397705 44988.000000
2352.473145 44544.000000
2353.547607 45020.000000
2354.621826 44502.000000
2355.695313 44000.000000
2356.768311 44387.000000
2357.840088 43603.000000
2358.911621 44260.000000
2359.982178 43688.000000
2361.052490 42831.000000
2362.121826 42847.000000
2363.190186 43506.000000
2364.258301 43389.000000
2365.325684 43136.000000
2366.392578 43006.000000
2367.458740 43942.000000
2368.523682 43309.000000
2369.588623 42898.000000
2370.652832 43581.000000
2371.716309 42899.000000
2372.778564 44112.000000
2373.840820 43473.000000
2374.902100 43411.000000
2375.963135 43831.000000
2377.022949 43469.000000
2378.082031 41831.000000
2379.141113 43249.000000
2380.199219 42029.000000
2381.256592 42725.000000
2382.312988 41437.000000
2383.369141 41650.000000
2384.424805 43150.000000
2385.479736 42167.000000
2386.533203 42438.000000
2387.586914 42677.000000
2388.639648 42800.000000
2389.691895 42464.000000
2390.743408 42954.000000
2391.793945 42456.000000
2392.844238 42534.000000
2393.893555 42800.000000
2394.942871 42679.000000
2395.990723 41884.000000
2397.038086 41797.000000
2398.085205 42336.000000
2399.131348 41760.000000
2400.176758 42422.000000
2401.221436 41751.000000
2402.266113 40745.000000
2403.309326 40913.000000
2404.352539 41664.000000
2405.394287 42348.000000
2406.436279 41318.000000
2407.477539 40873.000000
2408.517822 41789.000000
2409.557373 41396.000000
2410.595947 41351.000000
2411.634766 41480.000000
2412.672363 40982.000000
2413.709717 40538.000000
2414.745850 39940.000000
2415.781738 41014.000000
2416.816895 40772.000000
2417.851563 39980.000000
2418.884766 39532.000000
2419.918213 40184.000000
2420.950684 39819.000000
2421.982910 39480.000000
2423.013672 39079.000000
2424.044434 39611.000000
2425.074707 39020.000000
2426.103760 38863.000000
2427.132813 38920.000000
2428.160156 37969.000000
2429.187988 38642.000000
2430.214600 37796.000000
2431.240967 38021.000000
2432.265869 37156.000000
2433.291016 38097.000000
2434.315186 37372.000000
2435.339111 37660.000000
2436.361816 38370.000000
2437.383789 37652.000000
2438.405518 37374.000000
2439.426514 37240.000000
2440.447021 37752.000000
2441.466309 37048.000000
2442.485596 37012.000000
2443.503906 35036.000000
2444.521973 37024.000000
2445.538574 36596.000000
2446.555176 36403.000000
2447.571045 36948.000000
2448.586914 35775.000000
2449.601318 35936.000000
2450.614990 37156.000000
2451.628174 35334.000000
2452.641113 36528.000000
2453.653320 35407.000000
2454.664551 35816.000000
2455.675537 34660.000000
2456.685791 35764.000000
2457.695557 34240.000000
2458.704346 35645.000000
2459.712402 35380.000000
2460.720459 35060.000000
2461.727295 34035.000000
2462.733887 35660.000000
2463.739258 33794.000000
2464.744385 34191.000000
2465.749268 35148.000000
2466.752930 34554.000000
2467.756348 34881.000000
2468.758789 33768.000000
2469.760986 33950.000000
2470.762695 33993.000000
2471.763428 34175.000000
2472.763184 33634.000000
2473.762939 33704.000000
2474.761719 34659.000000
2475.760010 33786.000000
2476.757324 33394.000000
2477.754395 34183.000000
2478.751465 33479.000000
2479.747070 34670.000000
2480.742676 33531.000000
2481.736572 34041.000000
2482.730469 32694.000000
2483.723877 33734.000000
2484.716797 33679.000000
2485.708740 32918.000000
2486.699951 33085.000000
2487.690918 33411.000000
2488.681396 34228.000000
2489.670898 33678.000000
2490.659668 33747.000000
2491.648438 34498.000000
2492.636230 33519.000000
2493.622803 33759.000000
2494.609375 32556.000000
2495.595459 33586.000000
2496.580811 33136.000000
2497.565186 31734.000000
2498.549316 33694.000000
2499.533447 32615.000000
2500.516113 33596.000000
2501.498291 32416.000000
2502.479980 32548.000000
2503.460938 31845.000000
2504.441406 32434.000000
2505.421631 33115.000000
2506.400391 32528.000000
2507.378906 31436.000000
2508.356934 32065.000000
2509.334473 31527.000000
2510.311035 32338.000000
2511.287354 32424.000000
2512.262939 31892.000000
2513.238037 31998.000000
2514.212646 31822.000000
2515.186035 30663.000000
2516.159180 31208.000000
2517.132080 30885.000000
2518.104004 31484.000000
2519.075195 30852.000000
2520.045898 30651.000000
2521.016357 29736.000000
2521.986084 29202.000000
2522.954834 30795.000000
2523.922852 30527.000000
2524.890869 28990.000000
2525.857910 30273.000000
2526.824707 30871.000000
2527.790283 29267.000000
2528.755859 29495.000000
2529.720703 28552.000000
2530.685059 29599.000000
2531.648193 29429.000000
2532.611572 29857.000000
2533.573975 29774.000000
2534.536133 29127.000000
2535.497070 29461.000000
2536.457275 29590.000000
2537.417725 29553.000000
2538.377197 28971.000000
2539.335938 28707.000000
2540.293701 28695.000000
2541.251709 28800.000000
2542.208984 28223.000000
2543.165283 28761.000000
2544.121338 27669.000000
2545.076172 28503.000000
2546.031250 27085.000000
2546.985596 27554.000000
2547.939209 27566.000000
2548.891846 27219.000000
2549.844238 27547.000000
2550.796143 27327.000000
2551.747314 27832.000000
2552.697754 26664.000000
2553.647705 27091.000000
2554.597412 26663.000000
2555.546387 27129.000000
2556.494873 27192.000000
2557.442139 26487.000000
2558.389404 27026.000000
2559.335938 26755.000000
2560.281982 26643.000000
2561.227051 26003.000000
2562.171875 26358.000000
2563.116211 25932.000000
2564.060059 26130.000000
2565.003418 26066.000000
2565.945313 26043.000000
2566.887451 25989.000000
2567.828857 26343.000000
2568.769531 25640.000000
2569.709473 25380.000000
2570.649414 26381.000000
2571.588379 26246.000000
2572.527100 25199.000000
2573.464844 25316.000000
2574.402344 26567.000000
2575.339111 25679.000000
2576.275146 26016.000000
2577.210693 25318.000000
2578.145508 25976.000000
2579.080322 26403.000000
2580.014160 25534.000000
2580.947510 25435.000000
2581.880127 25993.000000
2582.812500 25137.000000
2583.744141 26190.000000
2584.675293 25264.000000
2585.605957 25425.000000
2586.535400 25346.000000
2587.464844 25030.000000
2588.393799 25543.000000
2589.322510 24867.000000
2590.249512 24675.000000
2591.176758 25416.000000
2592.103516 24851.000000
2593.029541 25103.000000
2593.955322 25641.000000
2594.879883 24547.000000
2595.804199 24360.000000
2596.728027 25499.000000
2597.651367 24542.000000
2598.573730 25355.000000
2599.495850 24997.000000
2600.417480 23752.000000
2601.338379 24611.000000
2602.258545 24880.000000
2603.178467 24614.000000
2604.097900 24418.000000
2605.017090 24259.000000
2605.935303 24347.000000
2606.852295 24416.000000
2607.769531 23785.000000
2608.686523 24216.000000
2609.602539 23378.000000
2610.517334 23775.000000
2611.432617 23661.000000
2612.347168 23535.000000
2613.260742 23464.000000
2614.174316 23849.000000
2615.086670 23162.000000
2615.999023 23307.000000
2616.910400 23258.000000
2617.821533 23379.000000
2618.731934 22839.000000
2619.642090 22991.000000
2620.551514 22987.000000
2621.460449 22688.000000
2622.368408 22790.000000
2623.276611 22615.000000
2624.183838 22503.000000
2625.090576 22398.000000
2625.996582 22385.000000
2626.902344 22203.000000
2627.807373 22411.000000
2628.712158 21866.000000
2629.616211 21891.000000
2630.519287 21854.000000
2631.422363 21898.000000
2632.324463 21751.000000
2633.226563 21585.000000
2634.128418 21633.000000
2635.028564 21452.000000
2635.928955 21477.000000
2636.828613 21410.000000
2637.728027 21322.000000
2638.625977 21334.000000
2639.524414 21088.000000
2640.422363 20907.000000
2641.319580 20969.000000
2642.215576 20843.000000
2643.111572 20576.000000
2644.007324 20713.000000
2644.902344 20717.000000
2645.797119 20459.000000
2646.690430 20454.000000
2647.583740 20305.000000
2648.476807 20174.000000
2649.369629 20181.000000
2650.260742 20042.000000
2651.152100 20632.000000
2652.042969 19930.000000
2652.933105 19876.000000
2653.822998 20006.000000
2654.711670 19881.000000
2655.600586 19953.000000
2656.489014 19861.000000
2657.376465 19669.000000
2658.262939 19724.000000
2659.149902 19389.000000
2660.036133 19397.000000
2660.921875 19402.000000
2661.806396 19581.000000
2662.690918 19664.000000
2663.575195 19803.000000
2664.458740 19678.000000
2665.341797 19540.000000
2666.224121 19786.000000
2667.105957 19491.000000
2667.987061 19477.000000
2668.868408 19856.000000
2669.748291 19792.000000
2670.628418 19443.000000
2671.507813 19585.000000
2672.387207 19502.000000
2673.265869 19491.000000
2674.142822 19535.000000
2675.020508 19410.000000
2675.897461 19239.000000
2676.773682 19164.000000
2677.649414 19069.000000
2678.524414 19114.000000
2679.399658 19035.000000
2680.273926 18853.000000
2681.147705 18499.000000
2682.020752 18606.000000
2682.893555 18531.000000
2683.766113 18730.000000
2684.637939 18510.000000
2685.509033 18378.000000
2686.379883 18392.000000
2687.250244 18238.000000
2688.120361 18260.000000
2688.988770 18383.000000
2689.857910 18087.000000
2690.726318 18040.000000
2691.594482 18097.000000
2692.461914 17924.000000
2693.328125 17959.000000
2694.194824 17685.000000
2695.060547 17807.000000
2695.926270 17638.000000
2696.790527 17525.000000
2697.655518 17570.000000
2698.519043 17558.000000
2699.382813 17494.000000
2700.245117 17352.000000
2701.107910 17361.000000
2701.969727 17337.000000
2702.831055 17309.000000
2703.692383 17359.000000
2704.552490 17084.000000
2705.412598 17103.000000
2706.272217 17047.000000
2707.131592 17042.000000
2707.989258 16791.000000
2708.847168 16753.000000
2709.705566 16658.000000
2710.562744 16838.000000
2711.419189 16752.000000
2712.275146 16558.000000
2713.131104 16517.000000
2713.986328 16488.000000
2714.840820 16533.000000
2715.694824 16276.000000
2716.548828 16117.000000
2717.401855 16157.000000
2718.255127 16137.000000
2719.106689 16005.000000
2719.958740 15999.000000
2720.810547 15805.000000
2721.661133 15883.000000
2722.511719 16150.000000
2723.361816 15846.000000
2724.211182 15598.000000
2725.060547 15693.000000
2725.908691 15730.000000
2726.756348 15773.000000
2727.604492 15748.000000
2728.451416 15476.000000
2729.298828 15590.000000
2730.144775 15611.000000
2730.989990 15462.000000
2731.835693 15368.000000
2732.680420 15405.000000
2733.525146 15344.000000
2734.368652 15259.000000
2735.212402 15271.000000
2736.055420 15403.000000
2736.897949 15351.000000
2737.739502 15168.000000
2738.581543 15178.000000
2739.422607 15238.000000
2740.263428 15043.000000
2741.104004 15257.000000
2741.943359 15175.000000
2742.782715 15196.000000
2743.622070 15199.000000
2744.460205 15199.000000
2745.297852 15202.000000
2746.135498 15222.000000
2746.972656 15025.000000
2747.809570 15099.000000
2748.645996 15134.000000
2749.481201 15081.000000
2750.316650 15145.000000
2751.151611 14847.000000
2751.985840 14849.000000
2752.819824 14859.000000
2753.653320 14734.000000
2754.486816 14519.000000
2755.319336 14602.000000
2756.151367 14429.000000
2756.982910 14586.000000
2757.814453 14663.000000
2758.645020 14675.000000
2759.475830 14328.000000
2760.305420 14405.000000
2761.135010 14560.000000
2761.964355 14215.000000
2762.792969 14134.000000
2763.621094 14044.000000
2764.448730 14110.000000
2765.276367 14153.000000
2766.103516 14234.000000
2766.929932 14092.000000
2767.755859 13824.000000
2768.581299 13629.000000
2769.406494 13630.000000
2770.231689 13549.000000
2771.055664 13624.000000
2771.879639 13489.000000
2772.703613 13366.000000
2773.526367 13475.000000
2774.349365 13399.000000
2775.171143 13343.000000
2775.992920 13207.000000
2776.814697 13160.000000
2777.635498 13039.000000
2778.455566 13178.000000
2779.275879 12981.000000
2780.095703 12953.000000
2780.915527 13117.000000
2781.733398 13029.000000
2782.552490 12904.000000
2783.370361 13115.000000
2784.187988 13073.000000
2785.005127 12990.000000
2785.821777 12738.000000
2786.638184 12623.000000
2787.454102 12638.000000
2788.269775 12542.000000
2789.084473 12592.000000
2789.899658 12300.000000
2790.714111 12311.000000
2791.528076 12384.000000
2792.341797 12399.000000
2793.154297 12231.000000
2793.967041 12353.000000
2794.779297 12182.000000
2795.591064 12172.000000
2796.402100 12402.000000
2797.213867 12206.000000
2798.024414 12267.000000
2798.834961 12148.000000
2799.644043 12135.000000
2800.453857 12092.000000
2801.262939 12107.000000
2802.071777 11998.000000
2802.880127 12104.000000
2803.687500 11930.000000
2804.495361 11987.000000
2805.302490 11898.000000
2806.109375 12016.000000
2806.915039 11844.000000
2807.721191 11876.000000
2808.526611 11734.000000
2809.332031 11808.000000
2810.136719 11704.000000
2810.940430 11723.000000
2811.744629 11760.000000
2812.548340 11647.000000
2813.351807 11652.000000
2814.153809 11553.000000
2814.956543 11611.000000
2815.758545 11568.000000
2816.560303 11507.000000
2817.361572 11657.000000
2818.162354 11567.000000
2818.962646 11529.000000
2819.763184 11108.000000
2820.562744 11361.000000
2821.361816 11298.000000
2822.160889 11238.000000
2822.959717 11117.000000
2823.758057 11220.000000
2824.555420 11279.000000
2825.353027 11207.000000
2826.149902 11244.000000
2826.947021 10999.000000
2827.743408 10741.000000
2828.539063 10854.000000
2829.334717 10857.000000
2830.130127 10841.000000
2830.925049 10871.000000
2831.719238 10865.000000
2832.513428 10728.000000
2833.307373 10895.000000
2834.100830 10626.000000
2834.893555 10841.000000
2835.686035 10503.000000
2836.478516 10579.000000
2837.270752 10482.000000
2838.062500 10560.000000
2838.853271 10594.000000
2839.644043 10526.000000
2840.435059 10577.000000
2841.225098 10512.000000
2842.014648 10308.000000
2842.804443 10356.000000
2843.593262 10284.000000
2844.382080 10181.000000
2845.170898 10167.000000
2845.958740 10220.000000
2846.746094 10012.000000
2847.533691 10100.000000
2848.320801 10042.000000
2849.107178 10063.000000
2849.893555 10043.000000
2850.679688 9981.000000
2851.465332 9984.000000
2852.250000 9841.000000
2853.035156 9842.000000
2853.820068 9838.000000
2854.604248 9930.000000
2855.388428 9969.000000
2856.171387 9665.000000
2856.954590 9804.000000
2857.737549 9697.000000
2858.520020 9731.000000
2859.302246 9678.000000
2860.083984 9814.000000
2860.865479 9639.000000
2861.647217 9706.000000
2862.428223 9554.000000
2863.208496 9609.000000
2863.988525 9685.000000
2864.768555 9675.000000
2865.548340 9731.000000
2866.327148 9567.000000
2867.106201 9601.000000
2867.884766 9805.000000
2868.663086 9662.000000
2869.440918 9758.000000
2870.218506 9678.000000
2870.995850 9710.000000
2871.772949 9779.000000
2872.549561 9756.000000
2873.325684 9864.000000
2874.101807 9855.000000
2874.877441 9831.000000
2875.652832 9721.000000
2876.427734 9899.000000
2877.202393 9728.000000
2877.977051 9714.000000
2878.751465 9689.000000
2879.525146 9530.000000
2880.298096 9605.000000
2881.071777 9525.000000
2881.844482 9484.000000
2882.617188 9314.000000
2883.389160 9268.000000
2884.160889 9357.000000
2884.933105 9195.000000
2885.704102 9115.000000
2886.474609 9084.000000
2887.245605 9080.000000
2888.016602 9071.000000
2888.786865 9014.000000
2889.556152 9058.000000
2890.325684 9033.000000
2891.095215 8965.000000
2891.864258 9046.000000
2892.632813 9037.000000
2893.401367 9008.000000
2894.168945 8947.000000
2894.937012 8994.000000
2895.704590 8841.000000
2896.472168 8673.000000
2897.238525 8788.000000
2898.005859 8542.000000
2898.771973 8575.000000
2899.538330 8499.000000
2900.303223 8377.000000
2901.068604 8541.000000
2901.834473 8471.000000
2902.598877 8445.000000
2903.363281 8366.000000
2904.127930 8330.000000
2904.891602 8342.000000
2905.656006 8230.000000
2906.419678 8186.000000
2907.182617 8225.000000
2907.945313 8160.000000
2908.708496 8280.000000
2909.471191 8100.000000
2910.232666 8071.000000
2910.994629 8071.000000
spectrumdark 2048
-97.236237 6171.000000
-94.609367 6171.000000
-91.984375 6013.000000
-89.361275 6387.000000
-86.740044 5807.000000
-84.120712 6208.000000
-81.503242 6054.000000
-78.887650 6367.000000
-76.273933 6230.000000
-73.662094 5870.000000
-71.052116 6081.000000
-68.444023 5948.000000
-65.837776 5967.000000
-63.233406 5957.000000
-60.630898 6068.000000
-58.030243 5614.000000
-55.431450 6208.000000
-52.834515 6814.000000
-50.239433 6458.000000
-47.646206 6316.000000
-45.054829 6196.000000
-42.465298 6696.000000
-39.877609 5857.000000
-37.291771 5984.000000
-34.707775 6368.000000
-32.125618 5700.000000
-29.545303 6336.000000
-26.966818 5646.000000
-24.390175 6140.000000
-21.815357 6240.000000
-19.242380 6401.000000
-16.671223 6425.000000
-14.101899 6732.000000
-11.534401 7752.000000
-8.968721 6264.000000
-6.404868 6434.000000
-3.842827 5963.000000
-1.282611 5792.000000
1.275797 6136.000000
3.832384 6920.000000
6.387166 6633.000000
8.940131 5943.000000
11.491296 6705.000000
14.040648 6424.000000
16.588203 6628.000000
19.133947 5990.000000
21.677898 5711.000000
24.220045 6614.000000
26.760395 6809.000000
29.298960 6780.000000
31.835728 6165.000000
34.370693 5766.000000
36.903881 7193.000000
39.435287 6226.000000
41.964901 7033.000000
44.492718 6471.000000
47.018776 7820.000000
49.543045 5642.000000
52.065544 6116.000000
54.586246 6739.000000
57.105194 6215.000000
59.622368 6420.000000
62.137764 6652.000000
64.651382 5620.000000
67.163246 5695.000000
69.673363 6518.000000
72.181686 6536.000000
74.688255 5889.000000
77.193077 6321.000000
79.696144 6399.000000
82.197433 6248.000000
84.696983 6077.000000
87.194778 6342.000000
89.690842 5734.000000
92.185127 7198.000000
94.677673 5772.000000
97.168503 6879.000000
99.657562 7228.000000
102.144875 6345.000000
104.630463 6117.000000
107.114311 6436.000000
109.596413 5694.000000
112.076790 6508.000000
114.555443 6195.000000
117.032372 6378.000000
119.507545 7172.000000
121.981010 6784.000000
124.452744 5857.000000
126.922768 6691.000000
129.391037 6216.000000
131.857635 6272.000000
134.322479 5656.000000
136.785629 6162.000000
139.247040 7194.000000
141.706757 6812.000000
144.164749 6337.000000
146.621048 6000.000000
149.075638 5761.000000
151.528503 6784.000000
153.979691 6301.000000
156.429184 6558.000000
158.876953 6052.000000
161.323013 6518.000000
163.767395 8708.000000
166.210098 6358.000000
168.651108 6673.000000
171.090408 6189.000000
173.528000 7173.000000
175.963959 6577.000000
178.398178 6908.000000
180.830719 7138.000000
183.261612 6702.000000
185.690781 6734.000000
188.118301 6614.000000
190.544144 6329.000000
192.968307 6649.000000
195.390808 7161.000000
197.811615 7320.000000
200.230759 6464.000000
202.648239 5958.000000
205.064026 7670.000000
207.478165 7083.000000
209.890671 6352.000000
212.301498 6069.000000
214.710648 6257.000000
217.118164 7353.000000
219.523972 6158.000000
221.928192 6504.000000
224.330704 6706.000000
226.731598 6951.000000
229.130844 6450.000000
231.528427 6812.000000
233.924347 7261.000000
236.318649 6552.000000
238.711288 5787.000000
241.102310 6764.000000
243.491669 6537.000000
245.879410 6354.000000
248.265503 6885.000000
250.649963 6103.000000
253.032776 7828.000000
255.414017 6599.000000
257.793549 6644.000000
260.171509 6439.000000
262.547791 7514.000000
264.922516 7497.000000
267.295593 7859.000000
269.667023 6217.000000
272.036804 6495.000000
274.405029 5805.000000
276.771606 6323.000000
279.136597 6754.000000
281.499969 6010.000000
283.861694 6198.000000
286.221832 7078.000000
288.580353 5887.000000
290.937286 6521.000000
293.292603 6368.000000
295.646332 5936.000000
297.998413 5953.000000
300.348938 6331.000000
302.697876 6334.000000
305.045166 6832.000000
307.390930 6421.000000
309.735016 6470.000000
312.077576 7403.000000
314.418518 7561.000000
316.757843 7173.000000
319.095612 6971.000000
321.431824 8104.000000
323.766388 6295.000000
326.099396 6451.000000
328.430847 5986.000000
330.760712 6547.000000
333.088989 6345.000000
335.415649 7178.000000
337.740814 6322.000000
340.064362 6196.000000
342.386353 6027.000000
344.706787 7479.000000
347.025604 7724.000000
349.342865 5977.000000
351.658600 5896.000000
353.972748 6963.000000
356.285309 6359.000000
358.596313 6232.000000
360.905792 6990.000000
363.213745 6316.000000
365.520081 5686.000000
367.824829 6375.000000
370.128113 6448.000000
372.429779 6212.000000
374.729950 6353.000000
377.028564 6264.000000
379.325623 5671.000000
381.621124 6121.000000
383.915100 5832.000000
386.207489 5250.000000
388.498383 5593.000000
390.787750 6178.000000
393.075531 6227.000000
395.361786 6548.000000
397.646545 6977.000000
399.929688 6011.000000
402.211395 6432.000000
404.491577 6106.000000
406.770172 7245.000000
409.047241 6407.000000
411.322784 6722.000000
413.596802 6413.000000
415.869385 6360.000000
418.140350 6207.000000
420.409821 6406.000000
422.677795 7049.000000
424.944214 7251.000000
427.209137 6193.000000
429.472595 6258.000000
431.734467 6469.000000
433.994873 5990.000000
436.253723 6646.000000
438.511108 6143.000000
440.766998 5625.000000
443.021393 5727.000000
445.274261 5437.000000
447.525574 6932.000000
449.775482 6059.000000
452.023804 6250.000000
454.270691 5658.000000
456.516113 6443.000000
458.759979 6461.000000
461.002350 6715.000000
463.243225 5677.000000
465.482697 6713.000000
467.720581 5470.000000
469.957031 5839.000000
472.191956 6126.000000
474.425415 7314.000000
476.657440 6766.000000
478.887939 5644.000000
481.116943 6450.000000
483.344482 6260.000000
485.570526 5933.000000
487.795135 6520.000000
490.018280 5833.000000
492.239960 6416.000000
494.460083 6680.000000
496.678802 5643.000000
498.896027 6272.000000
501.111877 5558.000000
503.326111 6156.000000
505.539032 6420.000000
507.750366 6463.000000
509.960266 6937.000000
512.168701 6492.000000
514.375793 6545.000000
516.581299 6413.000000
518.785400 6602.000000
520.987976 6171.000000
523.189148 6524.000000
525.388977 6674.000000
527.587280 6862.000000
529.784058 5353.000000
531.979492 5783.000000
534.173401 5569.000000
536.365967 7508.000000
538.557007 6640.000000
540.746643 5967.000000
542.934875 6947.000000
545.121582 7154.000000
547.306824 6816.000000
549.490784 6208.000000
551.673157 6398.000000
553.854187 6083.000000
556.033691 6009.000000
558.211914 5905.000000
560.388611 5976.000000
562.563904 6369.000000
564.737793 6471.000000
566.910217 5943.000000
569.081238 5983.000000
571.250793 6333.000000
573.419067 5242.000000
575.585815 6395.000000
577.751099 6278.000000
579.914978 6147.000000
582.077576 5718.000000
584.238647 6064.000000
586.398315 5607.000000
588.556641 5816.000000
590.713440 6091.000000
592.868896 6604.000000
595.022949 5740.000000
597.175659 6067.000000
599.326843 7249.000000
601.476685 6767.000000
603.625183 6672.000000
605.772095 6052.000000
607.917786 6495.000000
610.062073 6454.000000
612.204895 6630.000000
614.346252 6148.000000
616.486389 6424.000000
618.625000 7690.000000
620.762329 5732.000000
622.898193 6604.000000
625.032654 6864.000000
627.165649 7189.000000
629.297485 6628.000000
631.427856 6577.000000
633.556824 6829.000000
635.684326 6429.000000
637.810547 6194.000000
639.935242 7329.000000
642.058716 6346.000000
644.180847 6726.000000
646.301514 6830.000000
648.420837 6521.000000
650.538757 5610.000000
652.655334 5636.000000
654.770508 6365.000000
656.884338 6505.000000
658.996704 5803.000000
661.107849 6169.000000
663.217590 5368.000000
665.325867 6458.000000
667.432983 6218.000000
669.538635 6823.000000
671.642822 5875.000000
673.745789 5725.000000
675.847351 6984.000000
677.947571 5316.000000
680.046387 6719.000000
682.143860 6211.000000
684.240051 6982.000000
686.334778 6193.000000
688.428284 7021.000000
690.520447 6667.000000
692.611084 7879.000000
694.700500 6556.000000
696.788635 6462.000000
698.875305 5998.000000
700.960754 6690.000000
703.044678 5163.000000
705.127380 5937.000000
707.208801 5968.000000
709.288757 7489.000000
711.367493 6125.000000
713.444763 5530.000000
715.520752 6550.000000
717.595459 6064.000000
719.668884 6983.000000
721.740784 6310.000000
723.811523 7384.000000
725.880920 5825.000000
727.948914 6457.000000
730.015564 6387.000000
732.080994 7033.000000
734.145081 5721.000000
736.207825 6114.000000
738.269226 6515.000000
740.329346 6587.000000
742.388062 6066.000000
744.445557 6619.000000
746.501770 6464.000000
748.556580 6643.000000
750.610107 6350.000000
752.662231 7465.000000
754.713135 5759.000000
756.762817 6656.000000
758.811035 6390.000000
760.858032 6197.000000
762.903748 7022.000000
764.948059 5343.000000
766.991089 5740.000000
769.032898 15013.000000
771.073364 6971.000000
773.112427 6373.000000
775.150330 6082.000000
777.186890 5981.000000
779.222229 5311.000000
781.256226 5718.000000
783.288818 6819.000000
785.320251 5533.000000
787.350281 12051.000000
789.379028 5959.000000
791.406616 6341.000000
793.432861 6358.000000
795.457703 5779.000000
797.481445 5526.000000
799.503784 6338.000000
801.524902 5882.000000
803.544678 6708.000000
805.563171 4950.000000
807.580444 6713.000000
809.596313 6821.000000
811.611023 5668.000000
813.624390 6408.000000
815.636536 6237.000000
817.647461 6047.000000
819.657043 6538.000000
821.665405 5333.000000
823.672363 5645.000000
825.678101 6031.000000
827.682617 5755.000000
829.685852 5653.000000
831.687805 6454.000000
833.688477 6091.000000
835.687927 5927.000000
837.686035 6358.000000
839.683044 6883.000000
841.678650 6249.000000
843.673096 6027.000000
845.666199 6147.000000
847.658081 6804.000000
849.648621 5506.000000
851.637878 6790.000000
853.626099 5979.000000
855.612915 5727.000000
857.598511 6420.000000
859.582825 7253.000000
861.566040 6304.000000
863.547852 6423.000000
865.528442 5839.000000
867.507751 7748.000000
869.485901 7062.000000
871.462708 6165.000000
873.438232 5950.000000
875.412720 6298.000000
877.385742 6009.000000
879.357727 5420.000000
881.328369 6371.000000
883.297852 6053.000000
885.265991 5624.000000
887.232971 5182.000000
889.198608 6117.000000
891.163086 5874.000000
893.126343 5970.000000
895.088379 6465.000000
897.049133 5801.000000
899.008667 6391.000000
900.966919 6692.000000
902.924072 6337.000000
904.880066 6003.000000
906.834656 6879.000000
908.788025 6583.000000
910.740234 6432.000000
912.691223 6383.000000
914.640930 7055.000000
916.589478 6331.000000
918.536804 6122.000000
920.482849 6121.000000
922.427612 6094.000000
924.371338 6279.000000
926.313904 5943.000000
928.255188 5573.000000
930.195129 6467.000000
932.133972 5641.000000
934.071533 5498.000000
936.007874 5966.000000
937.943054 5859.000000
939.876953 6075.000000
941.809753 5855.000000
943.741333 6801.000000
945.671753 5201.000000
947.600952 6371.000000
949.528809 6946.000000
951.455627 6595.000000
953.381165 5927.000000
955.305420 5350.000000
957.228577 5963.000000
959.150574 6724.000000
961.071289 7310.000000
962.990845 6403.000000
964.909241 5260.000000
966.826599 6391.000000
968.742493 6381.000000
970.657288 6165.000000
972.570862 5987.000000
974.483276 6337.000000
976.394470 6459.000000
978.304504 5499.000000
980.213257 6171.000000
982.120972 6078.000000
984.027466 6374.000000
985.932739 5667.000000
987.836914 6790.000000
989.739868 6186.000000
991.641602 6825.000000
993.542175 6556.000000
995.441589 6598.000000
997.339783 5256.000000
999.236816 6520.000000
1001.132629 6470.000000
1003.027283 7605.000000
1004.920837 5580.000000
1006.813110 7153.000000
1008.704468 6076.000000
1010.594482 5312.000000
1012.483276 6590.000000
1014.370911 6236.000000
1016.257385 6926.000000
1018.142700 6672.000000
1020.026855 5912.000000
1021.909790 5820.000000
1023.791687 6184.000000
1025.672363 5196.000000
1027.551880 5852.000000
1029.430420 6061.000000
1031.307617 5441.000000
1033.183472 6196.000000
1035.058350 5864.000000
1036.932251 6580.000000
1038.804688 6994.000000
1040.676147 6663.000000
1042.546265 5493.000000
1044.415405 5497.000000
1046.283325 5748.000000
1048.150146 7064.000000
1050.015869 6655.000000
1051.880371 6447.000000
1053.743774 6394.000000
1055.605835 6496.000000
1057.466919 5868.000000
1059.326904 6483.000000
1061.185547 6691.000000
1063.043091 5833.000000
1064.899536 6780.000000
1066.754883 5916.000000
1068.609009 5814.000000
1070.462280 6259.000000
1072.314087 6359.000000
1074.164917 6089.000000
1076.014526 6137.000000
1077.862915 5681.000000
1079.710449 7954.000000
1081.556641 5562.000000
1083.401611 6186.000000
1085.245728 5419.000000
1087.088501 5486.000000
1088.930054 6504.000000
1090.770874 5441.000000
1092.610107 5737.000000
1094.448608 6079.000000
1096.285767 6017.000000
1098.121704 6793.000000
1099.956665 6606.000000
1101.790405 5430.000000
1103.623169 5670.000000
1105.454590 6142.000000
1107.285156 7190.000000
1109.114380 6516.000000
1110.942627 6437.000000
1112.769653 7133.000000
1114.595703 5429.000000
1116.420532 6285.000000
1118.244263 7125.000000
1120.066772 6099.000000
1121.888184 5839.000000
1123.708740 5927.000000
1125.527832 6574.000000
1127.346069 7046.000000
1129.162964 6838.000000
1130.979004 6698.000000
1132.793823 6503.000000
1134.607544 5601.000000
1136.420166 5784.000000
1138.231567 5673.000000
1140.041992 6165.000000
1141.851318 6702.000000
1143.659302 6963.000000
1145.466553 5928.000000
1147.272339 5879.000000
1149.077271 5418.000000
1150.881104 5369.000000
1152.683716 6134.000000
1154.485474 6085.000000
1156.285767 6043.000000
1158.085083 6108.000000
1159.883423 5819.000000
1161.680420 5481.000000
1163.476685 5866.000000
1165.271606 6035.000000
1167.065430 6341.000000
1168.858398 7734.000000
1170.650024 5554.000000
1172.440674 6520.000000
1174.230347 5991.000000
1176.018555 5847.000000
1177.805908 7440.000000
1179.592163 6753.000000
1181.377319 5756.000000
1183.161377 5978.000000
1184.944336 7731.000000
1186.726318 5869.000000
1188.507080 5874.000000
1190.286865 6312.000000
1192.065552 6945.000000
1193.843262 6611.000000
1195.619751 7102.000000
1197.395142 6588.000000
1199.169434 6501.000000
1200.942627 6630.000000
1202.714966 6427.000000
1204.485962 6705.000000
1206.256104 5656.000000
1208.025024 6106.000000
1209.792847 6305.000000
1211.559814 5762.000000
1213.325439 5907.000000
1215.090088 6964.000000
1216.853638 6525.000000
1218.616089 5947.000000
1220.377686 6728.000000
1222.138062 5870.000000
1223.897339 6293.000000
1225.655762 5987.000000
1227.412964 7083.000000
1229.169067 6397.000000
1230.924072 5537.000000
1232.678223 5998.000000
1234.431030 5814.000000
1236.182861 6015.000000
1237.933838 5958.000000
1239.683472 4903.000000
1241.432251 6960.000000
1243.179688 6488.000000
1244.926392 6554.000000
1246.671875 6416.000000
1248.416504 6390.000000
1250.159790 6737.000000
1251.902100 6657.000000
1253.643311 5348.000000
1255.383667 5060.000000
1257.122925 5777.000000
1258.860962 6547.000000
1260.598145 7082.000000
1262.334106 6145.000000
1264.069092 6420.000000
1265.803101 7247.000000
1267.536133 5987.000000
1269.267944 6196.000000
1270.998779 6415.000000
1272.728394 7257.000000
1274.457153 5942.000000
1276.184814 5670.000000
1277.911377 5552.000000
1279.637085 5522.000000
1281.361450 6423.000000
1283.084961 5240.000000
1284.807495 6881.000000
1286.529053 6552.000000
1288.249390 6065.000000
1289.968750 6642.000000
1291.687012 7237.000000
1293.404297 6427.000000
1295.120605 5712.000000
1296.835693 6382.000000
1298.549805 6156.000000
1300.262939 5762.000000
1301.975220 6374.000000
1303.686279 8301.000000
1305.396362 5312.000000
1307.105347 6269.000000
1308.813110 6641.000000
1310.520264 7076.000000
1312.225952 5822.000000
1313.930908 6821.000000
1315.634888 6130.000000
1317.337646 6007.000000
1319.039429 6516.000000
1320.740356 6049.000000
1322.439941 8194.000000
1324.138672 6882.000000
1325.836670 5570.000000
1327.533325 6444.000000
1329.228882 7119.000000
1330.923584 6804.000000
1332.617065 5721.000000
1334.309692 5389.000000
1336.001465 7276.000000
1337.691895 6242.000000
1339.381592 6608.000000
1341.070190 6155.000000
1342.757690 7579.000000
1344.444214 5657.000000
1346.129639 6717.000000
1347.814087 5940.000000
1349.497681 7235.000000
1351.180054 6331.000000
1352.861450 5939.000000
1354.541992 6474.000000
1356.221313 6745.000000
1357.900024 5922.000000
1359.577393 6486.000000
1361.253662 5762.000000
1362.928955 5572.000000
1364.603516 6611.000000
1366.276855 6481.000000
1367.949219 6813.000000
1369.620605 5112.000000
1371.291016 6773.000000
1372.960327 6106.000000
1374.628662 5670.000000
1376.296143 5963.000000
1377.962524 6469.000000
1379.627930 6039.000000
1381.292358 5784.000000
1382.955566 5933.000000
1384.618164 5635.000000
1386.279419 6406.000000
1387.939819 6591.000000
1389.599121 6420.000000
1391.257446 6502.000000
1392.915039 6795.000000
1394.571411 6464.000000
1396.226929 6999.000000
1397.881226 6301.000000
1399.534668 5757.000000
1401.187012 6186.000000
1402.838623 6436.000000
1404.489014 7174.000000
1406.138306 6298.000000
1407.786865 7534.000000
1409.434326 7860.000000
1411.080811 6173.000000
1412.726440 6172.000000
1414.371094 5921.000000
1416.014526 7000.000000
1417.657104 7172.000000
1419.298584 6931.000000
1420.939209 6480.000000
1422.578857 6467.000000
1424.217407 6057.000000
1425.855103 6608.000000
1427.491699 6294.000000
1429.127319 6005.000000
1430.762207 6407.000000
1432.395996 5915.000000
1434.028687 6117.000000
1435.660400 5680.000000
1437.291260 6127.000000
1438.921021 6039.000000
1440.549683 7922.000000
1442.177734 6002.000000
1443.804688 6160.000000
1445.430420 6131.000000
1447.055542 6167.000000
1448.679565 6473.000000
1450.302612 6048.000000
1451.924683 5985.000000
1453.545654 7374.000000
1455.165649 6330.000000
1456.784912 6890.000000
1458.402832 5585.000000
1460.020142 5531.000000
1461.636475 5477.000000
1463.251587 7261.000000
1464.865845 6208.000000
1466.479248 5174.000000
1468.091553 5616.000000
1469.703003 6270.000000
1471.313599 6334.000000
1472.922974 5996.000000
1474.531372 5912.000000
1476.138916 6209.000000
1477.745483 6784.000000
1479.351318 5212.000000
1480.955933 6348.000000
1482.559692 5457.000000
1484.162231 6815.000000
1485.764160 5504.000000
1487.364868 5517.000000
1488.964844 5625.000000
1490.563721 6299.000000
1492.161743 6487.000000
1493.758667 6668.000000
1495.354736 6322.000000
1496.949829 5994.000000
1498.543945 5414.000000
1500.137329 6511.000000
1501.729614 5496.000000
1503.320679 6192.000000
1504.911255 6688.000000
1506.500488 6521.000000
1508.089111 6095.000000
1509.676636 6589.000000
1511.263062 6856.000000
1512.848755 6164.000000
1514.433350 6594.000000
1516.017090 6134.000000
1517.599731 6187.000000
1519.181641 6577.000000
1520.762451 6597.000000
1522.342529 6009.000000
1523.921387 6173.000000
1525.499390 6394.000000
1527.076660 6287.000000
1528.652710 5663.000000
1530.228027 5814.000000
1531.802246 6339.000000
1533.375732 5484.000000
1534.947998 5911.000000
1536.519531 6318.000000
1538.090088 6489.000000
1539.659790 6295.000000
1541.228271 5469.000000
1542.796021 6522.000000
1544.362915 5608.000000
1545.928589 6775.000000
1547.493530 5950.000000
1549.057373 5086.000000
1550.620605 7484.000000
1552.182495 6333.000000
1553.743774 5967.000000
1555.303955 5709.000000
1556.863403 5757.000000
1558.421753 5893.000000
1559.979370 6311.000000
1561.535889 6983.000000
1563.091187 5831.000000
1564.645874 6302.000000
1566.199829 5663.000000
1567.752808 6271.000000
1569.304443 5651.000000
1570.855347 5987.000000
1572.405518 6224.000000
1573.954712 6403.000000
1575.502563 5746.000000
1577.049927 5502.000000
1578.596313 5655.000000
1580.141846 5032.000000
1581.686401 6643.000000
1583.229736 6324.000000
1584.772461 6568.000000
1586.314331 6406.000000
1587.855103 6689.000000
1589.394897 5859.000000
1590.933960 6676.000000
1592.471924 5921.000000
1594.009399 6109.000000
1595.545532 5834.000000
1597.080566 6731.000000
1598.615112 6229.000000
1600.148682 6002.000000
1601.681396 6019.000000
1603.212524 6296.000000
1604.743408 6294.000000
1606.273438 5735.000000
1607.802246 6168.000000
1609.329956 6118.000000
1610.857056 6000.000000
1612.383423 5792.000000
1613.908813 6223.000000
1615.433350 5805.000000
1616.956543 5736.000000
1618.479004 5552.000000
1620.000732 6637.000000
1621.521606 6911.000000
1623.041016 15543.000000
1624.559937 6092.000000
1626.078125 6021.000000
1627.595459 5903.000000
1629.111694 6403.000000
1630.626587 6999.000000
1632.140991 6769.000000
1633.654663 5778.000000
1635.167236 6715.000000
1636.678589 5871.000000
1638.189575 6439.000000
1639.699463 6331.000000
1641.208496 6168.000000
1642.716187 5618.000000
1644.223511 6079.000000
1645.729980 7147.000000
1647.235474 6223.000000
1648.740112 6788.000000
1650.243286 6144.000000
1651.745850 6567.000000
1653.248047 6338.000000
1654.748901 6559.000000
1656.248657 7496.000000
1657.747559 5932.000000
1659.246094 6531.000000
1660.743408 6240.000000
1662.239990 5947.000000
1663.734985 6513.000000
1665.229736 6284.000000
1666.723633 5123.000000
1668.216553 5669.000000
1669.708130 6039.500000
1671.199219 6410.000000
1672.689697 6053.000000
1674.179077 5982.000000
1675.666992 6902.000000
1677.154663 6825.000000
1678.641357 6041.000000
1680.127197 5343.000000
1681.612183 6045.000000
1683.095703 6069.000000
1684.578979 6319.000000
1686.061401 5858.000000
1687.542725 6162.000000
1689.022583 6243.000000
1690.502197 5555.000000
1691.981079 6514.000000
1693.458984 5996.000000
1694.935913 6104.000000
1696.411621 5750.000000
1697.886963 6043.000000
1699.361084 6256.000000
1700.834595 5480.000000
1702.306641 5588.000000
1703.778442 6896.000000
1705.249268 6406.000000
1706.719238 7141.000000
1708.187866 5141.000000
1709.656006 5784.000000
1711.123413 6396.000000
1712.589722 5476.000000
1714.055420 5762.000000
1715.519409 6214.000000
1716.983276 5984.000000
1718.446289 6948.000000
1719.908325 6296.000000
1721.369141 6616.000000
1722.829346 5469.000000
1724.288818 5697.000000
1725.747437 6104.000000
1727.205078 6021.000000
1728.661377 6248.000000
1730.117432 6027.000000
1731.572510 6426.000000
1733.026611 5957.000000
1734.479492 6867.000000
1735.932129 5925.000000
1737.383667 6690.000000
1738.834473 5948.000000
1740.284302 6558.000000
1741.732788 5935.000000
1743.180908 7334.000000
1744.628174 6472.000000
1746.074707 6628.000000
1747.519653 6693.000000
1748.964355 6183.000000
1750.408203 6021.000000
1751.851196 5456.000000
1753.292725 6484.000000
1754.734009 6338.000000
1756.174438 6292.500000
1757.613892 6247.000000
1759.052368 5236.000000
1760.489868 6053.000000
1761.926880 7496.000000
1763.362915 5794.000000
1764.798096 7106.000000
1766.231812 6160.000000
1767.665405 6439.000000
1769.098022 6624.000000
1770.529785 5752.000000
1771.960693 5717.000000
1773.390381 6393.000000
1774.819336 6107.000000
1776.247803 6228.000000
1777.675293 6669.000000
1779.101440 6230.000000
1780.527344 5571.000000
1781.952148 6926.000000
1783.376343 5560.000000
1784.799072 6587.000000
1786.221313 6476.000000
1787.642822 6843.000000
1789.063599 5896.000000
1790.483398 6149.000000
1791.901855 6155.000000
1793.319824 6864.000000
1794.737183 5506.000000
1796.153687 6029.000000
1797.568726 6575.000000
1798.983398 5859.000000
1800.397461 6548.000000
1801.810303 5980.000000
1803.222534 7007.000000
1804.633423 7143.000000
1806.043823 7775.000000
1807.453491 6505.000000
1808.862183 5929.000000
1810.269775 5363.000000
1811.676880 6442.000000
1813.083130 6379.000000
1814.488403 6706.000000
1815.892578 5978.000000
1817.296387 5934.000000
1818.699219 6241.000000
1820.101196 6030.000000
1821.502563 5901.000000
1822.902466 6365.000000
1824.301758 6473.000000
1825.700562 6491.000000
1827.098511 7405.000000
1828.495117 5750.000000
1829.891113 6734.000000
1831.286377 5883.000000
1832.681030 8154.000000
1834.074707 6022.000000
1835.467041 6868.000000
1836.858887 6353.000000
1838.250122 5906.000000
1839.640381 7032.000000
1841.029419 5973.000000
1842.418091 6000.000000
1843.805786 5974.000000
1845.192749 5889.000000
1846.578369 6897.000000
1847.963745 5802.000000
1849.348267 6360.000000
1850.732056 6300.000000
1852.114746 6367.000000
1853.496216 5426.000000
1854.877197 6493.000000
1856.257690 6297.000000
1857.637207 5708.000000
1859.015259 5907.000000
1860.393188 6141.000000
1861.770142 7838.000000
1863.146362 6082.000000
1864.521729 6068.000000
1865.895630 5634.000000
1867.269409 5699.000000
1868.642334 6241.000000
1870.014160 5949.000000
1871.385010 6877.000000
1872.755493 5408.000000
1874.124878 6046.000000
1875.493774 6043.000000
1876.861084 7119.000000
1878.228271 6047.000000
1879.594482 5957.000000
1880.959961 6837.000000
1882.324707 7442.000000
1883.687866 6762.000000
1885.050903 6946.000000
1886.413086 6346.000000
1887.774414 6395.000000
1889.134399 5600.000000
1890.494019 5768.000000
1891.853027 6128.000000
1893.211060 6544.000000
1894.568237 7250.000000
1895.924194 5953.000000
1897.279907 7629.000000
1898.634644 5829.000000
1899.988525 5552.000000
1901.341309 5921.000000
1902.693604 5875.000000
1904.045166 5918.000000
1905.395874 6895.000000
1906.745361 6508.000000
1908.094360 6683.000000
1909.442505 5711.000000
1910.790039 6128.000000
1912.136841 6223.000000
1913.482056 6805.000000
1914.827026 6094.000000
1916.171265 5402.000000
1917.514648 6472.000000
1918.856689 6003.000000
1920.198486 6687.000000
1921.539429 6956.000000
1922.879639 6108.000000
1924.218872 6316.000000
1925.557129 6335.000000
1926.894775 6467.000000
1928.231689 6981.000000
1929.567749 6733.000000
1930.902588 5549.000000
1932.237061 6747.000000
1933.570801 7282.000000
1934.903687 6243.000000
1936.235107 5723.000000
1937.566650 6287.000000
1938.896851 6603.000000
1940.226563 5748.000000
1941.555420 6075.000000
1942.883057 5787.000000
1944.210205 4983.000000
1945.536621 5791.000000
1946.862305 6441.000000
1948.186646 5738.000000
1949.510742 6558.000000
1950.833984 6314.000000
1952.156494 6466.000000
1953.477905 5714.000000
1954.798340 7425.000000
1956.118164 6025.000000
1957.437622 5513.000000
1958.756104 6829.000000
1960.073242 5877.000000
1961.390015 5855.000000
1962.706055 6563.000000
1964.021362 6639.000000
1965.335205 6275.000000
1966.648804 5666.000000
1967.961670 6219.000000
1969.273682 5999.000000
1970.585083 6002.000000
1971.895142 6291.000000
1973.204712 5788.000000
1974.513550 6222.000000
1975.821777 6583.000000
1977.128662 6064.000000
1978.434937 7178.000000
1979.740845 5529.000000
1981.045532 6385.000000
1982.349731 5895.000000
1983.652710 5708.000000
1984.955322 7524.000000
1986.256958 6138.000000
1987.557983 6786.000000
1988.857422 6022.000000
1990.156982 6612.000000
1991.455444 5244.000000
1992.753418 6120.000000
1994.049805 6152.000000
1995.346191 5784.000000
1996.641602 5528.000000
1997.936279 6468.000000
1999.230103 5677.000000
2000.522705 6468.000000
2001.814819 5760.000000
2003.106445 7132.000000
2004.397339 6444.000000
2005.686646 6143.000000
2006.975708 6757.000000
2008.264038 5900.000000
2009.551636 5972.000000
2010.838379 6628.000000
2012.124023 5730.000000
2013.409302 6286.000000
2014.693604 5956.000000
2015.977295 5605.000000
2017.259644 5989.000000
2018.541626 6417.000000
2019.823120 6788.000000
2021.103638 5892.000000
2022.383423 6066.000000
2023.662109 6743.000000
2024.940063 5831.000000
2026.217529 5849.000000
2027.494385 6264.000000
2028.769531 5780.000000
2030.044800 6598.000000
2031.319092 6010.000000
2032.592407 5983.000000
2033.864868 5949.000000
2035.136963 6149.000000
2036.407959 6928.000000
2037.678711 6633.000000
2038.948120 5943.000000
2040.216431 6683.000000
2041.484741 6590.000000
2042.752075 5888.000000
2044.018677 5998.000000
2045.284058 5579.000000
2046.548828 5531.000000
2047.813354 5452.000000
2049.076660 5861.000000
2050.339600 6445.000000
2051.600586 6135.000000
2052.862061 6090.000000
2054.122314 5896.000000
2055.381836 6435.000000
2056.640625 6238.000000
2057.898438 6962.000000
2059.155762 6140.000000
2060.412354 5981.000000
2061.667480 6519.000000
2062.922607 5573.000000
2064.176758 5581.000000
2065.430176 5617.000000
2066.682861 6811.000000
2067.934326 6270.000000
2069.185547 6287.000000
2070.436035 5615.000000
2071.685791 5322.000000
2072.934082 6158.000000
2074.182373 6460.000000
2075.429688 7443.000000
2076.676270 5606.000000
2077.922119 5984.000000
2079.166748 7032.000000
2080.410889 7588.000000
2081.654541 5426.000000
2082.897217 6020.000000
2084.138672 6953.000000
2085.379883 5933.000000
2086.620605 6340.000000
2087.860352 6756.000000
2089.098877 7036.000000
2090.336914 6231.000000
2091.574219 5870.000000
2092.811279 6620.000000
2094.046875 6005.000000
2095.281738 6236.000000
2096.516357 6086.000000
2097.750000 5637.000000
2098.982666 6053.000000
2100.214600 6838.000000
2101.446045 6457.000000
2102.676514 6852.000000
2103.906250 6007.000000
2105.135742 5926.000000
2106.363281 5960.000000
2107.591064 6006.000000
2108.818115 6297.000000
2110.044189 5511.000000
2111.268799 6385.000000
2112.493652 6968.000000
2113.717285 7064.000000
2114.940430 6239.000000
2116.162354 7538.000000
2117.384033 6011.000000
2118.604736 6804.000000
2119.824707 6057.000000
2121.044189 6103.000000
2122.262207 6617.000000
2123.480225 7018.000000
2124.697266 5741.000000
2125.913818 5782.000000
2127.128662 6559.000000
2128.343750 6327.000000
2129.557861 6988.000000
2130.771240 5694.000000
2131.983887 6093.000000
2133.195068 5803.000000
2134.406494 6614.000000
2135.616699 6732.000000
2136.826416 5944.000000
2138.034668 6175.000000
2139.242920 5614.000000
2140.450439 5852.000000
2141.656738 7661.000000
2142.862305 5837.000000
2144.067627 5635.000000
2145.271973 5409.000000
2146.475586 6404.000000
2147.678711 6207.000000
2148.880371 6534.000000
2150.081787 5310.000000
2151.282471 6251.000000
2152.482422 6012.000000
2153.681152 5887.000000
2154.879639 6997.000000
2156.077637 6161.000000
2157.274658 5987.000000
2158.470947 5081.000000
2159.666016 5286.000000
2160.860840 6142.000000
2162.054932 5483.000000
2163.248047 6050.000000
2164.440186 6919.000000
2165.632080 5892.000000
2166.823242 6317.000000
2168.013428 6287.000000
2169.202881 6473.000000
2170.391846 6858.000000
2171.579834 6005.000000
2172.767578 5711.000000
2173.953857 5914.000000
2175.139404 6603.000000
2176.324707 5940.000000
2177.509521 5858.000000
2178.693115 6350.000000
2179.875977 7525.000000
2181.057861 6302.000000
2182.239502 5953.000000
2183.420654 6561.000000
2184.600586 5656.000000
2185.779541 5559.000000
2186.958008 6365.000000
2188.136230 6838.000000
2189.313232 7150.000000
2190.489258 6732.000000
2191.665039 6058.000000
2192.840332 5575.000000
2194.014160 6676.000000
2195.187500 6085.000000
2196.360596 6173.000000
2197.532471 6392.000000
2198.703857 7023.000000
2199.874756 6360.000000
2201.043945 6882.000000
2202.213135 7579.000000
2203.381836 6285.000000
2204.549561 5874.000000
2205.716309 5632.000000
2206.882324 7080.000000
2208.047852 6647.000000
2209.213135 6022.000000
2210.376953 6741.000000
2211.540283 5373.000000
2212.702393 6176.000000
2213.864746 6170.000000
2215.025879 6705.000000
2216.186035 6582.000000
2217.345703 6275.000000
2218.505127 6576.000000
2219.663330 6317.000000
2220.820557 6222.000000
2221.977539 6760.000000
2223.133789 6558.000000
2224.289307 6752.000000
2225.444092 6234.000000
2226.597900 6417.000000
2227.750732 6000.000000
2228.904053 6953.000000
2230.055420 6168.000000
2231.206543 6192.000000
2232.356934 6491.000000
2233.506836 7681.000000
2234.655762 6303.000000
2235.804199 5212.000000
2236.951172 6777.000000
2238.098389 7022.000000
2239.244385 6030.000000
2240.390137 7187.000000
2241.534180 7225.000000
2242.678467 6703.000000
2243.821777 6101.000000
2244.964355 5936.000000
2246.105957 5783.000000
2247.247314 5798.000000
2248.387695 6418.000000
2249.527344 6454.000000
2250.666504 5805.000000
2251.804443 5879.000000
2252.942383 6145.000000
2254.079346 5308.000000
2255.215576 6321.000000
2256.350830 6118.000000
2257.485352 7238.000000
2258.619629 6338.000000
2259.753418 5361.000000
2260.885742 6058.000000
2262.017578 6812.000000
2263.148926 6225.000000
2264.279297 6469.000000
2265.409424 8138.000000
2266.538330 6632.000000
2267.666748 6064.000000
2268.794678 5530.000000
2269.921631 6086.000000
2271.047852 5976.000000
2272.173096 6740.000000
2273.298340 6489.000000
2274.422852 6388.000000
2275.546143 5881.000000
2276.668701 6276.000000
2277.790771 5897.000000
2278.912354 7315.000000
2280.033203 6360.000000
2281.152832 6403.000000
2282.271973 7132.000000
2283.390869 7678.000000
2284.509033 7210.000000
2285.626221 5913.000000
2286.742432 6343.000000
2287.858398 6916.000000
2288.973633 6800.000000
2290.088135 7396.000000
2291.201416 5778.000000
2292.314697 6362.000000
2293.427246 6009.000000
2294.539063 5369.000000
2295.650146 6805.000000
2296.760010 6492.000000
2297.869385 6172.000000
2298.978516 6630.000000
2300.086670 6339.000000
2301.193848 6754.000000
2302.300781 5869.000000
2303.406982 6197.000000
2304.512695 6533.000000
2305.616943 6515.000000
2306.720947 5389.000000
2307.824463 5762.000000
2308.927490 6515.000000
2310.029297 7382.000000
2311.130371 7271.000000
2312.230957 6654.000000
2313.331055 5472.000000
2314.430420 6311.000000
2315.528320 6549.000000
2316.626709 7031.000000
2317.723633 8124.000000
2318.820313 6852.000000
2319.916504 5750.000000
2321.010986 6882.000000
2322.105469 7606.000000
2323.199219 5800.000000
2324.292725 6049.000000
2325.384521 6461.000000
2326.476318 6977.000000
2327.567383 6045.000000
2328.657715 6240.000000
2329.747070 6871.000000
2330.836426 5963.000000
2331.924561 6282.000000
2333.012207 6815.000000
2334.099609 6533.000000
2335.185303 6747.000000
2336.270752 7735.000000
2337.355957 6320.000000
2338.440186 6711.000000
2339.523438 5886.000000
2340.606445 6367.000000
2341.688477 7183.000000
2342.770264 5988.000000
2343.851318 7431.000000
2344.931152 6680.000000
2346.010498 5731.000000
2347.089355 6718.000000
2348.167725 6545.000000
2349.244629 6326.000000
2350.321289 6885.000000
2351.397705 6011.000000
2352.473145 6388.000000
2353.547607 5843.000000
2354.621826 6285.000000
2355.695313 6719.000000
2356.768311 6295.000000
2357.840088 6993.000000
2358.911621 6258.000000
2359.982178 6791.000000
2361.052490 7535.000000
2362.121826 7502.000000
2363.190186 6763.000000
2364.258301 6788.000000
2365.325684 7018.000000
2366.392578 7102.000000
2367.458740 6060.000000
2368.523682 6650.000000
2369.588623 6977.000000
2370.652832 6296.000000
2371.716309 6937.000000
2372.778564 5665.000000
2373.840820 6297.000000
2374.902100 6335.000000
2375.963135 5928.000000
2377.022949 6263.000000
2378.082031 7887.000000
2379.141113 6451.000000
2380.199219 7615.000000
2381.256592 6889.000000
2382.312988 8031.000000
2383.369141 7807.000000
2384.424805 6215.000000
2385.479736 7070.000000
2386.533203 6767.000000
2387.586914 6499.000000
2388.639648 6311.000000
2389.691895 6703.000000
2390.743408 6160.000000
2391.793945 6574.000000
2392.844238 6494.000000
2393.893555 6127.000000
2394.942871 6187.000000
2395.990723 6944.000000
2397.038086 6924.000000
2398.085205 6345.000000
2399.131348 6822.000000
2400.176758 6134.000000
2401.221436 6705.000000
2402.266113 7665.000000
2403.309326 7402.000000
2404.352539 6525.000000
2405.394287 5721.000000
2406.436279 6698.000000
2407.477539 7083.000000
2408.517822 6081.000000
2409.557373 6358.000000
2410.595947 6291.000000
2411.634766 6088.000000
2412.672363 6502.000000
2413.709717 6855.000000
2414.745850 7316.000000
2415.781738 6142.000000
2416.816895 6260.000000
2417.851563 6917.000000
2418.884766 7227.000000
2419.918213 6428.000000
2420.950684 6617.000000
2421.982910 6812.000000
2423.013672 7071.000000
2424.044434 6367.000000
2425.074707 6793.000000
2426.103760 6846.000000
2427.132813 6621.000000
2428.160156 7415.000000
2429.187988 6611.000000
2430.214600 7299.000000
2431.240967 6929.000000
2432.265869 7662.000000
2433.291016 6523.000000
2434.315186 7107.000000
2435.339111 6671.000000
2436.361816 5771.000000
2437.383789 6356.000000
2438.405518 6614.000000
2439.426514 6627.000000
2440.447021 5963.000000
2441.466309 6515.000000
2442.485596 6536.000000
2443.503906 8441.000000
2444.521973 6283.000000
2445.538574 6459.000000
2446.555176 6567.000000
2447.571045 5984.000000
2448.586914 7055.000000
2449.601318 6807.000000
2450.614990 5462.000000
2451.628174 7206.000000
2452.641113 6005.000000
2453.653320 7102.000000
2454.664551 6662.000000
2455.675537 7669.000000
2456.685791 6360.000000
2457.695557 7623.000000
2458.704346 5877.000000
2459.712402 5972.000000
2460.720459 6291.000000
2461.727295 7297.000000
2462.733887 5435.000000
2463.739258 7350.000000
2464.744385 6897.000000
2465.749268 5843.000000
2466.752930 6566.000000
2467.756348 6350.000000
2468.758789 7573.000000
2469.760986 7302.000000
2470.762695 6978.000000
2471.763428 6549.000000
2472.763184 6889.000000
2473.762939 6702.000000
2474.761719 5641.000000
2475.760010 6564.000000
2476.757324 7035.000000
2477.754395 6179.000000
2478.751465 6913.000000
2479.747070 5762.000000
2480.742676 7101.000000
2481.736572 6638.000000
2482.730469 8026.000000
2483.723877 6847.000000
2484.716797 6785.000000
2485.708740 7530.000000
2486.699951 7241.000000
2487.690918 6721.000000
2488.681396 5799.000000
2489.670898 6483.000000
2490.659668 6481.000000
2491.648438 5674.000000
2492.636230 6770.000000
2493.622803 6587.000000
2494.609375 7851.000000
2495.595459 6703.000000
2496.580811 7025.000000
2497.565186 8333.000000
2498.549316 6034.000000
2499.533447 6863.000000
2500.516113 5774.000000
2501.498291 6950.000000
2502.479980 6739.000000
2503.460938 7324.000000
2504.441406 6551.000000
2505.421631 5717.000000
2506.400391 6317.000000
2507.378906 7522.000000
2508.356934 6753.000000
2509.334473 7083.000000
2510.311035 6067.000000
2511.287354 5899.000000
2512.262939 6405.000000
2513.238037 6251.000000
2514.212646 6367.000000
2515.186035 7499.000000
2516.159180 6766.000000
2517.132080 6886.000000
2518.104004 6131.000000
2519.075195 6742.000000
2520.045898 6866.000000
2521.016357 7709.000000
2521.986084 8020.000000
2522.954834 6059.000000
2523.922852 6125.000000
2524.890869 7777.000000
2525.857910 6306.000000
2526.824707 5529.000000
2527.790283 7226.000000
2528.755859 7002.000000
2529.720703 7723.000000
2530.685059 6368.000000
2531.648193 6327.000000
2532.611572 5861.000000
2533.573975 5952.000000
2534.536133 6683.000000
2535.497070 6325.000000
2536.457275 6118.000000
2537.417725 6099.000000
2538.377197 6669.000000
2539.335938 6826.000000
2540.293701 6590.000000
2541.251709 6228.000000
2542.208984 6718.000000
2543.165283 6043.000000
2544.121338 7085.000000
2545.076172 6180.000000
2546.031250 7648.000000
2546.985596 7057.000000
2547.939209 6870.000000
2548.891846 7178.000000
2549.844238 6736.000000
2550.796143 6956.000000
2551.747314 6403.000000
2552.697754 7705.000000
2553.647705 7204.000000
2554.597412 7380.000000
2555.546387 6585.000000
2556.494873 6234.000000
2557.442139 7043.000000
2558.389404 6301.000000
2559.335938 6584.000000
2560.281982 6750.000000
2561.227051 7401.000000
2562.171875 6738.000000
2563.116211 7175.000000
2564.060059 6752.000000
2565.003418 6625.000000
2565.945313 6582.000000
2566.887451 6540.000000
2567.828857 6111.000000
2568.769531 7157.000000
2569.709473 7299.000000
2570.649414 5693.000000
2571.588379 6140.000000
2572.527100 7506.000000
2573.464844 7202.000000
2574.402344 5471.000000
2575.339111 6994.000000
2576.275146 6828.000000
2577.210693 7496.000000
2578.145508 6369.000000
2579.080322 5866.000000
2580.014160 7041.000000
2580.947510 7001.000000
2581.880127 5868.000000
2582.812500 6930.000000
2583.744141 5404.000000
2584.675293 7026.000000
2585.605957 6927.000000
2586.535400 6924.000000
2587.464844 7269.000000
2588.393799 6493.000000
2589.322510 7329.000000
2590.249512 7318.000000
2591.176758 5861.000000
2592.103516 6751.000000
2593.029541 6250.000000
2593.955322 5575.000000
2594.879883 7624.000000
2595.804199 7591.000000
2596.728027 5370.000000
2597.651367 7212.000000
2598.573730 6150.000000
2599.495850 6813.000000
2600.417480 8355.000000
2601.338379 6452.000000
2602.258545 6032.000000
2603.178467 6337.000000
2604.097900 6418.000000
2605.017090 6383.000000
2605.935303 5828.000000
2606.852295 6013.000000
2607.769531 7258.000000
2608.686523 5872.000000
2609.602539 7554.000000
2610.517334 6604.000000
2611.432617 6594.000000
2612.347168 6512.000000
2613.260742 6521.000000
2614.174316 6124.000000
2615.086670 7628.000000
2615.999023 7076.000000
2616.910400 6700.000000
2617.821533 5691.000000
2618.731934 7204.000000
2619.642090 6589.000000
2620.551514 6076.000000
2621.460449 6621.000000
2622.368408 6251.000000
2623.276611 6812.000000
2624.183838 6666.000000
2625.090576 6968.000000
2625.996582 6026.000000
2626.902344 6627.000000
2627.807373 6440.000000
2628.712158 7865.000000
2629.616211 6425.000000
2630.519287 6345.000000
2631.422363 6374.000000
2632.324463 5592.000000
2633.226563 6742.000000
2634.128418 6935.000000
2635.028564 6715.000000
2635.928955 6360.000000
2636.828613 6400.000000
2637.728027 5976.000000
2638.625977 6803.000000
2639.524414 6699.000000
2640.422363 6376.000000
2641.319580 6056.000000
2642.215576 6165.000000
2643.111572 6815.000000
2644.007324 6022.000000
2644.902344 6429.000000
2645.797119 6628.000000
2646.690430 7099.000000
2647.583740 6262.000000
2648.476807 6789.000000
2649.369629 6443.000000
2650.260742 7425.000000
2651.152100 6335.000000
2652.042969 7589.000000
2652.933105 7191.000000
2653.822998 6526.000000
2654.711670 7294.000000
2655.600586 6554.000000
2656.489014 6578.000000
2657.376465 7314.000000
2658.262939 6397.000000
2659.149902 7073.000000
2660.036133 6841.000000
2660.921875 6853.000000
2661.806396 6501.000000
2662.690918 6422.000000
2663.575195 6186.000000
2664.458740 7027.000000
2665.341797 7802.000000
2666.224121 7307.000000
2667.105957 6221.000000
2667.987061 6625.000000
2668.868408 6027.000000
2669.748291 6532.000000
2670.628418 7415.000000
2671.507813 7199.000000
2672.387207 6230.000000
2673.265869 6067.000000
2674.142822 6369.000000
2675.020508 6698.000000
2675.897461 6374.000000
2676.773682 8040.000000
2677.649414 7223.000000
2678.524414 6275.000000
2679.399658 7709.000000
2680.273926 6925.000000
2681.147705 7337.000000
2682.020752 6959.000000
2682.893555 6207.000000
2683.766113 6099.000000
2684.637939 6950.000000
2685.509033 6530.000000
2686.379883 6831.000000
2687.250244 7099.000000
2688.120361 6646.000000
2688.988770 6261.000000
2689.857910 7413.000000
2690.726318 7074.000000
2691.594482 6634.000000
2692.461914 6933.000000
2693.328125 5810.000000
2694.194824 7143.000000
2695.060547 7397.000000
2695.926270 7216.000000
2696.790527 7886.000000
2697.655518 6604.000000
2698.519043 7171.000000
2699.382813 5810.000000
2700.245117 7400.000000
2701.107910 6741.000000
2701.969727 5896.000000
2702.831055 6886.000000
2703.692383 6653.000000
2704.552490 7400.000000
2705.412598 7306.000000
2706.272217 6540.000000
2707.131592 6825.000000
2707.989258 7134.000000
2708.847168 6860.000000
2709.705566 7268.000000
2710.562744 6632.000000
2711.419189 5994.000000
2712.275146 6845.000000
2713.131104 6069.000000
2713.986328 6896.000000
2714.840820 6060.000000
2715.694824 6789.000000
2716.548828 7274.000000
2717.401855 6191.000000
2718.255127 6448.000000
2719.106689 7729.000000
2719.958740 6747.000000
2720.810547 6325.000000
2721.661133 6506.000000
2722.511719 6545.000000
2723.361816 7066.000000
2724.211182 7039.000000
2725.060547 7011.000000
2725.908691 6605.000000
2726.756348 6566.000000
2727.604492 6932.000000
2728.451416 6875.000000
2729.298828 5467.000000
2730.144775 7407.000000
2730.989990 7020.000000
2731.835693 6420.000000
2732.680420 6958.000000
2733.525146 7302.000000
2734.368652 6854.000000
2735.212402 7737.000000
2736.055420 7065.000000
2736.897949 6020.000000
2737.739502 6212.000000
2738.581543 6777.000000
2739.422607 6887.000000
2740.263428 5810.000000
2741.104004 5873.000000
2741.943359 7709.000000
2742.782715 6855.000000
2743.622070 6903.000000
2744.460205 6752.000000
2745.297852 7843.000000
2746.135498 6315.000000
2746.972656 7106.000000
2747.809570 6198.000000
2748.645996 5996.000000
2749.481201 6578.000000
2750.316650 6238.000000
2751.151611 6336.000000
2751.985840 6261.000000
2752.819824 6821.000000
2753.653320 6785.000000
2754.486816 7968.000000
2755.319336 6820.000000
2756.151367 7255.000000
2756.982910 6746.000000
2757.814453 7119.000000
2758.645020 7100.000000
2759.475830 7180.000000
2760.305420 7259.000000
2761.135010 6653.000000
2761.964355 7254.000000
2762.792969 6817.000000
2763.621094 6733.000000
2764.448730 6934.000000
2765.276367 6594.000000
2766.103516 7901.000000
2766.929932 5754.000000
2767.755859 7459.000000
2768.581299 6896.000000
2769.406494 7713.000000
2770.231689 6990.000000
2771.055664 6777.000000
2771.879639 6542.000000
2772.703613 7660.000000
2773.526367 6583.000000
2774.349365 6816.000000
2775.171143 6875.000000
2775.992920 6964.000000
2776.814697 6472.000000
2777.635498 7950.000000
2778.455566 6520.000000
2779.275879 6999.000000
2780.095703 7189.000000
2780.915527 6376.000000
2781.733398 5945.000000
2782.552490 8088.000000
2783.370361 6514.000000
2784.187988 6759.000000
2785.005127 7149.000000
2785.821777 7239.000000
2786.638184 7177.000000
2787.454102 6236.000000
2788.269775 5947.000000
2789.084473 6358.000000
2789.899658 6970.000000
2790.714111 7158.000000
2791.528076 6572.000000
2792.341797 7383.000000
2793.154297 8733.000000
2793.967041 6928.000000
2794.779297 7436.000000
2795.591064 7289.000000
2796.402100 7323.000000
2797.213867 6547.000000
2798.024414 7200.000000
2798.834961 7016.000000
2799.644043 7299.000000
2800.453857 8162.000000
2801.262939 7803.000000
2802.071777 6585.000000
2802.880127 7053.000000
2803.687500 6162.000000
2804.495361 6445.000000
2805.302490 6903.000000
2806.109375 6934.000000
2806.915039 7159.000000
2807.721191 6652.000000
2808.526611 6438.000000
2809.332031 7294.000000
2810.136719 6217.000000
2810.940430 7567.000000
2811.744629 7453.000000
2812.548340 6329.000000
2813.351807 6129.000000
2814.153809 6274.000000
2814.956543 7302.000000
2815.758545 7791.000000
2816.560303 6134.000000
2817.361572 6506.000000
2818.162354 7204.000000
2818.962646 6545.000000
2819.763184 6806.000000
2820.562744 7909.000000
2821.361816 7145.000000
2822.160889 6480.000000
2822.959717 6955.000000
2823.758057 6340.000000
2824.555420 7054.000000
2825.353027 7363.000000
2826.149902 6605.000000
2826.947021 7354.000000
2827.743408 8112.000000
2828.539063 7040.000000
2829.334717 7331.000000
2830.130127 7538.000000
2830.925049 7400.000000
2831.719238 6589.000000
2832.513428 6796.000000
2833.307373 5630.000000
2834.100830 6840.000000
2834.893555 7065.000000
2835.686035 8170.000000
2836.478516 7609.000000
2837.270752 7756.000000
2838.062500 6457.000000
2838.853271 6751.000000
2839.644043 8797.000000
2840.435059 7451.000000
2841.225098 6241.000000
2842.014648 7666.000000
2842.804443 7127.000000
2843.593262 7278.000000
2844.382080 7791.000000
2845.170898 7703.000000
2845.958740 7476.000000
2846.746094 7306.000000
2847.533691 7464.000000
2848.320801 7343.000000
2849.107178 6618.000000
2849.893555 7433.000000
2850.679688 7204.000000
2851.465332 7496.000000
2852.250000 7186.000000
2853.035156 6881.000000
2853.820068 7467.000000
2854.604248 7120.000000
2855.388428 6908.000000
2856.171387 8273.000000
2856.954590 6791.000000
2857.737549 6758.000000
2858.520020 7777.000000
2859.302246 6245.000000
2860.083984 6566.000000
2860.865479 7539.000000
2861.647217 7388.000000
2862.428223 7686.000000
2863.208496 6506.000000
2863.988525 6740.000000
2864.768555 8146.000000
2865.548340 7361.000000
2866.327148 8193.000000
2867.106201 7681.000000
2867.884766 6749.000000
2868.663086 7012.000000
2869.440918 7195.000000
2870.218506 6962.000000
2870.995850 7523.000000
2871.772949 6898.000000
2872.549561 6432.000000
2873.325684 7435.000000
2874.101807 7149.000000
2874.877441 8179.000000
2875.652832 7157.000000
2876.427734 6573.000000
2877.202393 7926.000000
2877.977051 6627.000000
2878.751465 7755.000000
2879.525146 6767.000000
2880.298096 7115.000000
2881.071777 6740.000000
2881.844482 7494.000000
2882.617188 7766.000000
2883.389160 8259.000000
2884.160889 6191.000000
2884.933105 6724.000000
2885.704102 6889.000000
2886.474609 6169.000000
2887.245605 8334.000000
2888.016602 7378.000000
2888.786865 7933.000000
2889.556152 7579.000000
2890.325684 6910.000000
2891.095215 7168.000000
2891.864258 7336.000000
2892.632813 7878.000000
2893.401367 7690.000000
2894.168945 6968.000000
2894.937012 6536.000000
2895.704590 7424.000000
2896.472168 8353.000000
2897.238525 7352.000000
2898.005859 6440.000000
2898.771973 7161.000000
2899.538330 6964.000000
2900.303223 8291.000000
2901.068604 6988.000000
2901.834473 6425.000000
2902.598877 7739.000000
2903.363281 7716.000000
2904.127930 8418.000000
2904.891602 6653.000000
2905.656006 8486.000000
2906.419678 6687.000000
2907.182617 8336.000000
2907.945313 6540.000000
2908.708496 8851.000000
2909.471191 6953.000000
2910.232666 6791.000000
2910.994629 6791.000000
