scanname Analyse002
timestamp 2017-02-10 19:47:35
ccdbias 909.661133
ccdgain 3.473401
sigmaread 8.960639
laserwavenum -0.720309
wavenumcorrection -0.197345
scancount 1
totalexposurems 10000
singleexposurems 10000
measurementstate Unknown
scanmode Manual
snr 184.442749 3.821990 3.461763
replacelist 4
374 34911.000000 15042.000000
383 34429.000000 11687.000000
671 32392.000000 9210.000000
672 35733.000000 30943.000000
peaks 28
278.908051 0.492541 0.000000 0.804636 0.000075
285.027344 0.494275 0.000000 0.579965 0.000044
296.809204 0.496591 0.000000 0.272356 0.000017
304.154205 0.499733 0.000000 0.568698 0.000045
334.354706 0.505376 0.000000 0.584969 0.000103
343.308289 0.503655 0.000000 0.208282 0.000016
388.714691 0.518313 0.000000 1.332330 0.000255
503.524963 0.518796 0.000000 0.441840 0.000175
523.052612 0.514402 0.000000 0.336288 0.000017
533.537842 0.517017 0.000000 0.802300 0.000140
570.152710 0.522289 0.000000 0.536609 0.000029
582.676147 0.524997 0.000000 0.369119 0.000033
670.775818 0.521645 0.000000 0.813957 0.000055
677.067444 0.520939 0.000000 1.098007 0.000092
716.177856 0.519294 0.000000 3.858898 0.000713
737.484558 0.508008 0.000000 0.067763 0.000087
766.936951 0.533296 0.000000 3.554437 0.000714
786.161377 0.520986 0.000000 1.873139 0.000444
831.390015 0.499938 0.000000 0.133001 0.000041
875.963501 0.500721 0.000000 0.771442 0.000299
1029.364868 0.475631 0.000000 0.188229 0.000022
1155.869141 0.461210 0.000000 0.234035 0.000034
1322.595093 0.465834 0.000000 2.006649 0.000574
1379.956543 0.439895 0.000000 0.168136 0.000054
1453.036255 0.440923 0.000000 2.392972 0.000765
1659.868164 0.393427 0.000000 0.927408 0.000250
1689.788086 0.385420 0.000000 0.087832 0.000042
2375.353516 0.208063 0.000000 0.021280 0.000369
finalresult GLS_NotPositive 100
A2455	Ammonium tetrafluoroborate	1.216994e-003
A2757	2-Fluorophenol	1.209708e-003
A12813	Niobium(V) fluoride	1.133712e-003
A5126	2,3,4-Trifluorobenzoic acid	1.070881e-003
A13187	Lithium iodate	1.044626e-003
A8324	1,3-Dimethyl-2-imidazolidinone	1.038632e-003
A2760	2-Fluoroaniline	9.426971e-004
A4017	3,4-Dimethoxybenzyl alcohol	9.351699e-004
A13320	Titanium tetrachloride	8.040696e-004
A6327	5-Bromo-1,3-dimethyluracil	7.940847e-004
A0389	Tetrafluoroboric acid solution	7.824242e-004
A2516	Tert-Butyl monoperoxymaleate	7.714198e-004
A4646	1,3-Diacetyl-2-imidazolidinone	7.434346e-004
A3227	Selenium oxychloride	7.198264e-004
A4408	Acetamidine hydrochloride	7.091336e-004
A6844	2-(Trifluoromethyl)acrylic acid	7.051015e-004
A10195	3,4-Dimethoxybenzylamine	7.034771e-004
A10192	Tetramethylurea	6.945491e-004
A1308	Dimethyl methylphosphonate	6.937902e-004
A13717	alpha,alpha,alpha',alpha'-Tetrakis(trifluoromethyl)-1,4-benzenedimethanol	6.891824e-004
A14359	Hexafluoropropene, trimer	6.806407e-004
A10012	3-Chloro-2,4(3H,5H)-furandione	6.763218e-004
A1201	1,1,2,2-Tetrachloro-1,2-dimethyldisilane	6.703886e-004
A0005	Acetone	6.484807e-004
A3447	Drano max clog remover	6.462370e-004
A7060	Dimethylmalonic acid	6.297007e-004
A2298	Sodium peroxide	6.295797e-004
A9225	Methyl 3-amino-2-thiophenecarboxylate	6.280916e-004
A3127	2-Amino-4-methylphenol	6.157386e-004
A2183	Boron trifluoride dihydrate	6.006914e-004
A0534	Sodium nitrite	6.002083e-004
A5002	2,3,4-Trihydroxybenzoic acid	5.935645e-004
A1348	tert-Octylamine	5.886694e-004
A8876	Isoquinoline	5.835718e-004
A2782	Acetamide	5.792553e-004
A8739	Methyl chlorothiolformate	5.710879e-004
A13006	Triethyloxonium hexachloroantimonate	5.677343e-004
A4212	3-Hydroxy-4-methoxybenzyl alcohol	5.343223e-004
A1643	Chrysene	5.292441e-004
A0446	N,N-Dimethylacetamide	5.288711e-004
A6385	Tetrafluorohydroquinone	5.285783e-004
A2428	Dimethylcyanamide	5.284718e-004
A3236	Phosphorus(v) oxybromide	5.242340e-004
A2099	Dibromochloromethane	5.151394e-004
A0633	2,6-Dimethylphenol	5.122959e-004
A3013	Pinacolone	5.061995e-004
A11101	Hydrogen peroxide, 70%	5.056387e-004
A8885	Tetraamminepalladium(II) chloride monohydrate	5.051549e-004
A0113	Hydrogen peroxide	5.038905e-004
A4536	1-Bromo-2,3,5,6-tetrafluorobenzene	5.007015e-004
A12423	Trimethylgermanium bromide	5.004954e-004
A1550	Nitroethane	5.004450e-004
A13120	Hydrazine dihydrochloride	5.000416e-004
A7233	Choline bicarbonate	4.987119e-004
A4671	1-Acetyl-4-piperidone	4.950943e-004
A5264	2,2'-(Ethylenedioxy)diethanethiol	4.946165e-004
A4273	2,4-Dibromoaniline	4.937405e-004
A1373	2,4,6-Trimethylphenol	4.933177e-004
A13177	Sodium pyrophosphate tetrabasic	4.917614e-004
A1814	Trimethylene oxide	4.908976e-004
A10584	Boron tribromide	4.901296e-004
A4449	N-Methylsuccinimide	4.885800e-004
A3144	Beryllium chloride	4.846829e-004
A3369	Palladium(II) chloride	4.833652e-004
A10650	Ethylmercuric chloride	4.831263e-004
A11100	Hydrogen peroxide, 50%	4.822970e-004
A5203	2,5-Dimethylthiophene	4.817137e-004
A3009	Phosphorus pentasulfide	4.810340e-004
A9584	2,4,6-Trimethyl-m-phenylenediamine	4.799930e-004
A10284	Iodomethane	4.789349e-004
A10623	4-Chloro-3,5-dimethylphenol,	4.776566e-004
A2435	Sodium percarbonate	4.775361e-004
A2315	Ammonium bromide	4.756404e-004
A2053	3-Chloropropionic acid	4.756164e-004
A1089	Tris(2-chloroethyl) phosphate	4.755685e-004
A1750	2,3-Dimethylaniline	4.754726e-004
A6703	2-Mercaptoethyl ether	4.748256e-004
A3991	Bromomesitylene	4.692137e-004
A1751	2,6-Dimethylaniline	4.676803e-004
A2127	Mercury(II) sulfide red	4.651214e-004
A4364	O-Ethyl bis(dimethylamino) phosphoramidate	4.637403e-004
A3001	Thionyl chloride	4.635064e-004
A2919	Pentylenetetrazole	4.556135e-004
A2302	Mercury(I) chloride	4.548963e-004
A10822	Bis-(dimethylamino)dimethylsilane	4.526360e-004
A0541	Hexamethyldisilazane	4.489752e-004
A0558	Dimethyl sulfoxide	4.475123e-004
A10340	Iodoethane	4.372984e-004
A8768	2-Chloroethyl isocyanate	4.365457e-004
A2471	1,2,3,4-Tetrachloronaphthalene	4.364135e-004
A8185	2,3,4-Trifluoroaniline	4.345691e-004
A1351	Sodium propionate	4.319112e-004
A2800	2-Bromoethylamine hydrobromide	4.109466e-004
A2686	1,3-Dioxane	4.087338e-004
A1554	Trimethyl phosphate	4.040571e-004
A2171	Potassium hexafluorozirconate	4.002814e-004
A3188	1,1,1-Trichloroethane	3.960797e-004
A5920	Lead(II) oxide yellow	3.932118e-004
A6214	1,2-Dibromotetrachloroethane	3.869637e-004
A4220	Potassium tetrachloropalladate(II)	3.754121e-004
spectrum 2048
-96.881149 45104.000000
-94.254280 45104.000000
-91.629288 45864.000000
-89.006187 46052.000000
-86.384956 46811.000000
-83.765625 46654.000000
-81.148155 47032.000000
-78.532562 46843.000000
-75.918846 47147.000000
-73.307007 47457.000000
-70.697029 47404.000000
-68.088936 47603.000000
-65.482689 47609.000000
-62.878315 47598.000000
-60.275806 47437.000000
-57.675152 48007.000000
-55.076359 47399.000000
-52.479424 46705.000000
-49.884342 47105.000000
-47.291115 47158.000000
-44.699738 47385.000000
-42.110207 46829.000000
-39.522518 47698.000000
-36.936680 47535.000000
-34.352684 47152.000000
-31.770525 47913.000000
-29.190212 47219.000000
-26.611727 47864.000000
-24.035084 47439.000000
-21.460266 47208.000000
-18.887289 46934.000000
-16.316132 46879.000000
-13.746809 46627.000000
-11.179311 45665.000000
-8.613631 47052.000000
-6.049778 46803.000000
-3.487737 47118.000000
-0.927521 47159.000000
1.630887 46677.000000
4.187474 45895.000000
6.742256 45874.000000
9.295221 46164.000000
11.846386 44906.000000
14.395738 44529.000000
16.943295 43758.000000
19.489038 44155.000000
22.032990 43832.000000
24.575136 41876.000000
27.115486 40234.000000
29.654051 37472.000000
32.190819 33017.000000
34.725784 21863.000000
37.258972 11428.000000
39.790379 8392.000000
42.319992 7827.000000
44.847809 7398.000000
47.373867 6513.000000
49.898136 5904.000000
52.420635 5005.000000
54.941338 4631.000000
57.460285 4879.000000
59.977459 5823.000000
62.492855 7244.000000
65.006470 8342.000000
67.518333 8098.000000
70.028450 6062.000000
72.536774 4102.000000
75.043343 3280.000000
77.548164 2681.000000
80.051231 2308.000000
82.552521 2149.000000
85.052071 2009.000000
87.549866 1996.000000
90.045929 2225.000000
92.540215 2605.000000
95.032761 2803.000000
97.523590 2738.000000
100.012650 2499.000000
102.499962 1825.000000
104.985550 1485.000000
107.469398 1419.000000
109.951500 1468.000000
112.431877 1341.000000
114.910530 1182.000000
117.387459 1163.000000
119.862633 1162.000000
122.336098 1237.000000
124.807831 1163.000000
127.277855 1252.000000
129.746124 1297.000000
132.212723 1459.000000
134.677567 1622.000000
137.140717 1651.000000
139.602127 1916.000000
142.061844 2222.000000
144.519836 2546.000000
146.976135 3319.000000
149.430725 4010.000000
151.883591 4903.000000
154.334778 5928.000000
156.784271 7123.000000
159.232040 8529.000000
161.678101 9901.000000
164.122482 11286.000000
166.565186 12576.000000
169.006195 13710.000000
171.445496 14502.000000
173.883087 15133.000000
176.319046 15708.000000
178.753265 15813.000000
181.185806 15979.000000
183.616699 16213.000000
186.045868 16170.000000
188.473389 16451.000000
190.899231 16546.000000
193.323395 16693.000000
195.745895 16971.000000
198.166702 17103.000000
200.585846 17507.000000
203.003326 18205.000000
205.419113 18565.000000
207.833252 19506.000000
210.245758 21221.000000
212.656586 24210.000000
215.065735 26090.000000
217.473251 26318.000000
219.879059 28595.000000
222.283279 29039.000000
224.685791 29856.000000
227.086685 30167.000000
229.485931 31085.000000
231.883514 31078.000000
234.279434 30898.000000
236.673737 31685.000000
239.066376 32195.000000
241.457397 31653.000000
243.846756 32004.000000
246.234497 32373.000000
248.620590 31810.000000
251.005051 32794.000000
253.387863 31166.000000
255.769104 32457.000000
258.148651 32415.000000
260.526611 32627.000000
262.902893 31604.000000
265.277618 31588.000000
267.650696 31139.000000
270.022125 32481.000000
272.391907 32090.000000
274.760132 32629.000000
277.126709 32311.000000
279.491699 32207.000000
281.855072 32594.000000
284.216797 32475.000000
286.576935 31662.000000
288.935455 32599.000000
291.292389 32121.000000
293.647705 32332.000000
296.001434 32770.000000
298.353516 32768.000000
300.704041 32451.000000
303.052979 32454.000000
305.400269 32087.000000
307.746033 32461.000000
310.090118 32364.000000
312.432678 31699.000000
314.773621 31584.000000
317.112946 31689.000000
319.450714 31838.000000
321.786926 30564.000000
324.121490 32151.000000
326.454498 31823.000000
328.785950 32253.000000
331.115814 31715.000000
333.444092 31948.000000
335.770752 31218.000000
338.095917 31930.000000
340.419464 32034.000000
342.741455 32261.000000
345.061890 30920.000000
347.380707 30539.000000
349.697968 32048.000000
352.013702 32144.000000
354.327850 31113.000000
356.640411 31816.000000
358.951416 31749.000000
361.260895 31099.000000
363.568848 31713.000000
365.875183 32238.000000
368.179932 31597.000000
370.483215 31738.000000
372.784882 31870.000000
375.085052 31730.000000
377.383667 31780.000000
379.680725 32174.000000
381.976227 32195.000000
384.270203 32541.000000
386.562592 33249.000000
388.853485 33172.000000
391.142853 32763.000000
393.430634 32839.000000
395.716888 32822.000000
398.001648 32359.000000
400.284790 33296.000000
402.566498 32870.000000
404.846680 33214.000000
407.125275 32088.000000
409.402344 32838.000000
411.677887 32389.000000
413.951904 32468.000000
416.224487 32495.000000
418.495453 32508.000000
420.764923 32433.000000
423.032898 31795.000000
425.299316 31539.000000
427.564240 32203.000000
429.827698 32003.000000
432.089569 31727.000000
434.349976 32145.000000
436.608826 31407.000000
438.866211 31806.000000
441.122101 32142.000000
443.376495 31894.000000
445.629364 32138.000000
447.880676 30803.000000
450.130585 31465.000000
452.378906 31212.000000
454.625793 31740.000000
456.871216 30939.000000
459.115082 30966.000000
461.357452 30862.000000
463.598328 31661.000000
465.837799 30592.000000
468.075684 31889.000000
470.312134 31437.000000
472.547058 31285.000000
474.780518 30011.000000
477.012543 30556.000000
479.243042 31454.000000
481.472046 30582.000000
483.699585 30891.000000
485.925629 31237.000000
488.150238 30787.000000
490.373383 31444.000000
492.595062 30968.000000
494.815186 30739.000000
497.033905 31706.000000
499.251129 31266.000000
501.466980 32047.000000
503.681213 31641.000000
505.894135 31473.000000
508.105469 31531.000000
510.315369 31161.000000
512.523804 31554.000000
514.730896 31439.000000
516.936401 31425.000000
519.140503 31275.000000
521.343079 31545.000000
523.544250 31104.000000
525.744080 30930.000000
527.942383 30546.000000
530.139160 31959.000000
532.334595 31382.000000
534.528503 31820.000000
536.721069 29939.000000
538.912109 30793.000000
541.101746 31111.000000
543.289978 30252.000000
545.476685 29963.000000
547.661926 29873.000000
549.845886 30139.000000
552.028259 29841.000000
554.209290 29977.000000
556.388794 29970.000000
558.567017 30066.000000
560.743713 29878.000000
562.919006 29595.000000
565.092896 29517.000000
567.265320 29992.000000
569.436340 29844.000000
571.605896 29608.000000
573.774170 30661.000000
575.940918 29549.000000
578.106201 29792.000000
580.270081 30031.000000
582.432678 30293.000000
584.593750 30179.000000
586.753418 30589.000000
588.911743 30635.000000
591.068542 30298.000000
593.223999 30054.000000
595.378052 30882.000000
597.530762 30618.000000
599.681946 29655.000000
601.831787 30089.000000
603.980286 30059.000000
606.127197 30644.000000
608.272888 30292.000000
610.417175 30375.000000
612.559998 29842.000000
614.701355 30726.000000
616.841492 30300.000000
618.980103 29115.000000
621.117432 30826.000000
623.253296 29828.000000
625.387756 29579.000000
627.520752 29179.000000
629.652588 29401.000000
631.782959 29391.000000
633.911926 29136.000000
636.039429 29258.000000
638.165649 29378.000000
640.290344 28069.000000
642.413818 29091.000000
644.535950 28536.000000
646.656616 28153.000000
648.775940 28419.000000
650.893860 29002.000000
653.010437 28954.000000
655.125610 28276.000000
657.239441 28263.000000
659.351807 28866.000000
661.462952 28524.000000
663.572693 29224.000000
665.680969 28760.000000
667.788086 28598.000000
669.893738 28164.000000
671.997925 29085.000000
674.100891 29212.000000
676.202454 28192.000000
678.302673 29900.000000
680.401489 28671.000000
682.498962 29321.000000
684.595154 28701.000000
686.689880 29279.000000
688.783386 28557.000000
690.875549 28993.000000
692.966187 27762.000000
695.055603 28970.000000
697.143738 28813.000000
699.230408 29147.000000
701.315857 28309.000000
703.399780 29665.000000
705.482483 28861.000000
707.563904 28671.000000
709.643860 26966.000000
711.722595 28021.000000
713.799866 28441.000000
715.875854 27710.000000
717.950562 28235.000000
720.023987 27463.000000
722.095886 28174.000000
724.166626 26922.000000
726.236023 28359.000000
728.304016 27442.000000
730.370667 27466.000000
732.436096 26732.000000
734.500183 27883.000000
736.562927 27477.000000
738.624329 27107.000000
740.684448 26968.000000
742.743164 27404.000000
744.800659 26785.000000
746.856873 26770.000000
748.911682 26741.000000
750.965210 27180.000000
753.017334 25945.000000
755.068237 27542.000000
757.117920 26567.000000
759.166138 27030.000000
761.213135 27328.000000
763.258850 26638.000000
765.303162 28515.000000
767.346191 28538.000000
769.388000 27805.000000
771.428467 27072.000000
773.467529 26828.000000
775.505432 27063.000000
777.541992 27271.000000
779.577332 27990.000000
781.611328 27859.000000
783.643921 27031.000000
785.675354 28667.000000
787.705383 28351.500000
789.734131 28036.000000
791.761719 27293.000000
793.787964 27250.000000
795.812805 27785.000000
797.836548 28109.000000
799.858887 27315.000000
801.880005 27903.000000
803.899780 27128.000000
805.918274 28739.000000
807.935547 27074.000000
809.951416 26970.000000
811.966125 27753.000000
813.979492 26936.000000
815.991638 26945.000000
818.002563 26809.000000
820.012146 26135.000000
822.020508 26981.000000
824.027466 26411.000000
826.033203 26202.000000
828.037720 26246.000000
830.040955 26447.000000
832.042908 25687.000000
834.043579 25985.000000
836.043030 26212.000000
838.041138 25949.000000
840.038147 25261.000000
842.033752 25669.000000
844.028198 25679.000000
846.021301 25536.000000
848.013184 24770.000000
850.003723 25674.000000
851.992981 24619.000000
853.981201 25026.000000
855.968018 25303.000000
857.953613 24907.000000
859.937927 24340.000000
861.921143 24954.000000
863.902954 24813.000000
865.883545 25379.000000
867.862854 23915.000000
869.841003 24420.000000
871.817810 24968.000000
873.793335 25158.000000
875.767822 25410.000000
877.740845 25622.000000
879.712830 26143.000000
881.683472 25405.000000
883.652954 25657.000000
885.621094 25843.000000
887.588074 26084.000000
889.553711 25530.000000
891.518188 25862.000000
893.481445 25695.000000
895.443481 25322.000000
897.404236 25776.000000
899.363770 25415.000000
901.322021 25151.000000
903.279175 25206.000000
905.235168 25580.000000
907.189758 24936.000000
909.143127 25270.000000
911.095337 25146.000000
913.046326 25149.000000
914.996033 24299.000000
916.944580 24461.000000
918.891907 24559.000000
920.837952 24273.000000
922.782715 24029.000000
924.726440 23669.000000
926.669006 23541.000000
928.610291 23402.000000
930.550232 22954.000000
932.489075 22958.000000
934.426636 23013.000000
936.362976 22706.000000
938.298157 22932.000000
940.232056 22835.000000
942.164856 22999.000000
944.096436 22642.000000
946.026855 23373.000000
947.956055 23036.000000
949.883911 22963.000000
951.810730 22971.000000
953.736267 23064.000000
955.660522 23487.000000
957.583679 23499.000000
959.505676 23554.000000
961.426392 23190.000000
963.345947 23392.000000
965.264343 24055.000000
967.181702 23729.000000
969.097595 23781.000000
971.012390 23856.000000
972.925964 23976.000000
974.838379 23850.000000
976.749573 23730.000000
978.659607 24166.000000
980.568359 23712.000000
982.476074 23921.000000
984.382568 23584.000000
986.287842 23916.000000
988.192017 23400.000000
990.094971 23643.000000
991.996704 23422.000000
993.897278 23479.000000
995.796692 23127.000000
997.694885 23703.000000
999.591919 23030.000000
1001.487732 22827.000000
1003.382385 22074.000000
1005.275940 22515.000000
1007.168213 21881.000000
1009.059570 22168.000000
1010.949585 21959.000000
1012.838379 21536.000000
1014.726013 21667.000000
1016.612488 21478.000000
1018.497803 21504.000000
1020.381958 21651.000000
1022.264893 21548.000000
1024.146851 21482.000000
1026.027466 21739.000000
1027.906982 21712.000000
1029.785522 21661.000000
1031.662720 21815.000000
1033.538574 21524.000000
1035.413452 21699.000000
1037.287354 21608.000000
1039.159790 21582.000000
1041.031250 21446.000000
1042.901367 21595.000000
1044.770508 21709.000000
1046.638428 21584.000000
1048.505249 21324.000000
1050.370972 21665.000000
1052.235474 21879.000000
1054.098877 22009.000000
1055.960938 22039.000000
1057.822021 22052.000000
1059.682007 21963.000000
1061.540649 21870.000000
1063.398193 22146.000000
1065.254639 21951.000000
1067.109985 22267.000000
1068.964111 22282.000000
1070.817383 22023.000000
1072.669189 21992.000000
1074.520020 21878.000000
1076.369629 21842.000000
1078.218018 22235.000000
1080.065552 21438.000000
1081.911743 21989.000000
1083.756714 21759.000000
1085.600830 21872.000000
1087.443604 21873.000000
1089.285156 21536.000000
1091.125977 21515.000000
1092.965210 21365.000000
1094.803711 21468.000000
1096.640869 21438.000000
1098.476807 21192.000000
1100.311768 20821.000000
1102.145508 20509.000000
1103.978271 20436.000000
1105.809692 20512.000000
1107.640259 20565.000000
1109.469482 20302.000000
1111.297729 19865.000000
1113.124756 19720.000000
1114.950806 19716.000000
1116.775635 19670.000000
1118.599365 19468.000000
1120.421875 19770.000000
1122.243286 19716.000000
1124.063843 19809.000000
1125.882935 19808.000000
1127.701172 19717.000000
1129.518066 19608.000000
1131.334106 19916.000000
1133.148926 19890.000000
1134.962646 20020.000000
1136.775269 20087.000000
1138.586670 20217.000000
1140.397095 20444.000000
1142.206421 20489.000000
1144.014404 20391.000000
1145.821655 20699.000000
1147.627441 20574.000000
1149.432373 20617.000000
1151.236206 20673.000000
1153.038818 20793.000000
1154.840576 20737.000000
1156.640869 20652.000000
1158.440186 20611.000000
1160.238525 20601.000000
1162.035522 20502.000000
1163.831787 20513.000000
1165.626709 20207.000000
1167.420532 20062.000000
1169.213501 19642.000000
1171.005127 19969.000000
1172.795776 19515.000000
1174.585449 19558.000000
1176.373657 19469.000000
1178.161011 19195.000000
1179.947266 19178.000000
1181.732422 19470.000000
1183.516479 19232.000000
1185.299438 19134.000000
1187.081421 19343.000000
1188.862183 19205.000000
1190.641968 19149.000000
1192.420654 18987.000000
1194.198364 19140.000000
1195.974854 18858.000000
1197.750244 18706.000000
1199.524536 18569.000000
1201.297729 18290.000000
1203.070068 18329.000000
1204.841064 18096.000000
1206.611206 18160.000000
1208.380127 18086.000000
1210.147949 18139.000000
1211.914917 18150.000000
1213.680542 18024.000000
1215.445190 18024.000000
1217.208740 18059.000000
1218.971191 18122.000000
1220.732788 17911.000000
1222.493164 17900.000000
1224.252441 17636.000000
1226.010864 17829.000000
1227.768066 17864.000000
1229.524170 17966.000000
1231.279175 18148.000000
1233.033325 18167.000000
1234.786133 18261.000000
1236.537964 18269.000000
1238.288940 18215.000000
1240.038574 18369.000000
1241.787354 18307.000000
1243.534790 18562.000000
1245.281494 18405.000000
1247.026978 18426.000000
1248.771606 18478.000000
1250.514893 18375.000000
1252.257202 18316.000000
1253.998413 18289.000000
1255.738770 18191.000000
1257.478027 17692.000000
1259.216064 17263.000000
1260.953247 17112.000000
1262.689209 17322.000000
1264.424194 17538.000000
1266.158203 17592.000000
1267.891235 17978.000000
1269.623047 18005.000000
1271.353882 18052.000000
1273.083496 18328.000000
1274.812256 18283.000000
1276.539917 18277.000000
1278.266479 18295.000000
1279.992188 18308.000000
1281.716553 18272.000000
1283.440063 18286.000000
1285.162598 17933.000000
1286.884155 18206.000000
1288.604492 17947.000000
1290.323853 17967.000000
1292.042114 17920.000000
1293.759399 17898.000000
1295.475708 17929.000000
1297.190796 18059.000000
1298.904907 18155.000000
1300.618042 17879.000000
1302.330322 17612.000000
1304.041382 17275.000000
1305.751465 17363.000000
1307.460449 17082.000000
1309.168213 17075.000000
1310.875366 17069.000000
1312.581055 17117.000000
1314.286011 16865.000000
1315.989990 17123.000000
1317.692749 17290.000000
1319.394531 17722.000000
1321.095459 21414.000000
1322.795044 13102.000000
1324.493774 19811.000000
1326.191772 16440.000000
1327.888428 16293.000000
1329.583984 16272.000000
1331.278687 16209.000000
1332.972168 16216.000000
1334.664795 16248.000000
1336.356567 16201.000000
1338.046997 16219.000000
1339.736694 15915.000000
1341.425293 15896.000000
1343.112793 16004.000000
1344.799316 15963.000000
1346.484741 15733.000000
1348.169189 15795.000000
1349.852783 15907.000000
1351.535156 15956.000000
1353.216553 16142.000000
1354.897095 16450.000000
1356.576416 16435.000000
1358.255127 16489.000000
1359.932495 16876.000000
1361.608765 16751.000000
1363.284058 16861.000000
1364.958618 16810.000000
1366.631958 16737.000000
1368.304321 16699.000000
1369.975708 16781.000000
1371.646118 16607.000000
1373.315430 16640.000000
1374.983765 16695.000000
1376.651245 16751.000000
1378.317627 16663.000000
1379.983032 16554.000000
1381.647461 16628.000000
1383.310669 16469.000000
1384.973267 16358.000000
1386.634521 16131.000000
1388.294922 16196.000000
1389.954224 15863.000000
1391.612549 15742.000000
1393.270142 15900.000000
1394.926514 15841.000000
1396.582031 16016.000000
1398.236328 15869.000000
1399.889771 16068.000000
1401.542114 16016.000000
1403.193726 16082.000000
1404.844116 15973.000000
1406.493408 15514.000000
1408.141968 15147.000000
1409.789429 15172.000000
1411.435913 14943.000000
1413.081543 14802.000000
1414.726196 14980.000000
1416.369629 14810.000000
1418.012207 14739.000000
1419.653687 14547.000000
1421.294312 14792.000000
1422.933960 14671.000000
1424.572510 14640.000000
1426.210205 14542.000000
1427.846802 14462.000000
1429.482422 14436.000000
1431.117310 14403.000000
1432.751099 14304.000000
1434.383789 14392.000000
1436.015503 14304.000000
1437.646362 14128.000000
1439.276123 14297.000000
1440.904785 14092.000000
1442.532837 14312.000000
1444.159790 14199.000000
1445.785522 14271.000000
1447.410645 14282.000000
1449.034668 14332.000000
1450.657715 14449.000000
1452.279785 14445.000000
1453.900757 14502.000000
1455.520752 14645.000000
1457.140015 14569.000000
1458.757935 16723.000000
1460.375244 11662.000000
1461.991577 14453.000000
1463.606689 14206.000000
1465.220947 14342.000000
1466.834351 14513.000000
1468.446655 14816.000000
1470.058105 14598.000000
1471.668701 14500.000000
1473.278076 14764.000000
1474.886475 14486.000000
1476.494019 14500.000000
1478.100586 14744.000000
1479.706421 14767.000000
1481.311035 14520.000000
1482.914795 14464.000000
1484.517334 14004.000000
1486.119263 13513.000000
1487.719971 13746.000000
1489.319946 13500.000000
1490.918823 13348.000000
1492.516846 13661.000000
1494.113770 13434.000000
1495.709839 13757.000000
1497.304932 14420.000000
1498.899048 14251.000000
1500.492432 14155.000000
1502.084717 14157.000000
1503.675781 14131.000000
1505.266357 14011.000000
1506.855591 13950.000000
1508.444214 13839.000000
1510.031738 13665.000000
1511.618164 13566.000000
1513.203857 13671.000000
1514.788452 13619.000000
1516.372192 13622.000000
1517.954834 13457.000000
1519.536743 13616.000000
1521.117554 13626.000000
1522.697632 13515.000000
1524.276489 13232.000000
1525.854492 13053.000000
1527.431763 13067.000000
1529.007813 13024.000000
1530.583130 12925.000000
1532.157349 12940.000000
1533.730835 12954.000000
1535.303101 12902.000000
1536.874634 12912.000000
1538.445190 12795.000000
1540.014893 12831.000000
1541.583374 12819.000000
1543.151123 12724.000000
1544.718018 12584.000000
1546.283691 12575.000000
1547.848633 12679.000000
1549.412476 12621.000000
1550.975708 12385.000000
1552.537598 12568.000000
1554.098877 12566.000000
1555.659058 12499.000000
1557.218506 12381.000000
1558.776855 12650.000000
1560.334473 12315.000000
1561.890991 12356.000000
1563.446289 12334.000000
1565.000977 12286.000000
1566.554932 12405.000000
1568.107910 12426.000000
1569.659546 12327.000000
1571.210449 12371.000000
1572.760620 12384.000000
1574.309814 12423.000000
1575.857666 12473.000000
1577.405029 12217.000000
1578.951416 12410.000000
1580.496948 12488.000000
1582.041504 12501.000000
1583.584839 12390.000000
1585.127563 12373.000000
1586.669434 12352.000000
1588.210205 12273.000000
1589.750000 12414.000000
1591.289063 12056.000000
1592.827026 12135.000000
1594.364502 12103.000000
1595.900635 12307.000000
1597.435669 12137.000000
1598.970215 12076.000000
1600.503784 12097.000000
1602.036499 12111.000000
1603.567627 12174.000000
1605.098511 12030.000000
1606.628540 12125.000000
1608.157349 11909.000000
1609.685059 11931.000000
1611.212158 12103.000000
1612.738525 12196.000000
1614.263916 11990.000000
1615.788452 12078.000000
1617.311646 11902.000000
1618.834106 11942.000000
1620.355835 12067.000000
1621.876709 12132.000000
1623.396118 11201.000000
1624.915039 11777.000000
1626.433228 11843.000000
1627.950562 11761.000000
1629.466797 11883.000000
1630.981689 11658.000000
1632.496094 11554.000000
1634.009766 11550.000000
1635.522339 11525.000000
1637.033691 11498.000000
1638.544678 11461.000000
1640.054565 11656.000000
1641.563599 11536.000000
1643.071289 11425.000000
1644.578613 11247.000000
1646.085083 11301.000000
1647.590576 11292.000000
1649.095215 11068.000000
1650.598389 11227.000000
1652.100952 11058.000000
1653.603149 10982.000000
1655.104004 10973.000000
1656.603760 10836.000000
1658.102661 10953.000000
1659.601196 10871.000000
1661.098511 10869.000000
1662.595093 10942.000000
1664.090088 10828.000000
1665.584839 10650.000000
1667.078735 10467.000000
1668.571655 11942.000000
1670.063232 8604.000000
1671.554321 10499.000000
1673.044800 10317.000000
1674.534180 10458.000000
1676.022095 10332.000000
1677.509766 10383.000000
1678.996460 10342.000000
1680.482300 10495.000000
1681.967285 10360.000000
1683.450806 10209.000000
1684.934082 10085.000000
1686.416504 10292.000000
1687.897827 10158.000000
1689.377686 10117.000000
1690.857300 10146.000000
1692.336182 10171.000000
1693.814087 10781.000000
1695.291016 10111.000000
1696.766724 10094.000000
1698.242065 10140.000000
1699.716187 10131.000000
1701.189697 9958.000000
1702.661743 9998.000000
1704.133545 10104.000000
1705.604370 10096.000000
1707.074341 9838.000000
1708.542969 10127.000000
1710.011108 10169.000000
1711.478516 10016.000000
1712.944824 10041.000000
1714.410522 10080.000000
1715.874512 9942.000000
1717.338379 10094.000000
1718.801392 9912.000000
1720.263428 10007.000000
1721.724243 10147.000000
1723.184448 10044.000000
1724.643921 10057.000000
1726.102539 10088.000000
1727.560181 10102.000000
1729.016479 9994.000000
1730.472534 10055.000000
1731.927612 9931.000000
1733.381714 9952.000000
1734.834595 9879.000000
1736.287231 10000.000000
1737.738770 9814.000000
1739.189575 10023.000000
1740.639404 9816.000000
1742.087891 9850.000000
1743.536011 9741.000000
1744.983276 9607.000000
1746.429810 9727.000000
1747.874756 9647.000000
1749.319458 9732.000000
1750.763306 9489.000000
1752.206299 9625.000000
1753.647827 9558.000000
1755.089111 9983.000000
1756.529541 8476.000000
1757.968994 9511.000000
1759.407471 9305.000000
1760.844971 9279.000000
1762.281982 9125.000000
1763.718018 9213.000000
1765.153198 9141.000000
1766.586914 9258.000000
1768.020508 9374.000000
1769.453125 9399.000000
1770.884888 9361.000000
1772.315796 9358.000000
1773.745483 9165.000000
1775.174438 9136.000000
1776.602905 8838.000000
1778.030396 8767.000000
1779.456543 8339.000000
1780.882446 8853.000000
1782.307251 8840.000000
1783.731445 8696.000000
1785.154175 8731.000000
1786.576416 8781.000000
1787.997925 8753.000000
1789.418701 8595.000000
1790.838501 8648.000000
1792.256958 8559.000000
1793.674927 8382.000000
1795.092285 8515.000000
1796.508789 8522.000000
1797.923828 8441.000000
1799.338501 8446.000000
1800.752563 8489.000000
1802.165405 8507.000000
1803.577637 8340.000000
1804.988525 8406.000000
1806.398926 8336.000000
1807.808594 8278.000000
1809.217285 8279.000000
1810.624878 8488.000000
1812.031982 8280.000000
1813.438232 8380.000000
1814.843506 8387.000000
1816.247681 8353.000000
1817.651489 8356.000000
1819.054321 8387.000000
1820.456299 8284.000000
1821.857666 8309.000000
1823.257568 8354.000000
1824.656860 8305.000000
1826.055664 8331.000000
1827.453613 8253.000000
1828.850220 8353.000000
1830.246216 8272.000000
1831.641479 8449.000000
1833.036133 8150.000000
1834.429810 8286.000000
1835.822144 8266.000000
1837.213989 8311.000000
1838.605225 8234.000000
1839.995483 8196.000000
1841.384521 8081.000000
1842.773193 8212.000000
1844.160889 8177.000000
1845.547852 8121.000000
1846.933472 8052.000000
1848.318848 8189.000000
1849.703369 7928.000000
1851.087158 8065.000000
1852.469849 8045.000000
1853.851318 7925.000000
1855.232300 7943.000000
1856.612793 7752.000000
1857.992310 7891.000000
1859.370361 7874.000000
1860.748291 7935.000000
1862.125244 7730.000000
1863.501465 7831.000000
1864.876831 7683.000000
1866.250732 7707.000000
1867.624512 7707.000000
1868.997437 7625.000000
1870.369263 7527.000000
1871.740112 7450.000000
1873.110596 7579.000000
1874.479980 7477.000000
1875.848877 7425.000000
1877.216187 7463.000000
1878.583374 7308.000000
1879.949585 7242.000000
1881.315063 7259.000000
1882.679810 7249.000000
1884.042969 7238.000000
1885.406006 7252.000000
1886.768188 7272.000000
1888.129517 7179.000000
1889.489502 7161.000000
1890.849121 7088.000000
1892.208130 7208.000000
1893.566162 7151.000000
1894.923340 7047.000000
1896.279297 7098.000000
1897.635010 7040.000000
1898.989746 7064.000000
1900.343628 7117.000000
1901.696411 7031.000000
1903.048706 7021.000000
1904.400269 7120.000000
1905.750977 7075.000000
1907.100464 7130.000000
1908.449463 7155.000000
1909.797607 6942.000000
1911.145142 7081.000000
1912.491943 7015.000000
1913.837158 7040.000000
1915.182129 7030.000000
1916.526367 7156.000000
1917.869751 7098.000000
1919.211792 7146.000000
1920.553589 7032.000000
1921.894531 7035.000000
1923.234741 7089.000000
1924.573975 7040.000000
1925.912231 7007.000000
1927.249878 7040.000000
1928.586792 7109.000000
1929.922852 7033.000000
1931.257690 7056.000000
1932.592163 6977.000000
1933.925903 6924.000000
1935.258789 6973.000000
1936.590210 6778.000000
1937.921753 6828.000000
1939.251953 6650.000000
1940.581665 6840.000000
1941.910522 6861.000000
1943.238159 6776.000000
1944.565308 6751.000000
1945.891724 6748.000000
1947.217407 6804.000000
1948.541748 6773.000000
1949.865845 6796.000000
1951.189087 6718.000000
1952.511597 6773.000000
1953.833008 6660.000000
1955.153442 6601.000000
1956.473267 6504.000000
1957.792725 6680.000000
1959.111206 6442.000000
1960.428345 6512.000000
1961.745117 6477.000000
1963.061157 6475.000000
1964.376465 6388.000000
1965.690308 6476.000000
1967.003906 6535.000000
1968.316772 6425.000000
1969.628784 6390.000000
1970.940186 6441.000000
1972.250244 6375.000000
1973.559814 6282.000000
1974.868652 6146.000000
1976.176880 6087.000000
1977.483765 6061.000000
1978.790039 6142.000000
1980.095947 6189.000000
1981.400635 6244.000000
1982.704834 6134.000000
1984.007813 6119.000000
1985.310425 6117.000000
1986.612061 6094.000000
1987.913086 6024.000000
1989.212524 5917.000000
1990.512085 5962.000000
1991.810547 5910.000000
1993.108521 5839.000000
1994.404907 5885.000000
1995.701294 5847.000000
1996.996704 5875.000000
1998.291382 5713.000000
1999.585205 5894.000000
2000.877808 5738.000000
2002.169922 5737.000000
2003.461548 5661.000000
2004.752441 5725.000000
2006.041748 5627.000000
2007.330811 5657.000000
2008.619141 5542.000000
2009.906738 5570.000000
2011.193481 5647.000000
2012.479126 5607.000000
2013.764404 5598.000000
2015.048706 5637.000000
2016.332397 5576.000000
2017.614746 5551.000000
2018.896729 5477.000000
2020.178223 5520.000000
2021.458740 5502.000000
2022.738525 5525.000000
2024.017212 5386.000000
2025.295166 5489.000000
2026.572632 5464.000000
2027.849487 5525.000000
2029.124634 5486.000000
2030.399902 5449.000000
2031.674194 5437.000000
2032.947510 5568.000000
2034.219971 5490.000000
2035.492065 5628.000000
2036.763062 5545.000000
2038.033813 5543.000000
2039.303223 5489.000000
2040.571533 5571.000000
2041.839844 5513.000000
2043.107178 5554.000000
2044.373779 5538.000000
2045.639160 5467.000000
2046.903931 5551.000000
2048.168457 5434.000000
2049.431641 5372.000000
2050.694580 5372.000000
2051.955566 5322.000000
2053.217041 5370.000000
2054.477295 5159.000000
2055.736816 5280.000000
2056.995605 5255.000000
2058.253418 5235.000000
2059.510742 5205.000000
2060.767334 5141.000000
2062.022461 5288.000000
2063.277588 5150.000000
2064.531738 5173.000000
2065.785156 5226.000000
2067.037842 5206.000000
2068.289307 5192.000000
2069.540527 5125.000000
2070.791016 5153.000000
2072.040771 5107.000000
2073.289063 4784.000000
2074.537354 4999.000000
2075.784668 4931.000000
2077.031250 5051.000000
2078.277100 4970.000000
2079.521729 4943.000000
2080.765869 5035.000000
2082.009521 4906.000000
2083.252197 4993.000000
2084.493652 4937.000000
2085.734863 4905.000000
2086.975586 4861.000000
2088.215332 4840.000000
2089.453857 4750.000000
2090.691895 4782.000000
2091.929199 4787.000000
2093.166260 4690.000000
2094.401855 4768.000000
2095.636719 4752.000000
2096.871338 4744.000000
2098.104980 4854.000000
2099.337646 4756.000000
2100.569580 4715.000000
2101.801025 4601.000000
2103.031494 4693.000000
2104.261230 4723.000000
2105.490723 4608.000000
2106.718262 4546.000000
2107.946045 4514.000000
2109.173096 4506.000000
2110.399170 4489.000000
2111.623779 4563.000000
2112.848633 4464.000000
2114.072266 4528.000000
2115.295410 4492.000000
2116.517334 4453.000000
2117.739014 4453.000000
2118.959717 4448.000000
2120.179688 4471.000000
2121.399170 4565.000000
2122.617188 4527.000000
2123.835205 4455.000000
2125.052246 4577.000000
2126.268799 4429.000000
2127.483643 4525.000000
2128.698730 4517.000000
2129.912842 4455.000000
2131.126221 4458.000000
2132.338867 4378.000000
2133.550049 4454.000000
2134.761475 4377.000000
2135.971680 4438.000000
2137.181396 4424.000000
2138.389648 4469.000000
2139.597900 4508.000000
2140.805420 4401.000000
2142.011719 4388.000000
2143.217285 4388.000000
2144.422607 4341.000000
2145.626953 4376.000000
2146.830566 4381.000000
2148.033691 4328.000000
2149.235352 4372.000000
2150.436768 4346.000000
2151.637451 4257.000000
2152.837402 4255.000000
2154.036133 4357.000000
2155.234619 4312.000000
2156.432617 4276.000000
2157.629639 4214.000000
2158.825928 4161.000000
2160.020996 4153.000000
2161.215820 4100.000000
2162.409912 4049.000000
2163.603027 4035.000000
2164.795166 4051.000000
2165.987061 4043.000000
2167.178223 4003.000000
2168.368408 3922.000000
2169.557861 3919.000000
2170.746826 3850.000000
2171.934814 3866.000000
2173.122559 3955.000000
2174.308838 3711.000000
2175.494385 3790.000000
2176.679688 3792.000000
2177.864502 3695.000000
2179.048096 3746.000000
2180.230957 3726.000000
2181.412842 3724.000000
2182.594482 3643.000000
2183.775635 3665.000000
2184.955566 3788.000000
2186.134521 3721.000000
2187.312988 3609.000000
2188.491211 3607.000000
2189.668213 3514.000000
2190.844238 3703.000000
2192.020020 3762.000000
2193.195313 3635.000000
2194.369141 3526.000000
2195.542480 3657.000000
2196.715576 3746.000000
2197.887451 3616.000000
2199.058838 3754.000000
2200.229736 3660.000000
2201.398926 3630.000000
2202.568115 3725.000000
2203.736816 3637.000000
2204.904541 3588.000000
2206.071289 3667.000000
2207.237305 3528.000000
2208.402832 3826.000000
2209.568115 3623.000000
2210.731934 3716.000000
2211.895264 3593.000000
2213.057373 3668.000000
2214.219727 3512.000000
2215.380859 3526.000000
2216.541016 3571.000000
2217.700684 3585.000000
2218.860107 3508.000000
2220.018311 3496.000000
2221.175537 3511.000000
2222.332520 3535.000000
2223.488770 3398.000000
2224.644287 3564.000000
2225.799072 3571.000000
2226.952881 3442.000000
2228.105713 3442.000000
2229.259033 3433.000000
2230.410400 3416.000000
2231.561523 3481.000000
2232.711914 3436.000000
2233.861816 3416.000000
2235.010742 3430.000000
2236.159180 3368.000000
2237.306152 3378.000000
2238.453369 3401.000000
2239.599365 3300.000000
2240.745117 3237.000000
2241.889160 3267.000000
2243.033447 3204.000000
2244.176758 3249.000000
2245.319336 3252.000000
2246.460938 3065.000000
2247.602295 3189.000000
2248.742676 3196.000000
2249.882324 3082.000000
2251.021484 3068.000000
2252.159424 3110.000000
2253.297363 3022.000000
2254.434326 3037.000000
2255.570557 2996.000000
2256.705811 3064.000000
2257.840332 2944.000000
2258.974609 3012.000000
2260.108398 3069.000000
2261.240723 3072.000000
2262.372559 3000.000000
2263.503906 2939.000000
2264.634277 2988.000000
2265.764404 2702.000000
2266.893311 2888.000000
2268.021729 2920.000000
2269.149658 2801.000000
2270.276611 2773.000000
2271.402832 2832.000000
2272.528076 2916.000000
2273.653320 2853.000000
2274.777832 2881.000000
2275.901123 2873.000000
2277.023682 2821.000000
2278.145752 2815.000000
2279.267334 2727.000000
2280.388184 2769.000000
2281.507813 2823.000000
2282.626953 2754.000000
2283.745850 2799.000000
2284.864014 2715.000000
2285.981201 2798.000000
2287.097412 2777.000000
2288.213379 2704.000000
2289.328613 2758.000000
2290.443115 2861.000000
2291.556396 2773.000000
2292.669678 2834.000000
2293.782227 2781.000000
2294.894043 2827.000000
2296.005127 2654.000000
2297.114990 2810.000000
2298.224365 2832.000000
2299.333496 2802.000000
2300.441650 2802.000000
2301.548828 2783.000000
2302.655762 2773.000000
2303.761963 2873.000000
2304.867676 2764.000000
2305.971924 2832.000000
2307.075928 2734.000000
2308.179443 2735.000000
2309.282471 2737.000000
2310.384277 2744.000000
2311.485352 2784.000000
2312.585938 2776.000000
2313.686035 2694.000000
2314.785400 2601.000000
2315.883301 2584.000000
2316.981689 2616.000000
2318.078613 2704.000000
2319.175293 2713.000000
2320.271484 2602.000000
2321.365967 2569.000000
2322.460449 2880.000000
2323.554199 2620.000000
2324.647705 2685.000000
2325.739502 2680.000000
2326.831299 2558.000000
2327.922363 2645.000000
2329.012695 2651.000000
2330.102051 2629.000000
2331.191406 2668.000000
2332.279541 2657.000000
2333.367188 2523.000000
2334.454590 2646.000000
2335.540283 2474.000000
2336.625732 2440.000000
2337.710938 2494.000000
2338.795166 2430.000000
2339.878418 2476.000000
2340.961426 2408.000000
2342.043457 2471.000000
2343.125244 2388.000000
2344.206299 2388.000000
2345.286133 2347.000000
2346.365479 2329.000000
2347.444336 2298.000000
2348.522705 2308.000000
2349.599609 2435.000000
2350.676270 2342.000000
2351.752686 2375.000000
2352.828125 2283.000000
2353.902588 2300.000000
2354.976807 2306.000000
2356.050293 2248.000000
2357.123291 2153.000000
2358.195068 2254.000000
2359.266602 2193.000000
2360.337158 2288.000000
2361.407471 2228.000000
2362.476807 2171.000000
2363.545166 2248.000000
2364.613281 2314.000000
2365.680664 2161.000000
2366.747559 2216.000000
2367.813721 2078.000000
2368.878662 2156.000000
2369.943604 2128.000000
2371.007813 2130.000000
2372.071289 2209.000000
2373.133545 2213.000000
2374.195801 2108.000000
2375.257080 2319.000000
2376.318115 2424.000000
2377.377930 2170.000000
2378.437012 2202.000000
2379.496094 2237.000000
2380.554199 2094.000000
2381.611572 2092.000000
2382.667969 2133.000000
2383.724121 2031.000000
2384.779785 2058.000000
2385.834717 2096.000000
2386.888184 1977.000000
2387.941895 2022.000000
2388.994629 1947.000000
2390.046875 2045.000000
2391.098389 2120.000000
2392.148926 1970.000000
2393.199219 2097.000000
2394.248535 2022.000000
2395.297852 2058.000000
2396.345703 2105.000000
2397.393066 2020.000000
2398.440186 2013.000000
2399.486328 2100.000000
2400.531738 2044.000000
2401.576416 2026.000000
2402.621094 2064.000000
2403.664307 1978.000000
2404.707520 2028.000000
2405.749268 2103.000000
2406.791260 1916.000000
2407.832520 2028.000000
2408.872803 1936.000000
2409.912354 2087.000000
2410.950928 2014.000000
2411.989746 1940.000000
2413.027344 1956.000000
2414.064697 1952.000000
2415.100830 2077.000000
2416.136719 1955.000000
2417.171875 1896.000000
2418.206543 2019.000000
2419.239746 2056.000000
2420.273193 1970.000000
2421.305664 1967.000000
2422.337891 1983.000000
2423.368652 1966.000000
2424.399414 1928.000000
2425.429688 2015.000000
2426.458740 1982.000000
2427.487793 1974.000000
2428.515137 1905.000000
2429.542969 1908.000000
2430.569580 1898.000000
2431.595947 1916.000000
2432.620850 1908.000000
2433.645996 1982.000000
2434.670166 1800.000000
2435.694092 1885.000000
2436.716797 1932.000000
2437.738770 1908.000000
2438.760498 1867.000000
2439.781494 1920.000000
2440.802002 1787.000000
2441.821289 1820.000000
2442.840576 1820.000000
2443.858887 1742.000000
2444.876953 1756.000000
2445.893555 1738.000000
2446.910156 1823.000000
2447.926025 1701.000000
2448.941895 1732.000000
2449.956299 1853.000000
2450.969971 1808.000000
2451.983154 1758.000000
2452.996094 1665.000000
2454.008301 1755.000000
2455.019531 1758.000000
2456.030518 1727.000000
2457.040771 1749.000000
2458.050537 1662.000000
2459.059326 1689.000000
2460.067383 1665.000000
2461.075439 1731.000000
2462.082275 1643.000000
2463.088867 1671.000000
2464.094238 1594.000000
2465.099365 1625.000000
2466.104248 1650.000000
2467.107910 1726.000000
2468.111328 1601.000000
2469.113770 1716.000000
2470.115967 1718.000000
2471.117676 1639.000000
2472.118408 1619.000000
2473.118164 1635.000000
2474.117920 1621.000000
2475.116699 1640.000000
2476.114990 1677.000000
2477.112305 1623.000000
2478.109375 1631.000000
2479.106445 1614.000000
2480.102051 1627.000000
2481.097656 1522.000000
2482.091553 1583.000000
2483.085449 1529.000000
2484.078857 1573.000000
2485.071777 1590.000000
2486.063721 1512.000000
2487.054932 1614.000000
2488.045898 1553.000000
2489.036377 1546.000000
2490.025879 1491.000000
2491.014648 1489.000000
2492.003418 1580.000000
2492.991211 1498.000000
2493.977783 1505.000000
2494.964355 1498.000000
2495.950439 1513.000000
2496.935791 1448.000000
2497.920166 1571.000000
2498.904297 1534.000000
2499.888428 1500.000000
2500.871094 1522.000000
2501.853271 1575.000000
2502.834961 1531.000000
2503.815918 1556.000000
2504.796387 1600.000000
2505.776611 1511.000000
2506.755371 1495.000000
2507.733887 1489.000000
2508.711914 1576.000000
2509.689453 1533.000000
2510.666016 1507.000000
2511.642334 1542.000000
2512.617920 1534.000000
2513.593018 1489.000000
2514.567627 1483.000000
2515.541016 1329.000000
2516.514160 1411.000000
2517.487061 1461.000000
2518.458984 1502.000000
2519.430176 1399.000000
2520.400879 1426.000000
2521.371338 1466.000000
2522.341064 1502.000000
2523.309814 1368.000000
2524.277832 1362.000000
2525.245850 1380.000000
2526.212891 1487.000000
2527.179688 1393.000000
2528.145264 1408.000000
2529.110840 1383.000000
2530.075684 1460.000000
2531.040039 1425.000000
2532.003174 1378.000000
2532.966553 1432.000000
2533.928955 1466.000000
2534.891113 1397.000000
2535.852051 1278.000000
2536.812256 1352.000000
2537.772705 1300.000000
2538.732178 1439.000000
2539.690918 1381.000000
2540.648682 1299.000000
2541.606689 1324.000000
2542.563965 1361.000000
2543.520264 1418.000000
2544.476318 1310.000000
2545.431152 1343.000000
2546.386230 1312.000000
2547.340576 1410.000000
2548.294189 1233.000000
2549.246826 1340.000000
2550.199219 1273.000000
2551.151123 1284.000000
2552.102295 1252.000000
2553.052734 1246.000000
2554.002686 1312.000000
2554.952393 1229.000000
2555.901367 1272.000000
2556.849854 1244.000000
2557.797119 1209.000000
2558.744385 1249.000000
2559.690918 1258.000000
2560.636963 1241.000000
2561.582031 1257.000000
2562.526855 1197.000000
2563.471191 1182.000000
2564.415039 1184.000000
2565.358398 1151.000000
2566.300293 1229.000000
2567.242432 1154.000000
2568.183838 1325.000000
2569.124512 1196.000000
2570.064453 1178.000000
2571.004395 1179.000000
2571.943359 1235.000000
2572.882080 1238.000000
2573.819824 1200.000000
2574.757324 1211.000000
2575.694092 1210.000000
2576.630127 1210.000000
2577.565674 1153.000000
2578.500488 1305.000000
2579.435303 1198.000000
2580.369141 1175.000000
2581.302490 1128.000000
2582.235107 1129.000000
2583.167480 1241.000000
2584.099121 1321.000000
2585.030273 1106.000000
2585.960938 1200.000000
2586.890381 1241.000000
2587.819824 1102.000000
2588.748779 1099.000000
2589.677490 1172.000000
2590.604492 1144.000000
2591.531738 1206.000000
2592.458496 1188.000000
2593.384521 1162.000000
2594.310303 1077.000000
2595.234863 1045.000000
2596.159180 1104.000000
2597.083008 1207.000000
2598.006348 1108.000000
2598.928711 1174.000000
2599.850830 1099.000000
2600.772461 1115.000000
2601.693359 1215.000000
2602.613525 1239.000000
2603.533447 1112.000000
2604.452881 1179.000000
2605.372070 1082.000000
2606.290283 1057.000000
2607.207275 1070.000000
2608.124512 1172.000000
2609.041504 1065.000000
2609.957520 1083.000000
2610.872314 1118.000000
2611.787598 1060.000000
2612.702148 1127.000000
2613.615723 1014.000000
2614.529297 1046.000000
2615.441650 1165.000000
2616.354004 1088.000000
2617.265381 1093.000000
2618.176514 1028.000000
2619.086914 1008.000000
2619.997070 1090.000000
2620.906494 1044.000000
2621.815430 1006.000000
2622.723389 1073.000000
2623.631592 1069.000000
2624.538818 1065.000000
2625.445557 1108.000000
2626.351563 1049.000000
2627.257324 1054.000000
2628.162354 830.000000
2629.067139 1058.000000
2629.971191 1024.000000
2630.874268 1074.000000
2631.777344 965.000000
2632.679443 995.000000
2633.581543 1008.000000
2634.483398 979.000000
2635.383545 852.000000
2636.283936 1018.000000
2637.183594 999.000000
2638.083008 969.000000
2638.980957 1034.000000
2639.879395 1000.000000
2640.777344 993.000000
2641.674561 978.000000
2642.570557 1014.000000
2643.466553 1055.000000
2644.362305 976.000000
2645.257324 945.000000
2646.152100 900.000000
2647.045410 951.000000
2647.938721 979.000000
2648.831787 899.000000
2649.724609 941.000000
2650.615723 827.000000
2651.507080 919.000000
2652.397949 921.000000
2653.288086 909.000000
2654.177979 906.000000
2655.066650 946.000000
2655.955566 919.000000
2656.843994 929.000000
2657.731445 874.000000
2658.617920 885.000000
2659.504883 884.000000
2660.391113 855.000000
2661.276855 885.000000
2662.161377 800.000000
2663.045898 906.000000
2663.930176 893.000000
2664.813721 898.000000
2665.696777 905.000000
2666.579102 903.000000
2667.460938 941.000000
2668.342041 879.000000
2669.223389 912.000000
2670.103271 874.000000
2670.983398 818.000000
2671.862793 785.000000
2672.742188 805.000000
2673.620850 979.000000
2674.497803 876.000000
2675.375488 868.000000
2676.252441 865.000000
2677.128662 838.000000
2678.004395 895.000000
2678.879395 844.000000
2679.754639 872.000000
2680.628906 818.000000
2681.502686 880.000000
2682.375732 835.000000
2683.248535 947.000000
2684.121094 884.000000
2684.992920 881.000000
2685.864014 768.000000
2686.734863 750.000000
2687.605225 794.000000
2688.475342 793.000000
2689.343750 871.000000
2690.212891 715.000000
2691.081299 817.000000
2691.949463 869.000000
2692.816895 899.000000
2693.683105 834.000000
2694.549805 822.000000
2695.415527 854.000000
2696.281250 850.000000
2697.145508 1026.000000
2698.010498 785.000000
2698.874023 816.000000
2699.737793 907.000000
2700.600098 745.000000
2701.462891 848.000000
2702.324707 817.000000
2703.186035 779.000000
2704.047363 753.000000
2704.907471 782.000000
2705.767578 825.000000
2706.627197 802.000000
2707.486572 746.000000
2708.344238 807.000000
2709.202148 884.000000
2710.060547 809.000000
2710.917725 832.000000
2711.774170 695.000000
2712.630127 850.000000
2713.486084 765.000000
2714.341309 786.000000
2715.195801 804.000000
2716.049805 821.000000
2716.903809 740.000000
2717.756836 742.000000
2718.610107 805.000000
2719.461670 717.000000
2720.313721 766.000000
2721.165527 716.000000
2722.016113 840.000000
2722.866699 838.000000
2723.716797 735.000000
2724.566162 731.000000
2725.415527 773.000000
2726.263672 669.000000
2727.111328 736.000000
2727.959473 749.000000
2728.806396 757.000000
2729.653809 729.000000
2730.499756 785.000000
2731.344971 640.000000
2732.190674 761.000000
2733.035400 658.000000
2733.880127 622.000000
2734.723633 694.000000
2735.567383 684.000000
2736.410400 666.000000
2737.252930 725.000000
2738.094482 664.000000
2738.936523 716.000000
2739.777588 672.000000
2740.618408 727.000000
2741.458984 738.000000
2742.298340 732.000000
2743.137695 579.000000
2743.977051 748.000000
2744.815186 685.000000
2745.652832 692.000000
2746.490479 679.000000
2747.327637 674.000000
2748.164551 688.000000
2749.000977 682.000000
2749.836182 725.000000
2750.671631 687.000000
2751.506592 779.000000
2752.340820 641.000000
2753.174805 684.000000
2754.008301 665.000000
2754.841797 681.000000
2755.674316 626.000000
2756.506348 675.000000
2757.337891 677.000000
2758.169434 635.000000
2759.000000 697.000000
2759.830811 561.000000
2760.660400 479.000000
2761.489990 630.000000
2762.319336 615.000000
2763.147949 673.000000
2763.976074 565.000000
2764.803711 609.000000
2765.631348 652.000000
2766.458496 813.000000
2767.284912 602.000000
2768.110840 666.000000
2768.936279 635.000000
2769.761475 568.000000
2770.586670 661.000000
2771.410645 584.000000
2772.234619 623.000000
2773.058594 606.000000
2773.881348 680.000000
2774.704346 534.000000
2775.526123 685.000000
2776.347900 570.000000
2777.169678 633.000000
2777.990479 544.000000
2778.810547 655.000000
2779.630859 626.000000
2780.450684 561.000000
2781.270508 698.000000
2782.088379 552.000000
2782.907471 538.000000
2783.725342 609.000000
2784.542969 527.000000
2785.360107 623.000000
2786.176758 553.000000
2786.993164 544.000000
2787.809082 593.000000
2788.624756 581.000000
2789.439453 521.000000
2790.254639 469.000000
2791.069092 592.000000
2791.883057 549.000000
2792.696777 642.000000
2793.509277 590.000000
2794.322021 567.000000
2795.134277 600.000000
2795.946045 509.000000
2796.757080 527.000000
2797.568848 481.000000
2798.379395 449.000000
2799.189941 540.000000
2799.999023 521.000000
2800.808838 502.000000
2801.617920 458.000000
2802.426758 563.000000
2803.235107 576.000000
2804.042480 577.000000
2804.850342 644.000000
2805.657471 557.000000
2806.464355 550.000000
2807.270020 624.000000
2808.076172 506.000000
2808.881592 565.000000
2809.687012 523.000000
2810.491699 497.000000
2811.295410 533.000000
2812.099609 588.000000
2812.903320 535.000000
2813.706787 441.000000
2814.508789 429.000000
2815.311523 399.000000
2816.113525 496.000000
2816.915283 530.000000
2817.716553 486.000000
2818.517334 517.000000
2819.317627 414.000000
2820.118164 487.000000
2820.917725 541.000000
2821.716797 452.000000
2822.515869 526.000000
2823.314697 471.000000
2824.113037 455.000000
2824.910400 630.000000
2825.708008 520.000000
2826.504883 523.000000
2827.302002 598.000000
2828.098389 530.000000
2828.894043 400.000000
2829.689697 481.000000
2830.485107 555.000000
2831.280029 383.000000
2832.074219 527.000000
2832.868408 508.000000
2833.662354 590.000000
2834.455811 450.000000
2835.248535 431.000000
2836.041016 478.000000
2836.833496 636.000000
2837.625732 445.000000
2838.417480 507.000000
2839.208252 438.000000
2839.999023 444.000000
2840.790039 444.000000
2841.580078 526.000000
2842.369629 530.000000
2843.159424 553.000000
2843.948242 427.000000
2844.737061 524.000000
2845.525879 427.000000
2846.313721 432.000000
2847.101074 434.000000
2847.888672 441.000000
2848.675781 444.000000
2849.462158 565.000000
2850.248535 408.000000
2851.034668 509.000000
2851.820313 466.000000
2852.604980 484.000000
2853.390137 503.000000
2854.175049 444.000000
2854.959229 449.000000
2855.743408 425.000000
2856.526367 396.000000
2857.309570 386.000000
2858.092529 480.000000
2858.875000 510.000000
2859.657227 442.000000
2860.438965 420.000000
2861.220459 456.000000
2862.002197 384.000000
2862.783203 389.000000
2863.563477 413.000000
2864.343506 508.000000
2865.123535 324.000000
2865.903320 385.000000
2866.682129 422.000000
2867.461182 423.000000
2868.239746 427.000000
2869.018066 467.000000
2869.795898 477.000000
2870.573486 468.000000
2871.350830 485.000000
2872.127930 411.000000
2872.904541 501.000000
2873.680664 533.000000
2874.456787 516.000000
2875.232422 466.000000
2876.007813 513.000000
2876.782715 470.000000
2877.557373 350.000000
2878.332031 519.000000
2879.106445 524.000000
2879.880127 498.000000
2880.653076 561.000000
2881.426758 400.000000
2882.199463 359.000000
2882.972168 456.000000
2883.744141 428.000000
2884.515869 481.000000
2885.288086 441.000000
2886.059082 478.000000
2886.829590 480.000000
2887.600586 384.000000
2888.371582 367.000000
2889.141846 407.000000
2889.911133 360.000000
2890.680664 408.000000
2891.450195 424.000000
2892.219238 385.000000
2892.987793 395.000000
2893.756348 340.000000
2894.523926 445.000000
2895.291992 440.000000
2896.059570 430.000000
2896.827148 431.000000
2897.593506 325.000000
2898.360840 426.000000
2899.126953 569.000000
2899.893311 516.000000
2900.658203 394.000000
2901.423584 362.000000
2902.189453 364.000000
2902.953857 238.000000
2903.718262 407.000000
2904.482910 421.000000
2905.246582 392.000000
2906.010986 373.000000
2906.774658 463.000000
2907.537598 357.000000
2908.300293 350.000000
2909.063477 379.000000
2909.826172 403.000000
2910.587646 366.000000
2911.349609 366.000000
spectrumdark 2048
-96.881149 6221.000000
-94.254280 6221.000000
-91.629288 6084.000000
-89.006187 6380.000000
-86.384956 5930.000000
-83.765625 6318.000000
-81.148155 6159.000000
-78.532562 6433.000000
-75.918846 6237.000000
-73.307007 5977.000000
-70.697029 6081.000000
-68.088936 5943.000000
-65.482689 5975.000000
-62.878315 6027.000000
-60.275806 6183.000000
-57.675152 5667.000000
-55.076359 6286.000000
-52.479424 6943.000000
-49.884342 6530.000000
-47.291115 6506.000000
-44.699738 6275.000000
-42.110207 6793.000000
-39.522518 5919.000000
-36.936680 6052.000000
-34.352684 6441.000000
-31.770525 5691.000000
-29.190212 6370.000000
-26.611727 5690.000000
-24.035084 6108.000000
-21.460266 6239.000000
-18.887289 6495.000000
-16.316132 6556.000000
-13.746809 6813.000000
-11.179311 7753.000000
-8.613631 6326.000000
-6.049778 6459.000000
-3.487737 6045.000000
-0.927521 5906.000000
1.630887 6259.000000
4.187474 6897.000000
6.742256 6702.000000
9.295221 6058.000000
11.846386 6781.000000
14.395738 6531.000000
16.943295 6807.000000
19.489038 6045.000000
22.032990 5797.000000
24.575136 6635.000000
27.115486 6778.000000
29.654051 6943.000000
32.190819 6403.000000
34.725784 5775.000000
37.258972 7286.000000
39.790379 6288.000000
42.319992 7159.000000
44.847809 6546.000000
47.373867 7935.000000
49.898136 5733.000000
52.420635 6264.000000
54.941338 6738.000000
57.460285 6345.000000
59.977459 6474.000000
62.492855 6691.000000
65.006470 5645.000000
67.518333 5736.000000
70.028450 6514.000000
72.536774 6508.000000
75.043343 5942.000000
77.548164 6326.000000
80.051231 6432.000000
82.552521 6256.000000
85.052071 6136.000000
87.549866 6368.000000
90.045929 5773.000000
92.540215 7256.000000
95.032761 5860.000000
97.523590 6941.000000
100.012650 7129.000000
102.499962 6331.000000
104.985550 6293.000000
107.469398 6464.000000
109.951500 5895.000000
112.431877 6767.000000
114.910530 6251.000000
117.387459 6594.000000
119.862633 7217.000000
122.336098 6802.000000
124.807831 5930.000000
127.277855 6803.000000
129.746124 6313.000000
132.212723 6247.000000
134.677567 5736.000000
137.140717 6216.000000
139.602127 7258.000000
142.061844 6967.000000
144.519836 6439.000000
146.976135 6025.000000
149.430725 5872.000000
151.883591 6849.000000
154.334778 6382.000000
156.784271 6651.000000
159.232040 6115.000000
161.678101 6716.000000
164.122482 8727.000000
166.565186 6461.000000
169.006195 6815.000000
171.445496 6291.000000
173.883087 7245.000000
176.319046 6627.000000
178.753265 6986.000000
181.185806 7203.000000
183.616699 6670.000000
186.045868 7135.000000
188.473389 6747.000000
190.899231 6340.000000
193.323395 6703.000000
195.745895 7156.000000
198.166702 7403.000000
200.585846 6566.000000
203.003326 5984.000000
205.419113 7643.000000
207.833252 7032.000000
210.245758 6415.000000
212.656586 6097.000000
215.065735 6285.000000
217.473251 7427.000000
219.879059 6149.000000
222.283279 6610.000000
224.685791 6719.000000
227.086685 6991.000000
229.485931 6534.000000
231.883514 6867.000000
234.279434 7293.000000
236.673737 6562.000000
239.066376 6142.000000
241.457397 6869.000000
243.846756 6627.000000
246.234497 6346.000000
248.620590 7053.000000
251.005051 6140.000000
253.387863 7966.000000
255.769104 6650.000000
258.148651 6700.000000
260.526611 6503.000000
262.902893 7649.000000
265.277618 7632.000000
267.650696 7900.000000
270.022125 6197.000000
272.391907 6478.000000
274.760132 5926.000000
277.126709 6337.000000
279.491699 6508.000000
281.855072 6067.000000
284.216797 6265.000000
286.576935 7144.000000
288.935455 6114.000000
291.292389 6617.000000
293.647705 6422.000000
296.001434 5951.000000
298.353516 6032.000000
300.704041 6388.000000
303.052979 6471.000000
305.400269 6865.000000
307.746033 6458.000000
310.090118 6564.000000
312.432678 7380.000000
314.773621 7463.000000
317.112946 7247.000000
319.450714 6980.000000
321.786926 8185.000000
324.121490 6336.000000
326.454498 6475.000000
328.785950 6047.000000
331.115814 6637.000000
333.444092 6458.000000
335.770752 7273.000000
338.095917 6418.000000
340.419464 6254.000000
342.741455 6019.000000
345.061890 7489.000000
347.380707 7823.000000
349.697968 6021.000000
352.013702 5860.000000
354.327850 7031.000000
356.640411 6362.000000
358.951416 6407.000000
361.260895 7071.000000
363.568848 6396.000000
365.875183 5786.000000
368.179932 6536.000000
370.483215 6455.000000
372.784882 6314.000000
375.085052 6492.000000
377.383667 6404.000000
379.680725 6008.000000
381.976227 6123.000000
384.270203 5848.000000
386.562592 5272.000000
388.853485 5581.000000
391.142853 6221.000000
393.430634 6346.000000
395.716888 6536.000000
398.001648 7092.000000
400.284790 6094.000000
402.566498 6534.000000
404.846680 6224.000000
407.125275 7364.000000
409.402344 6509.000000
411.677887 6868.000000
413.951904 6709.000000
416.224487 6573.000000
418.495453 6468.000000
420.764923 6538.000000
423.032898 7168.000000
425.299316 7267.000000
427.564240 6266.000000
429.827698 6309.000000
432.089569 6536.000000
434.349976 6013.000000
436.608826 6686.000000
438.866211 6160.000000
441.122101 5638.000000
443.376495 5777.000000
445.629364 5518.000000
447.880676 6920.000000
450.130585 6144.000000
452.378906 6245.000000
454.625793 5659.000000
456.871216 6541.000000
459.115082 6488.000000
461.357452 6492.000000
463.598328 5698.000000
465.837799 6754.000000
468.075684 5451.000000
470.312134 5860.000000
472.547058 6104.000000
474.780518 7424.000000
477.012543 6737.000000
479.243042 5667.000000
481.472046 6556.000000
483.699585 6340.000000
485.925629 5953.000000
488.150238 6543.000000
490.373383 5910.000000
492.595062 6412.000000
494.815186 6756.000000
497.033905 5759.000000
499.251129 6310.000000
501.466980 5597.000000
503.681213 6168.000000
505.894135 6481.000000
508.105469 6491.000000
510.315369 6912.000000
512.523804 6515.000000
514.730896 6568.000000
516.936401 6515.000000
519.140503 6614.000000
521.343079 6257.000000
523.544250 6683.000000
525.744080 6749.000000
527.942383 6994.000000
530.139160 5372.000000
532.334595 5915.000000
534.528503 5598.000000
536.721069 7595.000000
538.912109 6684.000000
541.101746 6164.000000
543.289978 6963.000000
545.476685 7129.000000
547.661926 6859.000000
549.845886 6272.000000
552.028259 6421.000000
554.209290 6214.000000
556.388794 6090.000000
558.567017 5930.000000
560.743713 6108.000000
562.919006 6462.000000
565.092896 6513.000000
567.265320 5920.000000
569.436340 6065.000000
571.605896 6373.000000
573.774170 5285.000000
575.940918 6499.000000
578.106201 6317.000000
580.270081 6107.000000
582.432678 5850.000000
584.593750 6078.000000
586.753418 5735.000000
588.911743 5799.000000
591.068542 6274.000000
593.223999 6612.000000
595.378052 5768.000000
597.530762 6174.000000
599.681946 7306.000000
601.831787 6840.000000
603.980286 6729.000000
606.127197 6048.000000
608.272888 6509.000000
610.417175 6512.000000
612.559998 7089.000000
614.701355 6190.000000
616.841492 6537.000000
618.980103 7711.000000
621.117432 5773.000000
623.253296 6659.000000
625.387756 6949.000000
627.520752 7179.000000
629.652588 6771.000000
631.782959 6643.000000
633.911926 6811.000000
636.039429 6546.000000
638.165649 6262.000000
640.290344 7615.000000
642.413818 6430.000000
644.535950 6823.000000
646.656616 7088.000000
648.775940 6585.000000
650.893860 5794.000000
653.010437 5757.000000
655.125610 6494.000000
657.239441 6500.000000
659.351807 5810.000000
661.462952 6132.000000
663.572693 5447.000000
665.680969 6020.000000
667.788086 6317.000000
669.893738 6769.000000
671.997925 5800.000000
674.100891 5727.000000
676.202454 6961.000000
678.302673 5358.000000
680.401489 6767.000000
682.498962 6269.000000
684.595154 6966.000000
686.689880 6387.000000
688.783386 7120.000000
690.875549 6715.000000
692.966187 8003.000000
695.055603 6689.000000
697.143738 6559.000000
699.230408 6080.000000
701.315857 6771.000000
703.399780 5182.000000
705.482483 5862.000000
707.563904 5994.000000
709.643860 7613.000000
711.722595 6231.000000
713.799866 5617.000000
715.875854 6553.000000
717.950562 6164.000000
720.023987 7023.000000
722.095886 6327.000000
724.166626 7531.000000
726.236023 5807.000000
728.304016 6517.000000
730.370667 6442.000000
732.436096 7103.000000
734.500183 5819.000000
736.562927 6151.000000
738.624329 6523.000000
740.684448 6656.000000
742.743164 6079.000000
744.800659 6707.000000
746.856873 6706.000000
748.911682 6751.000000
750.965210 6316.000000
753.017334 7530.000000
755.068237 5766.000000
757.117920 6753.000000
759.166138 6375.000000
761.213135 6212.000000
763.258850 7025.000000
765.303162 5337.000000
767.346191 5730.000000
769.388000 6493.500000
771.428467 7257.000000
773.467529 6390.000000
775.505432 6150.000000
777.541992 6017.000000
779.577332 5388.000000
781.611328 5795.000000
783.643921 6965.000000
785.675354 5544.000000
787.705383 5804.500000
789.734131 6065.000000
791.761719 6327.000000
793.787964 6423.000000
795.812805 5841.000000
797.836548 5534.000000
799.858887 6423.000000
801.880005 5886.000000
803.899780 6663.000000
805.918274 4946.000000
807.935547 6732.000000
809.951416 6827.000000
811.966125 5777.000000
813.979492 6434.000000
815.991638 6253.000000
818.002563 6128.000000
820.012146 6571.000000
822.020508 5347.000000
824.027466 5905.000000
826.033203 6118.000000
828.037720 5801.000000
830.040955 5634.000000
832.042908 6506.000000
834.043579 6143.000000
836.043030 5953.000000
838.041138 6330.000000
840.038147 7065.000000
842.033752 6281.000000
844.028198 6066.000000
846.021301 6227.000000
848.013184 6888.000000
850.003723 5566.000000
851.992981 6830.000000
853.981201 6000.000000
855.968018 5791.000000
857.953613 6517.000000
859.937927 7296.000000
861.921143 6373.000000
863.902954 6424.000000
865.883545 5870.000000
867.862854 7794.000000
869.841003 7076.000000
871.817810 6294.000000
873.793335 6216.000000
875.767822 6205.000000
877.740845 6104.000000
879.712830 5477.000000
881.683472 6408.000000
883.652954 6120.000000
885.621094 5627.000000
887.588074 5337.000000
889.553711 6154.000000
891.518188 5833.000000
893.481445 6044.000000
895.443481 6526.000000
897.404236 5874.000000
899.363770 6413.000000
901.322021 6707.000000
903.279175 6413.000000
905.235168 6045.000000
907.189758 6929.000000
909.143127 6534.000000
911.095337 6507.000000
913.046326 6406.000000
914.996033 7159.000000
916.944580 6414.000000
918.891907 6181.000000
920.837952 6118.000000
922.782715 6105.000000
924.726440 6307.000000
926.669006 5981.000000
928.610291 5715.000000
930.550232 6488.000000
932.489075 5850.000000
934.426636 5531.000000
936.362976 6030.000000
938.298157 5927.000000
940.232056 6157.000000
942.164856 5957.000000
944.096436 6882.000000
946.026855 5192.000000
947.956055 6523.000000
949.883911 7026.000000
951.810730 6698.000000
953.736267 6049.000000
955.660522 5448.000000
957.583679 6111.000000
959.505676 6693.000000
961.426392 7329.000000
963.345947 6579.000000
965.264343 5344.000000
967.181702 6451.000000
969.097595 6446.000000
971.012390 6138.000000
972.925964 5987.000000
974.838379 6384.000000
976.749573 6530.000000
978.659607 5472.000000
980.568359 6313.000000
982.476074 6150.000000
984.382568 6405.000000
986.287842 5785.000000
988.192017 6816.000000
990.094971 6283.000000
991.996704 6928.000000
993.897278 6627.000000
995.796692 6879.000000
997.694885 5301.000000
999.591919 6634.000000
1001.487732 6557.000000
1003.382385 7690.000000
1005.275940 5698.000000
1007.168213 7279.000000
1009.059570 6112.000000
1010.949585 5414.000000
1012.838379 6684.000000
1014.726013 6384.000000
1016.612488 7015.000000
1018.497803 6737.000000
1020.381958 6008.000000
1022.264893 5944.000000
1024.146851 6276.000000
1026.027466 5303.000000
1027.906982 5802.000000
1029.785522 6105.000000
1031.662720 5465.000000
1033.538574 6256.000000
1035.413452 5942.000000
1037.287354 6621.000000
1039.159790 7111.000000
1041.031250 6742.000000
1042.901367 5569.000000
1044.770508 5505.000000
1046.638428 5871.000000
1048.505249 7175.000000
1050.370972 6752.000000
1052.235474 6450.000000
1054.098877 6511.000000
1055.960938 6459.000000
1057.822021 5903.000000
1059.682007 6548.000000
1061.540649 6656.000000
1063.398193 5799.000000
1065.254639 6806.000000
1067.109985 5991.000000
1068.964111 5804.000000
1070.817383 6325.000000
1072.669189 6395.000000
1074.520020 6225.000000
1076.369629 6199.000000
1078.218018 5805.000000
1080.065552 7978.000000
1081.911743 5654.000000
1083.756714 6295.000000
1085.600830 5402.000000
1087.443604 5599.000000
1089.285156 6577.000000
1091.125977 5552.000000
1092.965210 5795.000000
1094.803711 6097.000000
1096.640869 6095.000000
1098.476807 6866.000000
1100.311768 6601.000000
1102.145508 5419.000000
1103.978271 5714.000000
1105.809692 6194.000000
1107.640259 7312.000000
1109.469482 6570.000000
1111.297729 6443.000000
1113.124756 7136.000000
1114.950806 5541.000000
1116.775635 6393.000000
1118.599365 7244.000000
1120.421875 6219.000000
1122.243286 5909.000000
1124.063843 5954.000000
1125.882935 6618.000000
1127.701172 7148.000000
1129.518066 7002.000000
1131.334106 6679.000000
1133.148926 6536.000000
1134.962646 5644.000000
1136.775269 5852.000000
1138.586670 5664.000000
1140.397095 6154.000000
1142.206421 6808.000000
1144.014404 7113.000000
1145.821655 5960.000000
1147.627441 6016.000000
1149.432373 5412.000000
1151.236206 5437.000000
1153.038818 6111.000000
1154.840576 6161.000000
1156.640869 6121.000000
1158.440186 6164.000000
1160.238525 5951.000000
1162.035522 5511.000000
1163.831787 5911.000000
1165.626709 6115.000000
1167.420532 6345.000000
1169.213501 7770.000000
1171.005127 5630.000000
1172.795776 6514.000000
1174.585449 6039.000000
1176.373657 5890.000000
1178.161011 7533.000000
1179.947266 6792.000000
1181.732422 5773.000000
1183.516479 6002.000000
1185.299438 7733.000000
1187.081421 5918.000000
1188.862183 5928.000000
1190.641968 6350.000000
1192.420654 7025.000000
1194.198364 6679.000000
1195.974854 7220.000000
1197.750244 6573.000000
1199.524536 6561.000000
1201.297729 6734.000000
1203.070068 6522.000000
1204.841064 6781.000000
1206.611206 5794.000000
1208.380127 6154.000000
1210.147949 6345.000000
1211.914917 5812.000000
1213.680542 5979.000000
1215.445190 6964.000000
1217.208740 6573.000000
1218.971191 5923.000000
1220.732788 6737.000000
1222.493164 6003.000000
1224.252441 6444.000000
1226.010864 6091.000000
1227.768066 7230.000000
1229.524170 6498.000000
1231.279175 5538.000000
1233.033325 5985.000000
1234.786133 5863.000000
1236.537964 6020.000000
1238.288940 5997.000000
1240.038574 4956.000000
1241.787354 7006.000000
1243.534790 6559.000000
1245.281494 6697.000000
1247.026978 6579.000000
1248.771606 6465.000000
1250.514893 6800.000000
1252.257202 6726.000000
1253.998413 5435.000000
1255.738770 5139.000000
1257.478027 5874.000000
1259.216064 6612.000000
1260.953247 7173.000000
1262.689209 6178.000000
1264.424194 6470.000000
1266.158203 7417.000000
1267.891235 5969.000000
1269.623047 6254.000000
1271.353882 6492.000000
1273.083496 7260.000000
1274.812256 5947.000000
1276.539917 5718.000000
1278.266479 5588.000000
1279.992188 5604.000000
1281.716553 6436.000000
1283.440063 5271.000000
1285.162598 7125.000000
1286.884155 6636.000000
1288.604492 6429.000000
1290.323853 6733.000000
1292.042114 7298.000000
1293.759399 6426.000000
1295.475708 5800.000000
1297.190796 6526.000000
1298.904907 6186.000000
1300.618042 5761.000000
1302.330322 6477.000000
1304.041382 8448.000000
1305.751465 5284.000000
1307.460449 6660.000000
1309.168213 6674.000000
1310.875366 7038.000000
1312.581055 5833.000000
1314.286011 6909.000000
1315.989990 6241.000000
1317.692749 6077.000000
1319.394531 6676.000000
1321.095459 6142.000000
1322.795044 18542.500000
1324.493774 7414.000000
1326.191772 5618.000000
1327.888428 6580.000000
1329.583984 7192.000000
1331.278687 6904.000000
1332.972168 5806.000000
1334.664795 5437.000000
1336.356567 7321.000000
1338.046997 6233.000000
1339.736694 6628.000000
1341.425293 6204.000000
1343.112793 7627.000000
1344.799316 5718.000000
1346.484741 6827.000000
1348.169189 6096.000000
1349.852783 7373.000000
1351.535156 6458.000000
1353.216553 6045.000000
1354.897095 6527.000000
1356.576416 6796.000000
1358.255127 5983.000000
1359.932495 6653.000000
1361.608765 5827.000000
1363.284058 5594.000000
1364.958618 6640.000000
1366.631958 6483.000000
1368.304321 6843.000000
1369.975708 5171.000000
1371.646118 6900.000000
1373.315430 6188.000000
1374.983765 5782.000000
1376.651245 6014.000000
1378.317627 6554.000000
1379.983032 6124.000000
1381.647461 5865.000000
1383.310669 5985.000000
1384.973267 5764.000000
1386.634521 6396.000000
1388.294922 6561.000000
1389.954224 6519.000000
1391.612549 6614.000000
1393.270142 6840.000000
1394.926514 6501.000000
1396.582031 7014.000000
1398.236328 6399.000000
1399.889771 5953.000000
1401.542114 6156.000000
1403.193726 6479.000000
1404.844116 7192.000000
1406.493408 6299.000000
1408.141968 7567.000000
1409.789429 7956.000000
1411.435913 6279.000000
1413.081543 6336.000000
1414.726196 5967.000000
1416.369629 7066.000000
1418.012207 7149.000000
1419.653687 6934.000000
1421.294312 6501.000000
1422.933960 6491.000000
1424.572510 6072.000000
1426.210205 6698.000000
1427.846802 6396.000000
1429.482422 6050.000000
1431.117310 6426.000000
1432.751099 5953.000000
1434.383789 6237.000000
1436.015503 5740.000000
1437.646362 6184.000000
1439.276123 6129.000000
1440.904785 7866.000000
1442.532837 6027.000000
1444.159790 6553.000000
1445.785522 6213.000000
1447.410645 6199.000000
1449.034668 6557.000000
1450.657715 6038.000000
1452.279785 6095.000000
1453.900757 7530.000000
1455.520752 6342.000000
1457.140015 6902.000000
1458.757935 5736.000000
1460.375244 19371.000000
1461.991577 5564.000000
1463.606689 7332.000000
1465.220947 6408.000000
1466.834351 5249.000000
1468.446655 5595.000000
1470.058105 6349.000000
1471.668701 6400.000000
1473.278076 5945.000000
1474.886475 5995.000000
1476.494019 6267.000000
1478.100586 6782.000000
1479.706421 5365.000000
1481.311035 6370.000000
1482.914795 5550.000000
1484.517334 6763.000000
1486.119263 5592.000000
1487.719971 5474.000000
1489.319946 5681.000000
1490.918823 6361.000000
1492.516846 6514.000000
1494.113770 6756.000000
1495.709839 6384.000000
1497.304932 6027.000000
1498.899048 5539.000000
1500.492432 6640.000000
1502.084717 5572.000000
1503.675781 6240.000000
1505.266357 6791.000000
1506.855591 6538.000000
1508.444214 6152.000000
1510.031738 6557.000000
1511.618164 6957.000000
1513.203857 6190.000000
1514.788452 6681.000000
1516.372192 6457.000000
1517.954834 6315.000000
1519.536743 6779.000000
1521.117554 6692.000000
1522.697632 6030.000000
1524.276489 6343.000000
1525.854492 6463.000000
1527.431763 6323.000000
1529.007813 5697.000000
1530.583130 5993.000000
1532.157349 6306.000000
1533.730835 5414.000000
1535.303101 6014.000000
1536.874634 6434.000000
1538.445190 6550.000000
1540.014893 6381.000000
1541.583374 5537.000000
1543.151123 6665.000000
1544.718018 5689.000000
1546.283691 6840.000000
1547.848633 5986.000000
1549.412476 5103.000000
1550.975708 7506.000000
1552.537598 6347.000000
1554.098877 6049.000000
1555.659058 5736.000000
1557.218506 5811.000000
1558.776855 5881.000000
1560.334473 6311.000000
1561.890991 7066.000000
1563.446289 5929.000000
1565.000977 6363.000000
1566.554932 5638.000000
1568.107910 6395.000000
1569.659546 5773.000000
1571.210449 5895.000000
1572.760620 6286.000000
1574.309814 6396.000000
1575.857666 5794.000000
1577.405029 5555.000000
1578.951416 5726.000000
1580.496948 5108.000000
1582.041504 6737.000000
1583.584839 6432.000000
1585.127563 6683.000000
1586.669434 6476.000000
1588.210205 6728.000000
1589.750000 5838.000000
1591.289063 6756.000000
1592.827026 5962.000000
1594.364502 6177.000000
1595.900635 5968.000000
1597.435669 6756.000000
1598.970215 6237.000000
1600.503784 6085.000000
1602.036499 6166.000000
1603.567627 6373.000000
1605.098511 6336.000000
1606.628540 5814.000000
1608.157349 6187.000000
1609.685059 6224.000000
1611.212158 6027.000000
1612.738525 5876.000000
1614.263916 6333.000000
1615.788452 5903.000000
1617.311646 5845.000000
1618.834106 5662.000000
1620.355835 6661.000000
1621.876709 7022.000000
1623.396118 15630.000000
1624.915039 6314.000000
1626.433228 6113.000000
1627.950562 5819.000000
1629.466797 6373.000000
1630.981689 6984.000000
1632.496094 6841.000000
1634.009766 5818.000000
1635.522339 6915.000000
1637.033691 5987.000000
1638.544678 6492.000000
1640.054565 6234.000000
1641.563599 6221.000000
1643.071289 5619.000000
1644.578613 6183.000000
1646.085083 7193.000000
1647.590576 6312.000000
1649.095215 6895.000000
1650.598389 6186.000000
1652.100952 6674.000000
1653.603149 6439.000000
1655.104004 6708.000000
1656.603760 7599.000000
1658.102661 6237.000000
1659.601196 6537.000000
1661.098511 6310.000000
1662.595093 5948.000000
1664.090088 6543.000000
1665.584839 6566.000000
1667.078735 5294.000000
1668.571655 5796.000000
1670.063232 21432.000000
1671.554321 6503.000000
1673.044800 6128.000000
1674.534180 6000.000000
1676.022095 7060.000000
1677.509766 6869.000000
1678.996460 6102.000000
1680.482300 5448.000000
1681.967285 6125.000000
1683.450806 6188.000000
1684.934082 6275.000000
1686.416504 5921.000000
1687.897827 6305.000000
1689.377686 6218.000000
1690.857300 5609.000000
1692.336182 6614.000000
1693.814087 5430.000000
1695.291016 6175.000000
1696.766724 5824.000000
1698.242065 6047.000000
1699.716187 6332.000000
1701.189697 5592.000000
1702.661743 5614.000000
1704.133545 6989.000000
1705.604370 6463.000000
1707.074341 7233.000000
1708.542969 5169.000000
1710.011108 5868.000000
1711.478516 6398.000000
1712.944824 5474.000000
1714.410522 5802.000000
1715.874512 6263.000000
1717.338379 6005.000000
1718.801392 7104.000000
1720.263428 6476.000000
1721.724243 6641.000000
1723.184448 5542.000000
1724.643921 6398.000000
1726.102539 6320.000000
1727.560181 6020.000000
1729.016479 6275.000000
1730.472534 6057.000000
1731.927612 6460.000000
1733.381714 6032.000000
1734.834595 6921.000000
1736.287231 6023.000000
1737.738770 6807.000000
1739.189575 5924.000000
1740.639404 6585.000000
1742.087891 5967.000000
1743.536011 7602.000000
1744.983276 6611.000000
1746.429810 6696.000000
1747.874756 6735.000000
1749.319458 6186.000000
1750.763306 5937.000000
1752.206299 5563.000000
1753.647827 6628.000000
1755.089111 6366.000000
1756.529541 19708.000000
1757.968994 6250.000000
1759.407471 5323.000000
1760.844971 6117.000000
1762.281982 7653.000000
1763.718018 5936.000000
1765.153198 7261.000000
1766.586914 6211.000000
1768.020508 6515.000000
1769.453125 6742.000000
1770.884888 5833.000000
1772.315796 5915.000000
1773.745483 6462.000000
1775.174438 6186.000000
1776.602905 6357.000000
1778.030396 6806.000000
1779.456543 6319.000000
1780.882446 5625.000000
1782.307251 6929.000000
1783.731445 5651.000000
1785.154175 6704.000000
1786.576416 6583.000000
1787.997925 6891.000000
1789.418701 5955.000000
1790.838501 6126.000000
1792.256958 6164.000000
1793.674927 6962.000000
1795.092285 5518.000000
1796.508789 6126.000000
1797.923828 6608.000000
1799.338501 5777.000000
1800.752563 6600.000000
1802.165405 5964.000000
1803.577637 7049.000000
1804.988525 7145.000000
1806.398926 7838.000000
1807.808594 6585.000000
1809.217285 6004.000000
1810.624878 5407.000000
1812.031982 6491.000000
1813.438232 6421.000000
1814.843506 6783.000000
1816.247681 6037.000000
1817.651489 5991.000000
1819.054321 6291.000000
1820.456299 6066.000000
1821.857666 5931.000000
1823.257568 6407.000000
1824.656860 6562.000000
1826.055664 6610.000000
1827.453613 7512.000000
1828.850220 5767.000000
1830.246216 6795.000000
1831.641479 5897.000000
1833.036133 8228.000000
1834.429810 6017.000000
1835.822144 6878.000000
1837.213989 6419.000000
1838.605225 5939.000000
1839.995483 7156.000000
1841.384521 6078.000000
1842.773193 6069.000000
1844.160889 6007.000000
1845.547852 5874.000000
1846.933472 6993.000000
1848.318848 5921.000000
1849.703369 6462.000000
1851.087158 6375.000000
1852.469849 6385.000000
1853.851318 5466.000000
1855.232300 6578.000000
1856.612793 6421.000000
1857.992310 5758.000000
1859.370361 5979.000000
1860.748291 6204.000000
1862.125244 7941.000000
1863.501465 6119.000000
1864.876831 6148.000000
1866.250732 5727.000000
1867.624512 5760.000000
1868.997437 6226.000000
1870.369263 5994.000000
1871.740112 7008.000000
1873.110596 5418.000000
1874.479980 6073.000000
1875.848877 6089.000000
1877.216187 7200.000000
1878.583374 6101.000000
1879.949585 6076.000000
1881.315063 6822.000000
1882.679810 7531.000000
1884.042969 6841.000000
1885.406006 7014.000000
1886.768188 6365.000000
1888.129517 6524.000000
1889.489502 5759.000000
1890.849121 5927.000000
1892.208130 6141.000000
1893.566162 6695.000000
1894.923340 7328.000000
1896.279297 5975.000000
1897.635010 7671.000000
1898.989746 5895.000000
1900.343628 5603.000000
1901.696411 5956.000000
1903.048706 6058.000000
1904.400269 5974.000000
1905.750977 6927.000000
1907.100464 6619.000000
1908.449463 6688.000000
1909.797607 5949.000000
1911.145142 6216.000000
1912.491943 6362.000000
1913.837158 6878.000000
1915.182129 6125.000000
1916.526367 5482.000000
1917.869751 6564.000000
1919.211792 6020.000000
1920.553589 6756.000000
1921.894531 7035.000000
1923.234741 6252.000000
1924.573975 6484.000000
1925.912231 6341.000000
1927.249878 6564.000000
1928.586792 7031.000000
1929.922852 6833.000000
1931.257690 5596.000000
1932.592163 6783.000000
1933.925903 7309.000000
1935.258789 6259.000000
1936.590210 5814.000000
1937.921753 6396.000000
1939.251953 6711.000000
1940.581665 5830.000000
1941.910522 6103.000000
1943.238159 5881.000000
1944.565308 5089.000000
1945.891724 5922.000000
1947.217407 6536.000000
1948.541748 5807.000000
1949.865845 6735.000000
1951.189087 6423.000000
1952.511597 6424.000000
1953.833008 5836.000000
1955.153442 7503.000000
1956.473267 6131.000000
1957.792725 5583.000000
1959.111206 6853.000000
1960.428345 5948.000000
1961.745117 5915.000000
1963.061157 6615.000000
1964.376465 6647.000000
1965.690308 6395.000000
1967.003906 5685.000000
1968.316772 6303.000000
1969.628784 6034.000000
1970.940186 6066.000000
1972.250244 6403.000000
1973.559814 5843.000000
1974.868652 6234.000000
1976.176880 6709.000000
1977.483765 6145.000000
1978.790039 7235.000000
1980.095947 5618.000000
1981.400635 6445.000000
1982.704834 5987.000000
1984.007813 5754.000000
1985.310425 7586.000000
1986.612061 6156.000000
1987.913086 6642.000000
1989.212524 6102.000000
1990.512085 6676.000000
1991.810547 5388.000000
1993.108521 6149.000000
1994.404907 6208.000000
1995.701294 5884.000000
1996.996704 5621.000000
1998.291382 6568.000000
1999.585205 5762.000000
2000.877808 6533.000000
2002.169922 5809.000000
2003.461548 7275.000000
2004.752441 6441.000000
2006.041748 6357.000000
2007.330811 6878.000000
2008.619141 6123.000000
2009.906738 6051.000000
2011.193481 6846.000000
2012.479126 5714.000000
2013.764404 6361.000000
2015.048706 5974.000000
2016.332397 5615.000000
2017.614746 6152.000000
2018.896729 6561.000000
2020.178223 6850.000000
2021.458740 5945.000000
2022.738525 6114.000000
2024.017212 6845.000000
2025.295166 5835.000000
2026.572632 6033.000000
2027.849487 6322.000000
2029.124634 5913.000000
2030.399902 6674.000000
2031.674194 6339.000000
2032.947510 5987.000000
2034.219971 6000.000000
2035.492065 6167.000000
2036.763062 6961.000000
2038.033813 6634.000000
2039.303223 6098.000000
2040.571533 6773.000000
2041.839844 6686.000000
2043.107178 5927.000000
2044.373779 6020.000000
2045.639160 5644.000000
2046.903931 5722.000000
2048.168457 5460.000000
2049.431641 5931.000000
2050.694580 6488.000000
2051.955566 6233.000000
2053.217041 6125.000000
2054.477295 6001.000000
2055.736816 6647.000000
2056.995605 6321.000000
2058.253418 6935.000000
2059.510742 5986.000000
2060.767334 6027.000000
2062.022461 6534.000000
2063.277588 5710.000000
2064.531738 5619.000000
2065.785156 5681.000000
2067.037842 6846.000000
2068.289307 6301.000000
2069.540527 6440.000000
2070.791016 5695.000000
2072.040771 5523.000000
2073.289063 6557.000000
2074.537354 6579.000000
2075.784668 7512.000000
2077.031250 5638.000000
2078.277100 6134.000000
2079.521729 7083.000000
2080.765869 7630.000000
2082.009521 5541.000000
2083.252197 6097.000000
2084.493652 7020.000000
2085.734863 5979.000000
2086.975586 6441.000000
2088.215332 6778.000000
2089.453857 7103.000000
2090.691895 6264.000000
2091.929199 5826.000000
2093.166260 6754.000000
2094.401855 6157.000000
2095.636719 6274.000000
2096.871338 6124.000000
2098.104980 5652.000000
2099.337646 6088.000000
2100.569580 6975.000000
2101.801025 6484.000000
2103.031494 6796.000000
2104.261230 6081.000000
2105.490723 6048.000000
2106.718262 6067.000000
2107.946045 6020.000000
2109.173096 6429.000000
2110.399170 5551.000000
2111.623779 6413.000000
2112.848633 6999.000000
2114.072266 7073.000000
2115.295410 6262.000000
2116.517334 7567.000000
2117.739014 6079.000000
2118.959717 6927.000000
2120.179688 6035.000000
2121.399170 6176.000000
2122.617188 6678.000000
2123.835205 7142.000000
2125.052246 5778.000000
2126.268799 5879.000000
2127.483643 6585.000000
2128.698730 6397.000000
2129.912842 7020.000000
2131.126221 5725.000000
2132.338867 6126.000000
2133.550049 5871.000000
2134.761475 6631.000000
2135.971680 6721.000000
2137.181396 5979.000000
2138.389648 6204.000000
2139.597900 5659.000000
2140.805420 5903.000000
2142.011719 7542.000000
2143.217285 5947.000000
2144.422607 5717.000000
2145.626953 5643.000000
2146.830566 6339.000000
2148.033691 6237.000000
2149.235352 6483.000000
2150.436768 5351.000000
2151.637451 6322.000000
2152.837402 6170.000000
2154.036133 5958.000000
2155.234619 6959.000000
2156.432617 6234.000000
2157.629639 6072.000000
2158.825928 5201.000000
2160.020996 5301.000000
2161.215820 6210.000000
2162.409912 5672.000000
2163.603027 6145.000000
2164.795166 6998.000000
2165.987061 5934.000000
2167.178223 6397.000000
2168.368408 6393.000000
2169.557861 6554.000000
2170.746826 6877.000000
2171.934814 6092.000000
2173.122559 5734.000000
2174.308838 6003.000000
2175.494385 6644.000000
2176.679688 6070.000000
2177.864502 5873.000000
2179.048096 6420.000000
2180.230957 7562.000000
2181.412842 6352.000000
2182.594482 6013.000000
2183.775635 6671.000000
2184.955566 5756.000000
2186.134521 5616.000000
2187.312988 6392.000000
2188.491211 6950.000000
2189.668213 7310.000000
2190.844238 6745.000000
2192.020020 6157.000000
2193.195313 5684.000000
2194.369141 6768.000000
2195.542480 6200.000000
2196.715576 6174.000000
2197.887451 6594.000000
2199.058838 7113.000000
2200.229736 6376.000000
2201.398926 6965.000000
2202.568115 7584.000000
2203.736816 6312.000000
2204.904541 5938.000000
2206.071289 5737.000000
2207.237305 7298.000000
2208.402832 6645.000000
2209.568115 6064.000000
2210.731934 6753.000000
2211.895264 5591.000000
2213.057373 6196.000000
2214.219727 6198.000000
2215.380859 6760.000000
2216.541016 6751.000000
2217.700684 6363.000000
2218.860107 6597.000000
2220.018311 6381.000000
2221.175537 6377.000000
2222.332520 6830.000000
2223.488770 6738.000000
2224.644287 6758.000000
2225.799072 6303.000000
2226.952881 6447.000000
2228.105713 6116.000000
2229.259033 6940.000000
2230.410400 6205.000000
2231.561523 6191.000000
2232.711914 6559.000000
2233.861816 7664.000000
2235.010742 6341.000000
2236.159180 5234.000000
2237.306152 6870.000000
2238.453369 7070.000000
2239.599365 6060.000000
2240.745117 7310.000000
2241.889160 7337.000000
2243.033447 6785.000000
2244.176758 6209.000000
2245.319336 5981.000000
2246.460938 5813.000000
2247.602295 5823.000000
2248.742676 6407.000000
2249.882324 6483.000000
2251.021484 5882.000000
2252.159424 5826.000000
2253.297363 6258.000000
2254.434326 5330.000000
2255.570557 6386.000000
2256.705811 6217.000000
2257.840332 7361.000000
2258.974609 6460.000000
2260.108398 5489.000000
2261.240723 6185.000000
2262.372559 6859.000000
2263.503906 6311.000000
2264.634277 6596.000000
2265.764404 8234.000000
2266.893311 6742.000000
2268.021729 6107.000000
2269.149658 5619.000000
2270.276611 6228.000000
2271.402832 6021.000000
2272.528076 6789.000000
2273.653320 6550.000000
2274.777832 6455.000000
2275.901123 5969.000000
2277.023682 6326.000000
2278.145752 6211.000000
2279.267334 7432.000000
2280.388184 6463.000000
2281.507813 6414.000000
2282.626953 7165.000000
2283.745850 7694.000000
2284.864014 7340.000000
2285.981201 5887.000000
2287.097412 6493.000000
2288.213379 7098.000000
2289.328613 6969.000000
2290.443115 7361.000000
2291.556396 5930.000000
2292.669678 6338.000000
2293.782227 6088.000000
2294.894043 5387.000000
2296.005127 6802.000000
2297.114990 6400.000000
2298.224365 6232.000000
2299.333496 6720.000000
2300.441650 6394.000000
2301.548828 6789.000000
2302.655762 5952.000000
2303.761963 6324.000000
2304.867676 6632.000000
2305.971924 6632.000000
2307.075928 5451.000000
2308.179443 5796.000000
2309.282471 6573.000000
2310.384277 7481.000000
2311.485352 7393.000000
2312.585938 6594.000000
2313.686035 5593.000000
2314.785400 6411.000000
2315.883301 6611.000000
2316.981689 7059.000000
2318.078613 8305.000000
2319.175293 7006.000000
2320.271484 5882.000000
2321.365967 6954.000000
2322.460449 7466.000000
2323.554199 5875.000000
2324.647705 6081.000000
2325.739502 6485.000000
2326.831299 7080.000000
2327.922363 6168.000000
2329.012695 6259.000000
2330.102051 6995.000000
2331.191406 6079.000000
2332.279541 6364.000000
2333.367188 7068.000000
2334.454590 6503.000000
2335.540283 6735.000000
2336.625732 7842.000000
2337.710938 6329.000000
2338.795166 6801.000000
2339.878418 5931.000000
2340.961426 6463.000000
2342.043457 7093.000000
2343.125244 6011.000000
2344.206299 7471.000000
2345.286133 6707.000000
2346.365479 5722.000000
2347.444336 6850.000000
2348.522705 6590.000000
2349.599609 6327.000000
2350.676270 7010.000000
2351.752686 6008.000000
2352.828125 6461.000000
2353.902588 5993.000000
2354.976807 6363.000000
2356.050293 6877.000000
2357.123291 6341.000000
2358.195068 7063.000000
2359.266602 6298.000000
2360.337158 6826.000000
2361.407471 7547.000000
2362.476807 7578.000000
2363.545166 6827.000000
2364.613281 6717.000000
2365.680664 7132.000000
2366.747559 7163.000000
2367.813721 6173.000000
2368.878662 6994.000000
2369.943604 7011.000000
2371.007813 6393.000000
2372.071289 6946.000000
2373.133545 5826.000000
2374.195801 6332.000000
2375.257080 6275.000000
2376.318115 5950.000000
2377.377930 6293.000000
2378.437012 7924.000000
2379.496094 6472.000000
2380.554199 7679.000000
2381.611572 6960.000000
2382.667969 8074.000000
2383.724121 7865.000000
2384.779785 6320.000000
2385.834717 7043.000000
2386.888184 6848.000000
2387.941895 6616.000000
2388.994629 6398.000000
2390.046875 6824.000000
2391.098389 6166.000000
2392.148926 6725.000000
2393.199219 6604.000000
2394.248535 6364.000000
2395.297852 6280.000000
2396.345703 6940.000000
2397.393066 7042.000000
2398.440186 6381.000000
2399.486328 6709.000000
2400.531738 6197.000000
2401.576416 6809.000000
2402.621094 7748.000000
2403.664307 7543.000000
2404.707520 6618.000000
2405.749268 5943.000000
2406.791260 6823.000000
2407.832520 7197.000000
2408.872803 6194.000000
2409.912354 6445.000000
2410.950928 6346.000000
2411.989746 6026.000000
2413.027344 6602.000000
2414.064697 6937.000000
2415.100830 7355.000000
2416.136719 6345.000000
2417.171875 6368.000000
2418.206543 6665.000000
2419.239746 7162.000000
2420.273193 6547.000000
2421.305664 6738.000000
2422.337891 6865.000000
2423.368652 7122.000000
2424.399414 6452.000000
2425.429688 6823.000000
2426.458740 6908.000000
2427.487793 6666.000000
2428.515137 7436.000000
2429.542969 6700.000000
2430.569580 7351.000000
2431.595947 7036.000000
2432.620850 7752.000000
2433.645996 6537.000000
2434.670166 7141.000000
2435.694092 6734.000000
2436.716797 5812.000000
2437.738770 6328.000000
2438.760498 6647.000000
2439.781494 6686.000000
2440.802002 6104.000000
2441.821289 6497.000000
2442.840576 6549.000000
2443.858887 8538.000000
2444.876953 6288.000000
2445.893555 6517.000000
2446.910156 6583.000000
2447.926025 6026.000000
2448.941895 7112.000000
2449.956299 6844.000000
2450.969971 5546.000000
2451.983154 7275.000000
2452.996094 6081.000000
2454.008301 7229.000000
2455.019531 6672.000000
2456.030518 7729.000000
2457.040771 6390.000000
2458.050537 7647.000000
2459.059326 5967.000000
2460.067383 6008.000000
2461.075439 6314.000000
2462.082275 7436.000000
2463.088867 5479.000000
2464.094238 7470.000000
2465.099365 6973.000000
2466.104248 5872.000000
2467.107910 6548.000000
2468.111328 6407.000000
2469.113770 7585.000000
2470.115967 7367.000000
2471.117676 6905.000000
2472.118408 6621.000000
2473.118164 7018.000000
2474.117920 6758.000000
2475.116699 5698.000000
2476.114990 6603.000000
2477.112305 7046.000000
2478.109375 6212.000000
2479.106445 6997.000000
2480.102051 5841.000000
2481.097656 7194.000000
2482.091553 6752.000000
2483.085449 8177.000000
2484.078857 6946.000000
2485.071777 6911.000000
2486.063721 7588.000000
2487.054932 7253.000000
2488.045898 6755.000000
2489.036377 5893.000000
2490.025879 6659.000000
2491.014648 6552.000000
2492.003418 5682.000000
2492.991211 6883.000000
2493.977783 6634.000000
2494.964355 8130.000000
2495.950439 6829.000000
2496.935791 7188.000000
2497.920166 8043.000000
2498.904297 6096.000000
2499.888428 6901.000000
2500.871094 5823.000000
2501.853271 6993.000000
2502.834961 6878.000000
2503.815918 7277.000000
2504.796387 6503.000000
2505.776611 5799.000000
2506.755371 6310.000000
2507.733887 7661.000000
2508.711914 6782.000000
2509.689453 7098.000000
2510.666016 6134.000000
2511.642334 5984.000000
2512.617920 6482.000000
2513.593018 6280.000000
2514.567627 6504.000000
2515.541016 7693.000000
2516.514160 6853.000000
2517.487061 7008.000000
2518.458984 6192.000000
2519.430176 6896.000000
2520.400879 6958.000000
2521.371338 7859.000000
2522.341064 8120.000000
2523.309814 6145.000000
2524.277832 6189.000000
2525.245850 7744.000000
2526.212891 6303.000000
2527.179688 5596.000000
2528.145264 7294.000000
2529.110840 7051.000000
2530.075684 7740.000000
2531.040039 6343.000000
2532.003174 6425.000000
2532.966553 5865.000000
2533.928955 5978.000000
2534.891113 6716.000000
2535.852051 6514.000000
2536.812256 6135.000000
2537.772705 6203.000000
2538.732178 6737.000000
2539.690918 6833.000000
2540.648682 6817.000000
2541.606689 6286.000000
2542.563965 6770.000000
2543.520264 6082.000000
2544.476318 7159.000000
2545.431152 6222.000000
2546.386230 7749.000000
2547.340576 6997.000000
2548.294189 6772.000000
2549.246826 7246.000000
2550.199219 6757.000000
2551.151123 6959.000000
2552.102295 6423.000000
2553.052734 7749.000000
2554.002686 7068.000000
2554.952393 7447.000000
2555.901367 6679.000000
2556.849854 6322.000000
2557.797119 7138.000000
2558.744385 6304.000000
2559.690918 6627.000000
2560.636963 6782.000000
2561.582031 7448.000000
2562.526855 6761.000000
2563.471191 7260.000000
2564.415039 6906.000000
2565.358398 6688.000000
2566.300293 6629.000000
2567.242432 6623.000000
2568.183838 6128.000000
2569.124512 7224.000000
2570.064453 7337.000000
2571.004395 5762.000000
2571.943359 6203.000000
2572.882080 7532.000000
2573.819824 7236.000000
2574.757324 5499.000000
2575.694092 6996.000000
2576.630127 6850.000000
2577.565674 7596.000000
2578.500488 6416.000000
2579.435303 6018.000000
2580.369141 7089.000000
2581.302490 7233.000000
2582.235107 5877.000000
2583.167480 6877.000000
2584.099121 5396.000000
2585.030273 7130.000000
2585.960938 6991.000000
2586.890381 6891.000000
2587.819824 7323.000000
2588.748779 6580.000000
2589.677490 7489.000000
2590.604492 7267.000000
2591.531738 5903.000000
2592.458496 6818.000000
2593.384521 6341.000000
2594.310303 5730.000000
2595.234863 7702.000000
2596.159180 7686.000000
2597.083008 5337.000000
2598.006348 7394.000000
2598.928711 6257.000000
2599.850830 6948.000000
2600.772461 8365.000000
2601.693359 6426.000000
2602.613525 5945.000000
2603.533447 6403.000000
2604.452881 6412.000000
2605.372070 6475.000000
2606.290283 5905.000000
2607.207275 6063.000000
2608.124512 7270.000000
2609.041504 5929.000000
2609.957520 7643.000000
2610.872314 6658.000000
2611.787598 6666.000000
2612.702148 6521.000000
2613.615723 6626.000000
2614.529297 6446.000000
2615.441650 7664.000000
2616.354004 7068.000000
2617.265381 6871.000000
2618.176514 5841.000000
2619.086914 7253.000000
2619.997070 6677.000000
2620.906494 6180.000000
2621.815430 6779.000000
2622.723389 6274.000000
2623.631592 6934.000000
2624.538818 6678.000000
2625.445557 7072.000000
2626.351563 5970.000000
2627.257324 6629.000000
2628.162354 6612.000000
2629.067139 7796.000000
2629.971191 6509.000000
2630.874268 6337.000000
2631.777344 6466.000000
2632.679443 5669.000000
2633.581543 6784.000000
2634.483398 7039.000000
2635.383545 6919.000000
2636.283936 6409.000000
2637.183594 6462.000000
2638.083008 6004.000000
2638.980957 6886.000000
2639.879395 6802.000000
2640.777344 6398.000000
2641.674561 6112.000000
2642.570557 6196.000000
2643.466553 6829.000000
2644.362305 6144.000000
2645.257324 6545.000000
2646.152100 6704.000000
2647.045410 7285.000000
2647.938721 6298.000000
2648.831787 6825.000000
2649.724609 6487.000000
2650.615723 7537.000000
2651.507080 6438.000000
2652.397949 7673.000000
2653.288086 7311.000000
2654.177979 6583.000000
2655.066650 7303.000000
2655.955566 6644.000000
2656.843994 6603.000000
2657.731445 7387.000000
2658.617920 6510.000000
2659.504883 7190.000000
2660.391113 6888.000000
2661.276855 6867.000000
2662.161377 6555.000000
2663.045898 6437.000000
2663.930176 6264.000000
2664.813721 7080.000000
2665.696777 7823.000000
2666.579102 7363.000000
2667.460938 6226.000000
2668.342041 6656.000000
2669.223389 6101.000000
2670.103271 6591.000000
2670.983398 7426.000000
2671.862793 7281.000000
2672.742188 6461.000000
2673.620850 6139.000000
2674.497803 6447.000000
2675.375488 6841.000000
2676.252441 6471.000000
2677.128662 8191.000000
2678.004395 7202.000000
2678.879395 6287.000000
2679.754639 7743.000000
2680.628906 6995.000000
2681.502686 7354.000000
2682.375732 7080.000000
2683.248535 6167.000000
2684.121094 6094.000000
2684.992920 6974.000000
2685.864014 6604.000000
2686.734863 6997.000000
2687.605225 7198.000000
2688.475342 6784.000000
2689.343750 6312.000000
2690.212891 7465.000000
2691.081299 7122.000000
2691.949463 6724.000000
2692.816895 6932.000000
2693.683105 5892.000000
2694.549805 7194.000000
2695.415527 7376.000000
2696.281250 7200.000000
2697.145508 7924.000000
2698.010498 6628.000000
2698.874023 7288.000000
2699.737793 5837.000000
2700.600098 7464.000000
2701.462891 6808.000000
2702.324707 5949.000000
2703.186035 6873.000000
2704.047363 6807.000000
2704.907471 7505.000000
2705.767578 7352.000000
2706.627197 6634.000000
2707.486572 6902.000000
2708.344238 7174.000000
2709.202148 6851.000000
2710.060547 7373.000000
2710.917725 6765.000000
2711.774170 6049.000000
2712.630127 6896.000000
2713.486084 6150.000000
2714.341309 6938.000000
2715.195801 6155.000000
2716.049805 6951.000000
2716.903809 7289.000000
2717.756836 6284.000000
2718.610107 6616.000000
2719.461670 7758.000000
2720.313721 6779.000000
2721.165527 6314.000000
2722.016113 6481.000000
2722.866699 6640.000000
2723.716797 7160.000000
2724.566162 7027.000000
2725.415527 6980.000000
2726.263672 6722.000000
2727.111328 6564.000000
2727.959473 7033.000000
2728.806396 6819.000000
2729.653809 5585.000000
2730.499756 7449.000000
2731.344971 7049.000000
2732.190674 6491.000000
2733.035400 7123.000000
2733.880127 7410.000000
2734.723633 6926.000000
2735.567383 7782.000000
2736.410400 7134.000000
2737.252930 6074.000000
2738.094482 6312.000000
2738.936523 6773.000000
2739.777588 6921.000000
2740.618408 5841.000000
2741.458984 5949.000000
2742.298340 7816.000000
2743.137695 6903.000000
2743.977051 6922.000000
2744.815186 6843.000000
2745.652832 7875.000000
2746.490479 6373.000000
2747.327637 7202.000000
2748.164551 6232.000000
2749.000977 6031.000000
2749.836182 6622.000000
2750.671631 6334.000000
2751.506592 6313.000000
2752.340820 6340.000000
2753.174805 6938.000000
2754.008301 6941.000000
2754.841797 8005.000000
2755.674316 6899.000000
2756.506348 7316.000000
2757.337891 6876.000000
2758.169434 7174.000000
2759.000000 7227.000000
2759.830811 7374.000000
2760.660400 7392.000000
2761.489990 6821.000000
2762.319336 7312.000000
2763.147949 6903.000000
2763.976074 6821.000000
2764.803711 6929.000000
2765.631348 6655.000000
2766.458496 7909.000000
2767.284912 5871.000000
2768.110840 7542.000000
2768.936279 6858.000000
2769.761475 7871.000000
2770.586670 7099.000000
2771.410645 6835.000000
2772.234619 6565.000000
2773.058594 7700.000000
2773.881348 6650.000000
2774.704346 7039.000000
2775.526123 6938.000000
2776.347900 7018.000000
2777.169678 6528.000000
2777.990479 8057.000000
2778.810547 6627.000000
2779.630859 7024.000000
2780.450684 7404.000000
2781.270508 6412.000000
2782.088379 5990.000000
2782.907471 8107.000000
2783.725342 6560.000000
2784.542969 6832.000000
2785.360107 7157.000000
2786.176758 7260.000000
2786.993164 7266.000000
2787.809082 6317.000000
2788.624756 6025.000000
2789.439453 6419.000000
2790.254639 7057.000000
2791.069092 7181.000000
2791.883057 6635.000000
2792.696777 7423.000000
2793.509277 8814.000000
2794.322021 7030.000000
2795.134277 7479.000000
2795.946045 7231.000000
2796.757080 7463.000000
2797.568848 6588.000000
2798.379395 7297.000000
2799.189941 7087.000000
2799.999023 7431.000000
2800.808838 8254.000000
2801.617920 7912.000000
2802.426758 6706.000000
2803.235107 7210.000000
2804.042480 6211.000000
2804.850342 6481.000000
2805.657471 6932.000000
2806.464355 7040.000000
2807.270020 7128.000000
2808.076172 6690.000000
2808.881592 6510.000000
2809.687012 7352.000000
2810.491699 6268.000000
2811.295410 7672.000000
2812.099609 7484.000000
2812.903320 6332.000000
2813.706787 6181.000000
2814.508789 6653.000000
2815.311523 7448.000000
2816.113525 7877.000000
2816.915283 6181.000000
2817.716553 6607.000000
2818.517334 7331.000000
2819.317627 6585.000000
2820.118164 6739.000000
2820.917725 8122.000000
2821.716797 7218.000000
2822.515869 6670.000000
2823.314697 6931.000000
2824.113037 6422.000000
2824.910400 7040.000000
2825.708008 7404.000000
2826.504883 6701.000000
2827.302002 7435.000000
2828.098389 8073.000000
2828.894043 7096.000000
2829.689697 7420.000000
2830.485107 7602.000000
2831.280029 7543.000000
2832.074219 6663.000000
2832.868408 6917.000000
2833.662354 5625.000000
2834.455811 6869.000000
2835.248535 7222.000000
2836.041016 8187.000000
2836.833496 7679.000000
2837.625732 7766.000000
2838.417480 6519.000000
2839.208252 6865.000000
2839.999023 8894.000000
2840.790039 7542.000000
2841.580078 6240.000000
2842.369629 7675.000000
2843.159424 7158.000000
2843.948242 7397.000000
2844.737061 7820.000000
2845.525879 7773.000000
2846.313721 7603.000000
2847.101074 7300.000000
2847.888672 7539.000000
2848.675781 7364.000000
2849.462158 6659.000000
2850.248535 7486.000000
2851.034668 7204.000000
2851.820313 7571.000000
2852.604980 7212.000000
2853.390137 6894.000000
2854.175049 7573.000000
2854.959229 7181.000000
2855.743408 6970.000000
2856.526367 8357.000000
2857.309570 6876.000000
2858.092529 6750.000000
2858.875000 7923.000000
2859.657227 6313.000000
2860.438965 6711.000000
2861.220459 7660.000000
2862.002197 7501.000000
2862.783203 7690.000000
2863.563477 6650.000000
2864.343506 6790.000000
2865.123535 8268.000000
2865.903320 7530.000000
2866.682129 8205.000000
2867.461182 7724.000000
2868.239746 6873.000000
2869.018066 7069.000000
2869.795898 7261.000000
2870.573486 6982.000000
2871.350830 7529.000000
2872.127930 7058.000000
2872.904541 6455.000000
2873.680664 7519.000000
2874.456787 7144.000000
2875.232422 8334.000000
2876.007813 7261.000000
2876.782715 6771.000000
2877.557373 8223.000000
2878.332031 6741.000000
2879.106445 7961.000000
2879.880127 6919.000000
2880.653076 7386.000000
2881.426758 6867.000000
2882.199463 7734.000000
2882.972168 7947.000000
2883.744141 8326.000000
2884.515869 6297.000000
2885.288086 6858.000000
2886.059082 6900.000000
2886.829590 6142.000000
2887.600586 8464.000000
2888.371582 7426.000000
2889.141846 8040.000000
2889.911133 7697.000000
2890.680664 6980.000000
2891.450195 7265.000000
2892.219238 7405.000000
2892.987793 7940.000000
2893.756348 7734.000000
2894.523926 7032.000000
2895.291992 6626.000000
2896.059570 7458.000000
2896.827148 8348.000000
2897.593506 7548.000000
2898.360840 6560.000000
2899.126953 7220.000000
2899.893311 7069.000000
2900.658203 8316.000000
2901.423584 7045.000000
2902.189453 6509.000000
2902.953857 7877.000000
2903.718262 7943.000000
2904.482910 8432.000000
2905.246582 6642.000000
2906.010986 8514.000000
2906.774658 6687.000000
2907.537598 8463.000000
2908.300293 6557.000000
2909.063477 9193.000000
2909.826172 7032.000000
2910.587646 6867.000000
2911.349609 6867.000000
