scanname Analyse100
timestamp 2017-02-10 22:33:10
ccdbias 955.095703
ccdgain 3.473401
sigmaread 8.960639
laserwavenum -0.503115
wavenumcorrection 0.019849
scancount 1
totalexposurems 10000
singleexposurems 10000
measurementstate Unknown
scanmode Manual
snr 12.405894 0.597977 0.264064
replacelist 2
905 6549.000000 5537.000000
1618 6981.000000 6325.000000
peaks 10
400.297943 0.035993 0.000000 0.338912 0.000030
809.672485 0.030575 0.000000 0.753520 0.000096
842.665222 0.027485 0.000000 0.261483 0.000069
974.028748 0.019948 0.000000 0.218361 0.000031
1037.927734 0.017975 0.000000 0.096218 0.000011
1158.203491 0.021749 0.000000 0.033137 0.000020
1220.037842 0.019416 0.000000 0.041141 0.000013
1329.528320 0.026834 0.000000 0.118089 0.000036
1460.002319 0.030394 0.000000 0.152685 0.000093
2332.112061 0.015603 0.000000 0.121912 0.000240
finalresult GLS_Multiple 88
A11883	Polypropylene (Isotactic)	6.079963e-001
A13500	Poly(propylene-co-ethylene)	6.028275e-001
A0115	Polypropylene	5.968255e-001
A13180	Polypropylene (lot B)	5.902536e-001
A13184	Piperidine hydrochloride	3.303577e-001
A1531	Ethyl formate	3.068088e-001
A2703	Acetaldehyde dimethyl acetal	2.965090e-001
A10222	CHES	2.915272e-001
A1676	Trifluoroacetic acid	2.868748e-001
A10674	Dibutyl succinate	2.864959e-001
A6290	Bis(2,2,2-trifluoroethyl) phosphite	2.745120e-001
A11885	Poly(methyl methacrylate-co-butyl methacrylate)	2.744409e-001
A13507	Poly(methyl methacrylate-co-ethyl acrylate)	2.726373e-001
A0400	Potassium permanganate	2.719002e-001
A1871	Methyl salicylate	2.713161e-001
A3222	Potassium nitrite	2.701602e-001
A1270	Methyl DL-lactate	2.667275e-001
A0369	2,4,6-Tribromophenol	2.654693e-001
A14069	(R)-(-)-1,2-Propanediol	2.645701e-001
A1584	Pentane	2.633693e-001
A2313	Barium peroxide	2.617521e-001
A11872	Poly(methyl methacrylate)	2.600554e-001
A13820	(-)-Methyl L-lactate	2.598904e-001
A2721	Formaldehyde diethyl acetal	2.597344e-001
A0518	Propylene glycol	2.594920e-001
A10529	1-Formylpiperazine	2.583967e-001
A2098	Diethylene glycol dibutyl ether	2.577497e-001
A10301	2-Methoxytetrahydropyran	2.557384e-001
A8610	5-Methyl-2-pyrrolidinone	2.549720e-001
A0098	Roundup (weed and grass killer)	2.546180e-001
A0524	Propionic acid	2.530357e-001
A1341	Nicotinic acid	2.521526e-001
A12947	Diethyl (trichloromethyl)phosphonate	2.514139e-001
A0793	Tris(2-methoxyethoxy)(vinyl)silane	2.504509e-001
A2210	Calcium peroxide hydrate	2.479346e-001
A5382	3-Methoxypropionic acid	2.462193e-001
A2017	Isopropylamine	2.456434e-001
A8580	Sodium permanganate solution	2.451617e-001
A1754	N,N-Dimethylhydrazine	2.445692e-001
A9546	4-Methoxy-alpha-methylbenzyl alcohol	2.440427e-001
A2727	Acrolein diethyl acetal	2.425975e-001
A14792	N-Guanylurea sulfate salt hydrate	2.415436e-001
A1928	Ammonium sulfate	2.404753e-001
A12448	Tribromofluoromethane	2.401930e-001
A8920	Perrhenic acid solution	2.396923e-001
A10745	Neomycin sulfate salt	2.392288e-001
A15973	Silver azide	2.379342e-001
A6663	4-Hydroxypiperidine hydrochloride	2.372484e-001
A0408	Chromium(VI) oxide	2.357379e-001
A5377	4-Methyl-2-nitroanisole	2.350485e-001
A0761	N,N,N',N'-Tetrakis(2-Hydroxypropyl)ethylenediamine	2.340399e-001
A2413	Sodium selenate	2.328658e-001
A0629	Cyanuric chloride	2.322015e-001
A7633	2-Nitro-p-cymene	2.319801e-001
A2155	Ammonium carbamate	2.316265e-001
A6700	4'-Methoxypropiophenone	2.311233e-001
A14724	Ammonium metatungstate hydrate	2.310703e-001
A7885	beta-Carotene	2.307268e-001
A4767	2-(Methylamino)pyridine	2.302516e-001
A6025	2-Nitrothiophene	2.302254e-001
A2423	Hydroxyurea	2.301114e-001
A9847	3-Pyridinecarboxaldehyde	2.295582e-001
A0014	Methanol	2.295057e-001
A2693	Dicyclohexylamine nitrite	2.291813e-001
A13682	Tetrabutylammonium nitrate	2.291726e-001
A0398	Ammonium nitrate	2.287268e-001
A0906	3-Allyloxy-2-hydroxy-1-propanesulfonic acid sodium salt solution	2.286129e-001
A2863	Streptomycin sulfate salt	2.285693e-001
A0199	Isobutyric acid	2.283075e-001
A7944	3-Fluoropyridine	2.280456e-001
A12725	Cerium(III) fluoride	2.279758e-001
A5042	2,4,6-Trichloropyrimidine	2.276710e-001
A7024	Hydrazine monohydrobromide	2.276532e-001
A7805	Ethyl 3-pyridylacetate	2.274966e-001
A13172	Manganese(II) nitrate tetrahydrate	2.270619e-001
A0040	Silver nitrate	2.269926e-001
A10856	Mercury (II) nitrate monohydrate	2.266626e-001
A10860	Ethyleneimine polymer soln.	2.259091e-001
A2789	Ammonium carbonate	2.253992e-001
A15809	Methylamine (40 wt% in water)	2.252957e-001
A1547	Isovaleric acid	2.247179e-001
A14155	Nicotinic acid sodium salt	2.243996e-001
A4025	2,4-Dimethylpentane	2.226422e-001
A3586	Bismuth(III) nitrate pentahydrate	2.210044e-001
A2322	Silver sulfate	2.207595e-001
A5310	4-Methyl-3-nitroanisole	2.204376e-001
A4845	2-(2-Chlorophenoxy)ethanol	2.200557e-001
A3625	1-Dimethylamino-2-propanol	2.195688e-001
spectrum 2048
-97.098343 44974.000000
-94.471474 44974.000000
-91.846481 45530.000000
-89.223381 45655.000000
-86.602150 46535.000000
-83.982819 46305.000000
-81.365349 46540.000000
-78.749756 46384.000000
-76.136040 46658.000000
-73.524200 46998.000000
-70.914223 46881.000000
-68.306129 46993.000000
-65.699883 47049.000000
-63.095509 47056.000000
-60.493000 46985.000000
-57.892345 47473.000000
-55.293552 46877.000000
-52.696617 46213.000000
-50.101536 46579.000000
-47.508308 46515.000000
-44.916931 46814.000000
-42.327400 46314.000000
-39.739712 47158.000000
-37.153873 46975.000000
-34.569878 46573.000000
-31.987720 47296.000000
-29.407408 46701.000000
-26.828922 47293.000000
-24.252279 46795.000000
-21.677462 46666.000000
-19.104485 46404.000000
-16.533327 46331.000000
-13.964003 45990.000000
-11.396504 44982.000000
-8.830825 46383.000000
-6.266972 46103.000000
-3.704931 46481.000000
-1.144715 46592.000000
1.413693 46069.000000
3.970280 45018.000000
6.525063 44855.000000
9.078028 44862.000000
11.629192 43273.000000
14.178544 42214.000000
16.726099 40715.000000
19.271843 39951.000000
21.815794 38524.000000
24.357941 35295.000000
26.898291 32232.000000
29.436855 29403.000000
31.973623 24219.000000
34.508591 16565.000000
37.041779 10402.000000
39.573185 7440.000000
42.102798 6799.000000
44.630615 6846.000000
47.156673 6051.000000
49.680943 5325.000000
52.203442 4544.000000
54.724144 4406.000000
57.243092 4612.000000
59.760265 5523.000000
62.275661 6870.000000
64.789276 8155.000000
67.301140 7839.000000
69.811256 5873.000000
72.319580 3655.000000
74.826149 2792.000000
77.330971 2253.000000
79.834038 1918.000000
82.335327 1761.000000
84.834877 1747.000000
87.332672 1575.000000
89.828735 1685.000000
92.323021 2044.000000
94.815567 2398.000000
97.306396 2418.000000
99.795456 2058.000000
102.282768 1490.000000
104.768356 1267.000000
107.252205 1200.000000
109.734306 1179.000000
112.214684 1152.000000
114.693336 1044.000000
117.170265 895.000000
119.645439 880.000000
122.118904 949.000000
124.590637 865.000000
127.060661 763.000000
129.528931 950.000000
131.995529 912.000000
134.460373 834.000000
136.923523 902.000000
139.384933 989.000000
141.844650 1152.000000
144.302643 1189.000000
146.758942 1332.000000
149.213531 1359.000000
151.666397 1514.000000
154.117584 1664.000000
156.567078 1967.000000
159.014847 2128.000000
161.460907 2430.000000
163.905289 2107.000000
166.347992 2983.000000
168.789001 3182.000000
171.228302 3172.000000
173.665894 3193.000000
176.101852 3298.000000
178.536072 3231.000000
180.968613 3297.000000
183.399506 3095.000000
185.828674 3158.000000
188.256195 3160.000000
190.682037 3025.000000
193.106201 3106.000000
195.528702 3042.000000
197.949509 3017.000000
200.368652 3015.000000
202.786133 3046.000000
205.201920 2956.000000
207.616058 3113.000000
210.028564 3149.000000
212.439392 3338.000000
214.848541 3431.000000
217.256058 3552.000000
219.661865 3654.000000
222.066086 3851.000000
224.468597 3845.000000
226.869492 4003.000000
229.268738 3839.000000
231.666321 3873.000000
234.062241 3970.000000
236.456543 3913.000000
238.849182 3882.000000
241.240204 3711.000000
243.629562 3782.000000
246.017303 3688.000000
248.403397 3541.000000
250.787857 3459.000000
253.170670 3478.000000
255.551910 3307.000000
257.931458 3340.000000
260.309418 3205.000000
262.685699 3189.000000
265.060425 3152.000000
267.433502 3138.000000
269.804932 3000.000000
272.174713 3014.000000
274.542938 2915.000000
276.909515 2812.000000
279.274506 2788.000000
281.637878 2804.000000
283.999603 2671.000000
286.359741 2665.000000
288.718262 2583.000000
291.075195 2580.000000
293.430511 2623.000000
295.784241 2614.000000
298.136322 2526.000000
300.486847 2474.000000
302.835785 2524.000000
305.183075 2378.000000
307.528839 2517.000000
309.872925 2359.000000
312.215485 2280.000000
314.556427 2348.000000
316.895752 2365.000000
319.233521 2379.000000
321.569733 2387.000000
323.904297 2327.000000
326.237305 2195.000000
328.568756 2251.000000
330.898621 2145.000000
333.226898 2202.000000
335.553558 2229.000000
337.878723 2159.000000
340.202271 2114.000000
342.524261 2182.000000
344.844696 2132.000000
347.163513 2203.000000
349.480774 2074.000000
351.796509 2049.000000
354.110657 1969.000000
356.423218 2004.000000
358.734222 1925.000000
361.043701 2081.000000
363.351654 1994.000000
365.657990 2030.000000
367.962738 2024.000000
370.266022 1994.000000
372.567688 1978.000000
374.867859 1987.000000
377.166473 2021.000000
379.463531 2005.000000
381.759033 2060.000000
384.053009 2044.000000
386.345398 2050.000000
388.636292 2085.000000
390.925659 2034.000000
393.213440 2231.000000
395.499695 2316.000000
397.784454 2260.000000
400.067596 2393.000000
402.349304 2392.000000
404.629486 2293.000000
406.908081 2221.000000
409.185150 2117.000000
411.460693 2146.000000
413.734711 2077.000000
416.007294 2042.000000
418.278259 2057.000000
420.547729 2089.000000
422.815704 2076.000000
425.082123 1979.000000
427.347046 1911.000000
429.610504 1898.000000
431.872375 1894.000000
434.132782 2004.000000
436.391632 1991.000000
438.649017 1966.000000
440.904907 1924.000000
443.159302 1905.000000
445.412170 1801.000000
447.663483 1882.000000
449.913391 1884.000000
452.161713 2027.000000
454.408600 1906.000000
456.654022 1935.000000
458.897888 1923.000000
461.140259 1933.000000
463.381134 1846.000000
465.620605 1816.000000
467.858490 1873.000000
470.094940 1851.000000
472.329865 1762.000000
474.563324 1720.000000
476.795349 1768.000000
479.025848 1770.000000
481.254852 1783.000000
483.482391 1689.000000
485.708435 1732.000000
487.933044 1651.000000
490.156189 1667.000000
492.377869 1699.000000
494.597992 1719.000000
496.816711 1707.000000
499.033936 1770.000000
501.249786 1714.000000
503.464020 1757.000000
505.676941 1682.000000
507.888275 1701.000000
510.098175 1701.000000
512.306641 1759.000000
514.513733 1690.000000
516.719238 1656.000000
518.923340 1629.000000
521.125916 1682.000000
523.327087 1745.000000
525.526917 1780.000000
527.725220 1764.000000
529.921997 1737.000000
532.117432 1680.000000
534.311340 1706.000000
536.503906 1692.000000
538.694946 1677.000000
540.884583 1614.000000
543.072815 1649.000000
545.259521 1612.000000
547.444763 1611.000000
549.628723 1666.000000
551.811096 1517.000000
553.992126 1537.000000
556.171631 1556.000000
558.349854 1514.000000
560.526550 1529.000000
562.701843 1577.000000
564.875732 1533.000000
567.048157 1444.000000
569.219177 1479.000000
571.388733 1461.000000
573.557007 1403.000000
575.723755 1431.000000
577.889038 1488.000000
580.052917 1501.000000
582.215515 1473.000000
584.376587 1373.000000
586.536255 1449.000000
588.694580 1525.000000
590.851379 1491.000000
593.006836 1510.000000
595.160889 1509.000000
597.313599 1382.000000
599.464783 1358.000000
601.614624 1510.000000
603.763123 1516.000000
605.910034 1475.000000
608.055725 1423.000000
610.200012 1456.000000
612.342834 1459.000000
614.484192 1472.000000
616.624329 1397.000000
618.762939 1402.000000
620.900269 1424.000000
623.036133 1430.000000
625.170593 1447.000000
627.303589 1419.000000
629.435425 1413.000000
631.565796 1383.000000
633.694763 1356.000000
635.822266 1366.000000
637.948486 1338.000000
640.073181 1323.000000
642.196655 1397.000000
644.318787 1333.000000
646.439453 1287.000000
648.558777 1404.000000
650.676697 1383.000000
652.793274 1381.000000
654.908447 1266.000000
657.022278 1427.000000
659.134644 1252.000000
661.245789 1193.000000
663.355530 1323.000000
665.463806 1229.000000
667.570923 1287.000000
669.676575 1388.000000
671.780762 1331.000000
673.883728 1235.000000
675.985291 1338.000000
678.085510 1266.000000
680.184326 1372.000000
682.281799 1321.000000
684.377991 1315.000000
686.472717 1368.000000
688.566223 1273.000000
690.658386 1281.000000
692.749023 1317.000000
694.838440 1366.000000
696.926575 1336.000000
699.013245 1254.000000
701.098694 1426.000000
703.182617 1367.000000
705.265320 1287.000000
707.346741 1268.000000
709.426697 1252.000000
711.505432 1257.000000
713.582703 1271.000000
715.658691 1231.000000
717.733398 1200.000000
719.806824 1184.000000
721.878723 1257.000000
723.949463 1211.000000
726.018860 1291.000000
728.086853 1193.000000
730.153503 1211.000000
732.218933 1143.000000
734.283020 1218.000000
736.345764 1194.000000
738.407166 1101.000000
740.467285 1157.000000
742.526001 1169.000000
744.583496 1220.000000
746.639709 1273.000000
748.694519 1217.000000
750.748047 1210.000000
752.800171 1177.000000
754.851074 1156.000000
756.900757 1177.000000
758.948975 1259.000000
760.995972 1208.000000
763.041687 1122.000000
765.085999 1212.000000
767.129028 1153.000000
769.170837 1278.000000
771.211304 1156.000000
773.250366 1188.000000
775.288269 1195.000000
777.324829 1227.000000
779.360168 1197.000000
781.394165 1140.000000
783.426758 1104.000000
785.458191 1165.000000
787.488220 1310.000000
789.516968 1165.000000
791.544556 1184.000000
793.570801 1145.000000
795.595642 1293.000000
797.619385 1249.000000
799.641724 1266.000000
801.662842 1383.000000
803.682617 1486.000000
805.701111 1530.000000
807.718384 1662.000000
809.734253 1755.000000
811.748962 1658.000000
813.762329 1600.000000
815.774475 1427.000000
817.785400 1325.000000
819.794983 1214.000000
821.803345 1143.000000
823.810303 1209.000000
825.816040 1205.000000
827.820557 1302.000000
829.823792 1160.000000
831.825745 1221.000000
833.826416 1198.000000
835.825867 1313.000000
837.823975 1237.000000
839.820984 1393.000000
841.816589 1457.000000
843.811035 1436.000000
845.804138 1346.000000
847.796021 1338.000000
849.786560 1170.000000
851.775818 1111.000000
853.764038 1144.000000
855.750854 1028.000000
857.736450 1065.000000
859.720764 1119.000000
861.703979 1106.000000
863.685791 1103.000000
865.666382 1068.000000
867.645691 1019.000000
869.623840 1017.000000
871.600647 1019.000000
873.576172 1122.000000
875.550659 1112.000000
877.523682 1083.000000
879.495667 930.000000
881.466309 1017.000000
883.435791 1039.000000
885.403931 995.000000
887.370911 998.000000
889.336548 992.000000
891.301025 1010.000000
893.264282 1030.000000
895.226318 1066.000000
897.187073 1040.000000
899.146606 976.000000
901.104858 1149.000000
903.062012 988.000000
905.018005 1004.000000
906.972595 1008.000000
908.925964 925.000000
910.878174 950.000000
912.829163 971.000000
914.778870 965.000000
916.727417 907.000000
918.674744 846.000000
920.620789 976.000000
922.565552 905.000000
924.509277 814.000000
926.451843 765.000000
928.393127 883.000000
930.333069 787.000000
932.271912 970.000000
934.209473 860.000000
936.145813 871.000000
938.080994 830.000000
940.014893 858.000000
941.947693 879.000000
943.879272 836.000000
945.809692 878.000000
947.738892 707.000000
949.666748 779.000000
951.593567 782.000000
953.519104 769.000000
955.443359 795.000000
957.366516 855.000000
959.288513 877.000000
961.209229 904.000000
963.128784 802.000000
965.047180 870.000000
966.964539 898.000000
968.880432 938.000000
970.795227 947.000000
972.708801 972.000000
974.621216 1041.000000
976.532410 1036.000000
978.442444 919.000000
980.351196 907.000000
982.258911 916.000000
984.165405 758.000000
986.070679 807.000000
987.974854 826.000000
989.877808 879.000000
991.779541 889.000000
993.680115 732.000000
995.579529 858.000000
997.477722 924.000000
999.374756 898.000000
1001.270569 937.000000
1003.165222 857.000000
1005.058777 727.000000
1006.951050 844.000000
1008.842407 705.000000
1010.732422 737.000000
1012.621216 754.000000
1014.508850 775.000000
1016.395325 857.000000
1018.280640 705.000000
1020.164795 779.000000
1022.047729 692.000000
1023.929626 681.000000
1025.810181 774.000000
1027.689697 739.000000
1029.568237 817.000000
1031.445435 796.000000
1033.321289 770.000000
1035.196167 799.000000
1037.070068 863.000000
1038.942505 901.000000
1040.813965 813.000000
1042.684082 779.000000
1044.553223 815.000000
1046.421143 709.000000
1048.287964 762.000000
1050.153687 774.000000
1052.018188 742.000000
1053.881592 666.000000
1055.743652 731.000000
1057.604736 663.000000
1059.464722 716.000000
1061.323364 788.000000
1063.180908 644.000000
1065.037354 677.000000
1066.892700 763.000000
1068.746826 668.000000
1070.600098 732.000000
1072.451904 679.000000
1074.302734 681.000000
1076.152344 677.000000
1078.000732 659.000000
1079.848267 769.000000
1081.694458 658.000000
1083.539429 714.000000
1085.383545 686.000000
1087.226318 775.000000
1089.067871 715.000000
1090.908691 675.000000
1092.747925 696.000000
1094.586426 657.000000
1096.423584 737.000000
1098.259521 782.000000
1100.094482 647.000000
1101.928223 704.000000
1103.760986 751.000000
1105.592407 647.000000
1107.422974 688.000000
1109.252197 601.000000
1111.080444 628.000000
1112.907471 661.000000
1114.733521 639.000000
1116.558350 664.000000
1118.382080 738.000000
1120.204590 608.000000
1122.026001 559.000000
1123.846558 665.000000
1125.665649 695.000000
1127.483887 709.000000
1129.300781 733.000000
1131.116821 691.000000
1132.931641 638.000000
1134.745361 674.000000
1136.557983 622.000000
1138.369385 642.000000
1140.179810 739.000000
1141.989136 797.000000
1143.797119 772.000000
1145.604370 816.000000
1147.410156 855.000000
1149.215088 963.000000
1151.018921 955.000000
1152.821533 1005.000000
1154.623291 956.000000
1156.423584 881.000000
1158.222900 998.000000
1160.021240 969.000000
1161.818237 975.000000
1163.614502 904.000000
1165.409424 891.000000
1167.203247 888.000000
1168.996216 871.000000
1170.787842 846.000000
1172.578491 753.000000
1174.368164 762.000000
1176.156372 703.000000
1177.943726 723.000000
1179.729980 728.000000
1181.515137 667.000000
1183.299194 663.000000
1185.082153 723.000000
1186.864136 742.000000
1188.644897 651.000000
1190.424683 639.000000
1192.203369 613.000000
1193.981079 650.000000
1195.757568 724.000000
1197.532959 658.000000
1199.307251 582.000000
1201.080444 657.000000
1202.852783 536.000000
1204.623779 679.000000
1206.393921 668.000000
1208.162842 688.000000
1209.930664 670.000000
1211.697632 748.000000
1213.463257 797.000000
1215.227905 732.000000
1216.991455 783.000000
1218.753906 807.000000
1220.515503 803.000000
1222.275879 758.000000
1224.035156 739.000000
1225.793579 754.000000
1227.550781 743.000000
1229.306885 678.000000
1231.061890 744.000000
1232.816040 742.000000
1234.568848 767.000000
1236.320679 631.000000
1238.071655 724.000000
1239.821289 687.000000
1241.570068 659.000000
1243.317505 766.000000
1245.064209 798.000000
1246.809692 719.000000
1248.554321 689.000000
1250.297607 710.000000
1252.039917 761.000000
1253.781128 769.000000
1255.521484 690.000000
1257.260742 758.000000
1258.998779 633.000000
1260.735962 657.000000
1262.471924 703.000000
1264.206909 676.000000
1265.940918 657.000000
1267.673950 698.000000
1269.405762 742.000000
1271.136597 722.000000
1272.866211 696.000000
1274.594971 846.000000
1276.322632 812.000000
1278.049194 719.000000
1279.774902 711.000000
1281.499268 732.000000
1283.222778 744.000000
1284.945313 800.000000
1286.666870 770.000000
1288.387207 786.000000
1290.106567 691.000000
1291.824829 841.000000
1293.542114 696.000000
1295.258423 716.000000
1296.973511 920.000000
1298.687622 826.000000
1300.400757 858.000000
1302.113037 841.000000
1303.824097 821.000000
1305.534180 817.000000
1307.243164 747.000000
1308.950928 768.000000
1310.658081 813.000000
1312.363770 729.000000
1314.068726 826.000000
1315.772705 769.000000
1317.475464 873.000000
1319.177246 866.000000
1320.878174 830.000000
1322.577759 1456.000000
1324.276489 422.000000
1325.974487 1054.000000
1327.671143 1012.000000
1329.366699 992.000000
1331.061401 1120.000000
1332.754883 965.000000
1334.447510 931.000000
1336.139282 804.000000
1337.829712 899.000000
1339.519409 887.000000
1341.208008 810.000000
1342.895508 825.000000
1344.582031 740.000000
1346.267456 955.000000
1347.951904 786.000000
1349.635498 897.000000
1351.317871 863.000000
1352.999268 829.000000
1354.679810 850.000000
1356.359131 929.000000
1358.037842 990.000000
1359.715210 969.000000
1361.391479 993.000000
1363.066772 968.000000
1364.741333 831.000000
1366.414673 959.000000
1368.087036 926.000000
1369.758423 837.000000
1371.428833 841.000000
1373.098145 918.000000
1374.766479 954.000000
1376.433960 860.000000
1378.100342 910.000000
1379.765747 863.000000
1381.430176 849.000000
1383.093384 824.000000
1384.755981 872.000000
1386.417236 675.000000
1388.077637 771.000000
1389.736938 890.000000
1391.395264 780.000000
1393.052856 804.000000
1394.709229 787.000000
1396.364746 898.000000
1398.019043 785.000000
1399.672485 759.000000
1401.324829 759.000000
1402.976440 754.000000
1404.626831 761.000000
1406.276123 710.000000
1407.924683 823.000000
1409.572144 685.000000
1411.218628 661.000000
1412.864258 674.000000
1414.508911 673.000000
1416.152344 661.000000
1417.794922 702.000000
1419.436401 639.000000
1421.077026 700.000000
1422.716675 797.000000
1424.355225 727.000000
1425.992920 684.000000
1427.629517 642.000000
1429.265137 672.000000
1430.900024 762.000000
1432.533813 778.000000
1434.166504 776.000000
1435.798218 809.000000
1437.429077 756.000000
1439.058838 737.000000
1440.687500 768.000000
1442.315552 825.000000
1443.942505 849.000000
1445.568237 747.000000
1447.193359 709.000000
1448.817383 760.000000
1450.440430 782.000000
1452.062500 946.000000
1453.683472 866.000000
1455.303467 1027.000000
1456.922729 1001.000000
1458.540649 1012.000000
1460.157959 976.000000
1461.774292 1035.000000
1463.389404 1017.000000
1465.003662 955.000000
1466.617065 827.000000
1468.229370 847.000000
1469.840820 755.000000
1471.451416 721.000000
1473.060791 751.000000
1474.669189 643.000000
1476.276733 706.000000
1477.883301 801.000000
1479.489136 726.000000
1481.093750 754.000000
1482.697510 614.000000
1484.300049 775.000000
1485.901978 693.000000
1487.502686 593.000000
1489.102661 609.000000
1490.701538 731.000000
1492.299561 649.000000
1493.896484 617.000000
1495.492554 678.000000
1497.087646 682.000000
1498.681763 637.000000
1500.275146 598.000000
1501.867432 587.000000
1503.458496 696.000000
1505.049072 659.000000
1506.638306 602.000000
1508.226929 687.000000
1509.814453 566.000000
1511.400879 625.000000
1512.986572 654.000000
1514.571167 643.000000
1516.154907 657.000000
1517.737549 629.000000
1519.319458 609.000000
1520.900269 719.000000
1522.480347 693.000000
1524.059204 642.000000
1525.637207 550.000000
1527.214478 582.000000
1528.790527 627.000000
1530.365845 625.000000
1531.940063 609.000000
1533.513550 636.000000
1535.085815 645.000000
1536.657349 685.000000
1538.227905 671.000000
1539.797607 609.000000
1541.366089 708.000000
1542.933838 575.000000
1544.500732 582.000000
1546.066406 642.000000
1547.631348 622.000000
1549.195190 596.000000
1550.758423 735.000000
1552.320313 632.000000
1553.881592 625.000000
1555.441772 668.000000
1557.001221 653.000000
1558.559570 718.000000
1560.117188 529.000000
1561.673706 602.000000
1563.229004 720.000000
1564.783691 639.000000
1566.337646 632.000000
1567.890625 621.000000
1569.442261 624.000000
1570.993164 601.000000
1572.543335 575.000000
1574.092529 627.000000
1575.640381 630.000000
1577.187744 632.000000
1578.734131 674.000000
1580.279663 650.000000
1581.824219 635.000000
1583.367554 656.000000
1584.910278 656.000000
1586.452148 615.000000
1587.992920 704.000000
1589.532715 599.000000
1591.071777 703.000000
1592.609741 711.000000
1594.147217 597.000000
1595.683350 628.000000
1597.218384 647.000000
1598.752930 602.000000
1600.286499 650.000000
1601.819214 645.000000
1603.350342 783.000000
1604.881226 730.000000
1606.411255 688.000000
1607.940063 701.000000
1609.467773 691.000000
1610.994873 695.000000
1612.521240 684.000000
1614.046631 595.000000
1615.571167 735.000000
1617.094360 742.000000
1618.616821 609.000000
1620.138550 684.000000
1621.659424 774.000000
1623.178833 717.000000
1624.697754 739.000000
1626.215942 750.000000
1627.733276 672.000000
1629.249512 652.000000
1630.764404 737.000000
1632.278809 747.000000
1633.792480 684.000000
1635.305054 760.000000
1636.816406 755.000000
1638.327393 738.000000
1639.837280 727.000000
1641.346313 684.000000
1642.854004 644.000000
1644.361328 619.000000
1645.867798 749.000000
1647.373291 677.000000
1648.877930 716.000000
1650.381104 663.000000
1651.883667 662.000000
1653.385864 675.000000
1654.886719 747.000000
1656.386475 675.000000
1657.885376 691.000000
1659.383911 619.000000
1660.881226 618.000000
1662.377808 598.000000
1663.872803 613.000000
1665.367554 586.000000
1666.861450 634.000000
1668.354370 656.000000
1669.845947 347.000000
1671.337036 562.000000
1672.827515 592.000000
1674.316895 544.000000
1675.804810 592.000000
1677.292480 613.000000
1678.779175 588.000000
1680.265015 540.000000
1681.750000 608.000000
1683.233521 565.000000
1684.716797 613.000000
1686.199219 552.000000
1687.680542 668.000000
1689.160400 607.000000
1690.640015 493.000000
1692.118896 545.000000
1693.596802 514.500000
1695.073730 484.000000
1696.549438 494.000000
1698.024780 458.000000
1699.498901 466.000000
1700.972412 523.000000
1702.444458 544.000000
1703.916260 512.000000
1705.387085 483.000000
1706.857056 509.000000
1708.325684 530.000000
1709.793823 597.000000
1711.261230 593.000000
1712.727539 534.000000
1714.193237 390.000000
1715.657227 541.000000
1717.121094 502.000000
1718.584106 426.000000
1720.046143 472.000000
1721.506958 407.000000
1722.967163 518.000000
1724.426636 472.000000
1725.885254 452.000000
1727.342896 437.000000
1728.799194 415.000000
1730.255249 412.000000
1731.710327 435.000000
1733.164429 457.000000
1734.617310 394.000000
1736.069946 437.000000
1737.521484 296.000000
1738.972290 418.000000
1740.422119 451.000000
1741.870605 325.000000
1743.318726 469.000000
1744.765991 399.000000
1746.212524 396.000000
1747.657471 394.000000
1749.102173 437.000000
1750.546021 490.000000
1751.989014 509.000000
1753.430542 387.000000
1754.871826 376.000000
1756.312256 373.000000
1757.751709 404.000000
1759.190186 386.000000
1760.627686 375.000000
1762.064697 332.000000
1763.500732 331.000000
1764.935913 320.000000
1766.369629 376.000000
1767.803223 270.000000
1769.235840 405.000000
1770.667603 390.000000
1772.098511 337.000000
1773.528198 247.000000
1774.957153 364.000000
1776.385620 398.000000
1777.813110 388.000000
1779.239258 355.000000
1780.665161 317.000000
1782.089966 332.000000
1783.514160 315.000000
1784.936890 332.000000
1786.359131 414.000000
1787.780640 262.000000
1789.201416 359.000000
1790.621216 466.000000
1792.039673 375.000000
1793.457642 311.000000
1794.875000 316.000000
1796.291504 414.000000
1797.706543 363.000000
1799.121216 217.000000
1800.535278 434.000000
1801.948120 339.000000
1803.360352 365.000000
1804.771240 349.000000
1806.181641 345.000000
1807.591309 292.000000
1809.000000 334.000000
1810.407593 371.000000
1811.814697 282.000000
1813.220947 326.000000
1814.626221 292.000000
1816.030396 315.000000
1817.434204 306.000000
1818.837036 299.000000
1820.239014 311.000000
1821.640381 268.000000
1823.040283 261.000000
1824.439575 352.000000
1825.838379 266.000000
1827.236328 214.000000
1828.632935 239.000000
1830.028931 362.000000
1831.424194 264.000000
1832.818848 304.000000
1834.212524 303.000000
1835.604858 346.000000
1836.996704 231.000000
1838.387939 352.000000
1839.778198 235.000000
1841.167236 294.000000
1842.555908 272.000000
1843.943604 305.000000
1845.330566 225.000000
1846.716187 214.000000
1848.101563 217.000000
1849.486084 377.000000
1850.869873 291.000000
1852.252563 319.000000
1853.634033 268.000000
1855.015015 254.000000
1856.395508 299.000000
1857.775024 235.000000
1859.153076 214.000000
1860.531006 259.000000
1861.907959 305.000000
1863.284180 299.000000
1864.659546 241.000000
1866.033447 195.000000
1867.407227 307.000000
1868.780151 306.000000
1870.151978 269.000000
1871.522827 222.000000
1872.893311 202.000000
1874.262695 258.000000
1875.631592 288.000000
1876.998901 278.000000
1878.366089 267.000000
1879.732300 271.000000
1881.097778 168.000000
1882.462524 260.000000
1883.825684 224.000000
1885.188721 221.000000
1886.550903 321.000000
1887.912231 304.000000
1889.272217 257.000000
1890.631836 220.000000
1891.990845 135.000000
1893.348877 285.000000
1894.706055 185.000000
1896.062012 274.000000
1897.417725 232.000000
1898.772461 278.000000
1900.126343 245.000000
1901.479126 237.000000
1902.831421 236.000000
1904.182983 208.000000
1905.533691 357.000000
1906.883179 286.000000
1908.232178 322.000000
1909.580322 275.000000
1910.927856 308.000000
1912.274658 197.000000
1913.619873 192.000000
1914.964844 312.000000
1916.309082 331.000000
1917.652466 308.000000
1918.994507 267.000000
1920.336304 296.000000
1921.677246 300.000000
1923.017456 178.000000
1924.356689 180.000000
1925.694946 269.000000
1927.032593 127.000000
1928.369507 185.000000
1929.705566 231.000000
1931.040405 297.000000
1932.374878 197.000000
1933.708618 206.000000
1935.041504 234.000000
1936.372925 283.000000
1937.704468 226.000000
1939.034668 257.000000
1940.364380 225.000000
1941.693237 192.000000
1943.020874 214.000000
1944.348022 221.000000
1945.674438 229.000000
1947.000122 134.000000
1948.324463 315.000000
1949.648560 176.000000
1950.971802 270.000000
1952.294312 162.000000
1953.615723 240.000000
1954.936157 270.000000
1956.255981 224.000000
1957.575439 232.000000
1958.893921 263.000000
1960.211060 245.000000
1961.527832 113.000000
1962.843872 236.000000
1964.159180 196.000000
1965.473022 198.000000
1966.786621 238.000000
1968.099487 274.000000
1969.411499 183.000000
1970.722900 180.000000
1972.032959 289.000000
1973.342529 228.000000
1974.651367 192.000000
1975.959595 227.000000
1977.266479 247.000000
1978.572754 217.000000
1979.878662 253.000000
1981.183350 236.000000
1982.487549 211.000000
1983.790527 233.000000
1985.093140 178.000000
1986.394775 175.000000
1987.695801 211.000000
1988.995239 210.000000
1990.294800 207.000000
1991.593262 172.000000
1992.891235 247.000000
1994.187622 178.000000
1995.484009 172.000000
1996.779419 231.000000
1998.074097 276.000000
1999.367920 162.000000
2000.660522 235.000000
2001.952637 217.000000
2003.244263 202.000000
2004.535156 236.000000
2005.824463 203.000000
2007.113525 150.000000
2008.401855 177.000000
2009.689453 292.000000
2010.976196 151.000000
2012.261841 158.000000
2013.547119 212.000000
2014.831421 234.000000
2016.115112 213.000000
2017.397461 242.000000
2018.679443 175.000000
2019.960938 212.000000
2021.241455 244.000000
2022.521240 106.000000
2023.799927 164.000000
2025.077881 177.000000
2026.355347 84.000000
2027.632202 204.000000
2028.907349 180.000000
2030.182617 220.000000
2031.456909 250.000000
2032.730225 205.000000
2034.002686 213.000000
2035.274780 236.000000
2036.545776 95.000000
2037.816528 184.000000
2039.085938 206.000000
2040.354248 190.000000
2041.622559 136.000000
2042.889893 123.000000
2044.156494 240.000000
2045.421875 316.000000
2046.686646 231.000000
2047.951172 195.000000
2049.214600 178.000000
2050.477539 196.000000
2051.738525 225.000000
2053.000000 178.000000
2054.260254 166.000000
2055.519775 99.000000
2056.778564 253.000000
2058.036377 214.000000
2059.293701 229.000000
2060.550293 143.000000
2061.805420 102.000000
2063.060547 205.000000
2064.314697 168.000000
2065.568115 163.000000
2066.820801 179.000000
2068.072266 181.000000
2069.323486 221.000000
2070.573975 147.000000
2071.823730 247.000000
2073.072021 223.000000
2074.320313 130.000000
2075.567627 133.000000
2076.814209 197.000000
2078.060059 119.000000
2079.304688 206.000000
2080.548828 199.000000
2081.792480 103.000000
2083.035156 171.000000
2084.276611 235.000000
2085.517822 259.000000
2086.758545 202.000000
2087.998291 242.000000
2089.236816 141.000000
2090.474854 117.000000
2091.712158 97.000000
2092.949219 63.000000
2094.184814 140.000000
2095.419678 155.000000
2096.654297 202.000000
2097.887939 203.000000
2099.120605 110.000000
2100.352539 229.000000
2101.583984 162.000000
2102.814453 193.000000
2104.044189 118.000000
2105.273682 120.000000
2106.501221 250.000000
2107.729004 155.000000
2108.956055 123.000000
2110.182129 228.000000
2111.406738 172.000000
2112.631592 244.000000
2113.855225 9.000000
2115.078369 187.000000
2116.300293 135.000000
2117.521973 181.000000
2118.742676 133.000000
2119.962646 150.000000
2121.182129 170.000000
2122.400146 178.000000
2123.618164 185.000000
2124.835205 130.000000
2126.051758 151.000000
2127.266602 233.000000
2128.481689 119.000000
2129.695801 181.000000
2130.909180 148.000000
2132.121826 159.000000
2133.333008 138.000000
2134.544434 238.000000
2135.754639 147.000000
2136.964355 156.000000
2138.172607 117.000000
2139.380859 168.000000
2140.588379 104.000000
2141.794678 145.000000
2143.000244 148.000000
2144.205566 151.000000
2145.409912 124.000000
2146.613525 251.000000
2147.816650 146.000000
2149.018311 171.000000
2150.219727 193.000000
2151.420410 168.000000
2152.620361 211.000000
2153.819092 144.000000
2155.017578 166.000000
2156.215576 190.000000
2157.412598 73.000000
2158.608887 117.000000
2159.803955 149.000000
2160.998779 193.000000
2162.192871 132.000000
2163.385986 157.000000
2164.578125 195.000000
2165.770020 165.000000
2166.961182 189.000000
2168.151367 96.000000
2169.340820 169.000000
2170.529785 147.000000
2171.717773 139.000000
2172.905518 193.000000
2174.091797 184.000000
2175.277344 121.000000
2176.462646 166.000000
2177.647461 170.000000
2178.831055 94.000000
2180.013916 223.000000
2181.195801 114.000000
2182.377441 125.000000
2183.558594 99.000000
2184.738525 168.000000
2185.917480 121.000000
2187.095947 96.000000
2188.274170 115.000000
2189.451172 82.000000
2190.627197 119.000000
2191.802979 161.000000
2192.978271 85.000000
2194.152100 154.000000
2195.325439 104.000000
2196.498535 70.000000
2197.670410 202.000000
2198.841797 153.000000
2200.012695 99.000000
2201.181885 173.000000
2202.351074 32.000000
2203.519775 131.000000
2204.687500 90.000000
2205.854248 42.000000
2207.020264 157.000000
2208.185791 12.000000
2209.351074 133.000000
2210.514893 85.000000
2211.678223 155.000000
2212.840332 110.000000
2214.002686 143.000000
2215.163818 114.000000
2216.323975 190.000000
2217.483643 146.000000
2218.643066 112.000000
2219.801270 155.000000
2220.958496 77.000000
2222.115479 191.000000
2223.271729 171.000000
2224.427246 93.000000
2225.582031 119.000000
2226.735840 201.000000
2227.888672 190.000000
2229.041992 138.000000
2230.193359 154.000000
2231.344482 110.000000
2232.494873 135.000000
2233.644775 116.000000
2234.793701 104.000000
2235.942139 100.000000
2237.089111 144.000000
2238.236328 43.000000
2239.382324 159.000000
2240.528076 129.000000
2241.672119 153.000000
2242.816406 16.000000
2243.959717 123.000000
2245.102295 93.000000
2246.243896 58.000000
2247.385254 141.000000
2248.525635 164.000000
2249.665283 129.000000
2250.804443 102.000000
2251.942383 165.000000
2253.080322 110.000000
2254.217285 109.000000
2255.353516 90.000000
2256.488770 160.000000
2257.623291 85.000000
2258.757568 124.000000
2259.891357 94.000000
2261.023682 88.000000
2262.155518 100.000000
2263.286865 122.000000
2264.417236 104.000000
2265.547363 108.000000
2266.676270 85.000000
2267.804688 127.000000
2268.932617 147.000000
2270.059570 136.000000
2271.185791 59.000000
2272.311035 158.000000
2273.436279 69.000000
2274.560791 79.000000
2275.684082 153.000000
2276.806641 31.000000
2277.928711 100.000000
2279.050293 87.000000
2280.171143 110.000000
2281.290771 146.000000
2282.409912 114.000000
2283.528809 52.000000
2284.646973 74.000000
2285.764160 75.000000
2286.880371 164.000000
2287.996338 84.000000
2289.111572 81.000000
2290.226074 60.000000
2291.339355 10.000000
2292.452637 37.000000
2293.565186 120.000000
2294.677002 173.000000
2295.788086 48.000000
2296.897949 19.000000
2298.007324 105.000000
2299.116455 97.000000
2300.224609 51.000000
2301.331787 36.000000
2302.438721 110.000000
2303.544922 74.000000
2304.650635 95.000000
2305.754883 114.000000
2306.858887 133.000000
2307.962402 77.000000
2309.065430 116.000000
2310.167236 75.000000
2311.268311 123.000000
2312.368896 142.000000
2313.468994 150.000000
2314.568359 53.000000
2315.666260 94.000000
2316.764648 85.000000
2317.861572 71.000000
2318.958252 116.000000
2320.054443 62.000000
2321.148926 87.000000
2322.243408 263.000000
2323.337158 94.000000
2324.430664 52.000000
2325.522461 84.000000
2326.614258 51.000000
2327.705322 59.000000
2328.795654 140.000000
2329.885010 249.000000
2330.974365 181.000000
2332.062500 245.000000
2333.150146 257.000000
2334.237549 104.000000
2335.323242 102.000000
2336.408691 131.000000
2337.493896 159.000000
2338.578125 27.000000
2339.661377 39.000000
2340.744385 87.000000
2341.826416 14.000000
2342.908203 49.000000
2343.989258 90.000000
2345.069092 57.000000
2346.148438 119.000000
2347.227295 56.000000
2348.305664 74.000000
2349.382568 20.000000
2350.459229 82.000000
2351.535645 106.000000
2352.611084 148.000000
2353.685547 223.000000
2354.759766 33.000000
2355.833252 96.000000
2356.906250 28.000000
2357.978027 108.000000
2359.049561 57.000000
2360.120117 3.000000
2361.190430 60.000000
2362.259766 57.000000
2363.328125 92.000000
2364.396240 91.000000
2365.463623 94.000000
2366.530518 51.000000
2367.596680 90.000000
2368.661621 64.000000
2369.726563 58.000000
2370.790771 96.000000
2371.854248 49.000000
2372.916504 17.000000
2373.978760 -12.000000
2375.040039 95.000000
2376.101074 89.000000
2377.160889 106.000000
2378.219971 169.000000
2379.279053 79.000000
2380.337158 83.000000
2381.394531 22.000000
2382.450928 59.000000
2383.507080 77.000000
2384.562744 2.000000
2385.617676 70.000000
2386.671143 8.000000
2387.724854 98.000000
2388.777588 71.000000
2389.829834 92.000000
2390.881348 99.000000
2391.931885 33.000000
2392.982178 -27.000000
2394.031494 39.000000
2395.080811 53.000000
2396.128662 175.000000
2397.176025 69.000000
2398.223145 126.000000
2399.269287 -18.000000
2400.314697 21.000000
2401.359375 131.000000
2402.404053 71.000000
2403.447266 -7.000000
2404.490479 44.000000
2405.532227 122.000000
2406.574219 110.000000
2407.615479 110.000000
2408.655762 63.000000
2409.695313 51.000000
2410.733887 -28.000000
2411.772705 69.000000
2412.810303 49.000000
2413.847656 58.000000
2414.883789 86.000000
2415.919678 3.000000
2416.954834 161.000000
2417.989502 -13.000000
2419.022705 96.000000
2420.056152 36.000000
2421.088623 90.000000
2422.120850 101.000000
2423.151611 135.000000
2424.182373 56.000000
2425.212646 -5.000000
2426.241699 52.000000
2427.270752 77.000000
2428.298096 10.000000
2429.325928 -5.000000
2430.352539 19.000000
2431.378906 24.000000
2432.403809 9.000000
2433.428955 153.000000
2434.453125 -41.000000
2435.477051 122.000000
2436.499756 -49.000000
2437.521729 42.000000
2438.543457 3.000000
2439.564453 113.000000
2440.584961 -4.000000
2441.604248 94.000000
2442.623535 -16.000000
2443.641846 3.000000
2444.659912 94.000000
2445.676514 64.000000
2446.693115 101.000000
2447.708984 55.000000
2448.724854 41.000000
2449.739258 135.000000
2450.752930 108.000000
2451.766113 11.000000
2452.779053 -18.000000
2453.791260 -42.000000
2454.802490 -14.000000
2455.813477 21.000000
2456.823730 70.000000
2457.833496 25.000000
2458.842285 48.000000
2459.850342 75.000000
2460.858398 107.000000
2461.865234 27.000000
2462.871826 13.000000
2463.877197 8.000000
2464.882324 -22.000000
2465.887207 73.000000
2466.890869 34.000000
2467.894287 46.000000
2468.896729 20.000000
2469.898926 32.000000
2470.900635 -42.000000
2471.901367 91.000000
2472.901123 -7.000000
2473.900879 13.000000
2474.899658 -12.000000
2475.897949 61.000000
2476.895264 -2.000000
2477.892334 2.000000
2478.889404 61.000000
2479.885010 120.000000
2480.880615 71.000000
2481.874512 57.000000
2482.868408 15.000000
2483.861816 39.000000
2484.854736 108.000000
2485.846680 102.000000
2486.837891 18.000000
2487.828857 51.000000
2488.819336 10.000000
2489.808838 0.000000
2490.797607 88.000000
2491.786377 112.000000
2492.774170 98.000000
2493.760742 96.000000
2494.747314 4.000000
2495.733398 -12.000000
2496.718750 87.000000
2497.703125 -45.000000
2498.687256 29.000000
2499.671387 79.000000
2500.654053 44.000000
2501.636230 19.000000
2502.617920 73.000000
2503.598877 71.000000
2504.579346 21.000000
2505.559570 0.000000
2506.538330 2.000000
2507.516846 10.000000
2508.494873 -63.000000
2509.472412 2.000000
2510.448975 24.000000
2511.425293 -19.000000
2512.400879 7.000000
2513.375977 74.000000
2514.350586 19.000000
2515.323975 29.000000
2516.297119 18.000000
2517.270020 31.000000
2518.241943 77.000000
2519.213135 18.000000
2520.183838 15.000000
2521.154297 28.000000
2522.124023 27.000000
2523.092773 54.000000
2524.060791 97.000000
2525.028809 49.000000
2525.995850 57.000000
2526.962646 78.000000
2527.928223 -112.000000
2528.893799 78.000000
2529.858643 42.000000
2530.822998 -26.000000
2531.786133 56.000000
2532.749512 59.000000
2533.711914 100.000000
2534.674072 12.000000
2535.635010 84.000000
2536.595215 67.000000
2537.555664 -18.000000
2538.515137 -27.000000
2539.473877 -72.000000
2540.431641 -12.000000
2541.389648 2.000000
2542.346924 39.000000
2543.303223 -26.000000
2544.259277 109.000000
2545.214111 -3.000000
2546.169189 -33.000000
2547.123535 55.000000
2548.077148 78.500000
2549.029785 102.000000
2549.982178 10.000000
2550.934082 46.000000
2551.885254 30.000000
2552.835693 -40.000000
2553.785645 100.000000
2554.735352 -20.000000
2555.684326 60.000000
2556.632813 13.000000
2557.580078 28.000000
2558.527344 -28.000000
2559.473877 -77.000000
2560.419922 107.000000
2561.364990 -2.000000
2562.309814 -4.000000
2563.254150 89.000000
2564.197998 58.000000
2565.141357 74.000000
2566.083252 48.000000
2567.025391 -52.000000
2567.966797 -39.000000
2568.907471 63.000000
2569.847412 45.000000
2570.787354 48.000000
2571.726318 3.000000
2572.665039 19.000000
2573.602783 -2.000000
2574.540283 35.000000
2575.477051 -57.000000
2576.413086 6.000000
2577.348633 29.000000
2578.283447 27.000000
2579.218262 86.000000
2580.152100 18.000000
2581.085449 -185.000000
2582.018066 -14.000000
2582.950439 -89.000000
2583.882080 -24.000000
2584.813232 4.000000
2585.743896 -19.000000
2586.673340 -7.000000
2587.602783 90.000000
2588.531738 -15.000000
2589.460449 147.000000
2590.387451 54.000000
2591.314697 22.000000
2592.241455 48.000000
2593.167480 101.000000
2594.093262 -34.000000
2595.017822 79.000000
2595.942139 56.000000
2596.865967 8.000000
2597.789307 130.000000
2598.711670 25.000000
2599.633789 -62.000000
2600.555420 -27.000000
2601.476318 24.000000
2602.396484 -4.000000
2603.316406 97.000000
2604.235840 57.000000
2605.155029 50.000000
2606.073242 -48.000000
2606.990234 121.000000
2607.907471 -34.000000
2608.824463 39.000000
2609.740479 16.000000
2610.655273 -20.000000
2611.570557 -42.000000
2612.485107 -57.000000
2613.398682 -22.000000
2614.312256 -28.000000
2615.224609 71.000000
2616.136963 35.000000
2617.048340 -42.000000
2617.959473 12.000000
2618.869873 -79.000000
2619.780029 -38.000000
2620.689453 50.000000
2621.598389 -24.000000
2622.506348 56.000000
2623.414551 -39.000000
2624.321777 60.000000
2625.228516 -52.000000
2626.134521 28.000000
2627.040283 15.000000
2627.945313 -210.000000
2628.850098 -64.000000
2629.754150 16.000000
2630.657227 84.000000
2631.560303 45.000000
2632.462402 104.000000
2633.364502 -8.000000
2634.266357 -29.000000
2635.166504 17.000000
2636.066895 -14.000000
2636.966553 1.000000
2637.865967 76.000000
2638.763916 -1.000000
2639.662354 -27.000000
2640.560303 56.000000
2641.457520 18.000000
2642.353516 111.000000
2643.249512 -130.000000
2644.145264 34.000000
2645.040283 -23.000000
2645.935059 23.000000
2646.828369 46.000000
2647.721680 33.000000
2648.614746 75.000000
2649.507568 127.000000
2650.398682 1.000000
2651.290039 81.000000
2652.180908 13.000000
2653.071045 -3.000000
2653.960938 -58.000000
2654.849609 75.000000
2655.738525 7.000000
2656.626953 -13.000000
2657.514404 -26.000000
2658.400879 23.000000
2659.287842 34.000000
2660.174072 30.000000
2661.059814 14.000000
2661.944336 95.000000
2662.828857 34.000000
2663.713135 120.000000
2664.596680 56.000000
2665.479736 -60.000000
2666.362061 6.000000
2667.243896 57.000000
2668.125000 75.000000
2669.006348 4.000000
2669.886230 72.000000
2670.766357 112.000000
2671.645752 39.000000
2672.525146 9.000000
2673.403809 -55.000000
2674.280762 28.000000
2675.158447 -44.000000
2676.035400 57.000000
2676.911621 -35.000000
2677.787354 123.000000
2678.662354 8.000000
2679.537598 27.000000
2680.411865 18.000000
2681.285645 30.000000
2682.158691 -5.000000
2683.031494 60.000000
2683.904053 -53.000000
2684.775879 21.000000
2685.646973 8.000000
2686.517822 -9.000000
2687.388184 61.000000
2688.258301 -2.000000
2689.126709 22.000000
2689.995850 12.000000
2690.864258 -2.000000
2691.732422 34.000000
2692.599854 -64.000000
2693.466064 41.000000
2694.332764 -13.000000
2695.198486 -77.000000
2696.064209 51.000000
2696.928467 -1.000000
2697.793457 18.000000
2698.656982 -6.000000
2699.520752 -46.000000
2700.383057 -106.000000
2701.245850 81.000000
2702.107666 32.000000
2702.968994 48.000000
2703.830322 0.000000
2704.690430 44.000000
2705.550537 43.000000
2706.410156 -21.000000
2707.269531 -16.000000
2708.127197 28.000000
2708.985107 56.000000
2709.843506 58.000000
2710.700684 54.000000
2711.557129 -100.000000
2712.413086 -12.000000
2713.269043 36.000000
2714.124268 88.000000
2714.978760 -1.000000
2715.832764 3.000000
2716.686768 -15.000000
2717.539795 32.000000
2718.393066 20.000000
2719.244629 35.000000
2720.096680 -30.000000
2720.948486 -10.000000
2721.799072 -1.000000
2722.649658 355.000000
2723.499756 58.000000
2724.349121 7.000000
2725.198486 45.000000
2726.046631 62.000000
2726.894287 114.000000
2727.742432 8.000000
2728.589355 62.000000
2729.436768 34.000000
2730.282715 4.000000
2731.127930 -56.000000
2731.973633 -64.000000
2732.818359 -36.000000
2733.663086 56.000000
2734.506592 -44.000000
2735.350342 -76.000000
2736.193359 -73.000000
2737.035889 53.000000
2737.877441 11.000000
2738.719482 71.000000
2739.560547 -75.000000
2740.401367 42.000000
2741.241943 13.000000
2742.081299 -67.000000
2742.920654 59.000000
2743.760010 74.000000
2744.598145 9.000000
2745.435791 14.000000
2746.273438 -9.000000
2747.110596 77.000000
2747.947510 92.000000
2748.783936 41.000000
2749.619141 39.000000
2750.454590 -114.000000
2751.289551 -47.000000
2752.123779 29.000000
2752.957764 50.000000
2753.791260 -11.000000
2754.624756 -11.000000
2755.457275 34.000000
2756.289307 -13.000000
2757.120850 0.000000
2757.952393 21.000000
2758.782959 2.000000
2759.613770 45.000000
2760.443359 6.000000
2761.272949 72.000000
2762.102295 26.000000
2762.930908 -15.000000
2763.759033 55.000000
2764.586670 -72.000000
2765.414307 -40.000000
2766.241455 -21.000000
2767.067871 33.000000
2767.893799 -11.000000
2768.719238 -33.000000
2769.544434 -28.000000
2770.369629 -18.000000
2771.193604 -5.000000
2772.017578 33.000000
2772.841553 -5.000000
2773.664307 -27.000000
2774.487305 -12.000000
2775.309082 -70.000000
2776.130859 101.000000
2776.952637 -25.000000
2777.773438 38.000000
2778.593506 52.000000
2779.413818 -1.000000
2780.233643 5.000000
2781.053467 -22.000000
2781.871338 -9.000000
2782.690430 -67.000000
2783.508301 -11.000000
2784.325928 54.000000
2785.143066 -13.000000
2785.959717 33.000000
2786.776123 -21.000000
2787.592041 -86.000000
2788.407715 -32.000000
2789.222412 -46.000000
2790.037598 -66.000000
2790.852051 22.000000
2791.666016 31.000000
2792.479736 -33.000000
2793.292236 -19.000000
2794.104980 -12.000000
2794.917236 3.000000
2795.729004 -21.000000
2796.540039 -33.000000
2797.351807 10.000000
2798.162354 -21.000000
2798.972900 67.000000
2799.781982 67.000000
2800.591797 -110.000000
2801.400879 99.000000
2802.209717 -42.000000
2803.018066 -21.000000
2803.825439 -42.000000
2804.633301 -76.000000
2805.440430 -82.000000
2806.247314 -1.000000
2807.052979 3.000000
2807.859131 64.000000
2808.664551 -25.000000
2809.469971 -29.000000
2810.274658 38.000000
2811.078369 29.000000
2811.882568 -96.000000
2812.686279 -41.000000
2813.489746 -30.000000
2814.291748 -52.000000
2815.094482 -14.000000
2815.896484 63.000000
2816.698242 -27.000000
2817.499512 -36.000000
2818.300293 44.000000
2819.100586 36.000000
2819.901123 -33.000000
2820.700684 -46.000000
2821.499756 5.000000
2822.298828 79.000000
2823.097656 5.000000
2823.895996 11.000000
2824.693359 -37.000000
2825.490967 145.000000
2826.287842 -18.000000
2827.084961 -46.000000
2827.881348 91.000000
2828.677002 -85.000000
2829.472656 -45.000000
2830.268066 11.000000
2831.062988 36.000000
2831.857178 31.000000
2832.651367 2.000000
2833.445313 -18.000000
2834.238770 9.000000
2835.031494 4.000000
2835.823975 -7.000000
2836.616455 0.000000
2837.408691 -72.000000
2838.200439 37.000000
2838.991211 -64.000000
2839.781982 -141.000000
2840.572998 -117.000000
2841.363037 39.000000
2842.152588 30.000000
2842.942383 112.000000
2843.731201 26.000000
2844.520020 -85.000000
2845.308838 -53.000000
2846.096680 80.000000
2846.884033 47.000000
2847.671631 64.000000
2848.458740 11.000000
2849.245117 38.000000
2850.031494 -69.000000
2850.817627 69.000000
2851.603271 23.000000
2852.387939 47.000000
2853.173096 -1.000000
2853.958008 -34.000000
2854.742188 43.000000
2855.526367 46.000000
2856.309326 42.000000
2857.092529 43.000000
2857.875488 -53.000000
2858.657959 -10.000000
2859.440186 -24.000000
2860.221924 36.000000
2861.003418 67.000000
2861.785156 18.000000
2862.566162 -8.000000
2863.346436 -13.000000
2864.126465 15.000000
2864.906494 9.000000
2865.686279 91.000000
2866.465088 0.000000
2867.244141 41.000000
2868.022705 -42.000000
2868.801025 -14.000000
2869.578857 146.000000
2870.356445 9.000000
2871.133789 -13.000000
2871.910889 -31.000000
2872.687500 -12.000000
2873.463623 37.000000
2874.239746 26.000000
2875.015381 -2.000000
2875.790771 63.000000
2876.565674 9.000000
2877.340332 43.000000
2878.114990 15.000000
2878.889404 -31.000000
2879.663086 71.000000
2880.436035 38.000000
2881.209717 41.000000
2881.982422 -3.000000
2882.755127 -9.000000
2883.527100 62.000000
2884.298828 68.000000
2885.071045 30.000000
2885.842041 78.000000
2886.612549 69.000000
2887.383545 -8.000000
2888.154541 36.000000
2888.924805 23.000000
2889.694092 -63.000000
2890.463623 5.000000
2891.233154 -24.000000
2892.002197 7.000000
2892.770752 86.000000
2893.539307 106.000000
2894.306885 91.000000
2895.074951 95.000000
2895.842529 81.000000
2896.610107 28.000000
2897.376465 -48.000000
2898.143799 42.000000
2898.909912 111.000000
2899.676270 86.000000
2900.441162 69.000000
2901.206543 4.000000
2901.972412 -21.000000
2902.736816 19.000000
2903.501221 56.000000
2904.265869 -25.000000
2905.029541 101.000000
2905.793945 27.000000
2906.557617 59.000000
2907.320557 -21.000000
2908.083252 -18.000000
2908.846436 90.000000
2909.609131 -54.000000
2910.370605 -74.000000
2911.132568 -74.000000
spectrumdark 2048
-97.098343 6179.000000
-94.471474 6179.000000
-91.846481 6138.000000
-89.223381 6416.000000
-86.602150 5806.000000
-83.982819 6224.000000
-81.365349 6091.000000
-78.749756 6429.000000
-76.136040 6208.000000
-73.524200 5928.000000
-70.914223 6113.000000
-68.306129 6018.000000
-65.699883 5990.000000
-63.095509 6020.000000
-60.493000 6080.000000
-57.892345 5615.000000
-55.293552 6229.000000
-52.696617 6889.000000
-50.101536 6513.000000
-47.508308 6556.000000
-44.916931 6271.000000
-42.327400 6719.000000
-39.739712 5866.000000
-37.153873 6086.000000
-34.569878 6497.000000
-31.987720 5735.000000
-29.407408 6338.000000
-26.828922 5688.000000
-24.252279 6140.000000
-21.677462 6291.000000
-19.104485 6523.000000
-16.533327 6516.000000
-13.964003 6809.000000
-11.396504 7800.000000
-8.830825 6295.000000
-6.266972 6459.000000
-3.704931 6029.000000
-1.144715 5818.000000
1.413693 6156.000000
3.970280 6974.000000
6.525063 6654.000000
9.078028 5986.000000
11.629192 6720.000000
14.178544 6536.000000
16.726099 6565.000000
19.271843 6036.000000
21.815794 5740.000000
24.357941 6660.000000
26.898291 6773.000000
29.436855 6806.000000
31.973623 6204.000000
34.508591 5792.000000
37.041779 7241.000000
39.573185 6311.000000
42.102798 7152.000000
44.630615 6469.000000
47.156673 7868.000000
49.680943 5650.000000
52.203442 6294.000000
54.724144 6680.000000
57.243092 6322.000000
59.760265 6424.000000
62.275661 6641.000000
64.789276 5641.000000
67.301140 5705.000000
69.811256 6496.000000
72.319580 6628.000000
74.826149 6018.000000
77.330971 6359.000000
79.834038 6450.000000
82.335327 6285.000000
84.834877 6156.000000
87.332672 6417.000000
89.828735 5779.000000
92.323021 7221.000000
94.815567 5798.000000
97.306396 6932.000000
99.795456 7179.000000
102.282768 6410.000000
104.768356 6203.000000
107.252205 6365.000000
109.734306 5745.000000
112.214684 6550.000000
114.693336 6200.000000
117.170265 6442.000000
119.645439 7211.000000
122.118904 6803.000000
124.590637 5900.000000
127.060661 6829.000000
129.528931 6233.000000
131.995529 6371.000000
134.460373 5750.000000
136.923523 6224.000000
139.384933 7287.000000
141.844650 6783.000000
144.302643 6382.000000
146.758942 5924.000000
149.213531 5833.000000
151.666397 6858.000000
154.117584 6330.000000
156.567078 6584.000000
159.014847 6097.000000
161.460907 6610.000000
163.905289 8653.000000
166.347992 6385.000000
168.789001 6740.000000
171.228302 6275.000000
173.665894 7224.000000
176.101852 6603.000000
178.536072 6962.000000
180.968613 7132.000000
183.399506 6691.000000
185.828674 6777.000000
188.256195 6698.000000
190.682037 6353.000000
193.106201 6657.000000
195.528702 7091.000000
197.949509 7342.000000
200.368652 6497.000000
202.786133 5999.000000
205.201920 7591.000000
207.616058 7058.000000
210.028564 6353.000000
212.439392 6018.000000
214.848541 6283.000000
217.256058 7350.000000
219.661865 6180.000000
222.066086 6462.000000
224.468597 6696.000000
226.869492 6862.000000
229.268738 6489.000000
231.666321 6868.000000
234.062241 7237.000000
236.456543 6525.000000
238.849182 5821.000000
241.240204 6806.000000
243.629562 6501.000000
246.017303 6379.000000
248.403397 7007.000000
250.787857 6099.000000
253.170670 7829.000000
255.551910 6659.000000
257.931458 6666.000000
260.309418 6527.000000
262.685699 7535.000000
265.060425 7570.000000
267.433502 7754.000000
269.804932 6181.000000
272.174713 6439.000000
274.542938 5866.000000
276.909515 6328.000000
279.274506 6720.000000
281.637878 6023.000000
283.999603 6207.000000
286.359741 7141.000000
288.718262 5957.000000
291.075195 6472.000000
293.430511 6355.000000
295.784241 5915.000000
298.136322 5978.000000
300.486847 6338.000000
302.835785 6357.000000
305.183075 6854.000000
307.528839 6406.000000
309.872925 6465.000000
312.215485 7340.000000
314.556427 7522.000000
316.895752 7208.000000
319.233521 6948.000000
321.569733 8026.000000
323.904297 6253.000000
326.237305 6493.000000
328.568756 5964.000000
330.898621 6673.000000
333.226898 6400.000000
335.553558 7199.000000
337.878723 6378.000000
340.202271 6240.000000
342.524261 5995.000000
344.844696 7528.000000
347.163513 7674.000000
349.480774 5968.000000
351.796509 5808.000000
354.110657 6962.000000
356.423218 6329.000000
358.734222 6405.000000
361.043701 7012.000000
363.351654 6396.000000
365.657990 5640.000000
367.962738 6410.000000
370.266022 6435.000000
372.567688 6309.000000
374.867859 6361.000000
377.166473 6300.000000
379.463531 5740.000000
381.759033 6087.000000
384.053009 5870.000000
386.345398 5235.000000
388.636292 5565.000000
390.925659 6233.000000
393.213440 6271.000000
395.499695 6496.000000
397.784454 7022.000000
400.067596 6047.000000
402.349304 6435.000000
404.629486 6139.000000
406.908081 7244.000000
409.185150 6432.000000
411.460693 6730.000000
413.734711 6486.000000
416.007294 6422.000000
418.278259 6257.000000
420.547729 6385.000000
422.815704 7089.000000
425.082123 7288.000000
427.347046 6309.000000
429.610504 6255.000000
431.872375 6482.000000
434.132782 5982.000000
436.391632 6528.000000
438.649017 6158.000000
440.904907 5675.000000
443.159302 5796.000000
445.412170 5504.000000
447.663483 6909.000000
449.913391 6056.000000
452.161713 6207.000000
454.408600 5628.000000
456.654022 6496.000000
458.897888 6499.000000
461.140259 6832.000000
463.381134 5655.000000
465.620605 6732.000000
467.858490 5445.000000
470.094940 5890.000000
472.329865 6101.000000
474.563324 7427.000000
476.795349 6700.000000
479.025848 5627.000000
481.254852 6456.000000
483.482391 6370.000000
485.708435 5959.000000
487.933044 6565.000000
490.156189 5871.000000
492.377869 6424.000000
494.597992 6704.000000
496.816711 5647.000000
499.033936 6239.000000
501.249786 5563.000000
503.464020 6125.000000
505.676941 6464.000000
507.888275 6451.000000
510.098175 6898.000000
512.306641 6463.000000
514.513733 6623.000000
516.719238 6441.000000
518.923340 6619.000000
521.125916 6196.000000
523.327087 6551.000000
525.526917 6614.000000
527.725220 6942.000000
529.921997 5303.000000
532.117432 5885.000000
534.311340 5530.000000
536.503906 7516.000000
538.694946 6684.000000
540.884583 6014.000000
543.072815 6906.000000
545.259521 7120.000000
547.444763 6789.000000
549.628723 6169.000000
551.811096 6440.000000
553.992126 6201.000000
556.171631 6025.000000
558.349854 5894.000000
560.526550 5990.000000
562.701843 6309.000000
564.875732 6415.000000
567.048157 5898.000000
569.219177 6073.000000
571.388733 6245.000000
573.557007 5314.000000
575.723755 6434.000000
577.889038 6301.000000
580.052917 6115.000000
582.215515 5707.000000
584.376587 6117.000000
586.536255 5577.000000
588.694580 5754.000000
590.851379 6146.000000
593.006836 6566.000000
595.160889 5727.000000
597.313599 6231.000000
599.464783 7277.000000
601.614624 6737.000000
603.763123 6689.000000
605.910034 5990.000000
608.055725 6523.000000
610.200012 6423.000000
612.342834 7015.000000
614.484192 6142.000000
616.624329 6465.000000
618.762939 7587.000000
620.900269 5723.000000
623.036133 6607.000000
625.170593 6861.000000
627.303589 7138.000000
629.435425 6662.000000
631.565796 6571.000000
633.694763 6790.000000
635.822266 6502.000000
637.948486 6137.000000
640.073181 7276.000000
642.196655 6391.000000
644.318787 6752.000000
646.439453 6897.000000
648.558777 6551.000000
650.676697 5676.000000
652.793274 5671.000000
654.908447 6481.000000
657.022278 6422.000000
659.134644 5834.000000
661.245789 6189.000000
663.355530 5418.000000
665.463806 6046.000000
667.570923 6284.000000
669.676575 6748.000000
671.780762 5674.000000
673.883728 5732.000000
675.985291 6996.000000
678.085510 5352.000000
680.184326 6741.000000
682.281799 6205.000000
684.377991 6964.000000
686.472717 6192.000000
688.566223 7000.000000
690.658386 6670.000000
692.749023 7931.000000
694.838440 6572.000000
696.926575 6505.000000
699.013245 6073.000000
701.098694 6692.000000
703.182617 5138.000000
705.265320 5953.000000
707.346741 5986.000000
709.426697 7599.000000
711.505432 6192.000000
713.582703 5544.000000
715.658691 6574.000000
717.733398 6065.000000
719.806824 6919.000000
721.878723 6273.000000
723.949463 7364.000000
726.018860 5748.000000
728.086853 6478.000000
730.153503 6371.000000
732.218933 7098.000000
734.283020 5768.000000
736.345764 6232.000000
738.407166 6493.000000
740.467285 6559.000000
742.526001 6053.000000
744.583496 6649.000000
746.639709 6412.000000
748.694519 6715.000000
750.748047 6359.000000
752.800171 7407.000000
754.851074 5866.000000
756.900757 6669.000000
758.948975 6334.000000
760.995972 6190.000000
763.041687 7062.000000
765.085999 5337.000000
767.129028 5759.000000
769.170837 14864.000000
771.211304 6945.000000
773.250366 6309.000000
775.288269 6055.000000
777.324829 5926.000000
779.360168 5372.000000
781.394165 5787.000000
783.426758 6923.000000
785.458191 5543.000000
787.488220 12064.000000
789.516968 6069.000000
791.544556 6351.000000
793.570801 6342.000000
795.595642 5795.000000
797.619385 5592.000000
799.641724 6378.000000
801.662842 5843.000000
803.682617 6644.000000
805.701111 4963.000000
807.718384 6701.000000
809.734253 6793.000000
811.748962 5742.000000
813.762329 6364.000000
815.774475 6231.000000
817.785400 5998.000000
819.794983 6595.000000
821.803345 5317.000000
823.810303 5716.000000
825.816040 6039.000000
827.820557 5752.000000
829.823792 5663.000000
831.825745 6415.000000
833.826416 5980.000000
835.825867 5887.000000
837.823975 6420.000000
839.820984 6974.000000
841.816589 6243.000000
843.811035 6009.000000
845.804138 6202.000000
847.796021 6800.000000
849.786560 5580.000000
851.775818 6862.000000
853.764038 5975.000000
855.750854 5748.000000
857.736450 6416.000000
859.720764 7229.000000
861.703979 6281.000000
863.685791 6355.000000
865.666382 5773.000000
867.645691 7732.000000
869.623840 7075.000000
871.600647 6235.000000
873.576172 5967.000000
875.550659 6163.000000
877.523682 6056.000000
879.495667 5491.000000
881.466309 6367.000000
883.435791 6107.000000
885.403931 5571.000000
887.370911 5240.000000
889.336548 6126.000000
891.301025 5819.000000
893.264282 5946.000000
895.226318 6471.000000
897.187073 5844.000000
899.146606 6421.000000
901.104858 6646.000000
903.062012 6384.000000
905.018005 6026.000000
906.972595 6861.000000
908.925964 6470.000000
910.878174 6424.000000
912.829163 6401.000000
914.778870 7140.000000
916.727417 6315.000000
918.674744 6165.000000
920.620789 6032.000000
922.565552 6019.000000
924.509277 6277.000000
926.451843 6027.000000
928.393127 5591.000000
930.333069 6505.000000
932.271912 5635.000000
934.209473 5499.000000
936.145813 5978.000000
938.080994 5822.000000
940.014893 6075.000000
941.947693 5911.000000
943.879272 6810.000000
945.809692 5188.000000
947.738892 6437.000000
949.666748 7007.000000
951.593567 6651.000000
953.519104 5968.000000
955.443359 5365.000000
957.366516 6022.000000
959.288513 6715.000000
961.209229 7227.000000
963.128784 6489.000000
965.047180 5307.000000
966.964539 6445.000000
968.880432 6394.000000
970.795227 6131.000000
972.708801 5975.000000
974.621216 6322.000000
976.532410 6459.000000
978.442444 5525.000000
980.351196 6230.000000
982.258911 6135.000000
984.165405 6356.000000
986.070679 5735.000000
987.974854 6739.000000
989.877808 6168.000000
991.779541 6770.000000
993.680115 6644.000000
995.579529 6570.000000
997.477722 5254.000000
999.374756 6532.000000
1001.270569 6497.000000
1003.165222 7652.000000
1005.058777 5617.000000
1006.951050 7113.000000
1008.842407 6104.000000
1010.732422 5375.000000
1012.621216 6613.000000
1014.508850 6334.000000
1016.395325 6826.000000
1018.280640 6737.000000
1020.164795 5986.000000
1022.047729 5899.000000
1023.929626 6245.000000
1025.810181 5164.000000
1027.689697 5842.000000
1029.568237 6029.000000
1031.445435 5407.000000
1033.321289 6154.000000
1035.196167 5909.000000
1037.070068 6552.000000
1038.942505 6995.000000
1040.813965 6662.000000
1042.684082 5493.000000
1044.553223 5482.000000
1046.421143 5801.000000
1048.287964 7055.000000
1050.153687 6701.000000
1052.018188 6407.000000
1053.881592 6485.000000
1055.743652 6494.000000
1057.604736 5971.000000
1059.464722 6467.000000
1061.323364 6611.000000
1063.180908 5842.000000
1065.037354 6705.000000
1066.892700 5914.000000
1068.746826 5802.000000
1070.600098 6215.000000
1072.451904 6361.000000
1074.302734 6187.000000
1076.152344 6101.000000
1078.000732 5773.000000
1079.848267 7894.000000
1081.694458 5635.000000
1083.539429 6218.000000
1085.383545 5430.000000
1087.226318 5494.000000
1089.067871 6544.000000
1090.908691 5495.000000
1092.747925 5768.000000
1094.586426 6100.000000
1096.423584 6009.000000
1098.259521 6792.000000
1100.094482 6642.000000
1101.928223 5372.000000
1103.760986 5444.000000
1105.592407 6206.000000
1107.422974 7240.000000
1109.252197 6573.000000
1111.080444 6428.000000
1112.907471 7101.000000
1114.733521 5412.000000
1116.558350 6344.000000
1118.382080 7071.000000
1120.204590 6120.000000
1122.026001 5954.000000
1123.846558 5913.000000
1125.665649 6513.000000
1127.483887 7046.000000
1129.300781 6820.000000
1131.116821 6664.000000
1132.931641 6483.000000
1134.745361 5643.000000
1136.557983 5800.000000
1138.369385 5692.000000
1140.179810 6104.000000
1141.989136 6718.000000
1143.797119 6979.000000
1145.604370 5929.000000
1147.410156 5945.000000
1149.215088 5372.000000
1151.018921 5444.000000
1152.821533 6162.000000
1154.623291 6126.000000
1156.423584 6091.000000
1158.222900 6064.000000
1160.021240 5961.000000
1161.818237 5440.000000
1163.614502 5852.000000
1165.409424 6074.000000
1167.203247 6361.000000
1168.996216 7738.000000
1170.787842 5728.000000
1172.578491 6520.000000
1174.368164 5993.000000
1176.156372 5895.000000
1177.943726 7456.000000
1179.729980 6909.000000
1181.515137 5820.000000
1183.299194 5975.000000
1185.082153 7694.000000
1186.864136 5825.000000
1188.644897 5899.000000
1190.424683 6360.000000
1192.203369 6979.000000
1193.981079 6684.000000
1195.757568 7115.000000
1197.532959 6574.000000
1199.307251 6617.000000
1201.080444 6683.000000
1202.852783 6601.000000
1204.623779 6699.000000
1206.393921 5656.000000
1208.162842 6126.000000
1209.930664 6314.000000
1211.697632 5802.000000
1213.463257 5867.000000
1215.227905 6973.000000
1216.991455 6517.000000
1218.753906 5881.000000
1220.515503 6685.000000
1222.275879 5870.000000
1224.035156 6283.000000
1225.793579 6034.000000
1227.550781 7062.000000
1229.306885 6458.000000
1231.061890 5536.000000
1232.816040 5970.000000
1234.568848 5777.000000
1236.320679 6016.000000
1238.071655 5929.000000
1239.821289 4921.000000
1241.570068 7001.000000
1243.317505 6451.000000
1245.064209 6537.000000
1246.809692 6435.000000
1248.554321 6411.000000
1250.297607 6754.000000
1252.039917 6630.000000
1253.781128 5346.000000
1255.521484 5031.000000
1257.260742 5762.000000
1258.998779 6584.000000
1260.735962 7097.000000
1262.471924 6064.000000
1264.206909 6418.000000
1265.940918 7228.000000
1267.673950 6000.000000
1269.405762 6191.000000
1271.136597 6409.000000
1272.866211 7253.000000
1274.594971 5832.000000
1276.322632 5588.000000
1278.049194 5551.000000
1279.774902 5547.000000
1281.499268 6462.000000
1283.222778 5245.000000
1284.945313 6845.000000
1286.666870 6566.000000
1288.387207 6095.000000
1290.106567 6757.000000
1291.824829 7242.000000
1293.542114 6502.000000
1295.258423 5796.000000
1296.973511 6303.000000
1298.687622 6170.000000
1300.400757 5729.000000
1302.113037 6408.000000
1303.824097 8244.000000
1305.534180 5582.000000
1307.243164 6349.000000
1308.950928 6699.000000
1310.658081 6973.000000
1312.363770 5773.000000
1314.068726 6853.000000
1315.772705 6187.000000
1317.475464 5962.000000
1319.177246 6590.000000
1320.878174 6043.000000
1322.577759 8810.000000
1324.276489 30591.000000
1325.974487 5597.000000
1327.671143 6456.000000
1329.366699 7202.000000
1331.061401 6777.000000
1332.754883 5794.000000
1334.447510 5431.000000
1336.139282 7232.000000
1337.829712 6261.000000
1339.519409 6519.000000
1341.208008 6125.000000
1342.895508 7599.000000
1344.582031 5668.000000
1346.267456 6726.000000
1347.951904 5958.000000
1349.635498 7194.000000
1351.317871 6386.000000
1352.999268 5928.000000
1354.679810 6524.000000
1356.359131 6644.000000
1358.037842 5780.000000
1359.715210 6529.000000
1361.391479 5785.000000
1363.066772 5608.000000
1364.741333 6636.000000
1366.414673 6445.000000
1368.087036 6746.000000
1369.758423 5135.000000
1371.428833 6740.000000
1373.098145 6168.000000
1374.766479 5614.000000
1376.433960 6000.000000
1378.100342 6287.000000
1379.765747 6028.000000
1381.430176 5888.000000
1383.093384 5917.000000
1384.755981 5680.000000
1386.417236 6435.000000
1388.077637 6604.000000
1389.736938 6357.000000
1391.395264 6522.000000
1393.052856 6829.000000
1394.709229 6430.000000
1396.364746 6909.000000
1398.019043 6318.000000
1399.672485 5829.000000
1401.324829 6087.000000
1402.976440 6476.000000
1404.626831 7150.000000
1406.276123 6240.000000
1407.924683 7446.000000
1409.572144 7959.000000
1411.218628 6156.000000
1412.864258 6261.000000
1414.508911 5996.000000
1416.152344 7001.000000
1417.794922 7134.000000
1419.436401 6836.000000
1421.077026 6478.000000
1422.716675 6429.000000
1424.355225 6034.000000
1425.992920 6609.000000
1427.629517 6357.000000
1429.265137 6005.000000
1430.900024 6355.000000
1432.533813 5880.000000
1434.166504 6087.000000
1435.798218 5670.000000
1437.429077 6134.000000
1439.058838 6078.000000
1440.687500 7676.000000
1442.315552 5934.000000
1443.942505 6221.000000
1445.568237 6197.000000
1447.193359 6177.000000
1448.817383 6512.000000
1450.440430 6041.000000
1452.062500 6018.000000
1453.683472 7438.000000
1455.303467 6298.000000
1456.922729 6884.000000
1458.540649 5639.000000
1460.157959 18889.000000
1461.774292 5537.000000
1463.389404 7225.000000
1465.003662 6244.000000
1466.617065 5255.000000
1468.229370 5615.000000
1469.840820 6294.000000
1471.451416 6359.000000
1473.060791 5968.000000
1474.669189 6030.000000
1476.276733 6206.000000
1477.883301 6705.000000
1479.489136 5299.000000
1481.093750 6217.000000
1482.697510 5544.000000
1484.300049 6681.000000
1485.901978 5555.000000
1487.502686 5510.000000
1489.102661 5618.000000
1490.701538 6229.000000
1492.299561 6491.000000
1493.896484 6647.000000
1495.492554 6336.000000
1497.087646 5964.000000
1498.681763 5499.000000
1500.275146 6582.000000
1501.867432 5542.000000
1503.458496 5953.000000
1505.049072 6721.000000
1506.638306 6478.000000
1508.226929 6145.000000
1509.814453 6592.000000
1511.400879 6830.000000
1512.986572 6198.000000
1514.571167 6585.000000
1516.154907 6175.000000
1517.737549 6148.000000
1519.319458 6589.000000
1520.900269 6597.000000
1522.480347 6035.000000
1524.059204 6191.000000
1525.637207 6377.000000
1527.214478 6294.000000
1528.790527 5682.000000
1530.365845 5827.000000
1531.940063 6330.000000
1533.513550 5458.000000
1535.085815 5932.000000
1536.657349 6349.000000
1538.227905 6394.000000
1539.797607 6301.000000
1541.366089 5396.000000
1542.933838 6568.000000
1544.500732 5647.000000
1546.066406 6729.000000
1547.631348 5954.000000
1549.195190 5072.000000
1550.758423 7380.000000
1552.320313 6323.000000
1553.881592 5974.000000
1555.441772 5720.000000
1557.001221 5744.000000
1558.559570 5876.000000
1560.117188 6310.000000
1561.673706 7072.000000
1563.229004 5804.000000
1564.783691 6312.000000
1566.337646 5609.000000
1567.890625 6325.000000
1569.442261 5636.000000
1570.993164 5900.000000
1572.543335 6276.000000
1574.092529 6335.000000
1575.640381 5762.000000
1577.187744 5449.000000
1578.734131 5689.000000
1580.279663 5061.000000
1581.824219 6658.000000
1583.367554 6333.000000
1584.910278 6631.000000
1586.452148 6511.000000
1587.992920 6658.000000
1589.532715 5808.000000
1591.071777 6667.000000
1592.609741 5871.000000
1594.147217 6143.000000
1595.683350 5860.000000
1597.218384 6680.000000
1598.752930 6290.000000
1600.286499 5931.000000
1601.819214 6039.000000
1603.350342 6245.000000
1604.881226 6221.000000
1606.411255 5729.000000
1607.940063 6114.000000
1609.467773 6178.000000
1610.994873 5986.000000
1612.521240 5858.000000
1614.046631 6283.000000
1615.571167 5796.000000
1617.094360 5768.000000
1618.616821 5613.000000
1620.138550 6609.000000
1621.659424 6874.000000
1623.178833 15573.000000
1624.697754 6145.000000
1626.215942 6007.000000
1627.733276 5934.000000
1629.249512 6401.000000
1630.764404 6987.000000
1632.278809 6690.000000
1633.792480 5774.000000
1635.305054 6808.000000
1636.816406 5931.000000
1638.327393 6410.000000
1639.837280 6244.000000
1641.346313 6213.000000
1642.854004 5656.000000
1644.361328 6182.000000
1645.867798 7076.000000
1647.373291 6229.000000
1648.877930 6815.000000
1650.381104 6141.000000
1651.883667 6601.000000
1653.385864 6324.000000
1654.886719 6606.000000
1656.386475 7515.000000
1657.885376 5926.000000
1659.383911 6459.000000
1660.881226 6213.000000
1662.377808 5968.000000
1663.872803 6503.000000
1665.367554 6352.000000
1666.861450 5210.000000
1668.354370 5615.000000
1669.845947 20953.000000
1671.337036 6435.000000
1672.827515 6104.000000
1674.316895 5985.000000
1675.804810 6918.000000
1677.292480 6823.000000
1678.779175 6039.000000
1680.265015 5361.000000
1681.750000 6058.000000
1683.233521 6088.000000
1684.716797 6087.000000
1686.199219 5850.000000
1687.680542 6186.000000
1689.160400 6141.000000
1690.640015 5477.000000
1692.118896 6571.000000
1693.596802 6357.500000
1695.073730 6144.000000
1696.549438 5759.000000
1698.024780 6059.000000
1699.498901 6331.000000
1700.972412 5467.000000
1702.444458 5528.000000
1703.916260 6842.000000
1705.387085 6395.000000
1706.857056 7066.000000
1708.325684 5134.000000
1709.793823 5768.000000
1711.261230 6324.000000
1712.727539 5439.000000
1714.193237 5804.000000
1715.657227 6132.000000
1717.121094 5961.000000
1718.584106 6993.000000
1720.046143 6299.000000
1721.506958 6589.000000
1722.967163 5432.000000
1724.426636 5618.000000
1725.885254 6179.000000
1727.342896 6042.000000
1728.799194 6250.000000
1730.255249 6049.000000
1731.710327 6429.000000
1733.164429 5950.000000
1734.617310 6881.000000
1736.069946 5965.000000
1737.521484 6890.000000
1738.972290 5962.000000
1740.422119 6552.000000
1741.870605 5930.000000
1743.318726 7295.000000
1744.765991 6541.000000
1746.212524 6625.000000
1747.657471 6704.000000
1749.102173 6109.000000
1750.546021 5870.000000
1751.989014 5475.000000
1753.430542 6567.000000
1754.871826 6364.000000
1756.312256 19363.000000
1757.751709 6285.000000
1759.190186 5267.000000
1760.627686 6022.000000
1762.064697 7541.000000
1763.500732 5866.000000
1764.935913 7123.000000
1766.369629 6131.000000
1767.803223 6472.000000
1769.235840 6626.000000
1770.667603 5777.000000
1772.098511 5762.000000
1773.528198 6399.000000
1774.957153 6120.000000
1776.385620 6213.000000
1777.813110 6658.000000
1779.239258 6200.000000
1780.665161 5623.000000
1782.089966 6876.000000
1783.514160 5591.000000
1784.936890 6641.000000
1786.359131 6493.000000
1787.780640 6955.000000
1789.201416 5841.000000
1790.621216 6002.000000
1792.039673 6123.000000
1793.457642 6803.000000
1794.875000 5494.000000
1796.291504 5986.000000
1797.706543 6501.000000
1799.121216 5855.000000
1800.535278 6546.000000
1801.948120 5909.000000
1803.360352 6988.000000
1804.771240 7075.000000
1806.181641 7727.000000
1807.591309 6493.000000
1809.000000 5927.000000
1810.407593 5360.000000
1811.814697 6439.000000
1813.220947 6354.000000
1814.626221 6703.000000
1816.030396 5959.000000
1817.434204 5921.000000
1818.837036 6263.000000
1820.239014 5989.000000
1821.640381 5875.000000
1823.040283 6387.000000
1824.439575 6363.000000
1825.838379 6550.000000
1827.236328 7463.000000
1828.632935 5787.000000
1830.028931 6719.000000
1831.424194 5930.000000
1832.818848 8089.000000
1834.212524 6015.000000
1835.604858 6843.000000
1836.996704 6439.000000
1838.387939 5844.000000
1839.778198 7143.000000
1841.167236 5991.000000
1842.555908 6034.000000
1843.943604 5939.000000
1845.330566 5868.000000
1846.716187 6914.000000
1848.101563 5898.000000
1849.486084 6340.000000
1850.869873 6314.000000
1852.252563 6356.000000
1853.634033 5428.000000
1855.015015 6500.000000
1856.395508 6316.000000
1857.775024 5744.000000
1859.153076 6024.000000
1860.531006 6237.000000
1861.907959 7804.000000
1863.284180 6116.000000
1864.659546 6077.000000
1866.033447 5677.000000
1867.407227 5678.000000
1868.780151 6157.000000
1870.151978 5937.000000
1871.522827 6902.000000
1872.893311 5482.000000
1874.262695 6021.000000
1875.631592 6082.000000
1876.998901 7195.000000
1878.366089 6021.000000
1879.732300 6005.000000
1881.097778 6802.000000
1882.462524 7500.000000
1883.825684 6782.000000
1885.188721 6975.000000
1886.550903 6331.000000
1887.912231 6441.000000
1889.272217 5652.000000
1890.631836 5800.000000
1891.990845 6186.000000
1893.348877 6639.000000
1894.706055 7294.000000
1896.062012 5901.000000
1897.417725 7600.000000
1898.772461 5828.000000
1900.126343 5547.000000
1901.479126 5913.000000
1902.831421 5970.000000
1904.182983 5929.000000
1905.533691 6772.000000
1906.883179 6535.000000
1908.232178 6671.000000
1909.580322 5769.000000
1910.927856 6103.000000
1912.274658 6301.000000
1913.619873 6847.000000
1914.964844 6074.000000
1916.309082 5414.000000
1917.652466 6466.000000
1918.994507 5950.000000
1920.336304 6658.000000
1921.677246 6976.000000
1923.017456 6173.000000
1924.356689 6309.000000
1925.694946 6197.000000
1927.032593 6553.000000
1928.369507 7044.000000
1929.705566 6715.000000
1931.040405 5558.000000
1932.374878 6671.000000
1933.708618 7283.000000
1935.041504 6240.000000
1936.372925 5690.000000
1937.704468 6325.000000
1939.034668 6627.000000
1940.364380 5778.000000
1941.693237 6089.000000
1943.020874 5809.000000
1944.348022 5058.000000
1945.674438 5831.000000
1947.000122 6561.000000
1948.324463 5719.000000
1949.648560 6678.000000
1950.971802 6264.000000
1952.294312 6402.000000
1953.615723 5779.000000
1954.936157 7347.000000
1956.255981 6044.000000
1957.575439 5549.000000
1958.893921 6749.000000
1960.211060 5890.000000
1961.527832 5850.000000
1962.843872 6513.000000
1964.159180 6559.000000
1965.473022 6258.000000
1966.786621 5681.000000
1968.099487 6232.000000
1969.411499 6031.000000
1970.722900 6055.000000
1972.032959 6220.000000
1973.342529 5818.000000
1974.651367 6173.000000
1975.959595 6590.000000
1977.266479 6127.000000
1978.572754 7185.000000
1979.878662 5516.000000
1981.183350 6327.000000
1982.487549 5928.000000
1983.790527 5719.000000
1985.093140 7562.000000
1986.394775 6128.000000
1987.695801 6791.000000
1988.995239 6081.000000
1990.294800 6614.000000
1991.593262 5265.000000
1992.891235 6008.000000
1994.187622 6127.000000
1995.484009 5799.000000
1996.779419 5592.000000
1998.074097 6466.000000
1999.367920 5701.000000
2000.660522 6467.000000
2001.952637 5626.000000
2003.244263 7169.000000
2004.535156 6388.000000
2005.824463 6231.000000
2007.113525 6807.000000
2008.401855 6001.000000
2009.689453 5983.000000
2010.976196 6633.000000
2012.261841 5678.000000
2013.547119 6363.000000
2014.831421 5978.000000
2016.115112 5558.000000
2017.397461 6014.000000
2018.679443 6473.000000
2019.960938 6734.000000
2021.241455 5868.000000
2022.521240 6124.000000
2023.799927 6808.000000
2025.077881 5851.000000
2026.355347 5896.000000
2027.632202 6256.000000
2028.907349 5760.000000
2030.182617 6549.000000
2031.456909 6010.000000
2032.730225 5852.000000
2034.002686 5924.000000
2035.274780 6152.000000
2036.545776 6947.000000
2037.816528 6616.000000
2039.085938 5984.000000
2040.354248 6933.000000
2041.622559 6644.000000
2042.889893 5974.000000
2044.156494 5976.000000
2045.421875 5568.000000
2046.686646 5687.000000
2047.951172 5397.000000
2049.214600 5901.000000
2050.477539 6409.000000
2051.738525 6140.000000
2053.000000 6102.000000
2054.260254 5878.000000
2055.519775 6491.000000
2056.778564 6238.000000
2058.036377 6933.000000
2059.293701 6132.000000
2060.550293 6041.000000
2061.805420 6563.000000
2063.060547 5649.000000
2064.314697 5598.000000
2065.568115 5676.000000
2066.820801 6798.000000
2068.072266 6290.000000
2069.323486 6235.000000
2070.573975 5681.000000
2071.823730 5388.000000
2073.072021 6096.000000
2074.320313 6524.000000
2075.567627 7519.000000
2076.814209 5607.000000
2078.060059 6036.000000
2079.304688 7009.000000
2080.548828 7581.000000
2081.792480 5514.000000
2083.035156 5986.000000
2084.276611 6884.000000
2085.517822 5955.000000
2086.758545 6322.000000
2087.998291 6737.000000
2089.236816 7093.000000
2090.474854 6205.000000
2091.712158 5847.000000
2092.949219 6673.000000
2094.184814 6107.000000
2095.419678 6210.000000
2096.654297 6034.000000
2097.887939 5630.000000
2099.120605 6155.000000
2100.352539 6790.000000
2101.583984 6408.000000
2102.814453 6728.000000
2104.044189 6033.000000
2105.273682 6011.000000
2106.501221 5928.000000
2107.729004 5997.000000
2108.956055 6292.000000
2110.182129 5442.000000
2111.406738 6391.000000
2112.631592 6949.000000
2113.855225 7071.000000
2115.078369 6212.000000
2116.300293 7521.000000
2117.521973 6026.000000
2118.742676 6854.000000
2119.962646 6023.000000
2121.182129 6148.000000
2122.400146 6590.000000
2123.618164 7065.000000
2124.835205 5756.000000
2126.051758 5795.000000
2127.266602 6484.000000
2128.481689 6365.000000
2129.695801 6767.000000
2130.909180 5713.000000
2132.121826 6114.000000
2133.333008 5868.000000
2134.544434 6479.000000
2135.754639 6650.000000
2136.964355 5963.000000
2138.172607 6169.000000
2139.380859 5641.000000
2140.588379 5914.000000
2141.794678 7409.000000
2143.000244 5871.000000
2144.205566 5662.000000
2145.409912 5534.000000
2146.613525 6281.000000
2147.816650 6195.000000
2149.018311 6523.000000
2150.219727 5289.000000
2151.420410 6260.000000
2152.620361 6014.000000
2153.819092 6091.000000
2155.017578 6895.000000
2156.215576 6182.000000
2157.412598 6044.000000
2158.608887 5165.000000
2159.803955 5262.000000
2160.998779 6106.000000
2162.192871 5576.000000
2163.385986 6013.000000
2164.578125 6882.000000
2165.770020 5893.000000
2166.961182 6329.000000
2168.151367 6296.000000
2169.340820 6459.000000
2170.529785 6772.000000
2171.717773 6034.000000
2172.905518 5775.000000
2174.091797 5909.000000
2175.277344 6515.000000
2176.462646 5997.000000
2177.647461 5837.000000
2178.831055 6359.000000
2180.013916 7499.000000
2181.195801 6318.000000
2182.377441 6142.000000
2183.558594 6627.000000
2184.738525 5738.000000
2185.917480 5539.000000
2187.095947 6364.000000
2188.274170 6864.000000
2189.451172 7198.000000
2190.627197 6625.000000
2191.802979 6099.000000
2192.978271 5644.000000
2194.152100 6652.000000
2195.325439 6129.000000
2196.498535 6214.000000
2197.670410 6351.000000
2198.841797 7073.000000
2200.012695 6357.000000
2201.181885 6834.000000
2202.351074 7573.000000
2203.519775 6323.000000
2204.687500 5910.000000
2205.854248 5711.000000
2207.020264 7041.000000
2208.185791 6722.000000
2209.351074 6003.000000
2210.514893 6796.000000
2211.678223 5419.000000
2212.840332 6227.000000
2214.002686 6229.000000
2215.163818 6659.000000
2216.323975 6596.000000
2217.483643 6262.000000
2218.643066 6550.000000
2219.801270 6346.000000
2220.958496 6354.000000
2222.115479 6757.000000
2223.271729 6553.000000
2224.427246 6812.000000
2225.582031 6260.000000
2226.735840 6381.000000
2227.888672 5986.000000
2229.041992 6878.000000
2230.193359 6204.000000
2231.344482 6148.000000
2232.494873 6526.000000
2233.644775 7681.000000
2234.793701 6288.000000
2235.942139 5196.000000
2237.089111 6764.000000
2238.236328 7168.000000
2239.382324 6067.000000
2240.528076 7252.000000
2241.672119 7272.000000
2242.816406 6749.000000
2243.959717 6192.000000
2245.102295 5959.000000
2246.243896 5784.000000
2247.385254 5821.000000
2248.525635 6414.000000
2249.665283 6349.000000
2250.804443 5795.000000
2251.942383 5820.000000
2253.080322 6242.000000
2254.217285 5304.000000
2255.353516 6314.000000
2256.488770 6131.000000
2257.623291 7257.000000
2258.757568 6385.000000
2259.891357 5416.000000
2261.023682 6144.000000
2262.155518 6795.000000
2263.286865 6279.000000
2264.417236 6487.000000
2265.547363 8076.000000
2266.676270 6680.000000
2267.804688 6063.000000
2268.932617 5555.000000
2270.059570 6079.000000
2271.185791 5973.000000
2272.311035 6688.000000
2273.436279 6507.000000
2274.560791 6434.000000
2275.684082 5930.000000
2276.806641 6366.000000
2277.928711 5956.000000
2279.050293 7394.000000
2280.171143 6397.000000
2281.290771 6369.000000
2282.409912 7117.000000
2283.528809 7636.000000
2284.646973 7249.000000
2285.764160 5887.000000
2286.880371 6398.000000
2287.996338 7026.000000
2289.111572 6872.000000
2290.226074 7386.000000
2291.339355 5814.000000
2292.452637 6368.000000
2293.565186 6005.000000
2294.677002 5321.000000
2295.788086 6792.000000
2296.897949 6445.000000
2298.007324 6145.000000
2299.116455 6642.000000
2300.224609 6346.000000
2301.331787 6797.000000
2302.438721 5903.000000
2303.544922 6263.000000
2304.650635 6576.000000
2305.754883 6556.000000
2306.858887 5462.000000
2307.962402 5774.000000
2309.065430 6526.000000
2310.167236 7456.000000
2311.268311 7301.000000
2312.368896 6560.000000
2313.468994 5488.000000
2314.568359 6408.000000
2315.666260 6537.000000
2316.764648 6995.000000
2317.861572 8197.000000
2318.958252 6852.000000
2320.054443 5820.000000
2321.148926 6871.000000
2322.243408 7414.000000
2323.337158 5847.000000
2324.430664 6105.000000
2325.522461 6484.000000
2326.614258 7098.000000
2327.705322 6116.000000
2328.795654 6294.000000
2329.885010 6854.000000
2330.974365 6028.000000
2332.062500 6233.000000
2333.150146 6817.000000
2334.237549 6493.000000
2335.323242 6712.000000
2336.408691 7688.000000
2337.493896 6262.000000
2338.578125 6738.000000
2339.661377 5915.000000
2340.744385 6425.000000
2341.826416 7105.000000
2342.908203 6025.000000
2343.989258 7457.000000
2345.069092 6651.000000
2346.148438 5718.000000
2347.227295 6782.000000
2348.305664 6559.000000
2349.382568 6359.000000
2350.459229 6986.000000
2351.535645 6025.000000
2352.611084 6436.000000
2353.685547 5859.000000
2354.759766 6318.000000
2355.833252 6785.000000
2356.906250 6202.000000
2357.978027 7081.000000
2359.049561 6259.000000
2360.120117 6792.000000
2361.190430 7495.000000
2362.259766 7524.000000
2363.328125 6767.000000
2364.396240 6718.000000
2365.463623 7073.000000
2366.530518 7151.000000
2367.596680 6060.000000
2368.661621 6863.000000
2369.726563 7001.000000
2370.790771 6298.000000
2371.854248 6943.000000
2372.916504 5732.000000
2373.978760 6371.000000
2375.040039 6375.000000
2376.101074 5916.000000
2377.160889 6242.000000
2378.219971 7869.000000
2379.279053 6495.000000
2380.337158 7518.000000
2381.394531 6896.000000
2382.450928 8049.000000
2383.507080 7831.000000
2384.562744 6266.000000
2385.617676 6997.000000
2386.671143 6800.000000
2387.724854 6490.000000
2388.777588 6262.000000
2389.829834 6760.000000
2390.881348 6087.000000
2391.931885 6608.000000
2392.982178 6528.000000
2394.031494 6200.000000
2395.080811 6152.000000
2396.128662 6850.000000
2397.176025 6969.000000
2398.223145 6264.000000
2399.269287 6713.000000
2400.314697 6149.000000
2401.359375 6712.000000
2402.404053 7698.000000
2403.447266 7516.000000
2404.490479 6534.000000
2405.532227 5674.000000
2406.574219 6701.000000
2407.615479 7069.000000
2408.655762 6136.000000
2409.695313 6401.000000
2410.733887 6372.000000
2411.772705 5958.000000
2412.810303 6518.000000
2413.847656 6869.000000
2414.883789 7263.000000
2415.919678 6249.000000
2416.954834 6217.000000
2417.989502 6664.000000
2419.022705 7242.000000
2420.056152 6462.000000
2421.088623 6663.000000
2422.120850 6827.000000
2423.151611 7012.000000
2424.182373 6404.000000
2425.212646 6849.000000
2426.241699 6874.000000
2427.270752 6695.000000
2428.298096 7392.000000
2429.325928 6761.000000
2430.352539 7286.000000
2431.378906 6949.000000
2432.403809 7743.000000
2433.428955 6488.000000
2434.453125 7150.000000
2435.477051 6669.000000
2436.499756 5871.000000
2437.521729 6319.000000
2438.543457 6648.000000
2439.564453 6661.000000
2440.584961 6075.000000
2441.604248 6498.000000
2442.623535 6587.000000
2443.641846 8444.000000
2444.659912 6251.000000
2445.676514 6462.000000
2446.693115 6528.000000
2447.708984 5983.000000
2448.724854 7009.000000
2449.739258 6791.000000
2450.752930 5549.000000
2451.766113 7216.000000
2452.779053 6027.000000
2453.791260 7202.000000
2454.802490 6662.000000
2455.813477 7690.000000
2456.823730 6344.000000
2457.833496 7578.000000
2458.842285 5917.000000
2459.850342 5981.000000
2460.858398 6284.000000
2461.865234 7401.000000
2462.871826 5449.000000
2463.877197 7435.000000
2464.882324 6987.000000
2465.887207 5805.000000
2466.890869 6526.000000
2467.894287 6379.000000
2468.896729 7602.000000
2469.898926 7318.000000
2470.900635 6870.000000
2471.901367 6565.000000
2472.901123 6930.000000
2473.900879 6800.000000
2474.899658 5717.000000
2475.897949 6592.000000
2476.895264 7059.000000
2477.892334 6129.000000
2478.889404 6825.000000
2479.885010 5742.000000
2480.880615 7104.000000
2481.874512 6674.000000
2482.868408 8115.000000
2483.861816 6870.000000
2484.854736 6668.000000
2485.846680 7460.000000
2486.837891 7208.000000
2487.828857 6702.000000
2488.819336 5844.000000
2489.808838 6592.000000
2490.797607 6480.000000
2491.786377 5609.000000
2492.774170 6808.000000
2493.760742 6533.000000
2494.747314 8072.000000
2495.733398 6833.000000
2496.718750 7119.000000
2497.703125 8437.000000
2498.687256 6062.000000
2499.671387 6861.000000
2500.654053 5798.000000
2501.636230 7054.000000
2502.617920 6807.000000
2503.598877 7300.000000
2504.579346 6523.000000
2505.559570 5784.000000
2506.538330 6317.000000
2507.516846 7607.000000
2508.494873 6793.000000
2509.472412 7106.000000
2510.448975 6084.000000
2511.425293 5978.000000
2512.400879 6451.000000
2513.375977 6171.000000
2514.350586 6465.000000
2515.323975 7480.000000
2516.297119 6773.000000
2517.270020 6866.000000
2518.241943 6078.000000
2519.213135 6822.000000
2520.183838 6912.000000
2521.154297 7770.000000
2522.124023 8028.000000
2523.092773 6085.000000
2524.060791 6120.000000
2525.028809 7785.000000
2525.995850 6272.000000
2526.962646 5512.000000
2527.928223 7302.000000
2528.893799 7036.000000
2529.858643 7719.000000
2530.822998 6348.000000
2531.786133 6336.000000
2532.749512 5857.000000
2533.711914 5957.000000
2534.674072 6719.000000
2535.635010 6308.000000
2536.595215 6117.000000
2537.555664 6187.000000
2538.515137 6826.000000
2539.473877 6910.000000
2540.431641 6705.000000
2541.389648 6195.000000
2542.346924 6739.000000
2543.303223 6088.000000
2544.259277 7036.000000
2545.214111 6186.000000
2546.169189 7771.000000
2547.123535 6966.000000
2548.077148 7101.500000
2549.029785 7237.000000
2549.982178 6761.000000
2550.934082 6918.000000
2551.885254 6392.000000
2552.835693 7758.000000
2553.785645 7270.000000
2554.735352 7375.000000
2555.684326 6601.000000
2556.632813 6248.000000
2557.580078 7141.000000
2558.527344 6309.000000
2559.473877 6555.000000
2560.419922 6627.000000
2561.364990 7433.000000
2562.309814 6726.000000
2563.254150 7154.000000
2564.197998 6831.000000
2565.141357 6618.000000
2566.083252 6570.000000
2567.025391 6604.000000
2567.966797 6169.000000
2568.907471 7123.000000
2569.847412 7252.000000
2570.787354 5672.000000
2571.726318 6201.000000
2572.665039 7534.000000
2573.602783 7202.000000
2574.540283 5448.000000
2575.477051 7013.000000
2576.413086 6827.000000
2577.348633 7501.000000
2578.283447 6277.000000
2579.218262 5937.000000
2580.152100 7042.000000
2581.085449 7191.000000
2582.018066 5867.000000
2582.950439 6962.000000
2583.882080 5459.000000
2584.813232 7073.000000
2585.743896 7015.000000
2586.673340 6890.000000
2587.602783 7337.000000
2588.531738 6486.000000
2589.460449 7383.000000
2590.387451 7350.000000
2591.314697 5916.000000
2592.241455 6743.000000
2593.167480 6237.000000
2594.093262 5663.000000
2595.017822 7581.000000
2595.942139 7628.000000
2596.865967 5330.000000
2597.789307 7190.000000
2598.711670 6246.000000
2599.633789 6902.000000
2600.555420 8328.000000
2601.476318 6424.000000
2602.396484 5776.000000
2603.316406 6305.000000
2604.235840 6364.000000
2605.155029 6392.000000
2606.073242 5892.000000
2606.990234 5964.000000
2607.907471 7266.000000
2608.824463 5892.000000
2609.740479 7565.000000
2610.655273 6672.000000
2611.570557 6701.000000
2612.485107 6577.000000
2613.398682 6585.000000
2614.312256 6166.000000
2615.224609 7597.000000
2616.136963 7059.000000
2617.048340 6790.000000
2617.959473 5691.000000
2618.869873 7204.000000
2619.780029 6699.000000
2620.689453 6130.000000
2621.598389 6641.000000
2622.506348 6206.000000
2623.414551 6829.000000
2624.321777 6646.000000
2625.228516 7077.000000
2626.134521 6007.000000
2627.040283 6653.000000
2627.945313 6586.000000
2628.850098 7832.000000
2629.754150 6454.000000
2630.657227 6423.000000
2631.560303 6423.000000
2632.462402 5604.000000
2633.364502 6748.000000
2634.266357 6993.000000
2635.166504 6734.000000
2636.066895 6446.000000
2636.966553 6376.000000
2637.865967 5980.000000
2638.763916 6866.000000
2639.662354 6761.000000
2640.560303 6384.000000
2641.457520 6105.000000
2642.353516 6093.000000
2643.249512 6937.000000
2644.145264 6051.000000
2645.040283 6452.000000
2645.935059 6643.000000
2646.828369 7030.000000
2647.721680 6282.000000
2648.614746 6787.000000
2649.507568 6412.000000
2650.398682 7459.000000
2651.290039 6396.000000
2652.180908 7597.000000
2653.071045 7339.000000
2653.960938 6612.000000
2654.849609 7258.000000
2655.738525 6644.000000
2656.626953 6610.000000
2657.514404 7331.000000
2658.400879 6465.000000
2659.287842 7077.000000
2660.174072 6836.000000
2661.059814 6836.000000
2661.944336 6507.000000
2662.828857 6411.000000
2663.713135 6122.000000
2664.596680 7021.000000
2665.479736 7833.000000
2666.362061 7354.000000
2667.243896 6162.000000
2668.125000 6557.000000
2669.006348 6083.000000
2669.886230 6543.000000
2670.766357 7325.000000
2671.645752 7244.000000
2672.525146 6219.000000
2673.403809 6154.000000
2674.280762 6462.000000
2675.158447 6775.000000
2676.035400 6329.000000
2676.911621 8187.000000
2677.787354 7124.000000
2678.662354 6256.000000
2679.537598 7699.000000
2680.411865 7026.000000
2681.285645 7274.000000
2682.158691 7060.000000
2683.031494 6169.000000
2683.904053 6138.000000
2684.775879 6900.000000
2685.646973 6536.000000
2686.517822 6904.000000
2687.388184 7126.000000
2688.258301 6713.000000
2689.126709 6309.000000
2689.995850 7352.000000
2690.864258 7125.000000
2691.732422 6633.000000
2692.599854 6962.000000
2693.466064 5850.000000
2694.332764 7153.000000
2695.198486 7423.000000
2696.064209 7199.000000
2696.928467 7901.000000
2697.793457 6557.000000
2698.656982 7275.000000
2699.520752 5890.000000
2700.383057 7458.000000
2701.245850 6795.000000
2702.107666 5919.000000
2702.968994 6875.000000
2703.830322 6756.000000
2704.690430 7405.000000
2705.550537 7338.000000
2706.410156 6599.000000
2707.269531 6846.000000
2708.127197 7101.000000
2708.985107 6890.000000
2709.843506 7300.000000
2710.700684 6695.000000
2711.557129 6021.000000
2712.413086 6874.000000
2713.269043 6113.000000
2714.124268 6864.000000
2714.978760 6143.000000
2715.832764 6811.000000
2716.686768 7336.000000
2717.539795 6239.000000
2718.393066 6477.000000
2719.244629 7718.000000
2720.096680 6803.000000
2720.948486 6312.000000
2721.799072 6479.000000
2722.649658 6447.000000
2723.499756 7108.000000
2724.349121 7055.000000
2725.198486 6988.000000
2726.046631 6622.000000
2726.894287 6530.000000
2727.742432 6988.000000
2728.589355 6831.000000
2729.436768 5524.000000
2730.282715 7457.000000
2731.127930 6976.000000
2731.973633 6464.000000
2732.818359 6963.000000
2733.663086 7317.000000
2734.506592 6926.000000
2735.350342 7868.000000
2736.193359 7129.000000
2737.035889 6026.000000
2737.877441 6267.000000
2738.719482 6749.000000
2739.560547 6948.000000
2740.401367 5794.000000
2741.241943 5885.000000
2742.081299 7843.000000
2742.920654 6818.000000
2743.760010 6913.000000
2744.598145 6776.000000
2745.435791 7798.000000
2746.273438 6406.000000
2747.110596 7109.000000
2747.947510 6163.000000
2748.783936 6021.000000
2749.619141 6605.000000
2750.454590 6360.000000
2751.289551 6383.000000
2752.123779 6214.000000
2752.957764 6843.000000
2753.791260 6839.000000
2754.624756 8020.000000
2755.457275 6782.000000
2756.289307 7280.000000
2757.120850 6882.000000
2757.952393 7051.000000
2758.782959 7228.000000
2759.613770 7256.000000
2760.443359 7264.000000
2761.272949 6613.000000
2762.102295 7290.000000
2762.930908 6900.000000
2763.759033 6764.000000
2764.586670 6860.000000
2765.414307 6635.000000
2766.241455 7925.000000
2767.067871 5793.000000
2767.893799 7509.000000
2768.719238 6921.000000
2769.544434 7831.000000
2770.369629 7059.000000
2771.193604 6730.000000
2772.017578 6503.000000
2772.841553 7634.000000
2773.664307 6402.000000
2774.487305 6935.000000
2775.309082 6909.000000
2776.130859 6871.000000
2776.952637 6528.000000
2777.773438 7928.000000
2778.593506 6527.000000
2779.413818 7011.000000
2780.233643 7283.000000
2781.053467 6484.000000
2781.871338 6029.000000
2782.690430 8098.000000
2783.508301 6515.000000
2784.325928 6726.000000
2785.143066 7153.000000
2785.959717 7251.000000
2786.776123 7212.000000
2787.592041 6303.000000
2788.407715 5989.000000
2789.222412 6438.000000
2790.037598 7019.000000
2790.852051 7177.000000
2791.666016 6571.000000
2792.479736 7439.000000
2793.292236 8832.000000
2794.104980 6982.000000
2794.917236 7443.000000
2795.729004 7178.000000
2796.540039 7386.000000
2797.351807 6564.000000
2798.162354 7177.000000
2798.972900 7034.000000
2799.781982 7360.000000
2800.591797 8253.000000
2801.400879 7757.000000
2802.209717 6666.000000
2803.018066 7220.000000
2803.825439 6209.000000
2804.633301 6527.000000
2805.440430 6994.000000
2806.247314 6861.000000
2807.052979 7108.000000
2807.859131 6602.000000
2808.664551 6491.000000
2809.469971 7337.000000
2810.274658 6174.000000
2811.078369 7593.000000
2811.882568 7545.000000
2812.686279 6366.000000
2813.489746 6150.000000
2814.291748 6352.000000
2815.094482 7330.000000
2815.896484 7743.000000
2816.698242 6189.000000
2817.499512 6549.000000
2818.300293 7217.000000
2819.100586 6500.000000
2819.901123 6730.000000
2820.700684 8067.000000
2821.499756 7158.000000
2822.298828 6435.000000
2823.097656 6932.000000
2823.895996 6344.000000
2824.693359 7063.000000
2825.490967 7265.000000
2826.287842 6670.000000
2827.084961 7376.000000
2827.881348 7960.000000
2828.677002 7062.000000
2829.472656 7382.000000
2830.268066 7609.000000
2831.062988 7416.000000
2831.857178 6656.000000
2832.651367 6872.000000
2833.445313 5721.000000
2834.238770 6855.000000
2835.031494 7145.000000
2835.823975 8193.000000
2836.616455 7625.000000
2837.408691 7515.000000
2838.200439 6439.000000
2838.991211 6886.000000
2839.781982 8938.000000
2840.572998 7547.000000
2841.363037 6207.000000
2842.152588 7634.000000
2842.942383 7160.000000
2843.731201 7336.000000
2844.520020 7886.000000
2845.308838 7766.000000
2846.096680 7497.000000
2846.884033 7197.000000
2847.671631 7517.000000
2848.458740 7360.000000
2849.245117 6700.000000
2850.031494 7491.000000
2850.817627 7191.000000
2851.603271 7531.000000
2852.387939 7152.000000
2853.173096 6929.000000
2853.958008 7467.000000
2854.742188 7090.000000
2855.526367 6903.000000
2856.309326 8273.000000
2857.092529 6810.000000
2857.875488 6751.000000
2858.657959 7784.000000
2859.440186 6279.000000
2860.221924 6591.000000
2861.003418 7536.000000
2861.785156 7446.000000
2862.566162 7688.000000
2863.346436 6583.000000
2864.126465 6763.000000
2864.906494 8133.000000
2865.686279 7441.000000
2866.465088 8101.000000
2867.244141 7683.000000
2868.022705 6842.000000
2868.801025 7034.000000
2869.578857 7175.000000
2870.356445 6978.000000
2871.133789 7478.000000
2871.910889 7048.000000
2872.687500 6444.000000
2873.463623 7490.000000
2874.239746 7181.000000
2875.015381 8280.000000
2875.790771 7192.000000
2876.565674 6652.000000
2877.340332 7972.000000
2878.114990 6583.000000
2878.889404 7940.000000
2879.663086 6760.000000
2880.436035 7180.000000
2881.209717 6789.000000
2881.982422 7615.000000
2882.755127 7860.000000
2883.527100 8265.000000
2884.298828 6213.000000
2885.071045 6778.000000
2885.842041 6867.000000
2886.612549 6173.000000
2887.383545 8251.000000
2888.154541 7374.000000
2888.924805 8013.000000
2889.694092 7662.000000
2890.463623 6975.000000
2891.233154 7278.000000
2892.002197 7369.000000
2892.770752 7898.000000
2893.539307 7640.000000
2894.306885 6954.000000
2895.074951 6593.000000
2895.842529 7427.000000
2896.610107 8413.000000
2897.376465 7405.000000
2898.143799 6536.000000
2898.909912 7174.000000
2899.676270 6966.000000
2900.441162 8322.000000
2901.206543 6990.000000
2901.972412 6473.000000
2902.736816 7704.000000
2903.501221 7736.000000
2904.265869 8460.000000
2905.029541 6640.000000
2905.793945 8466.000000
2906.557617 6672.000000
2907.320557 8441.000000
2908.083252 6556.000000
2908.846436 8941.000000
2909.609131 6997.000000
2910.370605 6837.000000
2911.132568 6837.000000
