scanname Analyse088
timestamp 2017-02-10 22:11:20
ccdbias 953.800293
ccdgain 3.473401
sigmaread 8.960639
laserwavenum -0.455268
wavenumcorrection 0.067696
scancount 1
totalexposurems 10000
singleexposurems 10000
measurementstate Unknown
scanmode Manual
snr 315.652679 10.421854 8.870814
replacelist 4
672 53392.000000 30627.000000
754 53316.000000 19112.000000
889 52330.000000 21302.000000
948 51740.000000 19469.000000
peaks 78
278.289520 0.720650 0.000000 1.378810 0.000180
287.886292 0.720879 0.000000 0.753365 0.000043
332.195343 0.743179 0.000000 0.826416 0.000141
342.598450 0.744433 0.000000 0.739554 0.000034
349.576324 0.747708 0.000000 0.669734 0.000025
386.097412 0.752139 0.000000 1.480551 0.000314
457.777466 0.765850 0.000000 0.332129 0.000045
484.413055 0.780547 0.000000 0.861156 0.000110
534.869385 0.784828 0.000000 0.761217 0.000160
559.702698 0.824156 0.000000 1.269665 0.000226
572.843506 0.829950 0.000000 0.228715 0.000069
582.222717 0.824504 0.000000 0.579768 0.000099
661.783142 0.861313 0.000000 1.850692 0.000489
673.146362 0.854725 0.000000 1.390588 0.000270
715.664856 0.875239 0.000000 5.587818 0.001175
724.382324 0.856864 0.000000 1.296030 0.000055
742.725708 0.882018 0.000000 1.108051 0.000120
757.042969 0.906372 0.000000 5.909361 0.000679
777.211853 0.913738 0.000000 10.884872 0.002288
825.768188 0.916250 0.000000 1.058217 0.000053
832.896484 0.911517 0.000000 1.087460 0.000181
854.794617 0.941234 0.000000 0.977685 0.000267
868.463867 0.935600 0.000000 0.743088 0.000154
937.659180 1.012898 0.000000 0.694468 0.000402
954.206360 0.991250 0.000000 3.422296 0.001051
1013.538025 1.035728 0.000000 1.970258 0.000767
1020.086304 1.037993 0.000000 1.033562 0.000158
1026.794556 1.049135 0.000000 0.616855 0.000259
1044.124023 1.045336 0.000000 4.009459 0.001325
1104.583130 1.067636 0.000000 2.025546 0.000577
1117.578613 1.108476 0.000000 2.270974 0.000656
1134.434204 1.085843 0.000000 2.029978 0.000891
1150.145020 1.069444 0.000000 2.491046 0.001011
1174.236206 1.101451 0.000000 1.501032 0.000506
1187.139038 1.107321 0.000000 0.886727 0.000073
1210.924561 1.183144 0.000000 0.859977 0.000262
1222.404419 1.195335 0.000000 1.480975 0.000562
1232.189575 1.177339 0.000000 1.152644 0.000322
1259.854248 1.216006 0.000000 2.877475 0.001371
1277.833496 1.151785 0.000000 0.275331 0.000439
1312.693481 1.223681 0.000000 1.710192 0.000679
1328.668823 1.272781 0.000000 2.360371 0.001327
1344.554077 1.297602 0.000000 0.618559 0.000663
1389.547119 1.279294 0.000000 0.741094 0.000297
1414.451172 1.360915 0.000000 2.840186 0.001729
1434.124878 1.416479 0.000000 1.509931 0.000783
1446.655762 1.409697 0.000000 1.369419 0.000510
1459.929321 1.408613 0.000000 2.306759 0.001581
1489.832397 1.483735 0.000000 4.035308 0.002533
1517.875732 1.426972 0.000000 0.177563 0.000141
1533.464722 1.513398 0.000000 1.007922 0.000690
1557.936523 1.562461 0.000000 1.529117 0.000958
1578.022461 1.553984 0.000000 1.642328 0.001528
1598.198975 1.544125 0.000000 0.256472 0.000267
1617.123535 1.594713 0.000000 12.885666 0.008402
1635.224243 1.605154 0.000000 5.374547 0.001473
1669.777832 1.713180 0.000000 1.568623 0.001768
1687.551514 1.736310 0.000000 0.860893 0.000558
1699.154663 1.751789 0.000000 1.196277 0.001593
1711.599365 1.727421 0.000000 1.028931 0.000941
1761.271729 1.765385 0.000000 0.845172 0.000608
1778.720215 1.872700 0.000000 5.318931 0.005266
1795.592896 1.866749 0.000000 0.814018 0.000652
1809.468140 1.865923 0.000000 1.585102 0.001498
1846.351685 1.815528 0.000000 0.810422 0.000202
1855.114014 1.822367 0.000000 2.078890 0.001909
1870.977783 1.820447 0.000000 1.039728 0.000833
1889.591187 1.825611 0.000000 1.490733 0.001623
1901.945557 1.824015 0.000000 1.816207 0.001890
1912.113647 1.792566 0.000000 0.620062 0.000654
1942.498291 1.758897 0.000000 0.339340 0.000515
1974.273560 1.727967 0.000000 0.480127 0.000438
1995.169922 1.709468 0.000000 0.963912 0.000493
2011.277344 1.686742 0.000000 0.202892 0.000337
2027.287109 1.685293 0.000000 0.576349 0.000519
2046.186157 1.654643 0.000000 0.659767 0.001986
2064.817139 1.628021 0.000000 0.396114 0.001738
2108.368896 1.575360 0.000000 0.364647 0.000694
finalresult GLS_NoMatch 0
spectrum 2048
-97.146187 47266.000000
-94.519318 47266.000000
-91.894325 47432.000000
-89.271225 47094.000000
-86.649994 47749.000000
-84.030663 47247.000000
-81.413193 47481.000000
-78.797600 47108.000000
-76.183884 47348.000000
-73.572044 47690.000000
-70.962067 47381.000000
-68.353973 47539.000000
-65.747726 47508.000000
-63.143356 47444.000000
-60.540848 47337.000000
-57.940193 47897.000000
-55.341400 47270.000000
-52.744465 46573.000000
-50.149384 46952.000000
-47.556156 46994.000000
-44.964779 47302.000000
-42.375248 46763.000000
-39.787560 47622.000000
-37.201721 47515.000000
-34.617725 47061.000000
-32.035568 47865.000000
-29.455254 47207.000000
-26.876768 47721.000000
-24.300125 47471.000000
-21.725307 47206.000000
-19.152330 47050.000000
-16.581173 47086.000000
-14.011849 46722.000000
-11.444351 45794.000000
-8.878672 47216.000000
-6.314818 47023.000000
-3.752778 47521.000000
-1.192562 47720.000000
1.365846 47379.000000
3.922433 46592.000000
6.477215 46839.000000
9.030181 47529.000000
11.581346 46793.000000
14.130697 47087.000000
16.678253 46835.000000
19.223997 47551.000000
21.767948 47778.000000
24.310095 46883.000000
26.850445 46638.000000
29.389009 46661.000000
31.925777 47302.000000
34.460743 47667.000000
36.993931 46262.000000
39.525337 47161.000000
42.054951 46433.000000
44.582767 47008.000000
47.108826 45635.000000
49.633095 47859.000000
52.155594 47322.000000
54.676296 46729.000000
57.195244 47240.000000
59.712418 47073.000000
62.227814 46899.000000
64.741432 47935.000000
67.253296 47857.000000
69.763412 47048.000000
72.271736 46970.000000
74.778305 47550.000000
77.283127 47183.000000
79.786194 47097.000000
82.287483 47315.000000
84.787033 47403.000000
87.284828 47176.000000
89.780891 47711.000000
92.275177 46326.000000
94.767723 47754.000000
97.258553 46638.000000
99.747612 46408.000000
102.234924 47233.000000
104.720512 47361.000000
107.204361 47172.000000
109.686462 47740.000000
112.166840 46940.000000
114.645493 47326.000000
117.122421 47055.000000
119.597595 46300.000000
122.071060 46713.000000
124.542793 47628.000000
127.012817 46785.000000
129.481079 47254.000000
131.947678 47276.000000
134.412521 47915.000000
136.875671 47312.000000
139.337082 46315.000000
141.796799 46620.000000
144.254791 47103.000000
146.711090 47442.000000
149.165680 47704.000000
151.618546 46662.000000
154.069733 47136.000000
156.519226 46954.000000
158.966995 47416.000000
161.413055 46888.000000
163.857437 44797.000000
166.300140 47033.000000
168.741150 46728.000000
171.180450 47235.000000
173.618042 46231.000000
176.054001 46854.000000
178.488220 46586.000000
180.920761 46341.000000
183.351654 46801.000000
185.780823 46682.000000
188.208344 46724.000000
190.634186 47109.000000
193.058350 46786.000000
195.480850 46343.000000
197.901657 46113.000000
200.320801 46995.000000
202.738281 47457.000000
205.154068 45836.000000
207.568207 46375.000000
209.980713 47137.000000
212.391541 47410.000000
214.800690 47193.000000
217.208206 46133.000000
219.614014 47314.000000
222.018234 46877.000000
224.420746 46792.000000
226.821640 46535.000000
229.220886 47065.000000
231.618469 46595.000000
234.014389 46246.000000
236.408691 46885.000000
238.801331 47715.000000
241.192352 46689.000000
243.581711 46990.000000
245.969452 47087.000000
248.355545 46589.000000
250.740005 47389.000000
253.122818 45603.000000
255.504059 46784.000000
257.883606 46906.000000
260.261566 47046.000000
262.637848 45951.000000
265.012573 45894.000000
267.385651 45683.000000
269.757080 47288.000000
272.126862 46968.000000
274.495087 47634.000000
276.861664 47191.000000
279.226654 46738.000000
281.590027 47431.000000
283.951752 47223.000000
286.311890 46381.000000
288.670410 47502.000000
291.027344 46936.000000
293.382660 47001.000000
295.736389 47471.000000
298.088470 47503.000000
300.438995 47132.000000
302.787933 47079.000000
305.135223 46642.000000
307.480988 47081.000000
309.825073 46978.000000
312.167633 46099.000000
314.508575 45915.000000
316.847900 46296.000000
319.185669 46471.000000
321.521881 45396.000000
323.856445 47154.000000
326.189453 46978.000000
328.520905 47440.000000
330.850769 46838.000000
333.179047 47092.000000
335.505707 46277.000000
337.830872 47056.000000
340.154419 47301.000000
342.476410 47468.000000
344.796844 46015.000000
347.115662 45671.000000
349.432922 47480.000000
351.748657 47590.000000
354.062805 46452.000000
356.375366 47085.000000
358.686371 47182.000000
360.995850 46395.000000
363.303802 47121.000000
365.610138 47839.000000
367.914886 47133.000000
370.218170 47068.000000
372.519836 47274.000000
374.820007 47159.000000
377.118622 47185.000000
379.415680 47758.000000
381.711182 47395.000000
384.005157 47653.000000
386.297546 48322.000000
388.588440 47931.000000
390.877808 47291.000000
393.165588 47219.000000
395.451843 46989.000000
397.736603 46580.000000
400.019745 47437.000000
402.301453 47030.000000
404.581635 47341.000000
406.860229 46283.000000
409.137299 47020.000000
411.412842 46849.000000
413.686859 47028.000000
415.959442 47126.000000
418.230408 47210.000000
420.499878 47007.000000
422.767853 46381.000000
425.034271 46283.000000
427.299194 47257.000000
429.562653 47145.000000
431.824524 46966.000000
434.084930 47422.000000
436.343781 46829.000000
438.601166 47287.000000
440.857056 47817.000000
443.111450 47639.000000
445.364319 48068.000000
447.615631 46686.000000
449.865540 47402.000000
452.113861 47201.000000
454.360748 47898.000000
456.606171 46937.000000
458.850037 47003.000000
461.092407 46681.000000
463.333282 47782.000000
465.572754 46763.000000
467.810638 48018.000000
470.047089 47714.000000
472.282013 47381.000000
474.515472 46144.000000
476.747498 46791.000000
478.977997 47820.000000
481.207001 47097.000000
483.434540 47222.000000
485.660583 47569.000000
487.885193 46889.000000
490.108337 47576.000000
492.330017 47058.000000
494.550140 46744.000000
496.768860 47875.000000
498.986084 47227.000000
501.201935 47880.000000
503.416168 47381.000000
505.629089 46991.000000
507.840424 47087.000000
510.050323 46609.000000
512.258789 47008.000000
514.465881 46938.000000
516.671387 47098.000000
518.875488 46958.000000
521.078064 47303.000000
523.279236 46884.000000
525.479065 46772.000000
527.677368 46564.000000
529.874146 48204.000000
532.069580 47671.000000
534.263489 47968.000000
536.456055 46039.000000
538.647095 46809.000000
540.836731 47531.000000
543.024963 46554.000000
545.211670 46327.000000
547.396912 46679.000000
549.580872 47258.000000
551.763245 47090.000000
553.944275 47284.000000
556.123779 47454.000000
558.302002 47561.000000
560.478699 47479.000000
562.653992 47145.000000
564.827881 47072.000000
567.000305 47617.000000
569.171326 47417.000000
571.340881 47210.000000
573.509155 48149.000000
575.675903 47048.000000
577.841187 47198.000000
580.005066 47373.000000
582.167664 47756.000000
584.328735 47446.000000
586.488403 47800.000000
588.646729 47648.000000
590.803528 47345.000000
592.958984 46871.000000
595.113037 47709.000000
597.265747 47303.000000
599.416931 46208.000000
601.566772 46630.000000
603.715271 46831.000000
605.862183 47454.000000
608.007874 46938.000000
610.152161 46965.000000
612.294983 46417.000000
614.436340 47345.000000
616.576477 47032.000000
618.715088 45889.000000
620.852417 47750.000000
622.988281 46885.000000
625.122742 46685.000000
627.255737 46353.000000
629.387573 46851.000000
631.517944 46805.000000
633.646912 46702.000000
635.774414 47051.000000
637.900635 47367.000000
640.025330 46246.000000
642.148804 47089.000000
644.270935 46732.000000
646.391602 46577.000000
648.510925 46894.000000
650.628845 47781.000000
652.745422 47729.000000
654.860596 47040.000000
656.974426 47014.000000
659.086792 47573.000000
661.197937 47346.000000
663.307678 48043.000000
665.415955 46788.000000
667.523071 47185.000000
669.628723 46583.000000
671.732910 47849.000000
673.835876 47661.000000
675.937439 46480.000000
678.037659 48126.000000
680.136475 46758.000000
682.233948 47161.000000
684.330139 46501.000000
686.424866 47280.000000
688.518372 46472.000000
690.610535 46748.000000
692.701172 45510.000000
694.790588 46799.000000
696.878723 46972.000000
698.965393 47367.000000
701.050842 46811.000000
703.134766 48273.000000
705.217468 47506.000000
707.298889 47517.000000
709.378845 45859.000000
711.457581 47231.000000
713.534851 47885.000000
715.610840 46904.000000
717.685547 47431.000000
719.758972 46370.000000
721.830872 47223.000000
723.901611 46062.000000
725.971008 47577.000000
728.039001 46949.000000
730.105652 47084.000000
732.171082 46421.000000
734.235168 47620.000000
736.297913 47247.000000
738.359314 47117.000000
740.419434 46860.000000
742.478149 47369.000000
744.535645 46787.000000
746.591858 47033.000000
748.646667 46749.000000
750.700195 47124.000000
752.752319 45942.000000
754.803223 47646.000000
756.852905 46846.000000
758.901123 47079.000000
760.948120 47275.000000
762.993835 46413.000000
765.038147 48076.000000
767.081177 47675.000000
769.122986 38586.000000
771.163452 46502.000000
773.202515 47030.000000
775.240417 47404.000000
777.276978 47483.000000
779.312317 48109.000000
781.346313 47720.000000
783.378906 46596.000000
785.410339 47885.000000
787.440369 41265.000000
789.469116 47439.000000
791.496704 47159.000000
793.522949 47108.000000
795.547791 47542.000000
797.571533 47922.000000
799.593872 47037.000000
801.614990 47574.000000
803.634766 46828.000000
805.653259 48617.000000
807.670532 46800.000000
809.686401 46595.000000
811.701111 47760.000000
813.714478 47063.000000
815.726624 47157.000000
817.737549 47329.000000
819.747131 46953.000000
821.755493 48159.000000
823.762451 47841.000000
825.768188 47385.000000
827.772705 47650.000000
829.775940 47834.000000
831.777893 47003.000000
833.778564 47398.000000
835.778015 47573.000000
837.776123 47100.000000
839.773132 46433.000000
841.768738 47246.000000
843.763184 47652.000000
845.756287 47305.000000
847.748169 46648.000000
849.738708 47867.000000
851.727966 46677.000000
853.716187 47508.000000
855.703003 47674.000000
857.688599 47039.000000
859.672913 46243.000000
861.656128 47130.000000
863.637939 47028.000000
865.618530 47580.000000
867.597839 45737.000000
869.575989 46433.000000
871.552795 47201.000000
873.528320 47512.000000
875.502808 47188.000000
877.475830 47401.000000
879.447815 48014.000000
881.418457 47003.000000
883.387939 47311.000000
885.356079 47821.000000
887.323059 48225.000000
889.288696 47308.000000
891.253174 47647.000000
893.216431 47479.000000
895.178467 46955.000000
897.139221 47639.000000
899.098755 47044.000000
901.057007 46686.000000
903.014160 47107.000000
904.970154 47382.000000
906.924744 46565.000000
908.878113 46964.000000
910.830322 47104.000000
912.781311 47041.000000
914.731018 46352.000000
916.679565 47131.000000
918.626892 47304.000000
920.572937 47327.000000
922.517700 47383.000000
924.461426 47168.000000
926.403992 47450.000000
928.345276 47831.000000
930.285217 46983.000000
932.224060 47657.000000
934.161621 47956.000000
936.097961 47512.000000
938.033142 47599.000000
939.967041 47377.000000
941.899841 47609.000000
943.831421 46684.000000
945.761841 48252.000000
947.691040 47037.000000
949.618896 46422.000000
951.545715 46793.000000
953.471252 47423.000000
955.395508 48099.000000
957.318665 47469.000000
959.240662 46777.000000
961.161377 46206.000000
963.080933 47043.000000
964.999329 48078.000000
966.916687 47042.000000
968.832581 47038.000000
970.747375 47321.000000
972.660950 47498.000000
974.573364 47100.000000
976.484558 47080.000000
978.394592 47957.000000
980.303345 47275.000000
982.211060 47360.000000
984.117554 47047.000000
986.022827 47676.000000
987.927002 46593.000000
989.829956 47214.000000
991.731689 46668.000000
993.632263 46883.000000
995.531677 46839.000000
997.429871 48170.000000
999.326904 46896.000000
1001.222717 46868.000000
1003.117371 45741.000000
1005.010925 47883.000000
1006.903198 46281.000000
1008.794556 47343.000000
1010.684570 48068.000000
1012.573364 46823.000000
1014.460999 47049.000000
1016.347473 46502.000000
1018.232788 46702.000000
1020.116943 47459.000000
1021.999878 47574.000000
1023.881775 47210.000000
1025.762329 48272.000000
1027.641846 47517.000000
1029.520386 47294.000000
1031.397583 48057.000000
1033.273438 47197.000000
1035.148315 47453.000000
1037.022217 46795.000000
1038.894653 46425.000000
1040.766113 46710.000000
1042.636230 47870.000000
1044.505371 47839.000000
1046.373291 47662.000000
1048.240112 46450.000000
1050.105835 46716.000000
1051.970337 47051.000000
1053.833740 46945.000000
1055.695801 46997.000000
1057.556885 47543.000000
1059.416870 46900.000000
1061.275513 46782.000000
1063.133057 47639.000000
1064.989502 46750.000000
1066.844849 47531.000000
1068.698975 47601.000000
1070.552246 47188.000000
1072.404053 47101.000000
1074.254883 47340.000000
1076.104492 47282.000000
1077.952881 47666.000000
1079.800415 45521.000000
1081.646606 47821.000000
1083.491577 47223.000000
1085.335693 47984.000000
1087.178467 47835.000000
1089.020020 46903.000000
1090.860840 47939.000000
1092.700073 47723.000000
1094.538574 47435.000000
1096.375732 47401.000000
1098.211670 46658.000000
1100.046631 46782.000000
1101.880371 48014.000000
1103.713135 47643.000000
1105.544556 47262.000000
1107.375122 46164.000000
1109.204346 47000.000000
1111.032593 46936.000000
1112.859619 46351.000000
1114.685669 47953.000000
1116.510498 47080.000000
1118.334229 46284.000000
1120.156738 47381.000000
1121.978149 47498.000000
1123.798706 47450.000000
1125.617798 46852.000000
1127.436035 46373.000000
1129.252930 46561.000000
1131.068970 46752.000000
1132.883789 46952.000000
1134.697510 47760.000000
1136.510132 47647.000000
1138.321533 47701.000000
1140.131958 47281.000000
1141.941284 46644.000000
1143.749268 46489.000000
1145.556519 47407.000000
1147.362305 47530.000000
1149.167236 48002.000000
1150.971069 48067.000000
1152.773682 47334.000000
1154.575439 47270.000000
1156.375732 47403.000000
1158.175049 47321.000000
1159.973389 47487.000000
1161.770386 47963.000000
1163.566650 47475.000000
1165.361572 47374.000000
1167.155396 47075.000000
1168.948364 45725.000000
1170.739990 47774.000000
1172.530640 46922.000000
1174.320313 47332.000000
1176.108521 47490.000000
1177.895874 45938.000000
1179.682129 46500.000000
1181.467285 47721.000000
1183.251343 47453.000000
1185.034302 45759.000000
1186.816284 47539.000000
1188.597046 47516.000000
1190.376831 47030.000000
1192.155518 46453.000000
1193.933228 46686.000000
1195.709717 46243.000000
1197.485107 46855.000000
1199.259399 46948.000000
1201.032593 46758.000000
1202.804932 46948.000000
1204.575928 46719.000000
1206.346069 47667.000000
1208.114990 47321.000000
1209.882813 47077.000000
1211.649780 47656.000000
1213.415405 47462.000000
1215.180054 46463.000000
1216.943604 46894.000000
1218.706055 47422.000000
1220.467651 46669.000000
1222.228027 47484.000000
1223.987305 47162.000000
1225.745728 47272.000000
1227.502930 46291.000000
1229.259033 46981.000000
1231.014038 47823.000000
1232.768188 47391.000000
1234.520996 47617.000000
1236.272827 47378.000000
1238.023804 47429.000000
1239.773438 48458.000000
1241.522217 46469.000000
1243.269653 46921.000000
1245.016357 46852.000000
1246.761841 46899.000000
1248.506470 47020.000000
1250.249756 46613.000000
1251.992065 46798.000000
1253.733276 48023.000000
1255.473633 48385.000000
1257.212891 47612.000000
1258.950928 46858.000000
1260.688110 46279.000000
1262.424072 47258.000000
1264.159058 46925.000000
1265.893066 46177.000000
1267.626099 47428.000000
1269.357910 47221.000000
1271.088745 46888.000000
1272.818359 46193.000000
1274.547119 47462.000000
1276.274780 47685.000000
1278.001343 47866.000000
1279.727051 47840.000000
1281.451416 46878.000000
1283.174927 48156.000000
1284.897461 46481.000000
1286.619019 46741.000000
1288.339355 47268.000000
1290.058716 46716.000000
1291.776978 46087.000000
1293.494263 46945.000000
1295.210571 47602.000000
1296.925659 46996.000000
1298.639771 47236.000000
1300.352905 47606.000000
1302.065186 46902.000000
1303.776245 45027.000000
1305.486328 48124.000000
1307.195313 47041.000000
1308.903076 46696.000000
1310.610229 46404.000000
1312.315918 47558.000000
1314.020874 46396.000000
1315.724854 47245.000000
1317.427612 47452.000000
1319.129395 46845.000000
1320.830322 47265.000000
1322.529907 44592.000000
1324.228638 46211.500000
1325.926636 47831.000000
1327.623291 46839.000000
1329.318848 46190.000000
1331.013550 46599.000000
1332.707031 47621.000000
1334.399658 48055.000000
1336.091431 46114.000000
1337.781860 47025.000000
1339.471558 46791.000000
1341.160156 47314.000000
1342.847656 45827.000000
1344.534180 47719.000000
1346.219604 46689.000000
1347.904053 47415.000000
1349.587646 46100.000000
1351.270020 47023.000000
1352.951416 47503.000000
1354.631958 46862.000000
1356.311279 46679.000000
1357.989990 47480.000000
1359.667358 46766.000000
1361.343628 47558.000000
1363.018921 47831.000000
1364.693481 46714.000000
1366.366821 46931.000000
1368.039185 46580.000000
1369.710571 48205.000000
1371.380981 46567.000000
1373.050293 47219.000000
1374.718628 47686.000000
1376.386108 47368.000000
1378.052490 47053.000000
1379.717896 47201.000000
1381.382324 47515.000000
1383.045532 47415.000000
1384.708130 47660.000000
1386.369385 46974.000000
1388.029785 46786.000000
1389.689087 46869.000000
1391.347412 46870.000000
1393.005005 46469.000000
1394.661377 46912.000000
1396.316895 46268.000000
1397.971191 46946.000000
1399.624634 47480.000000
1401.276978 47158.000000
1402.928589 46856.000000
1404.578979 46067.000000
1406.228271 47104.000000
1407.876831 45875.000000
1409.524292 45395.000000
1411.170776 47139.000000
1412.816406 47090.000000
1414.461060 47276.000000
1416.104492 46235.000000
1417.747070 46138.000000
1419.388550 46385.000000
1421.029175 46868.000000
1422.668823 46899.000000
1424.307373 47282.000000
1425.945068 46692.000000
1427.581665 46967.000000
1429.217285 47300.000000
1430.852173 46897.000000
1432.485962 47377.000000
1434.118652 47141.000000
1435.750366 47683.000000
1437.381226 47125.000000
1439.010986 47263.000000
1440.639648 45543.000000
1442.267700 47401.000000
1443.894653 47011.000000
1445.520386 47074.000000
1447.145508 47075.000000
1448.769531 46770.000000
1450.392578 47255.000000
1452.014648 47262.000000
1453.635620 45904.000000
1455.255615 46927.000000
1456.874878 46367.000000
1458.492798 47614.000000
1460.110107 47683.500000
1461.726440 47753.000000
1463.341553 46035.000000
1464.955811 47002.000000
1466.569214 48065.000000
1468.181519 47664.000000
1469.792969 46966.000000
1471.403564 46930.000000
1473.012939 47285.000000
1474.621338 47289.000000
1476.228882 47079.000000
1477.835449 46496.000000
1479.441284 47956.000000
1481.045898 47002.000000
1482.649658 47697.000000
1484.252197 46501.000000
1485.854126 47624.000000
1487.454834 47692.000000
1489.054810 47485.000000
1490.653687 47043.000000
1492.251709 46750.000000
1493.848633 46565.000000
1495.444702 46844.000000
1497.039795 47189.000000
1498.633911 47709.000000
1500.227295 46620.000000
1501.819580 47670.000000
1503.410645 47040.000000
1505.001221 46430.000000
1506.590454 46753.000000
1508.179077 47012.000000
1509.766602 46612.000000
1511.353027 46289.000000
1512.938721 46975.000000
1514.523315 46463.000000
1516.107056 46908.000000
1517.689697 46931.000000
1519.271606 46585.000000
1520.852417 46454.000000
1522.432495 47074.000000
1524.011353 46900.000000
1525.589355 46742.000000
1527.166626 46866.000000
1528.742676 47437.000000
1530.317993 47121.000000
1531.892212 46724.000000
1533.465698 47596.000000
1535.037964 47153.000000
1536.609497 46703.000000
1538.180054 46637.000000
1539.749756 46827.000000
1541.318237 47607.000000
1542.885986 46459.000000
1544.452881 47441.000000
1546.018555 46266.000000
1547.583496 47069.000000
1549.147339 47987.000000
1550.710571 45595.000000
1552.272461 46822.000000
1553.833740 47104.000000
1555.393921 47357.000000
1556.953369 47237.000000
1558.511719 47113.000000
1560.069336 46739.000000
1561.625854 45911.000000
1563.181152 47101.000000
1564.735840 46685.000000
1566.289795 47387.000000
1567.842773 46734.000000
1569.394409 47370.000000
1570.945313 47161.000000
1572.495483 46834.000000
1574.044678 46625.000000
1575.592529 47156.000000
1577.139893 47489.000000
1578.686279 47302.000000
1580.231812 47921.000000
1581.776367 46258.000000
1583.319702 46643.000000
1584.862427 46427.000000
1586.404297 46587.000000
1587.945068 46310.000000
1589.484863 47192.000000
1591.023926 46337.000000
1592.561890 47058.000000
1594.099365 46893.000000
1595.635498 47152.000000
1597.170532 46245.000000
1598.705078 46694.000000
1600.238647 46971.000000
1601.771362 46942.000000
1603.302490 46619.000000
1604.833374 46686.000000
1606.363403 47156.000000
1607.892212 46811.000000
1609.419922 46753.000000
1610.947021 46866.000000
1612.473389 47028.000000
1613.998779 46663.000000
1615.523315 47029.000000
1617.046509 47186.000000
1618.568970 47200.000000
1620.090698 46295.000000
1621.611572 45911.000000
1623.130981 37301.000000
1624.649902 46680.000000
1626.168091 46715.000000
1627.685425 46861.000000
1629.201660 46389.000000
1630.716553 45663.000000
1632.230957 45928.000000
1633.744629 46953.000000
1635.257202 45834.000000
1636.768555 46786.000000
1638.279541 46270.000000
1639.789429 46328.000000
1641.298462 46457.000000
1642.806152 47044.000000
1644.313477 46528.000000
1645.819946 45468.000000
1647.325439 46367.000000
1648.830078 45766.000000
1650.333252 46396.000000
1651.835815 45980.000000
1653.338013 46227.000000
1654.838867 45926.000000
1656.338623 44996.000000
1657.837524 46544.000000
1659.336060 45923.000000
1660.833374 46167.000000
1662.329956 46524.000000
1663.824951 45976.000000
1665.319702 46008.000000
1666.813599 47161.000000
1668.306519 46723.000000
1669.798096 46297.500000
1671.289185 45872.000000
1672.779663 46165.000000
1674.269043 46262.000000
1675.756958 45286.000000
1677.244629 45367.000000
1678.731323 46181.000000
1680.217163 46818.000000
1681.702148 46057.000000
1683.185669 45995.000000
1684.668945 45887.000000
1686.151367 46271.000000
1687.632690 45935.000000
1689.112549 45959.000000
1690.592163 46694.000000
1692.071045 45487.000000
1693.548950 46137.000000
1695.025879 45978.000000
1696.501587 46346.000000
1697.976929 46116.000000
1699.451050 45850.000000
1700.924561 46658.000000
1702.396606 46504.000000
1703.868408 45265.000000
1705.339233 45763.000000
1706.809204 45044.000000
1708.277832 46973.000000
1709.745972 46296.000000
1711.213379 45794.000000
1712.679688 46623.000000
1714.145386 46313.000000
1715.609375 45867.000000
1717.073242 46067.000000
1718.536255 45144.000000
1719.998291 45766.000000
1721.459106 45474.000000
1722.919312 46579.000000
1724.378784 46355.000000
1725.837402 45939.000000
1727.295044 46095.000000
1728.751343 45744.000000
1730.207397 45906.000000
1731.662476 45591.000000
1733.116577 45978.000000
1734.569458 45074.000000
1736.022095 46019.000000
1737.473633 45020.000000
1738.924438 45998.000000
1740.374268 45312.000000
1741.822754 45863.000000
1743.270874 44522.000000
1744.718140 45359.000000
1746.164673 45185.000000
1747.609619 45036.000000
1749.054321 45638.000000
1750.498169 45824.000000
1751.941162 46263.000000
1753.382690 45175.000000
1754.823975 45368.000000
1756.264404 45343.500000
1757.703857 45319.000000
1759.142334 46187.000000
1760.579834 45390.000000
1762.016846 43956.000000
1763.452881 45486.000000
1764.888062 44258.000000
1766.321777 45054.000000
1767.755371 44791.000000
1769.187988 44560.000000
1770.619751 45392.000000
1772.050659 45340.000000
1773.480347 44684.000000
1774.909302 44818.000000
1776.337769 44652.000000
1777.765259 44251.000000
1779.191406 44632.000000
1780.617310 45257.000000
1782.042114 43940.000000
1783.466309 45320.000000
1784.889038 44189.000000
1786.311279 44228.000000
1787.732788 43863.000000
1789.153564 44836.000000
1790.573364 44524.000000
1791.991821 44566.000000
1793.409790 43801.000000
1794.827148 45105.000000
1796.243652 44588.000000
1797.658691 43993.000000
1799.073364 44669.000000
1800.487427 43938.000000
1801.900269 44515.000000
1803.312500 43516.000000
1804.723389 43330.000000
1806.133789 42693.000000
1807.543457 43896.000000
1808.952148 44422.000000
1810.359741 44859.000000
1811.766846 43796.000000
1813.173096 43899.000000
1814.578369 43571.000000
1815.982544 44325.000000
1817.386353 44285.000000
1818.789185 43923.000000
1820.191162 44086.000000
1821.592529 44175.000000
1822.992432 43686.000000
1824.391724 43486.000000
1825.790527 43301.000000
1827.188477 42428.000000
1828.585083 43987.000000
1829.981079 42912.000000
1831.376343 43676.000000
1832.770996 41378.000000
1834.164673 43501.000000
1835.557007 42558.000000
1836.948853 42953.000000
1838.340088 43359.000000
1839.730347 42060.000000
1841.119385 43098.000000
1842.508057 42905.000000
1843.895752 42926.000000
1845.282715 43087.000000
1846.668335 41893.000000
1848.053711 42791.000000
1849.438232 42202.000000
1850.822021 42180.000000
1852.204712 41862.000000
1853.586182 42707.000000
1854.967163 41386.000000
1856.347656 41473.000000
1857.727173 41875.000000
1859.105225 41504.000000
1860.483154 41162.000000
1861.860107 39351.000000
1863.236328 40945.000000
1864.611694 40718.000000
1865.985596 41035.000000
1867.359375 40843.000000
1868.732300 40225.000000
1870.104126 40411.000000
1871.474976 39412.000000
1872.845459 40682.000000
1874.214844 40075.000000
1875.583740 39910.000000
1876.951050 38819.000000
1878.318237 39795.000000
1879.684448 39785.000000
1881.049927 39002.000000
1882.414673 38228.000000
1883.777832 38825.000000
1885.140869 38574.000000
1886.503052 39078.000000
1887.864380 38816.000000
1889.224365 39600.000000
1890.583984 39359.000000
1891.942993 39049.000000
1893.301025 38520.000000
1894.658203 37875.000000
1896.014160 39096.000000
1897.369873 37413.000000
1898.724609 39151.000000
1900.078491 39405.000000
1901.431274 39038.000000
1902.783569 38944.000000
1904.135132 39014.000000
1905.485840 38066.000000
1906.835327 38326.000000
1908.184326 38157.000000
1909.532471 38960.000000
1910.880005 38571.000000
1912.226807 38344.000000
1913.572021 37927.000000
1914.916992 38545.000000
1916.261230 39148.000000
1917.604614 38046.000000
1918.946655 38555.000000
1920.288452 37758.000000
1921.629395 37514.000000
1922.969604 38213.000000
1924.308838 37915.000000
1925.647095 37893.000000
1926.984741 37701.000000
1928.321655 37100.000000
1929.657715 37259.000000
1930.992554 38294.000000
1932.327026 37103.000000
1933.660767 36442.000000
1934.993652 37276.000000
1936.325073 37653.000000
1937.656616 37008.000000
1938.986816 36710.000000
1940.316528 37409.000000
1941.645386 37069.000000
1942.973022 37218.000000
1944.300171 37980.000000
1945.626587 37159.000000
1946.952271 36399.000000
1948.276611 36987.000000
1949.600708 36117.000000
1950.923950 36325.000000
1952.246460 36122.000000
1953.567871 36645.000000
1954.888306 34857.000000
1956.208130 36141.000000
1957.527588 36366.000000
1958.846069 34940.000000
1960.163208 35822.000000
1961.479980 35754.000000
1962.796021 34971.000000
1964.111328 34904.000000
1965.425171 35077.000000
1966.738770 35529.000000
1968.051636 34880.000000
1969.363647 35110.000000
1970.675049 34881.000000
1971.985107 34394.000000
1973.294678 34673.000000
1974.603516 34272.000000
1975.911743 33796.000000
1977.218628 34195.000000
1978.524902 33095.000000
1979.830811 34551.000000
1981.135498 33728.000000
1982.439697 34012.000000
1983.742676 34138.000000
1985.045288 32326.000000
1986.346924 33451.000000
1987.647949 32423.000000
1988.947388 32877.000000
1990.246948 32129.000000
1991.545410 33279.000000
1992.843384 32321.000000
1994.139771 32271.000000
1995.436157 32402.000000
1996.731567 32437.000000
1998.026245 31578.000000
1999.320068 32333.000000
2000.612671 31451.000000
2001.904785 32324.000000
2003.196411 30854.000000
2004.487305 31415.000000
2005.776611 31499.000000
2007.065674 30862.000000
2008.354004 31535.000000
2009.641602 31448.000000
2010.928345 30755.000000
2012.213989 31562.000000
2013.499268 30952.000000
2014.783569 31145.000000
2016.067261 31496.000000
2017.349609 31090.000000
2018.631592 30780.000000
2019.913086 30437.000000
2021.193604 31189.000000
2022.473389 30999.000000
2023.752075 30292.000000
2025.030029 31228.000000
2026.307495 31206.000000
2027.584351 30914.000000
2028.859497 31533.000000
2030.134766 30788.000000
2031.409058 31327.000000
2032.682373 31364.000000
2033.954834 31328.000000
2035.226929 31183.000000
2036.497925 30421.000000
2037.768677 30623.000000
2039.038086 31051.000000
2040.306396 30316.000000
2041.574707 30287.000000
2042.842041 30670.000000
2044.108643 30490.000000
2045.374023 30683.000000
2046.638794 30829.000000
2047.903320 30818.000000
2049.166748 30323.000000
2050.429688 29931.000000
2051.690674 29921.000000
2052.952148 29766.000000
2054.212402 29932.000000
2055.471924 29407.000000
2056.730713 29558.000000
2057.988525 28850.000000
2059.245850 29425.000000
2060.502441 29475.000000
2061.757568 28842.000000
2063.012695 29624.000000
2064.266846 29605.000000
2065.520264 29482.000000
2066.772949 28333.000000
2068.024414 28888.000000
2069.275635 28693.000000
2070.526123 29258.000000
2071.775879 29480.000000
2073.024170 28458.000000
2074.272461 28456.000000
2075.519775 27386.000000
2076.766357 28969.000000
2078.012207 28367.000000
2079.256836 27556.000000
2080.500977 26824.000000
2081.744629 28624.000000
2082.987305 27981.000000
2084.228760 27122.000000
2085.469971 27976.000000
2086.710693 27620.000000
2087.950439 27220.000000
2089.188965 26718.000000
2090.427002 27295.000000
2091.664307 27529.000000
2092.901367 26708.000000
2094.136963 27129.000000
2095.371826 27016.000000
2096.606445 27006.000000
2097.840088 27518.000000
2099.072754 26984.000000
2100.304688 26269.000000
2101.536133 26552.000000
2102.766602 26012.000000
2103.996338 26443.000000
2105.225830 26440.000000
2106.453369 26114.000000
2107.681152 26092.000000
2108.908203 25763.000000
2110.134277 26454.000000
2111.358887 25840.000000
2112.583740 25443.000000
2113.807373 25487.000000
2115.030518 25986.000000
2116.252441 24979.000000
2117.474121 26101.000000
2118.694824 25394.000000
2119.914795 26027.000000
2121.134277 26016.000000
2122.352295 25739.000000
2123.570313 25281.000000
2124.787354 26103.000000
2126.003906 26235.000000
2127.218750 25653.000000
2128.433838 25755.000000
2129.647949 25243.000000
2130.861328 25802.000000
2132.073975 25397.000000
2133.285156 25809.000000
2134.496582 25459.000000
2135.706787 25069.000000
2136.916504 25535.000000
2138.124756 25385.000000
2139.333008 25682.000000
2140.540527 25533.000000
2141.746826 24109.000000
2142.952393 25209.000000
2144.157715 25170.000000
2145.362061 25357.000000
2146.565674 24850.000000
2147.768799 24947.000000
2148.970459 24583.000000
2150.171875 25197.000000
2151.372559 24537.000000
2152.572510 24612.000000
2153.771240 24894.000000
2154.969727 24334.000000
2156.167725 24551.000000
2157.364746 24037.000000
2158.561035 24037.000000
2159.756104 23924.000000
2160.950928 23517.000000
2162.145020 23598.000000
2163.338135 23465.000000
2164.530273 23026.000000
2165.722168 23341.000000
2166.913330 23142.000000
2168.103516 22855.000000
2169.292969 22871.000000
2170.481934 22423.000000
2171.669922 22454.000000
2172.857666 22276.000000
2174.043945 22137.000000
2175.229492 21883.000000
2176.414795 21970.000000
2177.599609 21868.000000
2178.783203 21976.000000
2179.966064 21745.000000
2181.147949 21691.000000
2182.329590 21836.000000
2183.510742 21765.000000
2184.690674 21865.000000
2185.869629 21807.000000
2187.048096 21546.000000
2188.226318 21468.000000
2189.403320 21543.000000
2190.579346 21561.000000
2191.755127 21722.000000
2192.930420 21788.000000
2194.104248 21595.000000
2195.277588 21649.000000
2196.450684 21742.000000
2197.622559 21844.000000
2198.793945 21528.000000
2199.964844 21819.000000
2201.134033 21670.000000
2202.303223 21528.000000
2203.471924 21544.000000
2204.639648 21705.000000
2205.806396 21694.000000
2206.972412 21364.000000
2208.137939 21445.000000
2209.303223 21405.000000
2210.467041 21043.000000
2211.630371 21477.000000
2212.792480 21156.000000
2213.954834 21254.000000
2215.115967 21158.000000
2216.276123 21046.000000
2217.435791 20918.000000
2218.595215 20953.000000
2219.753418 20729.000000
2220.910645 20748.000000
2222.067627 20735.000000
2223.223877 20684.000000
2224.379395 20535.000000
2225.534180 20383.000000
2226.687988 20444.000000
2227.840820 20349.000000
2228.994141 20064.000000
2230.145508 20150.000000
2231.296631 20053.000000
2232.447021 20024.000000
2233.596924 19789.000000
2234.745850 19837.000000
2235.894287 19920.000000
2237.041260 19622.000000
2238.188477 19488.000000
2239.334473 19517.000000
2240.480225 19377.000000
2241.624268 19000.000000
2242.768555 19079.000000
2243.911865 18991.000000
2245.054443 18886.000000
2246.196045 18745.000000
2247.337402 18804.000000
2248.477783 18493.000000
2249.617432 18355.000000
2250.756592 18385.000000
2251.894531 18383.000000
2253.032471 18224.000000
2254.169434 18350.000000
2255.305664 18069.000000
2256.440918 18193.000000
2257.575439 18118.000000
2258.709717 18061.000000
2259.843506 18732.000000
2260.975830 18666.000000
2262.107666 18314.000000
2263.239014 17801.000000
2264.369385 17638.000000
2265.499512 17400.000000
2266.628418 17397.000000
2267.756836 17199.000000
2268.884766 17381.000000
2270.011719 17369.000000
2271.137939 17392.000000
2272.263184 17326.000000
2273.388428 17405.000000
2274.512939 17309.000000
2275.636230 17534.000000
2276.758789 17364.000000
2277.880859 17412.000000
2279.002441 17253.000000
2280.123291 17167.000000
2281.242920 17252.000000
2282.362061 17211.000000
2283.480957 16816.000000
2284.599121 16539.000000
2285.716309 16825.000000
2286.832520 16659.000000
2287.948486 16767.000000
2289.063721 16713.000000
2290.178223 16751.000000
2291.291504 17162.000000
2292.404785 17007.000000
2293.517334 17027.000000
2294.629150 17039.000000
2295.740234 16950.000000
2296.850098 17152.000000
2297.959473 17074.000000
2299.068604 17190.000000
2300.176758 17206.000000
2301.283936 16963.000000
2302.390869 17029.000000
2303.497070 17016.000000
2304.602783 16759.000000
2305.707031 16771.000000
2306.811035 16809.000000
2307.914551 16682.000000
2309.017578 16545.000000
2310.119385 16598.000000
2311.220459 16306.000000
2312.321045 16490.000000
2313.421143 16347.000000
2314.520508 16361.000000
2315.618408 16277.000000
2316.716797 16208.000000
2317.813721 16092.000000
2318.910400 16095.000000
2320.006592 16041.000000
2321.101074 15861.000000
2322.195557 15692.000000
2323.289307 15765.000000
2324.382813 15455.000000
2325.474609 15518.000000
2326.566406 15581.000000
2327.657471 15663.000000
2328.747803 15501.000000
2329.837158 15690.000000
2330.926514 15347.000000
2332.014648 15550.000000
2333.102295 15419.000000
2334.189697 15410.000000
2335.275391 15264.000000
2336.360840 15086.000000
2337.446045 15192.000000
2338.530273 14838.000000
2339.613525 14920.000000
2340.696533 14735.000000
2341.778564 14825.000000
2342.860352 14657.000000
2343.941406 14445.000000
2345.021240 14327.000000
2346.100586 14374.000000
2347.179443 14418.000000
2348.257813 14510.000000
2349.334717 14210.000000
2350.411377 14193.000000
2351.487793 14193.000000
2352.563232 14112.000000
2353.637695 14108.000000
2354.711914 13912.000000
2355.785400 13913.000000
2356.858398 13922.000000
2357.930176 13753.000000
2359.001709 13779.000000
2360.072266 13635.000000
2361.142578 13627.000000
2362.211914 13501.000000
2363.280273 13545.000000
2364.348389 13551.000000
2365.415771 13481.000000
2366.482666 13489.000000
2367.548828 13462.000000
2368.613770 13346.000000
2369.678711 13374.000000
2370.742920 13189.000000
2371.806396 13135.000000
2372.868652 13224.000000
2373.930908 13189.000000
2374.992188 13197.000000
2376.053223 12926.000000
2377.113037 12978.000000
2378.172119 13112.000000
2379.231201 13082.000000
2380.289307 13026.000000
2381.346680 13116.000000
2382.403076 12925.000000
2383.459229 12796.000000
2384.514893 12823.000000
2385.569824 12812.000000
2386.623291 12891.000000
2387.677002 12458.000000
2388.729736 12803.000000
2389.781982 12774.000000
2390.833496 12919.000000
2391.884033 12958.000000
2392.934326 12719.000000
2393.983643 12851.000000
2395.032959 12904.000000
2396.080811 12783.000000
2397.128174 12556.000000
2398.175293 12689.000000
2399.221436 12665.000000
2400.266846 12539.000000
2401.311523 12498.000000
2402.356201 12469.000000
2403.399414 12459.000000
2404.442627 12390.000000
2405.484375 12525.000000
2406.526367 12595.000000
2407.567627 12422.000000
2408.607910 12350.000000
2409.647461 12579.000000
2410.686035 12409.000000
2411.724854 12530.000000
2412.762451 12336.000000
2413.799805 12229.000000
2414.835938 12257.000000
2415.871826 12398.000000
2416.906982 12284.000000
2417.941650 12267.000000
2418.974854 12377.000000
2420.008301 12285.000000
2421.040771 12241.000000
2422.072998 12316.000000
2423.103760 12111.000000
2424.134521 12006.000000
2425.164795 12083.000000
2426.193848 11866.000000
2427.222900 11888.000000
2428.250244 11846.000000
2429.278076 11627.000000
2430.304688 11618.000000
2431.331055 11671.000000
2432.355957 11552.000000
2433.381104 11464.000000
2434.405273 11427.000000
2435.429199 11431.000000
2436.451904 11263.000000
2437.473877 11337.000000
2438.495605 11279.000000
2439.516602 11162.000000
2440.537109 11174.000000
2441.556396 10937.000000
2442.575684 10866.000000
2443.593994 10891.000000
2444.612061 10776.000000
2445.628662 10841.000000
2446.645264 10706.000000
2447.661133 10668.000000
2448.677002 10622.000000
2449.691406 10712.000000
2450.705078 10657.000000
2451.718262 10560.000000
2452.731201 10584.000000
2453.743408 10599.000000
2454.754639 10505.000000
2455.765625 10494.000000
2456.775879 10492.000000
2457.785645 10405.000000
2458.794434 10310.000000
2459.802490 10183.000000
2460.810547 10168.000000
2461.817383 10107.000000
2462.823975 10082.000000
2463.829346 9937.000000
2464.834473 9989.000000
2465.839355 10132.000000
2466.843018 9942.000000
2467.846436 9925.000000
2468.848877 10013.000000
2469.851074 10002.000000
2470.852783 10052.000000
2471.853516 9915.000000
2472.853271 9942.000000
2473.853027 10030.000000
2474.851807 9777.000000
2475.850098 9847.000000
2476.847412 9794.000000
2477.844482 9799.000000
2478.841553 9744.000000
2479.837158 9829.000000
2480.832764 9757.000000
2481.826660 9788.000000
2482.820557 9714.000000
2483.813965 9853.000000
2484.806885 9947.000000
2485.798828 9798.000000
2486.790039 9676.000000
2487.781006 9865.000000
2488.771484 9643.000000
2489.760986 9739.000000
2490.749756 9815.000000
2491.738525 9811.000000
2492.726318 9874.000000
2493.712891 9690.000000
2494.699463 9495.000000
2495.685547 9614.000000
2496.670898 9601.000000
2497.655273 9565.000000
2498.639404 9548.000000
2499.623535 9714.000000
2500.606201 9612.000000
2501.588379 9462.000000
2502.570068 9491.000000
2503.551025 9500.000000
2504.531494 9545.000000
2505.511719 9468.000000
2506.490479 9440.000000
2507.468994 9445.000000
2508.447021 9359.000000
2509.424561 9265.000000
2510.401123 9343.000000
2511.377441 9505.000000
2512.353027 9278.000000
2513.328125 9270.000000
2514.302734 9246.000000
2515.276123 9195.000000
2516.249268 9119.000000
2517.222168 9112.000000
2518.194092 8937.000000
2519.165283 9080.000000
2520.135986 8958.000000
2521.106445 8826.000000
2522.076172 8769.000000
2523.044922 8782.000000
2524.012939 8824.000000
2524.980957 8695.000000
2525.947998 8620.000000
2526.914795 8767.000000
2527.880371 8593.000000
2528.845947 8575.000000
2529.810791 8601.000000
2530.775146 8535.000000
2531.738281 8590.000000
2532.701660 8430.000000
2533.664063 8470.000000
2534.626221 8477.000000
2535.587158 8391.000000
2536.547363 8488.000000
2537.507813 8361.000000
2538.467285 8521.000000
2539.426025 8497.000000
2540.383789 8450.000000
2541.341797 8253.000000
2542.299072 8166.000000
2543.255371 8154.000000
2544.211426 8191.000000
2545.166260 8068.000000
2546.121338 7911.000000
2547.075684 7965.000000
2548.029297 7704.000000
2548.981934 7798.000000
2549.934326 7895.000000
2550.886230 7747.000000
2551.837402 7985.000000
2552.787842 7820.000000
2553.737793 7800.000000
2554.687500 7634.000000
2555.636475 7730.000000
2556.584961 7606.000000
2557.532227 7680.000000
2558.479492 7623.000000
2559.426025 7479.000000
2560.372070 7616.000000
2561.317139 7632.000000
2562.261963 7584.000000
2563.206299 7487.000000
2564.150146 7450.000000
2565.093506 7467.000000
2566.035400 7399.000000
2566.977539 7368.000000
2567.918945 7394.000000
2568.859619 7311.000000
2569.799561 7397.000000
2570.739502 7385.000000
2571.678467 7359.000000
2572.617188 7217.000000
2573.554932 7346.000000
2574.492432 7370.000000
2575.429199 7226.000000
2576.365234 7350.000000
2577.300781 7330.000000
2578.235596 7352.000000
2579.170410 7472.000000
2580.104248 7292.000000
2581.037598 7276.000000
2581.970215 7335.000000
2582.902588 7317.000000
2583.834229 7312.000000
2584.765381 7273.000000
2585.696045 7143.000000
2586.625488 7271.000000
2587.554932 7149.000000
2588.483887 7228.000000
2589.412598 7142.000000
2590.339600 7091.000000
2591.266846 7110.000000
2592.193604 7043.000000
2593.119629 7332.000000
2594.045410 7113.000000
2594.969971 7090.000000
2595.894287 7171.000000
2596.818115 7127.000000
2597.741455 7052.000000
2598.663818 7135.000000
2599.585938 7105.000000
2600.507568 6982.000000
2601.428467 6981.000000
2602.348633 7081.000000
2603.268555 6934.000000
2604.187988 7047.000000
2605.107178 6972.000000
2606.025391 6933.000000
2606.942383 6807.000000
2607.859619 6835.000000
2608.776611 6770.000000
2609.692627 6692.000000
2610.607422 6626.000000
2611.522705 6622.000000
2612.437256 6590.000000
2613.350830 6497.000000
2614.264404 6584.000000
2615.176758 6479.000000
2616.089111 6519.000000
2617.000488 6523.000000
2617.911621 6363.000000
2618.822021 6276.000000
2619.732178 6586.000000
2620.641602 6431.000000
2621.550537 6467.000000
2622.458496 6477.000000
2623.366699 6393.000000
2624.273926 6288.000000
2625.180664 6338.000000
2626.086670 6237.000000
2626.992432 6329.000000
2627.897461 6138.000000
2628.802246 6172.000000
2629.706299 6092.000000
2630.609375 6253.000000
2631.512451 6046.000000
2632.414551 6148.000000
2633.316650 5999.000000
2634.218506 6100.000000
2635.118652 6102.000000
2636.019043 6064.000000
2636.918701 6016.000000
2637.818115 5945.000000
2638.716064 5953.000000
2639.614502 6033.000000
2640.512451 6000.000000
2641.409668 5829.000000
2642.305664 5869.000000
2643.201660 5925.000000
2644.097412 5882.000000
2644.992432 5728.000000
2645.887207 5698.000000
2646.780518 5754.000000
2647.673828 5650.000000
2648.566895 5721.000000
2649.459717 5709.000000
2650.350830 5628.000000
2651.242188 5681.000000
2652.133057 5463.000000
2653.023193 5527.000000
2653.913086 5511.000000
2654.801758 5505.000000
2655.690674 5638.000000
2656.579102 5523.000000
2657.466553 5575.000000
2658.353027 5498.000000
2659.239990 5521.000000
2660.126221 5564.000000
2661.011963 5555.000000
2661.896484 5478.000000
2662.781006 5512.000000
2663.665283 5562.000000
2664.548828 5601.000000
2665.431885 5517.000000
2666.314209 5524.000000
2667.196045 5465.000000
2668.077148 5461.000000
2668.958496 5590.000000
2669.838379 5513.000000
2670.718506 5464.000000
2671.597900 5625.000000
2672.477295 5535.000000
2673.355957 5469.000000
2674.232910 5322.000000
2675.110596 5364.000000
2675.987549 5250.000000
2676.863770 5307.000000
2677.739502 5362.000000
2678.614502 5389.000000
2679.489746 5296.000000
2680.364014 5252.000000
2681.237793 5166.000000
2682.110840 5232.000000
2682.983643 5161.000000
2683.856201 5264.000000
2684.728027 5172.000000
2685.599121 5187.000000
2686.469971 5181.000000
2687.340332 5263.000000
2688.210449 5039.000000
2689.078857 5100.000000
2689.947998 5070.000000
2690.816406 5055.000000
2691.684570 4993.000000
2692.552002 5074.000000
2693.418213 5028.000000
2694.284912 4996.000000
2695.150635 4831.000000
2696.016357 5022.000000
2696.880615 4972.000000
2697.745605 4981.000000
2698.609131 4987.000000
2699.472900 4818.000000
2700.335205 4852.000000
2701.197998 4795.000000
2702.059814 4838.000000
2702.921143 4854.000000
2703.782471 4837.000000
2704.642578 4781.000000
2705.502686 4830.000000
2706.362305 4655.000000
2707.221680 4744.000000
2708.079346 4637.000000
2708.937256 4798.000000
2709.795654 4629.000000
2710.652832 4621.000000
2711.509277 4676.000000
2712.365234 4574.000000
2713.221191 4720.000000
2714.076416 4690.000000
2714.930908 4630.000000
2715.784912 4572.000000
2716.638916 4567.000000
2717.491943 4472.000000
2718.345215 4524.000000
2719.196777 4512.000000
2720.048828 4463.000000
2720.900635 4474.000000
2721.751221 4480.000000
2722.601807 4756.000000
2723.451904 4412.000000
2724.301270 4318.000000
2725.150635 4521.000000
2725.998779 4407.000000
2726.846436 4520.000000
2727.694580 4476.000000
2728.541504 4325.000000
2729.388916 4375.000000
2730.234863 4258.000000
2731.080078 4304.000000
2731.925781 4400.000000
2732.770508 4274.000000
2733.615234 4390.000000
2734.458740 4288.000000
2735.302490 4376.000000
2736.145508 4500.000000
2736.988037 4388.000000
2737.829590 4403.000000
2738.671631 4372.000000
2739.512695 4368.000000
2740.353516 4249.000000
2741.194092 4309.000000
2742.033447 4342.000000
2742.872803 4363.000000
2743.712158 4257.000000
2744.550293 4278.000000
2745.387939 4245.000000
2746.225586 4280.000000
2747.062744 4323.000000
2747.899658 4207.000000
2748.736084 4264.000000
2749.571289 4306.000000
2750.406738 4124.000000
2751.241699 4082.000000
2752.075928 4210.000000
2752.909912 4164.000000
2753.743408 4060.000000
2754.576904 4020.000000
2755.409424 4036.000000
2756.241455 4128.000000
2757.072998 3944.000000
2757.904541 4128.000000
2758.735107 4123.000000
2759.565918 3928.000000
2760.395508 4104.000000
2761.225098 3984.000000
2762.054443 3973.000000
2762.883057 3978.000000
2763.711182 3885.000000
2764.538818 3840.000000
2765.366455 3952.000000
2766.193604 3970.000000
2767.020020 4004.000000
2767.845947 3913.000000
2768.671387 3819.000000
2769.496582 3872.000000
2770.321777 3807.000000
2771.145752 3747.000000
2771.969727 3770.000000
2772.793701 3825.000000
2773.616455 3789.000000
2774.439453 3750.000000
2775.261230 3681.000000
2776.083008 3733.000000
2776.904785 3698.000000
2777.725586 3583.000000
2778.545654 3721.000000
2779.365967 3609.000000
2780.185791 3727.000000
2781.005615 3589.000000
2781.823486 3627.000000
2782.642578 3538.000000
2783.460449 3555.000000
2784.278076 3674.000000
2785.095215 3674.000000
2785.911865 3513.000000
2786.728271 3404.000000
2787.544189 3490.000000
2788.359863 3564.000000
2789.174561 3481.000000
2789.989746 3510.000000
2790.804199 3463.000000
2791.618164 3436.000000
2792.431885 3436.000000
2793.244385 3430.000000
2794.057129 3511.000000
2794.869385 3398.000000
2795.681152 3491.000000
2796.492188 3452.000000
2797.303955 3444.000000
2798.114502 3474.000000
2798.925049 3383.000000
2799.734131 3487.000000
2800.543945 3387.000000
2801.353027 3344.000000
2802.161865 3304.000000
2802.970215 3305.000000
2803.777588 3305.000000
2804.585449 3354.000000
2805.392578 3267.000000
2806.199463 3320.000000
2807.005127 3310.000000
2807.811279 3249.000000
2808.616699 3312.000000
2809.422119 3197.000000
2810.226807 3217.000000
2811.030518 3315.000000
2811.834717 3275.000000
2812.638428 3339.000000
2813.441895 3125.000000
2814.243896 3102.000000
2815.046631 3207.000000
2815.848633 3234.000000
2816.650391 3226.000000
2817.451660 3237.000000
2818.252441 3228.000000
2819.052734 3201.000000
2819.853271 3244.000000
2820.652832 3165.000000
2821.451904 3139.000000
2822.250977 3124.000000
2823.049805 3062.000000
2823.848145 3128.000000
2824.645508 3174.000000
2825.443115 3223.000000
2826.239990 3124.000000
2827.037109 3224.000000
2827.833496 3200.000000
2828.629150 3184.000000
2829.424805 3057.000000
2830.220215 3111.000000
2831.015137 3129.000000
2831.809326 3064.000000
2832.603516 3228.000000
2833.397461 3058.000000
2834.190918 3090.000000
2834.983643 2983.000000
2835.776123 2980.000000
2836.568604 3044.000000
2837.360840 3016.000000
2838.152588 3084.000000
2838.943359 3033.000000
2839.734131 2896.000000
2840.525146 2933.000000
2841.315186 2996.000000
2842.104736 3000.000000
2842.894531 2865.000000
2843.683350 2976.000000
2844.472168 2918.000000
2845.260986 2884.000000
2846.048828 2812.000000
2846.836182 2810.000000
2847.623779 2960.000000
2848.410889 2832.000000
2849.197266 2819.000000
2849.983643 2987.000000
2850.769775 2889.000000
2851.555420 2841.000000
2852.340088 2871.000000
2853.125244 2785.000000
2853.910156 2839.000000
2854.694336 2858.000000
2855.478516 2859.000000
2856.261475 2819.000000
2857.044678 2726.000000
2857.827637 2783.000000
2858.610107 2808.000000
2859.392334 2810.000000
2860.174072 2838.000000
2860.955566 2676.000000
2861.737305 2830.000000
2862.518311 2911.000000
2863.298584 2936.000000
2864.078613 2820.000000
2864.858643 2845.000000
2865.638428 2912.000000
2866.417236 2890.000000
2867.196289 2941.000000
2867.974854 2840.000000
2868.753174 2803.000000
2869.531006 2856.000000
2870.308594 2919.000000
2871.085938 2898.000000
2871.863037 3009.000000
2872.639648 2962.000000
2873.415771 3045.000000
2874.191895 3085.000000
2874.967529 2965.000000
2875.742920 2990.000000
2876.517822 3195.000000
2877.292480 2994.000000
2878.067139 2994.000000
2878.841553 2933.000000
2879.615234 3148.000000
2880.388184 2978.000000
2881.161865 3097.000000
2881.934570 3015.000000
2882.707275 3026.000000
2883.479248 2939.000000
2884.250977 3044.000000
2885.023193 3054.000000
2885.794189 2923.000000
2886.564697 2975.000000
2887.335693 2902.000000
2888.106689 2896.000000
2888.876953 2917.000000
2889.646240 2971.000000
2890.415771 3014.000000
2891.185303 2860.000000
2891.954346 2917.000000
2892.722900 2923.000000
2893.491455 2873.000000
2894.259033 2820.000000
2895.027100 2925.000000
2895.794678 2810.000000
2896.562256 2870.000000
2897.328613 2805.000000
2898.095947 2675.000000
2898.862061 2886.000000
2899.628418 2697.000000
2900.393311 2776.000000
2901.158691 2617.000000
2901.924561 2737.000000
2902.688965 2721.000000
2903.453369 2691.000000
2904.218018 2671.000000
2904.981689 2662.000000
2905.746094 2646.000000
2906.509766 2719.000000
2907.272705 2626.000000
2908.035400 2533.000000
2908.798584 2528.000000
2909.561279 2560.000000
2910.322754 2645.000000
2911.084717 2645.000000
spectrumdark 2048
-97.146187 6222.000000
-94.519318 6222.000000
-91.894325 6109.000000
-89.271225 6431.000000
-86.649994 5756.000000
-84.030663 6270.000000
-81.413193 6088.000000
-78.797600 6435.000000
-76.183884 6179.000000
-73.572044 5872.000000
-70.962067 6129.000000
-68.353973 5980.000000
-65.747726 6027.000000
-63.143356 6067.000000
-60.540848 6184.000000
-57.940193 5647.000000
-55.341400 6265.000000
-52.744465 6974.000000
-50.149384 6547.000000
-47.556156 6533.000000
-44.964779 6271.000000
-42.375248 6823.000000
-39.787560 5944.000000
-37.201721 6075.000000
-34.617725 6514.000000
-32.035568 5710.000000
-29.455254 6338.000000
-26.876768 5784.000000
-24.300125 6098.000000
-21.725307 6285.000000
-19.152330 6477.000000
-16.581173 6485.000000
-14.011849 6833.000000
-11.444351 7789.000000
-8.878672 6338.000000
-6.314818 6531.000000
-3.752778 6046.000000
-1.192562 5854.000000
1.365846 6195.000000
3.922433 6977.000000
6.477215 6690.000000
9.030181 6021.000000
11.581346 6772.000000
14.130697 6466.000000
16.678253 6667.000000
19.223997 5992.000000
21.767948 5790.000000
24.310095 6664.000000
26.850445 6904.000000
29.389009 6891.000000
31.925777 6217.000000
34.460743 5857.000000
36.993931 7264.000000
39.525337 6360.000000
42.054951 7099.000000
44.582767 6538.000000
47.108826 7866.000000
49.633095 5693.000000
52.155594 6232.000000
54.676296 6819.000000
57.195244 6325.000000
59.712418 6461.000000
62.227814 6642.000000
64.741432 5629.000000
67.253296 5735.000000
69.763412 6523.000000
72.271736 6591.000000
74.778305 6012.000000
77.283127 6382.000000
79.786194 6447.000000
82.287483 6259.000000
84.787033 6127.000000
87.284828 6372.000000
89.780891 5836.000000
92.275177 7255.000000
94.767723 5806.000000
97.258553 6942.000000
99.747612 7152.000000
102.234924 6325.000000
104.720512 6206.000000
107.204361 6401.000000
109.686462 5840.000000
112.166840 6612.000000
114.645493 6258.000000
117.122421 6476.000000
119.597595 7238.000000
122.071060 6852.000000
124.542793 5921.000000
127.012817 6752.000000
129.481079 6268.000000
131.947678 6257.000000
134.412521 5668.000000
136.875671 6203.000000
139.337082 7212.000000
141.796799 6928.000000
144.254791 6403.000000
146.711090 6064.000000
149.165680 5823.000000
151.618546 6832.000000
154.069733 6372.000000
156.519226 6582.000000
158.966995 6085.000000
161.413055 6599.000000
163.857437 8700.000000
166.300140 6456.000000
168.741150 6789.000000
171.180450 6275.000000
173.618042 7295.000000
176.054001 6660.000000
178.488220 6928.000000
180.920761 7154.000000
183.351654 6691.000000
185.780823 6822.000000
188.208344 6797.000000
190.634186 6372.000000
193.058350 6712.000000
195.480850 7162.000000
197.901657 7372.000000
200.320801 6535.000000
202.738281 6069.000000
205.154068 7680.000000
207.568207 7148.000000
209.980713 6389.000000
212.391541 6083.000000
214.800690 6351.000000
217.208206 7396.000000
219.614014 6209.000000
222.018234 6627.000000
224.420746 6719.000000
226.821640 6958.000000
229.220886 6465.000000
231.618469 6943.000000
234.014389 7306.000000
236.408691 6622.000000
238.801331 5808.000000
241.192352 6831.000000
243.581711 6574.000000
245.969452 6437.000000
248.355545 6969.000000
250.740005 6161.000000
253.122818 7898.000000
255.504059 6740.000000
257.883606 6666.000000
260.261566 6470.000000
262.637848 7578.000000
265.012573 7625.000000
267.385651 7841.000000
269.757080 6200.000000
272.126862 6489.000000
274.495087 5909.000000
276.861664 6319.000000
279.226654 6787.000000
281.590027 6045.000000
283.951752 6299.000000
286.311890 7126.000000
288.670410 5991.000000
291.027344 6571.000000
293.382660 6499.000000
295.736389 6034.000000
298.088470 5988.000000
300.438995 6347.000000
302.787933 6399.000000
305.135223 6850.000000
307.480988 6437.000000
309.825073 6529.000000
312.167633 7403.000000
314.508575 7578.000000
316.847900 7192.000000
319.185669 7026.000000
321.521881 8107.000000
323.856445 6306.000000
326.189453 6508.000000
328.520905 6028.000000
330.850769 6612.000000
333.179047 6402.000000
335.505707 7248.000000
337.830872 6444.000000
340.154419 6248.000000
342.476410 6020.000000
344.796844 7541.000000
347.115662 7812.000000
349.432922 6000.000000
351.748657 5893.000000
354.062805 7057.000000
356.375366 6391.000000
358.686371 6321.000000
360.995850 7093.000000
363.303802 6398.000000
365.610138 5683.000000
367.914886 6399.000000
370.218170 6450.000000
372.519836 6222.000000
374.820007 6372.000000
377.118622 6335.000000
379.415680 5746.000000
381.711182 6129.000000
384.005157 5860.000000
386.297546 5193.000000
388.588440 5590.000000
390.877808 6209.000000
393.165588 6302.000000
395.451843 6497.000000
397.736603 6958.000000
400.019745 6049.000000
402.301453 6479.000000
404.581635 6181.000000
406.860229 7262.000000
409.137299 6465.000000
411.412842 6639.000000
413.686859 6490.000000
415.959442 6367.000000
418.230408 6277.000000
420.499878 6479.000000
422.767853 7111.000000
425.034271 7257.000000
427.299194 6262.000000
429.562653 6338.000000
431.824524 6482.000000
434.084930 6058.000000
436.343781 6663.000000
438.601166 6212.000000
440.857056 5689.000000
443.111450 5865.000000
445.364319 5465.000000
447.615631 6851.000000
449.865540 6096.000000
452.113861 6275.000000
454.360748 5618.000000
456.606171 6546.000000
458.850037 6483.000000
461.092407 6808.000000
463.333282 5711.000000
465.572754 6765.000000
467.810638 5488.000000
470.047089 5790.000000
472.282013 6157.000000
474.515472 7398.000000
476.747498 6742.000000
478.977997 5721.000000
481.207001 6436.000000
483.434540 6307.000000
485.660583 5964.000000
487.885193 6641.000000
490.108337 5934.000000
492.330017 6416.000000
494.550140 6762.000000
496.768860 5640.000000
498.986084 6282.000000
501.201935 5608.000000
503.416168 6152.000000
505.629089 6505.000000
507.840424 6464.000000
510.050323 6893.000000
512.258789 6516.000000
514.465881 6600.000000
516.671387 6438.000000
518.875488 6568.000000
521.078064 6206.000000
523.279236 6637.000000
525.479065 6721.000000
527.677368 6960.000000
529.874146 5360.000000
532.069580 5856.000000
534.263489 5558.000000
536.456055 7495.000000
538.647095 6708.000000
540.836731 5989.000000
543.024963 6945.000000
545.211670 7201.000000
547.396912 6822.000000
549.580872 6272.000000
551.763245 6442.000000
553.944275 6247.000000
556.123779 6079.000000
558.302002 5929.000000
560.478699 6049.000000
562.653992 6392.000000
564.827881 6431.000000
567.000305 5894.000000
569.171326 6099.000000
571.340881 6286.000000
573.509155 5325.000000
575.675903 6442.000000
577.841187 6340.000000
580.005066 6147.000000
582.167664 5769.000000
584.328735 6059.000000
586.488403 5660.000000
588.646729 5868.000000
590.803528 6175.000000
592.958984 6627.000000
595.113037 5774.000000
597.265747 6185.000000
599.416931 7333.000000
601.566772 6891.000000
603.715271 6698.000000
605.862183 6056.000000
608.007874 6551.000000
610.152161 6542.000000
612.294983 7082.000000
614.436340 6181.000000
616.576477 6473.000000
618.715088 7622.000000
620.852417 5756.000000
622.988281 6625.000000
625.122742 6855.000000
627.255737 7154.000000
629.387573 6656.000000
631.517944 6636.000000
633.646912 6810.000000
635.774414 6450.000000
637.900635 6124.000000
640.025330 7257.000000
642.148804 6385.000000
644.270935 6788.000000
646.391602 6889.000000
648.510925 6612.000000
650.628845 5690.000000
652.745422 5735.000000
654.860596 6412.000000
656.974426 6479.000000
659.086792 5892.000000
661.197937 6152.000000
663.307678 5418.000000
665.415955 6689.000000
667.523071 6322.000000
669.628723 6888.000000
671.732910 5632.000000
673.835876 5809.000000
675.937439 7002.000000
678.037659 5416.000000
680.136475 6784.000000
682.233948 6297.000000
684.330139 6947.000000
686.424866 6169.000000
688.518372 6992.000000
690.610535 6692.000000
692.701172 7931.000000
694.790588 6682.000000
696.878723 6483.000000
698.965393 6061.000000
701.050842 6689.000000
703.134766 5198.000000
705.217468 5957.000000
707.298889 5942.000000
709.378845 7614.000000
711.457581 6254.000000
713.534851 5577.000000
715.610840 6607.000000
717.685547 6088.000000
719.758972 7128.000000
721.830872 6276.000000
723.901611 7411.000000
725.971008 5898.000000
728.039001 6501.000000
730.105652 6396.000000
732.171082 7053.000000
734.235168 5819.000000
736.297913 6220.000000
738.359314 6399.000000
740.419434 6616.000000
742.478149 6099.000000
744.535645 6687.000000
746.591858 6481.000000
748.646667 6731.000000
750.700195 6345.000000
752.752319 7527.000000
754.803223 5838.000000
756.852905 6647.000000
758.901123 6402.000000
760.948120 6191.000000
762.993835 7098.000000
765.038147 5408.000000
767.081177 5815.000000
769.122986 14897.000000
771.163452 6995.000000
773.202515 6444.000000
775.240417 6093.000000
777.276978 6002.000000
779.312317 5398.000000
781.346313 5770.000000
783.378906 6864.000000
785.410339 5562.000000
787.440369 12177.000000
789.469116 6024.000000
791.496704 6329.000000
793.522949 6365.000000
795.547791 5928.000000
797.571533 5547.000000
799.593872 6401.000000
801.614990 5918.000000
803.634766 6655.000000
805.653259 4864.000000
807.670532 6686.000000
809.686401 6874.000000
811.701111 5736.000000
813.714478 6423.000000
815.726624 6289.000000
817.737549 6160.000000
819.747131 6545.000000
821.755493 5317.000000
823.762451 5659.000000
825.768188 6107.000000
827.772705 5816.000000
829.775940 5662.000000
831.777893 6478.000000
833.778564 6091.000000
835.778015 5947.000000
837.776123 6392.000000
839.773132 7044.000000
841.768738 6245.000000
843.763184 5838.000000
845.756287 6199.000000
847.748169 6861.000000
849.738708 5632.000000
851.727966 6822.000000
853.716187 5969.000000
855.703003 5807.000000
857.688599 6443.000000
859.672913 7248.000000
861.656128 6308.000000
863.637939 6415.000000
865.618530 5866.000000
867.597839 7751.000000
869.575989 7061.000000
871.552795 6268.000000
873.528320 5955.000000
875.502808 6277.000000
877.475830 6075.000000
879.447815 5454.000000
881.418457 6456.000000
883.387939 6147.000000
885.356079 5622.000000
887.323059 5251.000000
889.288696 6128.000000
891.253174 5820.000000
893.216431 5978.000000
895.178467 6516.000000
897.139221 5866.000000
899.098755 6469.000000
901.057007 6797.000000
903.014160 6368.000000
904.970154 6089.000000
906.924744 6929.000000
908.878113 6511.000000
910.830322 6390.000000
912.781311 6449.000000
914.731018 7134.000000
916.679565 6354.000000
918.626892 6195.000000
920.572937 6145.000000
922.517700 6074.000000
924.461426 6305.000000
926.403992 6001.000000
928.345276 5619.000000
930.285217 6478.000000
932.224060 5789.000000
934.161621 5558.000000
936.097961 5994.000000
938.033142 5886.000000
939.967041 6129.000000
941.899841 5911.000000
943.831421 6805.000000
945.761841 5236.000000
947.691040 6437.000000
949.618896 7051.000000
951.545715 6679.000000
953.471252 6019.000000
955.395508 5365.000000
957.318665 5991.000000
959.240662 6710.000000
961.161377 7295.000000
963.080933 6450.000000
964.999329 5355.000000
966.916687 6411.000000
968.832581 6464.000000
970.747375 6186.000000
972.660950 6037.000000
974.573364 6410.000000
976.484558 6466.000000
978.394592 5488.000000
980.303345 6212.000000
982.211060 6115.000000
984.117554 6413.000000
986.022827 5773.000000
987.927002 6841.000000
989.829956 6241.000000
991.731689 6831.000000
993.632263 6594.000000
995.531677 6587.000000
997.429871 5283.000000
999.326904 6546.000000
1001.222717 6571.000000
1003.117371 7721.000000
1005.010925 5574.000000
1006.903198 7146.000000
1008.794556 6125.000000
1010.684570 5367.000000
1012.573364 6662.000000
1014.460999 6437.000000
1016.347473 6952.000000
1018.232788 6767.000000
1020.116943 5991.000000
1021.999878 5897.000000
1023.881775 6226.000000
1025.762329 5212.000000
1027.641846 5930.000000
1029.520386 6186.000000
1031.397583 5402.000000
1033.273438 6236.000000
1035.148315 5996.000000
1037.022217 6644.000000
1038.894653 7088.000000
1040.766113 6749.000000
1042.636230 5548.000000
1044.505371 5584.000000
1046.373291 5816.000000
1048.240112 7044.000000
1050.105835 6746.000000
1051.970337 6429.000000
1053.833740 6497.000000
1055.695801 6440.000000
1057.556885 5933.000000
1059.416870 6572.000000
1061.275513 6702.000000
1063.133057 5854.000000
1064.989502 6756.000000
1066.844849 5910.000000
1068.698975 5832.000000
1070.552246 6273.000000
1072.404053 6361.000000
1074.254883 6125.000000
1076.104492 6172.000000
1077.952881 5760.000000
1079.800415 7934.000000
1081.646606 5659.000000
1083.491577 6219.000000
1085.335693 5429.000000
1087.178467 5601.000000
1089.020020 6532.000000
1090.860840 5550.000000
1092.700073 5742.000000
1094.538574 6035.000000
1096.375732 6059.000000
1098.211670 6780.000000
1100.046631 6649.000000
1101.880371 5444.000000
1103.713135 5766.000000
1105.544556 6198.000000
1107.375122 7305.000000
1109.204346 6463.000000
1111.032593 6481.000000
1112.859619 7088.000000
1114.685669 5480.000000
1116.510498 6335.000000
1118.334229 7202.000000
1120.156738 6082.000000
1121.978149 5964.000000
1123.798706 5997.000000
1125.617798 6611.000000
1127.436035 7104.000000
1129.252930 6873.000000
1131.068970 6685.000000
1132.883789 6514.000000
1134.697510 5674.000000
1136.510132 5840.000000
1138.321533 5739.000000
1140.131958 6150.000000
1141.941284 6816.000000
1143.749268 6968.000000
1145.556519 6052.000000
1147.362305 5935.000000
1149.167236 5461.000000
1150.971069 5421.000000
1152.773682 6141.000000
1154.575439 6149.000000
1156.375732 6059.000000
1158.175049 6118.000000
1159.973389 5978.000000
1161.770386 5495.000000
1163.566650 5947.000000
1165.361572 6095.000000
1167.155396 6368.000000
1168.948364 7721.000000
1170.739990 5631.000000
1172.530640 6515.000000
1174.320313 6055.000000
1176.108521 5913.000000
1177.895874 7514.000000
1179.682129 6934.000000
1181.467285 5770.000000
1183.251343 5954.000000
1185.034302 7679.000000
1186.816284 5901.000000
1188.597046 5953.000000
1190.376831 6372.000000
1192.155518 6985.000000
1193.933228 6719.000000
1195.709717 7194.000000
1197.485107 6595.000000
1199.259399 6477.000000
1201.032593 6702.000000
1202.804932 6494.000000
1204.575928 6752.000000
1206.346069 5774.000000
1208.114990 6142.000000
1209.882813 6336.000000
1211.649780 5797.000000
1213.415405 5964.000000
1215.180054 6964.000000
1216.943604 6549.000000
1218.706055 6028.000000
1220.467651 6762.000000
1222.228027 5916.000000
1223.987305 6269.000000
1225.745728 6159.000000
1227.502930 7129.000000
1229.259033 6465.000000
1231.014038 5621.000000
1232.768188 6011.000000
1234.520996 5826.000000
1236.272827 6047.000000
1238.023804 5991.000000
1239.773438 4999.000000
1241.522217 6991.000000
1243.269653 6509.000000
1245.016357 6602.000000
1246.761841 6526.000000
1248.506470 6414.000000
1250.249756 6835.000000
1251.992065 6663.000000
1253.733276 5409.000000
1255.473633 5061.000000
1257.212891 5796.000000
1258.950928 6598.000000
1260.688110 7135.000000
1262.424072 6139.000000
1264.159058 6503.000000
1265.893066 7264.000000
1267.626099 6017.000000
1269.357910 6183.000000
1271.088745 6498.000000
1272.818359 7243.000000
1274.547119 5961.000000
1276.274780 5734.000000
1278.001343 5534.000000
1279.727051 5541.000000
1281.451416 6510.000000
1283.174927 5226.000000
1284.897461 6937.000000
1286.619019 6652.000000
1288.339355 6167.000000
1290.058716 6668.000000
1291.776978 7293.000000
1293.494263 6459.000000
1295.210571 5820.000000
1296.925659 6399.000000
1298.639771 6165.000000
1300.352905 5807.000000
1302.065186 6522.000000
1303.776245 8369.000000
1305.486328 5275.000000
1307.195313 6318.000000
1308.903076 6686.000000
1310.610229 6989.000000
1312.315918 5830.000000
1314.020874 6999.000000
1315.724854 6133.000000
1317.427612 5956.000000
1319.129395 6570.000000
1320.830322 6120.000000
1322.529907 8802.000000
1324.228638 7201.500000
1325.926636 5601.000000
1327.623291 6564.000000
1329.318848 7224.000000
1331.013550 6813.000000
1332.707031 5767.000000
1334.399658 5346.000000
1336.091431 7281.000000
1337.781860 6372.000000
1339.471558 6606.000000
1341.160156 6067.000000
1342.847656 7572.000000
1344.534180 5667.000000
1346.219604 6693.000000
1347.904053 6032.000000
1349.587646 7254.000000
1351.270020 6392.000000
1352.951416 5922.000000
1354.631958 6535.000000
1356.311279 6696.000000
1357.989990 5936.000000
1359.667358 6616.000000
1361.343628 5833.000000
1363.018921 5571.000000
1364.693481 6669.000000
1366.366821 6485.000000
1368.039185 6797.000000
1369.710571 5198.000000
1371.380981 6810.000000
1373.050293 6171.000000
1374.718628 5678.000000
1376.386108 6015.000000
1378.052490 6317.000000
1379.717896 6165.000000
1381.382324 5842.000000
1383.045532 5949.000000
1384.708130 5702.000000
1386.369385 6390.000000
1388.029785 6547.000000
1389.689087 6457.000000
1391.347412 6459.000000
1393.005005 6840.000000
1394.661377 6440.000000
1396.316895 7027.000000
1397.971191 6363.000000
1399.624634 5823.000000
1401.276978 6144.000000
1402.928589 6433.000000
1404.578979 7243.000000
1406.228271 6242.000000
1407.876831 7475.000000
1409.524292 7965.000000
1411.170776 6183.000000
1412.816406 6238.000000
1414.461060 6049.000000
1416.104492 7078.000000
1417.747070 7194.000000
1419.388550 6947.000000
1421.029175 6464.000000
1422.668823 6439.000000
1424.307373 6041.000000
1425.945068 6593.000000
1427.581665 6346.000000
1429.217285 6029.000000
1430.852173 6447.000000
1432.485962 5946.000000
1434.118652 6174.000000
1435.750366 5656.000000
1437.381226 6202.000000
1439.010986 6078.000000
1440.639648 7788.000000
1442.267700 5949.000000
1443.894653 6288.000000
1445.520386 6204.000000
1447.145508 6248.000000
1448.769531 6564.000000
1450.392578 6094.000000
1452.014648 6036.000000
1453.635620 7385.000000
1455.255615 6388.000000
1456.874878 6937.000000
1458.492798 5680.000000
1460.110107 5615.000000
1461.726440 5550.000000
1463.341553 7272.000000
1464.955811 6282.000000
1466.569214 5216.000000
1468.181519 5633.000000
1469.792969 6324.000000
1471.403564 6364.000000
1473.012939 6004.000000
1474.621338 6017.000000
1476.228882 6231.000000
1477.835449 6821.000000
1479.441284 5312.000000
1481.045898 6260.000000
1482.649658 5539.000000
1484.252197 6731.000000
1485.854126 5611.000000
1487.454834 5564.000000
1489.054810 5696.000000
1490.653687 6250.000000
1492.251709 6495.000000
1493.848633 6666.000000
1495.444702 6365.000000
1497.039795 6005.000000
1498.633911 5497.000000
1500.227295 6582.000000
1501.819580 5524.000000
1503.410645 6154.000000
1505.001221 6751.000000
1506.590454 6459.000000
1508.179077 6204.000000
1509.766602 6580.000000
1511.353027 6880.000000
1512.938721 6183.000000
1514.523315 6682.000000
1516.107056 6264.000000
1517.689697 6209.000000
1519.271606 6553.000000
1520.852417 6699.000000
1522.432495 6081.000000
1524.011353 6221.000000
1525.589355 6423.000000
1527.166626 6270.000000
1528.742676 5666.000000
1530.317993 5978.000000
1531.892212 6382.000000
1533.465698 5499.000000
1535.037964 5964.000000
1536.609497 6356.000000
1538.180054 6433.000000
1539.749756 6285.000000
1541.318237 5471.000000
1542.885986 6624.000000
1544.452881 5653.000000
1546.018555 6815.000000
1547.583496 5987.000000
1549.147339 5086.000000
1550.710571 7480.000000
1552.272461 6283.000000
1553.833740 5987.000000
1555.393921 5731.000000
1556.953369 5797.000000
1558.511719 5909.000000
1560.069336 6303.000000
1561.625854 7127.000000
1563.181152 5915.000000
1564.735840 6359.000000
1566.289795 5654.000000
1567.842773 6314.000000
1569.394409 5666.000000
1570.945313 5903.000000
1572.495483 6222.000000
1574.044678 6409.000000
1575.592529 5848.000000
1577.139893 5528.000000
1578.686279 5767.000000
1580.231812 5124.000000
1581.776367 6739.000000
1583.319702 6393.000000
1584.862427 6636.000000
1586.404297 6447.000000
1587.945068 6716.000000
1589.484863 5847.000000
1591.023926 6667.000000
1592.561890 5968.000000
1594.099365 6107.000000
1595.635498 5861.000000
1597.170532 6722.000000
1598.705078 6275.000000
1600.238647 5985.000000
1601.771362 6022.000000
1603.302490 6315.000000
1604.833374 6276.000000
1606.363403 5831.000000
1607.892212 6166.000000
1609.419922 6184.000000
1610.947021 6066.000000
1612.473389 5868.000000
1613.998779 6231.000000
1615.523315 5857.000000
1617.046509 5720.000000
1618.568970 5664.000000
1620.090698 6593.000000
1621.611572 6954.000000
1623.130981 15551.000000
1624.649902 6141.000000
1626.168091 6097.000000
1627.685425 5923.000000
1629.201660 6397.000000
1630.716553 7082.000000
1632.230957 6803.000000
1633.744629 5795.000000
1635.257202 6879.000000
1636.768555 5931.000000
1638.279541 6449.000000
1639.789429 6318.000000
1641.298462 6235.000000
1642.806152 5654.000000
1644.313477 6134.000000
1645.819946 7198.000000
1647.325439 6285.000000
1648.830078 6859.000000
1650.333252 6189.000000
1651.835815 6585.000000
1653.338013 6353.000000
1654.838867 6650.000000
1656.338623 7538.000000
1657.837524 5963.000000
1659.336060 6559.000000
1660.833374 6282.000000
1662.329956 5921.000000
1663.824951 6501.000000
1665.319702 6398.000000
1666.813599 5227.000000
1668.306519 5656.000000
1669.798096 6071.500000
1671.289185 6487.000000
1672.779663 6168.000000
1674.269043 6058.000000
1675.756958 6965.000000
1677.244629 6857.000000
1678.731323 6050.000000
1680.217163 5408.000000
1681.702148 6120.000000
1683.185669 6211.000000
1684.668945 6274.000000
1686.151367 5880.000000
1687.632690 6237.000000
1689.112549 6240.000000
1690.592163 5470.000000
1692.071045 6624.000000
1693.548950 6013.000000
1695.025879 6162.000000
1696.501587 5800.000000
1697.976929 5984.000000
1699.451050 6324.000000
1700.924561 5486.000000
1702.396606 5605.000000
1703.868408 6884.000000
1705.339233 6373.000000
1706.809204 7076.000000
1708.277832 5168.000000
1709.745972 5846.000000
1711.213379 6317.000000
1712.679688 5498.000000
1714.145386 5792.000000
1715.609375 6260.000000
1717.073242 6017.000000
1718.536255 6995.000000
1719.998291 6332.000000
1721.459106 6604.000000
1722.919312 5492.000000
1724.378784 5734.000000
1725.837402 6143.000000
1727.295044 6001.000000
1728.751343 6293.000000
1730.207397 6133.000000
1731.662476 6432.000000
1733.116577 6042.000000
1734.569458 6878.000000
1736.022095 5979.000000
1737.473633 6939.000000
1738.924438 5976.000000
1740.374268 6652.000000
1741.822754 6033.000000
1743.270874 7379.000000
1744.718140 6515.000000
1746.164673 6672.000000
1747.609619 6789.000000
1749.054321 6134.000000
1750.498169 5975.000000
1751.941162 5486.000000
1753.382690 6584.000000
1754.823975 6363.000000
1756.264404 6349.000000
1757.703857 6335.000000
1759.142334 5396.000000
1760.579834 6064.000000
1762.016846 7455.000000
1763.452881 5878.000000
1764.888062 7090.000000
1766.321777 6265.000000
1767.755371 6489.000000
1769.187988 6683.000000
1770.619751 5792.000000
1772.050659 5813.000000
1773.480347 6403.000000
1774.909302 6219.000000
1776.337769 6326.000000
1777.765259 6697.000000
1779.191406 6251.000000
1780.617310 5622.000000
1782.042114 6930.000000
1783.466309 5557.000000
1784.889038 6651.000000
1786.311279 6570.000000
1787.732788 6904.000000
1789.153564 5900.000000
1790.573364 6162.000000
1791.991821 6138.000000
1793.409790 6840.000000
1794.827148 5557.000000
1796.243652 6049.000000
1797.658691 6584.000000
1799.073364 5896.000000
1800.487427 6588.000000
1801.900269 5982.000000
1803.312500 6982.000000
1804.723389 7156.000000
1806.133789 7749.000000
1807.543457 6496.000000
1808.952148 5976.000000
1810.359741 5473.000000
1811.766846 6537.000000
1813.173096 6410.000000
1814.578369 6749.000000
1815.982544 5960.000000
1817.386353 5951.000000
1818.789185 6271.000000
1820.191162 6036.000000
1821.592529 5906.000000
1822.992432 6332.000000
1824.391724 6475.000000
1825.790527 6627.000000
1827.188477 7417.000000
1828.585083 5812.000000
1829.981079 6809.000000
1831.376343 5951.000000
1832.770996 8179.000000
1834.164673 6018.000000
1835.557007 6856.000000
1836.948853 6394.000000
1838.340088 5927.000000
1839.730347 7107.000000
1841.119385 6028.000000
1842.508057 6124.000000
1843.895752 6016.000000
1845.282715 5806.000000
1846.668335 6922.000000
1848.053711 5869.000000
1849.438232 6356.000000
1850.822021 6253.000000
1852.204712 6413.000000
1853.586182 5396.000000
1854.967163 6550.000000
1856.347656 6340.000000
1857.727173 5767.000000
1859.105225 6042.000000
1860.483154 6260.000000
1861.860107 7897.000000
1863.236328 6145.000000
1864.611694 6138.000000
1865.985596 5645.000000
1867.359375 5697.000000
1868.732300 6243.000000
1870.104126 5962.000000
1871.474976 6924.000000
1872.845459 5527.000000
1874.214844 6058.000000
1875.583740 6159.000000
1876.951050 7192.000000
1878.318237 6129.000000
1879.684448 6034.000000
1881.049927 6789.000000
1882.414673 7511.000000
1883.777832 6833.000000
1885.140869 6943.000000
1886.503052 6333.000000
1887.864380 6462.000000
1889.224365 5658.000000
1890.583984 5858.000000
1891.942993 6162.000000
1893.301025 6679.000000
1894.658203 7261.000000
1896.014160 5988.000000
1897.369873 7633.000000
1898.724609 5868.000000
1900.078491 5542.000000
1901.431274 5895.000000
1902.783569 5996.000000
1904.135132 5935.000000
1905.485840 6896.000000
1906.835327 6584.000000
1908.184326 6726.000000
1909.532471 5824.000000
1910.880005 6139.000000
1912.226807 6340.000000
1913.572021 6793.000000
1914.916992 6117.000000
1916.261230 5464.000000
1917.604614 6535.000000
1918.946655 5981.000000
1920.288452 6730.000000
1921.629395 6942.000000
1922.969604 6148.000000
1924.308838 6359.000000
1925.647095 6319.000000
1926.984741 6472.000000
1928.321655 7017.000000
1929.657715 6724.000000
1930.992554 5602.000000
1932.327026 6686.000000
1933.660767 7285.000000
1934.993652 6290.000000
1936.325073 5765.000000
1937.656616 6409.000000
1938.986816 6629.000000
1940.316528 5866.000000
1941.645386 6108.000000
1942.973022 5862.000000
1944.300171 5002.000000
1945.626587 5763.000000
1946.952271 6504.000000
1948.276611 5824.000000
1949.600708 6620.000000
1950.923950 6312.000000
1952.246460 6406.000000
1953.567871 5785.000000
1954.888306 7445.000000
1956.208130 6057.000000
1957.527588 5581.000000
1958.846069 6913.000000
1960.163208 5938.000000
1961.479980 5839.000000
1962.796021 6630.000000
1964.111328 6655.000000
1965.425171 6298.000000
1966.738770 5688.000000
1968.051636 6254.000000
1969.363647 5948.000000
1970.675049 6034.000000
1971.985107 6372.000000
1973.294678 5885.000000
1974.603516 6241.000000
1975.911743 6669.000000
1977.218628 6192.000000
1978.524902 7253.000000
1979.830811 5574.000000
1981.135498 6391.000000
1982.439697 5994.000000
1983.742676 5761.000000
1985.045288 7610.000000
1986.346924 6148.000000
1987.647949 6847.000000
1988.947388 6072.000000
1990.246948 6586.000000
1991.545410 5265.000000
1992.843384 6137.000000
1994.139771 6110.000000
1995.436157 5812.000000
1996.731567 5665.000000
1998.026245 6523.000000
1999.320068 5699.000000
2000.612671 6564.000000
2001.904785 5648.000000
2003.196411 7182.000000
2004.487305 6539.000000
2005.776611 6294.000000
2007.065674 6852.000000
2008.354004 6073.000000
2009.641602 6009.000000
2010.928345 6650.000000
2012.213989 5692.000000
2013.499268 6233.000000
2014.783569 6023.000000
2016.067261 5638.000000
2017.349609 6076.000000
2018.631592 6452.000000
2019.913086 6814.000000
2021.193604 5959.000000
2022.473389 6093.000000
2023.752075 6812.000000
2025.030029 5853.000000
2026.307495 5936.000000
2027.584351 6331.000000
2028.859497 5787.000000
2030.134766 6632.000000
2031.409058 6043.000000
2032.682373 5916.000000
2033.954834 6015.000000
2035.226929 6166.000000
2036.497925 6940.000000
2037.768677 6630.000000
2039.038086 6037.000000
2040.306396 6710.000000
2041.574707 6580.000000
2042.842041 5924.000000
2044.108643 6001.000000
2045.374023 5730.000000
2046.638794 5520.000000
2047.903320 5472.000000
2049.166748 5933.000000
2050.429688 6359.000000
2051.690674 6233.000000
2052.952148 6181.000000
2054.212402 5929.000000
2055.471924 6482.000000
2056.730713 6271.000000
2057.988525 6930.000000
2059.245850 6198.000000
2060.502441 6003.000000
2061.757568 6565.000000
2063.012695 5654.000000
2064.266846 5572.000000
2065.520264 5701.000000
2066.772949 6863.000000
2068.024414 6231.000000
2069.275635 6324.000000
2070.526123 5697.000000
2071.775879 5466.000000
2073.024170 6507.000000
2074.272461 6466.000000
2075.519775 7420.000000
2076.766357 5610.000000
2078.012207 6089.000000
2079.256836 6951.000000
2080.500977 7628.000000
2081.744629 5489.000000
2082.987305 6009.000000
2084.228760 7002.000000
2085.469971 5999.000000
2086.710693 6336.000000
2087.950439 6726.000000
2089.188965 7078.000000
2090.427002 6205.000000
2091.664307 5806.000000
2092.901367 6680.000000
2094.136963 6132.000000
2095.371826 6189.000000
2096.606445 6098.000000
2097.840088 5580.000000
2099.072754 6101.000000
2100.304688 6853.000000
2101.536133 6438.000000
2102.766602 6812.000000
2103.996338 6053.000000
2105.225830 5919.000000
2106.453369 6079.000000
2107.681152 5976.000000
2108.908203 6277.000000
2110.134277 5523.000000
2111.358887 6443.000000
2112.583740 7047.000000
2113.807373 6989.000000
2115.030518 6286.000000
2116.252441 7539.000000
2117.474121 6014.000000
2118.694824 6799.000000
2119.914795 6054.000000
2121.134277 6196.000000
2122.352295 6626.000000
2123.570313 7117.000000
2124.787354 5779.000000
2126.003906 5668.000000
2127.218750 6540.000000
2128.433838 6364.000000
2129.647949 6806.000000
2130.861328 5726.000000
2132.073975 6109.000000
2133.285156 5857.000000
2134.496582 6492.000000
2135.706787 6753.000000
2136.916504 5941.000000
2138.124756 6179.000000
2139.333008 5727.000000
2140.540527 5917.000000
2141.746826 7711.000000
2142.952393 5931.000000
2144.157715 5711.000000
2145.362061 5570.000000
2146.565674 6359.000000
2147.768799 6226.000000
2148.970459 6582.000000
2150.171875 5326.000000
2151.372559 6341.000000
2152.572510 6063.000000
2153.771240 5972.000000
2154.969727 6941.000000
2156.167725 6188.000000
2157.364746 6019.000000
2158.561035 5182.000000
2159.756104 5293.000000
2160.950928 6146.000000
2162.145020 5616.000000
2163.338135 6059.000000
2164.530273 6925.000000
2165.722168 5942.000000
2166.913330 6369.000000
2168.103516 6317.000000
2169.292969 6502.000000
2170.481934 6819.000000
2171.669922 5981.000000
2172.857666 5798.000000
2174.043945 5991.000000
2175.229492 6604.000000
2176.414795 6010.000000
2177.599609 5910.000000
2178.783203 6405.000000
2179.966064 7511.000000
2181.147949 6420.000000
2182.329590 6013.000000
2183.510742 6556.000000
2184.690674 5774.000000
2185.869629 5606.000000
2187.048096 6384.000000
2188.226318 6923.000000
2189.403320 7204.000000
2190.579346 6785.000000
2191.755127 6136.000000
2192.930420 5684.000000
2194.104248 6719.000000
2195.277588 6157.000000
2196.450684 6158.000000
2197.622559 6421.000000
2198.793945 7160.000000
2199.964844 6374.000000
2201.134033 6959.000000
2202.303223 7585.000000
2203.471924 6322.000000
2204.639648 5852.000000
2205.806396 5668.000000
2206.972412 7107.000000
2208.137939 6682.000000
2209.303223 5996.000000
2210.467041 6832.000000
2211.630371 5476.000000
2212.792480 6231.000000
2213.954834 6217.000000
2215.115967 6717.000000
2216.276123 6664.000000
2217.435791 6301.000000
2218.595215 6630.000000
2219.753418 6422.000000
2220.910645 6294.000000
2222.067627 6765.000000
2223.223877 6654.000000
2224.379395 6832.000000
2225.534180 6360.000000
2226.687988 6416.000000
2227.840820 6063.000000
2228.994141 6937.000000
2230.145508 6276.000000
2231.296631 6225.000000
2232.447021 6592.000000
2233.596924 7711.000000
2234.745850 6290.000000
2235.894287 5268.000000
2237.041260 6898.000000
2238.188477 7125.000000
2239.334473 6119.000000
2240.480225 7257.000000
2241.624268 7337.000000
2242.768555 6797.000000
2243.911865 6187.000000
2245.054443 6034.000000
2246.196045 5771.000000
2247.337402 5858.000000
2248.477783 6403.000000
2249.617432 6418.000000
2250.756592 5872.000000
2251.894531 5846.000000
2253.032471 6281.000000
2254.169434 5323.000000
2255.305664 6401.000000
2256.440918 6137.000000
2257.575439 7273.000000
2258.709717 6374.000000
2259.843506 5411.000000
2260.975830 6158.000000
2262.107666 6734.000000
2263.239014 6338.000000
2264.369385 6473.000000
2265.499512 8115.000000
2266.628418 6728.000000
2267.756836 6117.000000
2268.884766 5573.000000
2270.011719 6174.000000
2271.137939 5959.000000
2272.263184 6709.000000
2273.388428 6547.000000
2274.512939 6451.000000
2275.636230 5972.000000
2276.758789 6307.000000
2277.880859 5954.000000
2279.002441 7407.000000
2280.123291 6458.000000
2281.242920 6444.000000
2282.362061 7075.000000
2283.480957 7668.000000
2284.599121 7306.000000
2285.716309 5913.000000
2286.832520 6505.000000
2287.948486 7006.000000
2289.063721 6940.000000
2290.178223 7488.000000
2291.291504 5823.000000
2292.404785 6386.000000
2293.517334 6032.000000
2294.629150 5384.000000
2295.740234 6772.000000
2296.850098 6450.000000
2297.959473 6241.000000
2299.068604 6676.000000
2300.176758 6320.000000
2301.283936 6741.000000
2302.390869 5900.000000
2303.497070 6263.000000
2304.602783 6677.000000
2305.707031 6629.000000
2306.811035 5463.000000
2307.914551 5800.000000
2309.017578 6586.000000
2310.119385 7407.000000
2311.220459 7431.000000
2312.321045 6579.000000
2313.421143 5549.000000
2314.520508 6405.000000
2315.618408 6570.000000
2316.716797 7062.000000
2317.813721 8190.000000
2318.910400 6842.000000
2320.006592 5831.000000
2321.101074 6845.000000
2322.195557 7621.000000
2323.289307 5896.000000
2324.382813 6064.000000
2325.474609 6499.000000
2326.566406 6995.000000
2327.657471 6131.000000
2328.747803 6281.000000
2329.837158 6848.000000
2330.926514 6051.000000
2332.014648 6283.000000
2333.102295 6842.000000
2334.189697 6555.000000
2335.275391 6756.000000
2336.360840 7803.000000
2337.446045 6335.000000
2338.530273 6716.000000
2339.613525 5979.000000
2340.696533 6429.000000
2341.778564 7118.000000
2342.860352 6038.000000
2343.941406 7488.000000
2345.021240 6759.000000
2346.100586 5735.000000
2347.179443 6804.000000
2348.257813 6497.000000
2349.334717 6361.000000
2350.411377 7011.000000
2351.487793 6070.000000
2352.563232 6449.000000
2353.637695 5943.000000
2354.711914 6338.000000
2355.785400 6735.000000
2356.858398 6228.000000
2357.930176 7002.000000
2359.001709 6363.000000
2360.072266 6821.000000
2361.142578 7514.000000
2362.211914 7640.000000
2363.280273 6853.000000
2364.348389 6762.000000
2365.415771 7111.000000
2366.482666 7165.000000
2367.548828 6092.000000
2368.613770 6862.000000
2369.678711 6908.000000
2370.742920 6371.000000
2371.806396 7054.000000
2372.868652 5720.000000
2373.930908 6332.000000
2374.992188 6356.000000
2376.053223 6010.000000
2377.113037 6296.000000
2378.172119 7933.000000
2379.231201 6504.000000
2380.289307 7584.000000
2381.346680 6936.000000
2382.403076 8052.000000
2383.459229 7859.000000
2384.514893 6285.000000
2385.569824 7056.000000
2386.623291 6745.000000
2387.677002 6684.000000
2388.729736 6319.000000
2389.781982 6783.000000
2390.833496 6161.000000
2391.884033 6659.000000
2392.934326 6553.000000
2393.983643 6250.000000
2395.032959 6246.000000
2396.080811 6886.000000
2397.128174 7030.000000
2398.175293 6375.000000
2399.221436 6701.000000
2400.266846 6189.000000
2401.311523 6784.000000
2402.356201 7752.000000
2403.399414 7450.000000
2404.442627 6538.000000
2405.484375 5775.000000
2406.526367 6713.000000
2407.567627 7173.000000
2408.607910 6212.000000
2409.647461 6405.000000
2410.686035 6339.000000
2411.724854 6063.000000
2412.762451 6595.000000
2413.799805 6940.000000
2414.835938 7319.000000
2415.871826 6247.000000
2416.906982 6306.000000
2417.941650 6667.000000
2418.974854 7145.000000
2420.008301 6495.000000
2421.040771 6722.000000
2422.072998 6796.000000
2423.103760 7038.000000
2424.134521 6414.000000
2425.164795 6858.000000
2426.193848 6928.000000
2427.222900 6673.000000
2428.250244 7425.000000
2429.278076 6825.000000
2430.304688 7300.000000
2431.331055 6973.000000
2432.355957 7779.000000
2433.381104 6594.000000
2434.405273 7094.000000
2435.429199 6697.000000
2436.451904 5858.000000
2437.473877 6334.000000
2438.495605 6645.000000
2439.516602 6685.000000
2440.537109 6014.000000
2441.556396 6553.000000
2442.575684 6620.000000
2443.593994 8470.000000
2444.612061 6291.000000
2445.628662 6452.000000
2446.645264 6615.000000
2447.661133 6048.000000
2448.677002 7045.000000
2449.691406 6842.000000
2450.705078 5589.000000
2451.718262 7250.000000
2452.731201 6016.000000
2453.743408 7263.000000
2454.754639 6716.000000
2455.765625 7695.000000
2456.775879 6393.000000
2457.785645 7612.000000
2458.794434 5954.000000
2459.802490 6016.000000
2460.810547 6358.000000
2461.817383 7415.000000
2462.823975 5437.000000
2463.829346 7456.000000
2464.834473 6949.000000
2465.839355 5816.000000
2466.843018 6610.000000
2467.846436 6414.000000
2468.848877 7625.000000
2469.851074 7442.000000
2470.852783 6905.000000
2471.853516 6689.000000
2472.853271 7005.000000
2473.853027 6715.000000
2474.851807 5764.000000
2475.850098 6691.000000
2476.847412 7050.000000
2477.844482 6263.000000
2478.841553 7007.000000
2479.837158 5817.000000
2480.832764 7179.000000
2481.826660 6733.000000
2482.820557 8166.000000
2483.813965 6902.000000
2484.806885 6790.000000
2485.798828 7499.000000
2486.790039 7250.000000
2487.781006 6728.000000
2488.771484 5928.000000
2489.760986 6616.000000
2490.749756 6547.000000
2491.738525 5737.000000
2492.726318 6745.000000
2493.712891 6593.000000
2494.699463 8012.000000
2495.685547 6791.000000
2496.670898 7167.000000
2497.655273 8414.000000
2498.639404 6051.000000
2499.623535 6904.000000
2500.606201 5810.000000
2501.588379 7058.000000
2502.570068 6920.000000
2503.551025 7282.000000
2504.531494 6600.000000
2505.511719 5792.000000
2506.490479 6352.000000
2507.468994 7565.000000
2508.447021 6817.000000
2509.424561 7069.000000
2510.401123 6105.000000
2511.377441 5940.000000
2512.353027 6474.000000
2513.328125 6270.000000
2514.302734 6471.000000
2515.276123 7494.000000
2516.249268 6804.000000
2517.222168 6873.000000
2518.194092 6156.000000
2519.165283 6819.000000
2520.135986 6917.000000
2521.106445 7780.000000
2522.076172 8098.000000
2523.044922 6121.000000
2524.012939 6095.000000
2524.980957 7847.000000
2525.947998 6360.000000
2526.914795 5496.000000
2527.880371 7298.000000
2528.845947 7055.000000
2529.810791 7735.000000
2530.775146 6357.000000
2531.738281 6389.000000
2532.701660 5893.000000
2533.664063 6055.000000
2534.626221 6779.000000
2535.587158 6434.000000
2536.547363 6166.000000
2537.507813 6178.000000
2538.467285 6758.000000
2539.426025 6835.000000
2540.383789 6673.000000
2541.341797 6208.000000
2542.299072 6820.000000
2543.255371 6105.000000
2544.211426 7138.000000
2545.166260 6195.000000
2546.121338 7844.000000
2547.075684 7068.000000
2548.029297 6643.000000
2548.981934 7232.000000
2549.934326 6759.000000
2550.886230 7012.000000
2551.837402 6437.000000
2552.787842 7683.000000
2553.737793 7316.000000
2554.687500 7467.000000
2555.636475 6733.000000
2556.584961 6294.000000
2557.532227 7143.000000
2558.479492 6329.000000
2559.426025 6579.000000
2560.372070 6754.000000
2561.317139 7408.000000
2562.261963 6722.000000
2563.206299 7254.000000
2564.150146 6930.000000
2565.093506 6625.000000
2566.035400 6633.000000
2566.977539 6608.000000
2567.918945 6204.000000
2568.859619 7209.000000
2569.799561 7299.000000
2570.739502 5723.000000
2571.678467 6225.000000
2572.617188 7572.000000
2573.554932 7267.000000
2574.492432 5482.000000
2575.429199 7022.000000
2576.365234 6823.000000
2577.300781 7565.000000
2578.235596 6354.000000
2579.170410 5933.000000
2580.104248 7068.000000
2581.037598 7334.000000
2581.970215 5895.000000
2582.902588 6928.000000
2583.834229 5463.000000
2584.765381 7072.000000
2585.696045 6997.000000
2586.625488 6862.000000
2587.554932 7269.000000
2588.483887 6463.000000
2589.412598 7424.000000
2590.339600 7366.000000
2591.266846 5968.000000
2592.193604 6854.000000
2593.119629 6250.000000
2594.045410 5668.000000
2594.969971 7656.000000
2595.894287 7649.000000
2596.818115 5372.000000
2597.741455 7265.000000
2598.663818 6252.000000
2599.585938 6932.000000
2600.507568 8331.000000
2601.428467 6469.000000
2602.348633 5794.000000
2603.268555 6392.000000
2604.187988 6404.000000
2605.107178 6378.000000
2606.025391 5815.000000
2606.942383 5984.000000
2607.859619 7293.000000
2608.776611 5889.000000
2609.692627 7517.000000
2610.607422 6735.000000
2611.522705 6681.000000
2612.437256 6582.000000
2613.350830 6618.000000
2614.264404 6166.000000
2615.176758 7687.000000
2616.089111 7059.000000
2617.000488 6861.000000
2617.911621 5692.000000
2618.822021 7449.000000
2619.732178 6662.000000
2620.641602 6146.000000
2621.550537 6662.000000
2622.458496 6281.000000
2623.366699 6882.000000
2624.273926 6708.000000
2625.180664 7080.000000
2626.086670 6157.000000
2626.992432 6591.000000
2627.897461 6585.000000
2628.802246 7881.000000
2629.706299 6548.000000
2630.609375 6439.000000
2631.512451 6503.000000
2632.414551 5654.000000
2633.316650 6779.000000
2634.218506 6945.000000
2635.118652 6743.000000
2636.019043 6442.000000
2636.918701 6420.000000
2637.818115 6067.000000
2638.716064 6890.000000
2639.614502 6734.000000
2640.512451 6356.000000
2641.409668 6228.000000
2642.305664 6207.000000
2643.201660 6721.000000
2644.097412 6125.000000
2644.992432 6501.000000
2645.887207 6648.000000
2646.780518 7122.000000
2647.673828 6386.000000
2648.566895 6830.000000
2649.459717 6450.000000
2650.350830 7556.000000
2651.242188 6508.000000
2652.133057 7709.000000
2653.023193 7304.000000
2653.913086 6656.000000
2654.801758 7356.000000
2655.690674 6572.000000
2656.579102 6598.000000
2657.466553 7288.000000
2658.353027 6481.000000
2659.239990 7129.000000
2660.126221 6876.000000
2661.011963 6812.000000
2661.896484 6596.000000
2662.781006 6423.000000
2663.665283 6243.000000
2664.548828 7068.000000
2665.431885 7833.000000
2666.314209 7309.000000
2667.196045 6242.000000
2668.077148 6618.000000
2668.958496 6112.000000
2669.838379 6615.000000
2670.718506 7371.000000
2671.597900 7169.000000
2672.477295 6164.000000
2673.355957 6168.000000
2674.232910 6527.000000
2675.110596 6835.000000
2675.987549 6503.000000
2676.863770 8184.000000
2677.739502 7184.000000
2678.614502 6246.000000
2679.489746 7767.000000
2680.364014 7070.000000
2681.237793 7408.000000
2682.110840 7024.000000
2682.983643 6237.000000
2683.856201 6115.000000
2684.728027 6992.000000
2685.599121 6569.000000
2686.469971 6904.000000
2687.340332 7074.000000
2688.210449 6731.000000
2689.078857 6309.000000
2689.947998 7427.000000
2690.816406 7132.000000
2691.684570 6689.000000
2692.552002 6915.000000
2693.418213 5878.000000
2694.284912 7078.000000
2695.150635 7508.000000
2696.016357 7246.000000
2696.880615 7970.000000
2697.745605 6612.000000
2698.609131 7253.000000
2699.472900 5925.000000
2700.335205 7465.000000
2701.197998 6825.000000
2702.059814 5976.000000
2702.921143 6910.000000
2703.782471 6766.000000
2704.642578 7446.000000
2705.502686 7346.000000
2706.362305 6645.000000
2707.221680 6860.000000
2708.079346 7209.000000
2708.937256 6872.000000
2709.795654 7384.000000
2710.652832 6763.000000
2711.509277 6036.000000
2712.365234 6899.000000
2713.221191 6117.000000
2714.076416 6940.000000
2714.930908 6170.000000
2715.784912 6852.000000
2716.638916 7315.000000
2717.491943 6355.000000
2718.345215 6505.000000
2719.196777 7720.000000
2720.048828 6793.000000
2720.900635 6295.000000
2721.751221 6590.000000
2722.601807 6507.000000
2723.451904 7208.000000
2724.301270 7091.000000
2725.150635 7006.000000
2725.998779 6673.000000
2726.846436 6594.000000
2727.694580 7032.000000
2728.541504 6902.000000
2729.388916 5596.000000
2730.234863 7599.000000
2731.080078 7045.000000
2731.925781 6464.000000
2732.770508 6996.000000
2733.615234 7373.000000
2734.458740 6962.000000
2735.302490 7891.000000
2736.145508 7084.000000
2736.988037 6085.000000
2737.829590 6267.000000
2738.671631 6808.000000
2739.512695 6911.000000
2740.353516 5852.000000
2741.194092 5962.000000
2742.033447 7711.000000
2742.872803 6833.000000
2743.712158 6962.000000
2744.550293 6848.000000
2745.387939 7905.000000
2746.225586 6387.000000
2747.062744 7070.000000
2747.899658 6220.000000
2748.736084 6064.000000
2749.571289 6595.000000
2750.406738 6407.000000
2751.241699 6392.000000
2752.075928 6241.000000
2752.909912 6944.000000
2753.743408 6947.000000
2754.576904 8039.000000
2755.409424 6821.000000
2756.241455 7283.000000
2757.072998 6920.000000
2757.904541 7167.000000
2758.735107 7211.000000
2759.565918 7295.000000
2760.395508 7235.000000
2761.225098 6744.000000
2762.054443 7346.000000
2762.883057 6895.000000
2763.711182 6802.000000
2764.538818 7071.000000
2765.366455 6708.000000
2766.193604 7956.000000
2767.020020 5835.000000
2767.845947 7481.000000
2768.671387 6943.000000
2769.496582 7828.000000
2770.321777 7093.000000
2771.145752 6811.000000
2771.969727 6535.000000
2772.793701 7607.000000
2773.616455 6652.000000
2774.439453 6871.000000
2775.261230 6907.000000
2776.083008 6974.000000
2776.904785 6563.000000
2777.725586 8020.000000
2778.545654 6534.000000
2779.365967 7075.000000
2780.185791 7268.000000
2781.005615 6490.000000
2781.823486 5976.000000
2782.642578 8077.000000
2783.460449 6566.000000
2784.278076 6793.000000
2785.095215 7177.000000
2785.911865 7265.000000
2786.728271 7258.000000
2787.544189 6289.000000
2788.359863 5947.000000
2789.174561 6446.000000
2789.989746 6986.000000
2790.804199 7181.000000
2791.618164 6638.000000
2792.431885 7450.000000
2793.244385 8773.000000
2794.057129 6933.000000
2794.869385 7458.000000
2795.681152 7185.000000
2796.492188 7424.000000
2797.303955 6566.000000
2798.114502 7246.000000
2798.925049 7065.000000
2799.734131 7382.000000
2800.543945 8301.000000
2801.353027 7896.000000
2802.161865 6697.000000
2802.970215 7203.000000
2803.777588 6217.000000
2804.585449 6447.000000
2805.392578 6949.000000
2806.199463 7071.000000
2807.005127 7142.000000
2807.811279 6715.000000
2808.616699 6475.000000
2809.422119 7363.000000
2810.226807 6270.000000
2811.030518 7685.000000
2811.834717 7522.000000
2812.638428 6339.000000
2813.441895 6175.000000
2814.243896 6376.000000
2815.046631 7306.000000
2815.848633 7793.000000
2816.650391 6187.000000
2817.451660 6551.000000
2818.252441 7276.000000
2819.052734 6529.000000
2819.853271 6638.000000
2820.652832 8030.000000
2821.451904 7210.000000
2822.250977 6528.000000
2823.049805 6998.000000
2823.848145 6392.000000
2824.645508 7024.000000
2825.443115 7056.000000
2826.239990 6700.000000
2827.037109 7381.000000
2827.833496 7980.000000
2828.629150 7024.000000
2829.424805 7373.000000
2830.220215 7873.000000
2831.015137 7426.000000
2831.809326 6768.000000
2832.603516 6785.000000
2833.397461 5690.000000
2834.190918 6891.000000
2834.983643 7180.000000
2835.776123 8176.000000
2836.568604 7663.000000
2837.360840 7512.000000
2838.152588 6439.000000
2838.943359 6781.000000
2839.734131 8933.000000
2840.525146 7506.000000
2841.315186 6244.000000
2842.104736 7678.000000
2842.894531 7243.000000
2843.683350 7363.000000
2844.472168 7825.000000
2845.260986 7752.000000
2846.048828 7564.000000
2846.836182 7327.000000
2847.623779 7487.000000
2848.410889 7387.000000
2849.197266 6701.000000
2849.983643 7437.000000
2850.769775 7230.000000
2851.555420 7558.000000
2852.340088 7127.000000
2853.125244 6959.000000
2853.910156 7514.000000
2854.694336 7168.000000
2855.478516 6984.000000
2856.261475 8314.000000
2857.044678 6875.000000
2857.827637 6864.000000
2858.610107 7768.000000
2859.392334 6273.000000
2860.174072 6661.000000
2860.955566 7683.000000
2861.737305 7452.000000
2862.518311 7633.000000
2863.298584 6587.000000
2864.078613 6834.000000
2864.858643 8166.000000
2865.638428 7452.000000
2866.417236 8162.000000
2867.196289 7718.000000
2867.974854 6808.000000
2868.753174 6964.000000
2869.531006 7232.000000
2870.308594 6957.000000
2871.085938 7465.000000
2871.863037 6996.000000
2872.639648 6461.000000
2873.415771 7492.000000
2874.191895 7135.000000
2874.967529 8314.000000
2875.742920 7209.000000
2876.517822 6583.000000
2877.292480 8029.000000
2878.067139 6714.000000
2878.841553 7885.000000
2879.615234 6731.000000
2880.388184 7270.000000
2881.161865 6714.000000
2881.934570 7625.000000
2882.707275 7898.000000
2883.479248 8259.000000
2884.250977 6228.000000
2885.023193 6745.000000
2885.794189 6934.000000
2886.564697 6133.000000
2887.335693 8386.000000
2888.106689 7421.000000
2888.876953 8038.000000
2889.646240 7580.000000
2890.415771 6903.000000
2891.185303 7289.000000
2891.954346 7414.000000
2892.722900 7880.000000
2893.491455 7689.000000
2894.259033 7075.000000
2895.027100 6578.000000
2895.794678 7457.000000
2896.562256 8349.000000
2897.328613 7363.000000
2898.095947 6567.000000
2898.862061 7161.000000
2899.628418 7050.000000
2900.393311 8258.000000
2901.158691 7095.000000
2901.924561 6523.000000
2902.688965 7698.000000
2903.453369 7760.000000
2904.218018 8433.000000
2904.981689 6707.000000
2905.746094 8478.000000
2906.509766 6688.000000
2907.272705 8473.000000
2908.035400 6567.000000
2908.798584 9011.000000
2909.561279 7053.000000
2910.322754 6829.000000
2911.084717 6829.000000
