scanname Analyse102
timestamp 2017-02-10 22:42:30
ccdbias 953.527832
ccdgain 3.473401
sigmaread 8.960639
laserwavenum -0.574117
wavenumcorrection -0.051153
scancount 1
totalexposurems 10000
singleexposurems 10000
measurementstate Unknown
scanmode Manual
snr 19.904818 1.059252 0.989369
replacelist 1
948 20002.000000 15196.000000
peaks 7
399.242554 0.049933 0.000000 0.344133 0.000031
809.975708 0.047288 0.000000 0.876251 0.000107
843.333801 0.045713 0.000000 0.351805 0.000078
971.813477 0.037785 0.000000 0.053825 0.000010
1158.374512 0.038089 0.000000 0.198756 0.000021
1328.414307 0.042047 0.000000 0.216338 0.000042
1670.847900 0.038153 0.000000 0.775464 0.000383
finalresult GLS_Multiple 89
A11883	Polypropylene (Isotactic)	5.057830e-001
A0115	Polypropylene	4.949672e-001
A13500	Poly(propylene-co-ethylene)	4.949051e-001
A1531	Ethyl formate	3.697121e-001
A0400	Potassium permanganate	3.423986e-001
A9092	p-Tolyl ether	3.421450e-001
A2703	Acetaldehyde dimethyl acetal	3.380812e-001
A10674	Dibutyl succinate	3.378180e-001
A2313	Barium peroxide	3.371963e-001
A1676	Trifluoroacetic acid	3.369814e-001
A9321	Methyl 2-hydroxyisobutyrate	3.364208e-001
A10529	1-Formylpiperazine	3.279536e-001
A10301	2-Methoxytetrahydropyran	3.255633e-001
A0369	2,4,6-Tribromophenol	3.239614e-001
A6290	Bis(2,2,2-trifluoroethyl) phosphite	3.230242e-001
A4881	2-(2-Chloroethoxy)tetrahydro-2H-pyran	3.229086e-001
A11872	Poly(methyl methacrylate)	3.219967e-001
A3625	1-Dimethylamino-2-propanol	3.207072e-001
A11885	Poly(methyl methacrylate-co-butyl methacrylate)	3.190210e-001
A0524	Propionic acid	3.183690e-001
A4269	2,4-Dibromoanisole	3.174555e-001
A0098	Roundup (weed and grass killer)	3.152151e-001
A7225	Dibutyl adipate	3.149883e-001
A12448	Tribromofluoromethane	3.142748e-001
A1270	Methyl DL-lactate	3.137320e-001
A3222	Potassium nitrite	3.131450e-001
A8580	Sodium permanganate solution	3.127500e-001
A6278	6-Methylnicotinamide	3.120179e-001
A2721	Formaldehyde diethyl acetal	3.118606e-001
A1584	Pentane	3.110964e-001
A2210	Calcium peroxide hydrate	3.107261e-001
A0793	Tris(2-methoxyethoxy)(vinyl)silane	3.097962e-001
A5382	3-Methoxypropionic acid	3.096957e-001
A3868	N-formylmorpholine	3.077426e-001
A8663	4-Methyl-3,5-dinitrobenzoic acid	3.075759e-001
A3653	(R)-(+)-3-Methylcyclopentanone	3.073865e-001
A2098	Diethylene glycol dibutyl ether	3.070201e-001
A1547	Isovaleric acid	3.063318e-001
A2727	Acrolein diethyl acetal	3.059214e-001
A13507	Poly(methyl methacrylate-co-ethyl acrylate)	3.055785e-001
A8248	5-Hydroxy-2-nitrobenzaldehyde	3.053902e-001
A7183	Dibutyl oxalate	3.050694e-001
A3285	4,N,N-Trimethylaniline	3.047489e-001
A12725	Cerium(III) fluoride	3.046606e-001
A1697	Ethyl vinyl ether	3.044838e-001
A6025	2-Nitrothiophene	3.043072e-001
A8920	Perrhenic acid solution	3.023374e-001
A13820	(-)-Methyl L-lactate	3.022494e-001
A15973	Silver azide	3.010001e-001
A0642	1,4-Diazabicyclo[2.2.2]octane	3.007272e-001
A14007	1,2-Dichlorotetramethyldisilane	3.005629e-001
A9546	4-Methoxy-alpha-methylbenzyl alcohol	3.002027e-001
A1928	Ammonium sulfate	2.998101e-001
A0408	Chromium(VI) oxide	2.994501e-001
A9308	Dimethyl 2,4-dimethylglutarate,mixture of (+/-) and meso	2.987100e-001
A0673	Hexachlorocyclopentadiene	2.979280e-001
A10745	Neomycin sulfate salt	2.978524e-001
A3132	4-Methyl-3-nitrobenzoic acid	2.970935e-001
A13034	4'-Nitrobenzo-15-crown-5	2.962067e-001
A7885	beta-Carotene	2.961960e-001
A2322	Silver sulfate	2.961853e-001
A0937	Polyethylene glycol dimethyl ether	2.958826e-001
A14792	N-Guanylurea sulfate salt hydrate	2.956346e-001
A4645	1-Bromo-4-(trifluoromethoxy)benzene	2.954407e-001
A2273	Triethylene glycol dimethyl ether	2.942784e-001
A0629	Cyanuric chloride	2.940954e-001
A2413	Sodium selenate	2.937949e-001
A2863	Streptomycin sulfate salt	2.936557e-001
A11482	Methyl 5-methoxysalicylate	2.920179e-001
A0199	Isobutyric acid	2.920073e-001
A9112	L-(+)-Arabinose	2.916978e-001
A6700	4'-Methoxypropiophenone	2.916123e-001
A1644	Ethyl isobutyrate	2.911859e-001
A5377	4-Methyl-2-nitroanisole	2.905256e-001
A10296	Tri(ethylene glycol) divinyl ether	2.901644e-001
A7633	2-Nitro-p-cymene	2.901220e-001
A14724	Ammonium metatungstate hydrate	2.897290e-001
A4629	1,4,5,6-Tetrahydropyrimidine	2.896654e-001
A0518	Propylene glycol	2.895593e-001
A14069	(R)-(-)-1,2-Propanediol	2.892622e-001
A2423	Hydroxyurea	2.884997e-001
A2402	Gentamicin sulfate salt	2.883204e-001
A4025	2,4-Dimethylpentane	2.882145e-001
A5042	2,4,6-Trichloropyrimidine	2.881407e-001
A10581	Piperidine	2.872121e-001
A4543	1,4-Butanediol divinyl ether	2.865063e-001
A1754	N,N-Dimethylhydrazine	2.852777e-001
A0761	N,N,N',N'-Tetrakis(2-Hydroxypropyl)ethylenediamine	2.841269e-001
A0419	Sodium chlorite	2.815763e-001
spectrum 2048
-97.027336 45044.000000
-94.400467 45044.000000
-91.775475 45722.000000
-89.152374 45734.000000
-86.531143 46593.000000
-83.911812 46486.000000
-81.294342 46708.000000
-78.678749 46484.000000
-76.065033 46812.000000
-73.453194 47245.000000
-70.843216 47024.000000
-68.235123 47292.000000
-65.628876 47331.000000
-63.024509 47303.000000
-60.422001 47213.000000
-57.821346 47732.000000
-55.222553 47051.000000
-52.625618 46446.000000
-50.030537 46823.000000
-47.437309 46771.000000
-44.845932 47060.000000
-42.256401 46589.000000
-39.668713 47424.000000
-37.082874 47237.000000
-34.498878 46786.000000
-31.916718 47603.000000
-29.336405 46891.000000
-26.757919 47536.000000
-24.181276 46959.000000
-21.606459 46944.000000
-19.033482 46654.000000
-16.462324 46657.000000
-13.893001 46276.000000
-11.325502 45214.000000
-8.759823 46664.000000
-6.195970 46384.000000
-3.633929 46786.000000
-1.073713 46843.000000
1.484695 46357.000000
4.041282 45379.000000
6.596064 45391.000000
9.149030 45508.000000
11.700194 44085.000000
14.249546 43418.000000
16.797102 42097.000000
19.342846 41647.000000
21.886797 40061.000000
24.428944 37073.000000
26.969294 34380.000000
29.507858 31615.000000
32.044624 25518.000000
34.579590 15881.000000
37.112778 9639.000000
39.644184 7349.000000
42.173798 6991.000000
44.701614 6775.000000
47.227673 5962.000000
49.751942 5149.000000
52.274441 4665.000000
54.795143 4134.000000
57.314091 4467.000000
59.831264 5135.000000
62.346661 6795.000000
64.860283 8058.000000
67.372147 7436.000000
69.882263 5550.000000
72.390587 3746.000000
74.897156 3013.000000
77.401978 2372.000000
79.905045 1937.000000
82.406334 1852.000000
84.905884 1729.000000
87.403679 1598.000000
89.899742 1828.000000
92.394028 1950.000000
94.886574 2364.000000
97.377403 2465.000000
99.866463 2125.000000
102.353775 1675.000000
104.839363 1284.000000
107.323212 1240.000000
109.805313 1127.000000
112.285690 1155.000000
114.764343 931.000000
117.241272 959.000000
119.716446 988.000000
122.189911 778.000000
124.661644 834.000000
127.131668 902.000000
129.599930 850.000000
132.066528 876.000000
134.531372 800.000000
136.994522 805.000000
139.455933 768.000000
141.915649 971.000000
144.373642 907.000000
146.829941 1065.000000
149.284531 1111.000000
151.737396 1183.000000
154.188583 1135.000000
156.638077 1249.000000
159.085846 1322.000000
161.531906 1458.000000
163.976288 1606.000000
166.418991 1782.000000
168.860001 1974.000000
171.299301 1925.000000
173.736893 2055.000000
176.172852 2047.000000
178.607071 2000.000000
181.039612 1915.000000
183.470505 1975.000000
185.899673 1966.000000
188.327194 1893.000000
190.753036 1963.000000
193.177200 1926.000000
195.599701 1943.000000
198.020508 1988.000000
200.439651 2094.000000
202.857132 2070.000000
205.272919 2137.000000
207.687057 2187.000000
210.099564 2247.000000
212.510391 2388.000000
214.919540 2512.000000
217.327057 2570.000000
219.732864 2698.000000
222.137085 2962.000000
224.539597 3124.000000
226.940491 3072.000000
229.339737 3300.000000
231.737320 3225.000000
234.133240 3247.000000
236.527542 3261.000000
238.920181 3359.000000
241.311203 3420.000000
243.700562 3302.000000
246.088303 3333.000000
248.474396 3333.000000
250.858856 3333.000000
253.241669 3287.000000
255.622910 3320.000000
258.002441 3427.000000
260.380402 3333.000000
262.756683 3358.000000
265.131409 3326.000000
267.504486 3440.000000
269.875916 3253.000000
272.245697 3330.000000
274.613922 3292.000000
276.980499 3271.000000
279.345490 3184.000000
281.708862 3322.000000
284.070587 3231.000000
286.430725 3248.000000
288.789246 3302.000000
291.146179 3136.000000
293.501495 3199.000000
295.855225 3167.000000
298.207306 3329.000000
300.557831 3183.000000
302.906769 3205.000000
305.254059 3230.000000
307.599823 3110.000000
309.943909 3274.000000
312.286469 3103.000000
314.627411 3214.000000
316.966736 3119.000000
319.304504 3148.000000
321.640717 3172.000000
323.975281 3109.000000
326.308289 2980.000000
328.639740 3171.000000
330.969604 3077.000000
333.297882 3128.000000
335.624542 3122.000000
337.949707 3061.000000
340.273254 3142.000000
342.595245 3111.000000
344.915680 3065.000000
347.234497 3048.000000
349.551758 2957.000000
351.867493 3008.000000
354.181641 3043.000000
356.494202 2962.000000
358.805206 3153.000000
361.114685 2950.000000
363.422638 2952.000000
365.728973 2915.000000
368.033722 3008.000000
370.337006 2943.000000
372.638672 3079.000000
374.938843 2993.000000
377.237457 2909.000000
379.534515 3037.000000
381.830017 2998.000000
384.123993 3001.000000
386.416382 3006.000000
388.707275 2997.000000
390.996643 3091.000000
393.284424 2984.000000
395.570679 3190.000000
397.855438 3321.000000
400.138580 3273.000000
402.420288 3225.000000
404.700470 3157.000000
406.979065 3128.000000
409.256134 3059.000000
411.531677 2918.000000
413.805695 3062.000000
416.078278 2962.000000
418.349243 3000.000000
420.618713 3110.000000
422.886688 3033.000000
425.153107 2944.000000
427.418030 2871.000000
429.681488 2852.000000
431.943359 2895.000000
434.203766 2914.000000
436.462616 2959.000000
438.720001 2807.000000
440.975891 2895.000000
443.230286 2837.000000
445.483154 2820.000000
447.734467 2782.000000
449.984375 2871.000000
452.232697 2782.000000
454.479584 2833.000000
456.725006 2880.000000
458.968872 2815.000000
461.211243 2810.000000
463.452118 2816.000000
465.691589 2830.000000
467.929474 2748.000000
470.165924 2750.000000
472.400848 2716.000000
474.634308 2688.000000
476.866333 2736.000000
479.096832 2583.000000
481.325836 2648.000000
483.553375 2765.000000
485.779419 2585.000000
488.004028 2783.000000
490.227173 2583.000000
492.448853 2692.000000
494.668976 2758.000000
496.887695 2650.000000
499.104919 2647.000000
501.320770 2614.000000
503.535004 2712.000000
505.747925 2704.000000
507.959259 2672.000000
510.169159 2617.000000
512.377625 2628.000000
514.584717 2675.000000
516.790222 2777.000000
518.994324 2644.000000
521.196899 2795.000000
523.398071 2703.000000
525.597900 2714.000000
527.796204 2697.000000
529.992981 2685.000000
532.188416 2770.000000
534.382324 2670.000000
536.574890 2609.000000
538.765930 2657.000000
540.955566 2611.000000
543.143799 2704.000000
545.330505 2592.000000
547.515747 2617.000000
549.699707 2534.000000
551.882080 2518.000000
554.063110 2540.000000
556.242615 2532.000000
558.420837 2530.000000
560.597534 2404.000000
562.772827 2452.000000
564.946716 2403.000000
567.119141 2456.000000
569.290161 2443.000000
571.459717 2484.000000
573.627991 2500.000000
575.794739 2518.000000
577.960022 2521.000000
580.123901 2458.000000
582.286499 2505.000000
584.447571 2444.000000
586.607239 2432.000000
588.765564 2543.000000
590.922363 2501.000000
593.077820 2483.000000
595.231873 2396.000000
597.384583 2419.000000
599.535767 2469.000000
601.685608 2549.000000
603.834106 2477.000000
605.981018 2423.000000
608.126709 2399.000000
610.270996 2473.000000
612.413818 2445.000000
614.555176 2469.000000
616.695313 2493.000000
618.833923 2454.000000
620.971252 2381.000000
623.107117 2490.000000
625.241577 2390.000000
627.374573 2461.000000
629.506409 2448.000000
631.636780 2385.000000
633.765747 2435.000000
635.893250 2331.000000
638.019470 2441.000000
640.144165 2417.000000
642.267639 2378.000000
644.389771 2318.000000
646.510437 2162.000000
648.629761 2378.000000
650.747681 2371.000000
652.864258 2363.000000
654.979431 2357.000000
657.093262 2312.000000
659.205627 2268.000000
661.316772 2338.000000
663.426514 2239.000000
665.534790 2301.000000
667.641907 2391.000000
669.747559 2176.000000
671.851746 2335.000000
673.954712 2218.000000
676.056274 2262.000000
678.156494 2371.000000
680.255310 2299.000000
682.352783 2402.000000
684.448975 2256.000000
686.543701 2452.000000
688.637207 2293.000000
690.729370 2223.000000
692.820007 2373.000000
694.909424 2445.000000
696.997559 2355.000000
699.084229 2407.000000
701.169678 2389.000000
703.253601 2358.000000
705.336304 2406.000000
707.417725 2406.000000
709.497681 2250.000000
711.576416 2126.000000
713.653687 2128.000000
715.729675 2193.000000
717.804382 2149.000000
719.877808 2217.000000
721.949707 2295.000000
724.020447 2424.000000
726.089844 2347.000000
728.157837 2163.000000
730.224487 2249.000000
732.289917 2150.000000
734.354004 2089.000000
736.416748 2207.000000
738.478149 2162.000000
740.538269 2106.000000
742.596985 2184.000000
744.654480 2141.000000
746.710693 2133.000000
748.765503 2139.000000
750.819031 2172.000000
752.871155 2164.000000
754.922058 2095.000000
756.971741 2150.000000
759.019958 2062.000000
761.066956 2061.000000
763.112671 2172.000000
765.156982 2198.000000
767.200012 2108.000000
769.241821 2111.000000
771.282288 2195.000000
773.321350 2059.000000
775.359253 2169.000000
777.395813 2136.000000
779.431152 2174.000000
781.465149 2146.000000
783.497742 2222.000000
785.529175 2165.000000
787.559204 1991.000000
789.587952 2216.000000
791.615540 2145.000000
793.641785 2283.000000
795.666626 2209.000000
797.690369 2334.000000
799.712708 2296.000000
801.733826 2243.000000
803.753601 2330.000000
805.772095 2523.000000
807.789368 2541.000000
809.805237 2588.000000
811.819946 2642.000000
813.833313 2523.000000
815.845459 2330.000000
817.856384 2198.000000
819.865967 2244.000000
821.874329 2253.000000
823.881287 2145.000000
825.887024 2149.000000
827.891541 2101.000000
829.894775 2093.000000
831.896729 2141.000000
833.897400 2181.000000
835.896851 2110.000000
837.894958 2234.000000
839.891968 2361.000000
841.887573 2405.000000
843.882019 2365.000000
845.875122 2324.000000
847.867004 2113.000000
849.857544 2145.000000
851.846802 2075.000000
853.835022 2061.000000
855.821838 2088.000000
857.807434 2030.000000
859.791748 2053.000000
861.774963 2042.000000
863.756775 2049.000000
865.737366 2043.000000
867.716675 1940.000000
869.694824 1981.000000
871.671631 1960.000000
873.647156 1983.000000
875.621643 2026.000000
877.594666 2015.000000
879.566650 2038.000000
881.537292 2069.000000
883.506775 2046.000000
885.474915 2064.000000
887.441895 2043.000000
889.407532 2055.000000
891.372009 2003.000000
893.335266 1928.000000
895.297302 2055.000000
897.258057 2014.000000
899.217590 2035.000000
901.175842 2070.000000
903.132996 1959.000000
905.088989 1937.000000
907.043579 2032.000000
908.996948 1958.000000
910.949158 1957.000000
912.900146 1955.000000
914.849854 1809.000000
916.798401 1923.000000
918.745728 1904.000000
920.691772 1823.000000
922.636536 1758.000000
924.580261 1806.000000
926.522827 1774.000000
928.464111 1768.000000
930.404053 1795.000000
932.342896 1712.000000
934.280457 1856.000000
936.216797 1808.000000
938.151978 1713.000000
940.085876 1903.000000
942.018677 1788.000000
943.950256 1848.000000
945.880676 1721.000000
947.809875 1765.000000
949.737732 1774.000000
951.664551 1680.000000
953.590088 1744.000000
955.514343 1706.000000
957.437500 1686.000000
959.359497 1825.000000
961.280212 1775.000000
963.199768 1821.000000
965.118164 1780.000000
967.035522 1917.000000
968.951416 1862.000000
970.866211 1910.000000
972.779785 1811.000000
974.692200 1932.000000
976.603394 1902.000000
978.513428 1836.000000
980.422180 1832.000000
982.329895 1754.000000
984.236389 1796.000000
986.141663 1793.000000
988.045837 1699.000000
989.948792 1736.000000
991.850525 1703.000000
993.751099 1764.000000
995.650513 1715.000000
997.548706 1821.000000
999.445740 1780.000000
1001.341553 1835.000000
1003.236206 1669.000000
1005.129761 1730.000000
1007.022034 1634.000000
1008.913391 1608.000000
1010.803406 1577.000000
1012.692200 1590.000000
1014.579834 1615.000000
1016.466309 1603.000000
1018.351624 1636.000000
1020.235779 1574.000000
1022.118713 1537.000000
1024.000610 1526.000000
1025.881226 1602.000000
1027.760742 1565.000000
1029.639282 1648.000000
1031.516479 1606.000000
1033.392334 1620.000000
1035.267212 1693.000000
1037.141113 1678.000000
1039.013550 1639.000000
1040.885010 1631.000000
1042.755127 1689.000000
1044.624268 1614.000000
1046.492188 1587.000000
1048.359009 1534.000000
1050.224731 1551.000000
1052.089233 1527.000000
1053.952637 1604.000000
1055.814697 1485.000000
1057.675781 1648.000000
1059.535767 1602.000000
1061.394409 1522.000000
1063.251953 1537.000000
1065.108398 1562.000000
1066.963745 1556.000000
1068.817871 1616.000000
1070.671143 1536.000000
1072.522949 1570.000000
1074.373779 1569.000000
1076.223389 1584.000000
1078.071777 1612.000000
1079.919312 1541.000000
1081.765503 1539.000000
1083.610474 1518.000000
1085.454590 1708.000000
1087.297363 1552.000000
1089.138916 1473.000000
1090.979736 1526.000000
1092.818970 1455.000000
1094.657471 1471.000000
1096.494629 1519.000000
1098.330566 1518.000000
1100.165527 1587.000000
1101.999268 1562.000000
1103.832031 1458.000000
1105.663452 1523.000000
1107.494019 1524.000000
1109.323242 1455.000000
1111.151489 1397.000000
1112.978516 1472.000000
1114.804565 1387.000000
1116.629395 1409.000000
1118.453125 1386.000000
1120.275635 1534.000000
1122.097046 1463.000000
1123.917603 1450.000000
1125.736694 1399.000000
1127.554932 1324.000000
1129.371826 1432.000000
1131.187866 1465.000000
1133.002686 1420.000000
1134.816406 1419.000000
1136.629028 1381.000000
1138.440430 1455.000000
1140.250854 1470.000000
1142.060181 1508.000000
1143.868164 1407.000000
1145.675415 1591.000000
1147.481201 1554.000000
1149.286133 1773.000000
1151.089966 1668.000000
1152.892578 1734.000000
1154.694336 1730.000000
1156.494629 1621.000000
1158.293945 1750.000000
1160.092285 1545.000000
1161.889282 1696.000000
1163.685547 1588.000000
1165.480469 1727.000000
1167.274292 1655.000000
1169.067261 1610.000000
1170.858887 1432.000000
1172.649536 1527.000000
1174.439209 1406.000000
1176.227417 1537.000000
1178.014771 1279.000000
1179.801025 1201.000000
1181.586182 1462.000000
1183.370239 1364.000000
1185.153198 1369.000000
1186.935181 1394.000000
1188.715942 1387.000000
1190.495728 1412.000000
1192.274414 1388.000000
1194.052124 1394.000000
1195.828613 1524.000000
1197.604004 1358.000000
1199.378296 1416.000000
1201.151489 1355.000000
1202.923828 1256.000000
1204.694824 1273.000000
1206.464966 1319.000000
1208.233887 1380.000000
1210.001709 1334.000000
1211.768677 1372.000000
1213.534302 1446.000000
1215.298950 1318.000000
1217.062500 1375.000000
1218.824951 1424.000000
1220.586548 1323.000000
1222.346924 1380.000000
1224.106201 1313.000000
1225.864624 1403.000000
1227.621826 1364.000000
1229.377930 1354.000000
1231.132935 1277.000000
1232.887085 1343.000000
1234.639893 1406.000000
1236.391724 1363.000000
1238.142700 1433.000000
1239.892334 1358.000000
1241.641113 1301.000000
1243.388550 1361.000000
1245.135254 1431.000000
1246.880737 1445.000000
1248.625366 1392.000000
1250.368652 1426.000000
1252.110962 1335.000000
1253.852173 1358.000000
1255.592529 1366.000000
1257.331787 1389.000000
1259.069824 1344.000000
1260.807007 1267.000000
1262.542969 1329.000000
1264.277954 1371.000000
1266.011963 1331.000000
1267.744995 1348.000000
1269.476807 1370.000000
1271.207642 1351.000000
1272.937256 1338.000000
1274.666016 1381.000000
1276.393677 1388.000000
1278.120239 1392.000000
1279.845947 1426.000000
1281.570313 1461.000000
1283.293823 1454.000000
1285.016357 1439.000000
1286.737915 1476.000000
1288.458252 1417.000000
1290.177612 1450.000000
1291.895874 1460.000000
1293.613159 1409.000000
1295.329468 1525.000000
1297.044556 1478.000000
1298.758667 1401.000000
1300.471802 1336.000000
1302.184082 1470.000000
1303.895142 1366.000000
1305.605225 1309.000000
1307.314209 1501.000000
1309.021973 1445.000000
1310.729126 1465.000000
1312.434814 1389.000000
1314.139771 1350.000000
1315.843750 1369.000000
1317.546509 1398.000000
1319.248291 1558.000000
1320.949219 1451.000000
1322.648804 2428.000000
1324.347534 519.000000
1326.045532 1557.000000
1327.742188 1593.000000
1329.437744 1635.000000
1331.132446 1572.000000
1332.825928 1575.000000
1334.518555 1559.000000
1336.210327 1417.000000
1337.900757 1326.000000
1339.590454 1345.000000
1341.279053 1262.000000
1342.966553 1410.000000
1344.653076 1327.000000
1346.338501 1368.000000
1348.022949 1395.000000
1349.706543 1300.000000
1351.388916 1419.000000
1353.070313 1418.000000
1354.750854 1363.000000
1356.430176 1433.000000
1358.108887 1527.000000
1359.786255 1403.000000
1361.462524 1567.000000
1363.137817 1466.000000
1364.812378 1493.000000
1366.485718 1442.000000
1368.158081 1489.000000
1369.829468 1438.000000
1371.499878 1387.000000
1373.169189 1497.000000
1374.837524 1379.000000
1376.505005 1378.000000
1378.171387 1432.000000
1379.836792 1397.000000
1381.501221 1397.000000
1383.164429 1366.000000
1384.827026 1415.000000
1386.488281 1388.000000
1388.148682 1306.000000
1389.807983 1342.000000
1391.466309 1260.000000
1393.123901 1333.000000
1394.780273 1296.000000
1396.435791 1335.000000
1398.090088 1296.000000
1399.743530 1365.000000
1401.395874 1218.000000
1403.047485 1323.000000
1404.697876 1337.000000
1406.347168 1337.000000
1407.995728 1283.000000
1409.643188 1212.000000
1411.289673 1241.000000
1412.935303 1210.000000
1414.579956 1197.000000
1416.223389 1206.000000
1417.865967 1256.000000
1419.507446 1109.000000
1421.148071 1143.000000
1422.787720 1149.000000
1424.426270 1189.000000
1426.063965 1148.000000
1427.700562 1227.000000
1429.336182 1063.000000
1430.971069 1146.000000
1432.604858 1095.000000
1434.237549 1240.000000
1435.869263 1226.000000
1437.500122 1258.000000
1439.129883 1340.000000
1440.758545 1259.000000
1442.386597 1232.000000
1444.013550 1213.000000
1445.639282 1312.000000
1447.264404 1237.000000
1448.888428 1206.000000
1450.511475 1336.000000
1452.133545 1326.000000
1453.754517 1328.000000
1455.374512 1279.000000
1456.993774 1536.000000
1458.611694 1464.000000
1460.229004 496.000000
1461.845337 1429.000000
1463.460449 1315.000000
1465.074707 1363.000000
1466.688110 1317.000000
1468.300415 1276.000000
1469.911865 1274.000000
1471.522461 1337.000000
1473.131836 1211.000000
1474.740234 1290.000000
1476.347778 1183.000000
1477.954346 1235.000000
1479.560181 1250.000000
1481.164795 1130.000000
1482.768555 1123.000000
1484.371094 1141.000000
1485.973022 1086.000000
1487.573730 1104.000000
1489.173706 1035.000000
1490.772583 1102.000000
1492.370605 954.000000
1493.967529 985.000000
1495.563599 1099.000000
1497.158691 1150.000000
1498.752808 1075.000000
1500.346191 1065.000000
1501.938477 1069.000000
1503.529541 1130.000000
1505.120117 1176.000000
1506.709351 1034.000000
1508.297974 1034.000000
1509.885498 1070.000000
1511.471924 1073.000000
1513.057617 975.000000
1514.642212 1036.000000
1516.225952 1036.000000
1517.808594 1164.000000
1519.390503 1026.000000
1520.971313 998.000000
1522.551392 1023.000000
1524.130249 989.000000
1525.708252 1136.000000
1527.285522 985.000000
1528.861572 1020.000000
1530.436890 1094.000000
1532.011108 927.000000
1533.584595 1003.000000
1535.156860 971.000000
1536.728394 1027.000000
1538.298950 972.000000
1539.868652 1066.000000
1541.437134 978.000000
1543.004883 938.000000
1544.571777 926.000000
1546.137451 1004.000000
1547.702393 996.000000
1549.266235 948.000000
1550.829468 1027.000000
1552.391357 1047.000000
1553.952637 1032.000000
1555.512817 1033.000000
1557.072266 1063.000000
1558.630615 998.000000
1560.188232 887.000000
1561.744751 944.000000
1563.300049 967.000000
1564.854736 879.000000
1566.408691 985.000000
1567.961670 981.000000
1569.513306 963.000000
1571.064209 930.000000
1572.614380 978.000000
1574.163574 978.000000
1575.711426 885.000000
1577.258789 906.000000
1578.805176 960.000000
1580.350708 955.000000
1581.895264 948.000000
1583.438599 870.000000
1584.981323 1009.000000
1586.523193 892.000000
1588.063965 982.000000
1589.603760 972.000000
1591.142822 901.000000
1592.680786 930.000000
1594.218262 887.000000
1595.754395 972.000000
1597.289429 952.000000
1598.823975 902.000000
1600.357544 856.000000
1601.890259 955.000000
1603.421387 883.000000
1604.952271 895.000000
1606.482300 928.000000
1608.011108 908.000000
1609.538818 857.000000
1611.065918 826.000000
1612.592285 994.000000
1614.117676 856.000000
1615.642212 956.000000
1617.165405 994.000000
1618.687866 927.000000
1620.209595 904.000000
1621.730469 856.000000
1623.249878 800.000000
1624.768799 944.000000
1626.286987 914.000000
1627.804321 872.000000
1629.320557 811.000000
1630.835449 860.000000
1632.349854 959.000000
1633.863525 765.000000
1635.376099 804.000000
1636.887451 823.000000
1638.398438 831.000000
1639.908325 809.000000
1641.417358 938.000000
1642.925049 856.000000
1644.432373 851.000000
1645.938843 802.000000
1647.444336 817.000000
1648.948975 831.000000
1650.452148 800.000000
1651.954712 793.000000
1653.456909 765.000000
1654.957764 826.000000
1656.457520 850.000000
1657.956421 813.000000
1659.454956 790.000000
1660.952271 846.000000
1662.448853 819.000000
1663.943848 896.000000
1665.438599 762.000000
1666.932495 776.000000
1668.425415 740.000000
1669.916992 1735.000000
1671.408081 821.000000
1672.898560 884.000000
1674.387939 780.000000
1675.875854 672.000000
1677.363525 739.000000
1678.850220 814.000000
1680.336060 800.000000
1681.821045 756.000000
1683.304565 768.000000
1684.787842 707.000000
1686.270264 655.000000
1687.751587 800.000000
1689.231445 744.000000
1690.711060 708.000000
1692.189941 854.000000
1693.667847 682.000000
1695.144775 747.000000
1696.620483 828.000000
1698.095825 736.000000
1699.569946 744.000000
1701.043457 728.000000
1702.515503 718.000000
1703.987305 732.000000
1705.458130 736.000000
1706.928101 683.000000
1708.396729 773.000000
1709.864868 736.000000
1711.332275 799.000000
1712.798584 755.000000
1714.264282 743.000000
1715.728271 723.000000
1717.192139 797.000000
1718.655151 851.000000
1720.117188 683.000000
1721.578003 866.000000
1723.038208 670.000000
1724.497681 747.000000
1725.956299 714.000000
1727.413940 694.000000
1728.870239 745.000000
1730.326294 772.000000
1731.781372 777.000000
1733.235474 681.000000
1734.688354 704.000000
1736.140991 601.000000
1737.592529 571.000000
1739.043335 674.000000
1740.493164 701.000000
1741.941650 745.000000
1743.389771 667.000000
1744.837036 714.000000
1746.283569 621.000000
1747.728516 714.000000
1749.173218 663.000000
1750.617065 754.000000
1752.060059 787.000000
1753.501587 746.000000
1754.942871 773.000000
1756.383301 712.500000
1757.822754 652.000000
1759.261230 645.000000
1760.698730 599.000000
1762.135742 574.000000
1763.571777 703.000000
1765.006958 692.000000
1766.440674 698.000000
1767.874268 650.000000
1769.306885 619.000000
1770.738647 698.000000
1772.169556 695.000000
1773.599243 712.000000
1775.028198 656.000000
1776.456665 602.000000
1777.884155 649.000000
1779.310303 599.000000
1780.736206 608.000000
1782.161011 636.000000
1783.585205 611.000000
1785.007935 669.000000
1786.430176 722.000000
1787.851685 520.000000
1789.272461 763.000000
1790.692261 515.000000
1792.110718 662.000000
1793.528687 655.000000
1794.946045 588.000000
1796.362549 523.000000
1797.777588 543.000000
1799.192261 509.000000
1800.606323 661.000000
1802.019165 563.000000
1803.431396 555.000000
1804.842285 658.000000
1806.252686 647.000000
1807.662354 542.000000
1809.071045 646.000000
1810.478638 575.000000
1811.885742 644.000000
1813.291992 567.000000
1814.697266 588.000000
1816.101440 628.000000
1817.505249 539.000000
1818.908081 639.000000
1820.310059 593.000000
1821.711426 601.000000
1823.111328 567.000000
1824.510620 562.000000
1825.909424 546.000000
1827.307373 603.000000
1828.703979 585.000000
1830.099976 650.000000
1831.495239 576.000000
1832.889893 560.000000
1834.283569 549.000000
1835.675903 637.000000
1837.067749 489.000000
1838.458984 492.000000
1839.849243 567.000000
1841.238281 602.000000
1842.626953 538.000000
1844.014648 505.000000
1845.401611 465.000000
1846.787231 554.000000
1848.172607 608.000000
1849.557129 545.000000
1850.940918 478.000000
1852.323608 485.000000
1853.705078 524.000000
1855.086060 573.000000
1856.466553 554.000000
1857.846069 449.000000
1859.224121 495.000000
1860.602051 632.000000
1861.979004 542.000000
1863.355225 484.000000
1864.730591 490.000000
1866.104492 426.000000
1867.478271 512.000000
1868.851196 551.000000
1870.223022 519.000000
1871.593872 453.000000
1872.964355 485.000000
1874.333740 504.000000
1875.702637 535.000000
1877.069946 551.000000
1878.437134 437.000000
1879.803345 506.000000
1881.168823 491.000000
1882.533569 543.000000
1883.896729 463.000000
1885.259766 499.000000
1886.621948 572.000000
1887.983276 517.000000
1889.343262 458.000000
1890.702881 474.000000
1892.061890 486.000000
1893.419922 513.000000
1894.777100 378.000000
1896.133057 436.000000
1897.488770 567.000000
1898.843506 504.000000
1900.197388 502.000000
1901.550171 499.000000
1902.902466 477.000000
1904.254028 479.000000
1905.604736 484.000000
1906.954224 512.000000
1908.303223 487.000000
1909.651367 553.000000
1910.998901 463.000000
1912.345703 524.000000
1913.690918 463.000000
1915.035889 490.000000
1916.380127 445.000000
1917.723511 574.000000
1919.065552 487.000000
1920.407349 355.000000
1921.748291 477.000000
1923.088501 481.000000
1924.427734 429.000000
1925.765991 445.000000
1927.103638 498.000000
1928.440552 461.000000
1929.776611 431.000000
1931.111450 463.000000
1932.445923 423.000000
1933.779663 491.000000
1935.112549 394.000000
1936.443970 406.000000
1937.775513 394.000000
1939.105713 478.000000
1940.435425 422.000000
1941.764282 467.000000
1943.091919 459.000000
1944.419067 397.000000
1945.745483 469.000000
1947.071167 436.000000
1948.395508 409.000000
1949.719604 466.000000
1951.042847 370.000000
1952.365356 434.000000
1953.686768 359.000000
1955.007202 549.000000
1956.327026 455.000000
1957.646484 368.000000
1958.964966 440.000000
1960.282104 351.000000
1961.598877 423.000000
1962.914917 399.000000
1964.230225 520.000000
1965.544067 364.000000
1966.857666 366.000000
1968.170532 514.000000
1969.482544 402.000000
1970.793945 368.000000
1972.104004 384.000000
1973.413574 428.000000
1974.722412 387.000000
1976.030640 433.000000
1977.337524 365.000000
1978.643799 388.000000
1979.949707 353.000000
1981.254395 362.000000
1982.558594 462.000000
1983.861572 349.000000
1985.164185 452.000000
1986.465820 381.000000
1987.766846 408.000000
1989.066284 389.000000
1990.365845 407.000000
1991.664307 276.000000
1992.962280 326.000000
1994.258667 404.000000
1995.555054 383.000000
1996.850464 374.000000
1998.145142 312.000000
1999.438965 359.000000
2000.731567 336.000000
2002.023682 342.000000
2003.315308 403.000000
2004.606201 500.000000
2005.895508 326.000000
2007.184570 320.000000
2008.472900 405.000000
2009.760498 287.000000
2011.047241 292.000000
2012.332886 400.000000
2013.618164 419.000000
2014.902466 358.000000
2016.186157 325.000000
2017.468506 273.000000
2018.750488 345.000000
2020.031982 469.000000
2021.312500 328.000000
2022.592285 374.000000
2023.870972 345.000000
2025.148926 362.000000
2026.426392 350.000000
2027.703247 412.000000
2028.978394 352.000000
2030.253662 354.000000
2031.527954 377.000000
2032.801270 320.000000
2034.073730 324.000000
2035.345825 380.000000
2036.616821 372.000000
2037.887573 306.000000
2039.156982 384.000000
2040.425293 343.000000
2041.693604 353.000000
2042.960938 324.000000
2044.227539 371.000000
2045.492920 408.000000
2046.757690 586.000000
2048.022217 358.000000
2049.285645 271.000000
2050.548584 293.000000
2051.809570 343.000000
2053.071045 367.000000
2054.331299 267.000000
2055.590820 338.000000
2056.849609 229.000000
2058.107422 349.000000
2059.364746 362.000000
2060.621338 353.000000
2061.876465 275.000000
2063.131592 233.000000
2064.385742 339.000000
2065.639160 347.000000
2066.891846 339.000000
2068.143311 301.000000
2069.394531 317.000000
2070.645020 201.000000
2071.894775 326.000000
2073.143066 318.000000
2074.391357 337.000000
2075.638672 417.000000
2076.885254 334.000000
2078.131104 277.000000
2079.375732 259.000000
2080.619873 265.000000
2081.863525 370.000000
2083.106201 308.000000
2084.347656 338.000000
2085.588867 335.000000
2086.829590 246.000000
2088.069336 251.000000
2089.307861 268.000000
2090.545898 344.000000
2091.783203 378.000000
2093.020264 233.000000
2094.255859 351.000000
2095.490723 257.000000
2096.725342 376.000000
2097.958984 288.000000
2099.191650 250.000000
2100.423584 347.000000
2101.655029 245.000000
2102.885498 316.000000
2104.115234 395.000000
2105.344727 232.000000
2106.572266 295.000000
2107.800049 225.000000
2109.027100 265.000000
2110.253174 278.000000
2111.477783 232.000000
2112.702637 169.000000
2113.926270 358.000000
2115.149414 234.000000
2116.371338 292.000000
2117.593018 300.000000
2118.813721 269.000000
2120.033691 288.000000
2121.253174 248.000000
2122.471191 355.000000
2123.689209 325.000000
2124.906250 263.000000
2126.122803 300.000000
2127.337646 207.000000
2128.552734 291.000000
2129.766846 234.000000
2130.980225 314.000000
2132.192871 208.000000
2133.404053 210.000000
2134.615479 283.000000
2135.825684 216.000000
2137.035400 215.000000
2138.243652 224.000000
2139.451904 287.000000
2140.659424 287.000000
2141.865723 524.000000
2143.071289 290.000000
2144.276611 247.000000
2145.480957 318.000000
2146.684570 234.000000
2147.887695 293.000000
2149.089355 377.000000
2150.290771 238.000000
2151.491455 253.000000
2152.691406 288.000000
2153.890137 453.000000
2155.088623 198.000000
2156.286621 180.000000
2157.483643 166.000000
2158.679932 209.000000
2159.875000 314.000000
2161.069824 232.000000
2162.263916 263.000000
2163.457031 212.000000
2164.649170 125.000000
2165.841064 261.000000
2167.032227 185.000000
2168.222412 227.000000
2169.411865 204.000000
2170.600830 142.000000
2171.788818 153.000000
2172.976563 190.000000
2174.162842 185.000000
2175.348389 197.000000
2176.533691 136.000000
2177.718506 202.000000
2178.902100 232.000000
2180.084961 174.000000
2181.266846 193.000000
2182.448486 144.000000
2183.629639 161.000000
2184.809570 239.000000
2185.988525 236.000000
2187.166992 283.000000
2188.345215 112.000000
2189.522217 294.000000
2190.698242 301.000000
2191.874023 237.000000
2193.049316 274.000000
2194.223145 156.000000
2195.396484 272.000000
2196.569580 223.000000
2197.741455 203.000000
2198.912842 124.000000
2200.083740 213.000000
2201.252930 212.000000
2202.422119 194.000000
2203.590820 190.000000
2204.758545 187.000000
2205.925293 170.000000
2207.091309 232.000000
2208.256836 75.000000
2209.422119 188.000000
2210.585938 229.000000
2211.749268 137.000000
2212.911377 231.000000
2214.073730 218.000000
2215.234863 203.000000
2216.395020 222.000000
2217.554688 246.000000
2218.714111 207.000000
2219.872314 193.000000
2221.029541 121.000000
2222.186523 329.000000
2223.342773 261.000000
2224.498291 177.000000
2225.653076 110.000000
2226.806885 158.000000
2227.959717 235.000000
2229.113037 179.000000
2230.264404 214.000000
2231.415527 237.000000
2232.565918 231.000000
2233.715820 271.000000
2234.864746 163.000000
2236.013184 187.000000
2237.160156 138.000000
2238.307373 217.000000
2239.453369 122.000000
2240.599121 133.000000
2241.743164 302.000000
2242.887451 188.000000
2244.030762 190.000000
2245.173340 140.000000
2246.314941 166.000000
2247.456299 205.000000
2248.596680 179.000000
2249.736328 141.000000
2250.875488 192.000000
2252.013428 224.000000
2253.151367 234.000000
2254.288330 118.000000
2255.424561 190.000000
2256.559814 91.000000
2257.694336 213.000000
2258.828613 172.000000
2259.962402 188.000000
2261.094727 104.000000
2262.226563 151.000000
2263.357910 149.000000
2264.488281 241.000000
2265.618408 139.000000
2266.747314 204.000000
2267.875732 179.000000
2269.003662 150.000000
2270.130615 138.000000
2271.256836 135.000000
2272.382080 144.000000
2273.507324 178.000000
2274.631836 219.000000
2275.755127 157.000000
2276.877686 147.000000
2277.999756 168.000000
2279.121338 129.000000
2280.242188 173.000000
2281.361816 106.000000
2282.480957 159.000000
2283.599854 225.000000
2284.718018 145.000000
2285.835205 190.000000
2286.951416 141.000000
2288.067383 47.000000
2289.182617 178.000000
2290.297119 146.000000
2291.410400 168.000000
2292.523682 25.000000
2293.636230 205.000000
2294.748047 220.000000
2295.859131 160.000000
2296.968994 183.000000
2298.078369 158.000000
2299.187500 141.000000
2300.295654 123.000000
2301.402832 160.000000
2302.509766 170.000000
2303.615967 140.000000
2304.721680 107.000000
2305.825928 214.000000
2306.929932 143.000000
2308.033447 224.000000
2309.136475 108.000000
2310.238281 130.000000
2311.339355 175.000000
2312.439941 187.000000
2313.540039 240.000000
2314.639404 160.000000
2315.737305 208.000000
2316.835693 138.000000
2317.932617 226.000000
2319.029297 164.000000
2320.125488 191.000000
2321.219971 245.000000
2322.314453 296.000000
2323.408203 137.000000
2324.501709 196.000000
2325.593506 258.000000
2326.685303 142.000000
2327.776367 265.000000
2328.866699 278.000000
2329.956055 284.000000
2331.045410 275.000000
2332.133545 247.000000
2333.221191 182.000000
2334.308594 156.000000
2335.394287 245.000000
2336.479736 166.000000
2337.564941 134.000000
2338.649170 152.000000
2339.732422 195.000000
2340.815430 110.000000
2341.897461 420.000000
2342.979248 99.000000
2344.060303 72.000000
2345.140137 158.000000
2346.219482 137.000000
2347.298340 183.000000
2348.376709 125.000000
2349.453613 185.000000
2350.530273 164.000000
2351.606689 91.000000
2352.682129 109.000000
2353.756592 106.000000
2354.830811 106.000000
2355.904297 73.000000
2356.977295 130.000000
2358.049072 101.000000
2359.120605 148.000000
2360.191162 164.000000
2361.261475 29.000000
2362.330811 75.000000
2363.399170 186.000000
2364.467285 121.000000
2365.534668 37.000000
2366.601563 177.000000
2367.667725 143.000000
2368.732666 161.000000
2369.797607 2.000000
2370.861816 107.000000
2371.925293 61.000000
2372.987549 139.000000
2374.049805 170.000000
2375.111084 172.000000
2376.172119 130.000000
2377.231934 110.000000
2378.291016 171.000000
2379.350098 143.000000
2380.408203 0.000000
2381.465576 169.000000
2382.521973 132.000000
2383.578125 90.000000
2384.633789 138.000000
2385.688721 96.000000
2386.742188 66.000000
2387.795898 85.000000
2388.848633 67.000000
2389.900879 172.000000
2390.952393 28.000000
2392.002930 112.000000
2393.053223 213.000000
2394.102539 79.000000
2395.151855 111.000000
2396.199707 179.000000
2397.247070 84.000000
2398.294189 150.000000
2399.340332 78.000000
2400.385742 46.000000
2401.430420 142.000000
2402.475098 20.000000
2403.518311 112.000000
2404.561523 141.000000
2405.603271 77.000000
2406.645264 104.000000
2407.686523 100.000000
2408.726807 99.000000
2409.766357 98.000000
2410.804932 94.000000
2411.843750 147.000000
2412.881348 112.000000
2413.918701 149.000000
2414.954834 56.000000
2415.990723 160.000000
2417.025879 81.000000
2418.060547 156.000000
2419.093750 93.000000
2420.127197 112.000000
2421.159668 93.000000
2422.191895 142.000000
2423.222656 168.000000
2424.253418 115.000000
2425.283691 68.000000
2426.312744 170.000000
2427.341797 169.000000
2428.369141 56.000000
2429.396973 90.000000
2430.423584 268.000000
2431.449951 105.000000
2432.474854 78.000000
2433.500000 184.000000
2434.524170 44.000000
2435.548096 132.000000
2436.570801 174.000000
2437.592773 97.000000
2438.614502 172.000000
2439.635498 89.000000
2440.656006 101.000000
2441.675293 92.000000
2442.694580 86.000000
2443.712891 95.000000
2444.730957 49.000000
2445.747559 54.000000
2446.764160 60.000000
2447.780029 87.000000
2448.795898 110.000000
2449.810303 65.000000
2450.823975 153.000000
2451.837158 32.000000
2452.850098 10.000000
2453.862305 197.000000
2454.873535 70.000000
2455.884521 122.000000
2456.894775 152.000000
2457.904541 -4.000000
2458.913330 110.000000
2459.921387 164.000000
2460.929443 144.000000
2461.936279 192.000000
2462.942871 107.000000
2463.948242 72.000000
2464.953369 45.000000
2465.958252 100.000000
2466.961914 52.000000
2467.965332 101.000000
2468.967773 49.000000
2469.969971 121.000000
2470.971680 59.000000
2471.972412 91.000000
2472.972168 118.000000
2473.971924 107.000000
2474.970703 118.000000
2475.968994 123.000000
2476.966309 85.000000
2477.963379 168.000000
2478.960449 14.000000
2479.956055 7.000000
2480.951660 102.000000
2481.945557 146.000000
2482.939453 87.000000
2483.932861 76.000000
2484.925781 58.000000
2485.917725 47.000000
2486.908936 100.000000
2487.899902 15.000000
2488.890381 111.000000
2489.879883 127.000000
2490.868652 41.000000
2491.857422 111.000000
2492.845215 50.000000
2493.831787 86.000000
2494.818359 54.000000
2495.804443 49.000000
2496.789795 31.000000
2497.774170 144.000000
2498.758301 148.000000
2499.742432 105.000000
2500.725098 79.000000
2501.707275 119.000000
2502.688965 139.000000
2503.669922 101.000000
2504.650391 110.000000
2505.630615 41.000000
2506.609375 3.000000
2507.587891 91.000000
2508.565918 63.000000
2509.543457 43.000000
2510.520020 42.000000
2511.496338 -7.000000
2512.471924 122.000000
2513.447021 75.000000
2514.421631 118.000000
2515.395020 69.000000
2516.368164 6.000000
2517.341064 56.000000
2518.312988 -27.000000
2519.284180 -40.000000
2520.254883 73.000000
2521.225342 64.000000
2522.195068 72.000000
2523.163818 59.000000
2524.131836 115.000000
2525.099854 -3.000000
2526.066895 132.000000
2527.033691 60.000000
2527.999268 66.000000
2528.964844 66.000000
2529.929688 73.000000
2530.894043 47.000000
2531.857178 103.000000
2532.820557 76.000000
2533.782959 24.000000
2534.745117 83.000000
2535.706055 79.000000
2536.666260 114.000000
2537.626709 112.000000
2538.586182 73.000000
2539.544922 25.000000
2540.502686 46.000000
2541.460693 101.000000
2542.417969 0.000000
2543.374268 26.000000
2544.330322 82.000000
2545.285156 84.000000
2546.240234 10.000000
2547.194580 -109.000000
2548.148193 489.000000
2549.100830 1.000000
2550.053223 147.000000
2551.005127 49.000000
2551.956299 133.000000
2552.906738 -9.000000
2553.856689 82.000000
2554.806396 38.000000
2555.755371 46.000000
2556.703857 -2.000000
2557.651123 30.000000
2558.598389 71.000000
2559.544922 41.000000
2560.490967 40.000000
2561.436035 135.000000
2562.380859 100.000000
2563.325195 103.000000
2564.269043 71.000000
2565.212402 121.000000
2566.154297 79.000000
2567.096436 37.000000
2568.037842 53.000000
2568.978516 65.000000
2569.918457 -3.000000
2570.858398 54.000000
2571.797363 18.000000
2572.736084 -26.000000
2573.673828 137.000000
2574.611328 161.000000
2575.548096 81.000000
2576.484131 -36.000000
2577.419678 1.000000
2578.354492 99.000000
2579.289307 78.000000
2580.223145 15.000000
2581.156494 -23.000000
2582.089111 21.000000
2583.021484 46.000000
2583.953125 55.000000
2584.884277 46.000000
2585.814941 46.000000
2586.744385 62.000000
2587.673828 21.000000
2588.602783 203.000000
2589.531494 179.000000
2590.458496 64.000000
2591.385742 36.000000
2592.312500 -18.000000
2593.238525 77.000000
2594.164307 -6.000000
2595.088867 128.000000
2596.013184 113.000000
2596.937012 37.000000
2597.860352 31.000000
2598.782715 -4.000000
2599.704834 119.000000
2600.626465 14.000000
2601.547363 67.000000
2602.467529 33.000000
2603.387451 85.000000
2604.306885 74.000000
2605.226074 80.000000
2606.144287 -17.000000
2607.061279 41.000000
2607.978516 170.000000
2608.895508 -35.000000
2609.811523 45.000000
2610.726318 -45.000000
2611.641602 62.000000
2612.556152 84.000000
2613.469727 79.000000
2614.383301 98.000000
2615.295654 -10.000000
2616.208008 76.000000
2617.119385 96.000000
2618.030518 -10.000000
2618.940918 63.000000
2619.851074 -35.000000
2620.760498 13.000000
2621.669434 -5.000000
2622.577393 80.000000
2623.485596 75.000000
2624.392822 86.000000
2625.299561 3.000000
2626.205566 82.000000
2627.111328 84.000000
2628.016357 131.000000
2628.921143 85.000000
2629.825195 87.000000
2630.728271 93.000000
2631.631348 4.000000
2632.533447 62.000000
2633.435547 46.000000
2634.337402 86.000000
2635.237549 18.000000
2636.137939 -7.000000
2637.037598 80.000000
2637.937012 40.000000
2638.834961 55.000000
2639.733398 104.000000
2640.631348 10.000000
2641.528564 -20.000000
2642.424561 123.000000
2643.320557 11.000000
2644.216309 7.000000
2645.111328 -11.000000
2646.006104 28.000000
2646.899414 43.000000
2647.792725 10.000000
2648.685791 22.000000
2649.578613 -19.000000
2650.469727 69.000000
2651.361084 95.000000
2652.251953 40.000000
2653.142090 16.000000
2654.031982 23.000000
2654.920654 14.000000
2655.809570 82.000000
2656.697998 69.000000
2657.585449 64.000000
2658.471924 -1.000000
2659.358887 39.000000
2660.245117 68.000000
2661.130859 46.000000
2662.015381 53.000000
2662.899902 -14.000000
2663.784180 10.000000
2664.667725 -36.000000
2665.550781 41.000000
2666.433105 75.000000
2667.314941 3.000000
2668.196045 93.000000
2669.077393 -44.000000
2669.957275 29.000000
2670.837402 35.000000
2671.716797 29.000000
2672.596191 26.000000
2673.474854 76.000000
2674.351807 51.000000
2675.229492 102.000000
2676.106445 31.000000
2676.982666 -13.000000
2677.858398 136.000000
2678.733398 54.000000
2679.608643 3.000000
2680.482910 49.000000
2681.356689 -15.000000
2682.229736 35.000000
2683.102539 25.000000
2683.975098 46.000000
2684.846924 -3.000000
2685.718018 85.000000
2686.588867 -2.000000
2687.459229 -26.000000
2688.329346 116.000000
2689.197754 137.000000
2690.066895 9.000000
2690.935303 -12.000000
2691.803467 24.000000
2692.670898 124.000000
2693.537109 75.000000
2694.403809 -18.000000
2695.269531 40.000000
2696.135254 84.000000
2696.999512 -28.000000
2697.864502 13.000000
2698.728027 -9.000000
2699.591797 80.000000
2700.454102 63.000000
2701.316895 84.000000
2702.178711 27.000000
2703.040039 166.000000
2703.901367 7.000000
2704.761475 6.000000
2705.621582 44.000000
2706.481201 50.000000
2707.340576 7.000000
2708.198242 26.000000
2709.056152 -72.000000
2709.914551 17.000000
2710.771729 -3.000000
2711.628174 -9.000000
2712.484131 39.000000
2713.340088 65.000000
2714.195313 37.000000
2715.049805 -6.000000
2715.903809 145.000000
2716.757813 -21.000000
2717.610840 -10.000000
2718.464111 125.000000
2719.315674 0.000000
2720.167725 27.000000
2721.019531 7.000000
2721.870117 -79.000000
2722.720703 -1.000000
2723.570801 -32.000000
2724.420166 55.000000
2725.269531 22.000000
2726.117676 -94.000000
2726.965332 49.000000
2727.813477 -8.000000
2728.660400 49.000000
2729.507813 1.000000
2730.353760 8.000000
2731.198975 30.000000
2732.044678 8.000000
2732.889404 -9.000000
2733.734131 75.000000
2734.577637 9.000000
2735.421387 36.000000
2736.264404 -33.000000
2737.106934 106.000000
2737.948486 45.000000
2738.790527 -9.000000
2739.631592 -23.000000
2740.472412 39.000000
2741.312988 76.000000
2742.152344 70.000000
2742.991699 46.000000
2743.831055 -5.000000
2744.669189 46.000000
2745.506836 85.000000
2746.344482 39.000000
2747.181641 -44.000000
2748.018555 18.000000
2748.854980 41.000000
2749.690186 9.000000
2750.525635 93.000000
2751.360596 9.000000
2752.194824 49.000000
2753.028809 -15.000000
2753.862305 10.000000
2754.695801 -14.000000
2755.528320 -26.000000
2756.360352 -62.000000
2757.191895 41.000000
2758.023438 44.000000
2758.854004 61.000000
2759.684814 -4.000000
2760.514404 129.000000
2761.343994 26.000000
2762.173340 0.000000
2763.001953 87.000000
2763.830078 -60.000000
2764.657715 -51.000000
2765.485352 133.000000
2766.312500 85.000000
2767.138916 22.000000
2767.964844 -27.000000
2768.790283 -15.000000
2769.615479 -57.000000
2770.440674 2.000000
2771.264648 40.000000
2772.088623 6.000000
2772.912598 29.000000
2773.735352 25.000000
2774.558350 -152.000000
2775.380127 -5.000000
2776.201904 -15.000000
2777.023682 -26.000000
2777.844482 2.000000
2778.664551 101.000000
2779.484863 -3.000000
2780.304688 102.000000
2781.124512 -20.000000
2781.942383 23.000000
2782.761475 -58.000000
2783.579346 7.000000
2784.396973 -13.000000
2785.214111 -1.000000
2786.030762 14.000000
2786.847168 -76.000000
2787.663086 -3.000000
2788.478760 47.000000
2789.293457 -33.000000
2790.108643 24.000000
2790.923096 7.000000
2791.737061 31.000000
2792.550781 -94.000000
2793.363281 -70.000000
2794.176025 -4.000000
2794.988281 14.000000
2795.800049 93.000000
2796.611084 -69.000000
2797.422852 24.000000
2798.233398 23.000000
2799.043945 -32.000000
2799.853027 41.000000
2800.662842 -25.000000
2801.471924 76.000000
2802.280762 -42.000000
2803.089111 -3.000000
2803.896484 117.000000
2804.704346 13.000000
2805.511475 32.000000
2806.318359 83.000000
2807.124023 155.000000
2807.930176 7.000000
2808.735596 42.000000
2809.541016 96.000000
2810.345703 -55.000000
2811.149414 -29.000000
2811.953613 -17.000000
2812.757324 13.000000
2813.560791 13.000000
2814.362793 29.000000
2815.165527 -59.000000
2815.967529 -178.000000
2816.769287 74.000000
2817.570557 29.000000
2818.371338 31.000000
2819.171631 42.000000
2819.972168 116.000000
2820.771729 16.000000
2821.570801 62.000000
2822.369873 -14.000000
2823.168701 53.000000
2823.967041 51.000000
2824.764404 -45.000000
2825.562012 -61.000000
2826.358887 -48.000000
2827.156006 -2.000000
2827.952393 90.000000
2828.748047 18.000000
2829.543701 30.000000
2830.339111 -183.000000
2831.134033 -61.000000
2831.928223 -5.000000
2832.722412 -12.000000
2833.516357 40.000000
2834.309814 -22.000000
2835.102539 -63.000000
2835.895020 -74.000000
2836.687500 72.000000
2837.479736 -4.000000
2838.271484 13.000000
2839.062256 34.000000
2839.853027 76.000000
2840.644043 61.000000
2841.434082 -28.000000
2842.223633 42.000000
2843.013428 -24.000000
2843.802246 65.000000
2844.591064 37.000000
2845.379883 -45.000000
2846.167725 93.000000
2846.955078 13.000000
2847.742676 -41.000000
2848.529785 57.000000
2849.316162 13.000000
2850.102539 -14.000000
2850.888672 -78.000000
2851.674316 74.000000
2852.458984 -6.000000
2853.244141 22.000000
2854.029053 -8.000000
2854.813232 55.000000
2855.597412 -68.000000
2856.380371 20.000000
2857.163574 39.000000
2857.946533 11.000000
2858.729004 26.000000
2859.511230 -53.000000
2860.292969 84.000000
2861.074463 138.000000
2861.856201 21.000000
2862.637207 56.000000
2863.417480 11.000000
2864.197510 -68.000000
2864.977539 -55.000000
2865.757324 2.000000
2866.536133 -83.000000
2867.315186 -50.000000
2868.093750 -17.000000
2868.872070 66.000000
2869.649902 68.000000
2870.427490 -47.000000
2871.204834 -64.000000
2871.981934 -2.000000
2872.758545 77.000000
2873.534668 92.000000
2874.310791 25.000000
2875.086426 19.000000
2875.861816 16.000000
2876.636719 86.000000
2877.411377 40.000000
2878.186035 102.000000
2878.960449 53.000000
2879.734131 64.000000
2880.507080 136.000000
2881.280762 56.000000
2882.053467 84.000000
2882.826172 63.000000
2883.598145 -44.000000
2884.369873 173.000000
2885.142090 89.000000
2885.913086 29.000000
2886.683594 43.000000
2887.454590 140.000000
2888.225586 117.000000
2888.995850 -37.000000
2889.765137 35.000000
2890.534668 23.000000
2891.304199 -87.000000
2892.073242 10.000000
2892.841797 25.000000
2893.610352 66.000000
2894.377930 53.000000
2895.145996 11.000000
2895.913574 64.000000
2896.681152 65.000000
2897.447510 1.000000
2898.214844 -93.000000
2898.980957 11.000000
2899.747314 -51.000000
2900.512207 -17.000000
2901.277588 55.000000
2902.043457 54.000000
2902.807861 -5.000000
2903.572266 62.000000
2904.336914 3.000000
2905.100586 -18.000000
2905.864990 -39.000000
2906.628662 29.000000
2907.391602 95.000000
2908.154297 22.000000
2908.917480 52.000000
2909.680176 -70.000000
2910.441650 39.000000
2911.203613 39.000000
spectrumdark 2048
-97.027336 6164.000000
-94.400467 6164.000000
-91.775475 6041.000000
-89.152374 6480.000000
-86.531143 5879.000000
-83.911812 6186.000000
-81.294342 6120.000000
-78.678749 6471.000000
-76.065033 6224.000000
-73.453194 5907.000000
-70.843216 6177.000000
-68.235123 5953.000000
-65.628876 5959.000000
-63.024509 5993.000000
-60.422001 6091.000000
-57.821346 5619.000000
-55.222553 6279.000000
-52.625618 6883.000000
-50.030537 6506.000000
-47.437309 6546.000000
-44.845932 6270.000000
-42.256401 6743.000000
-39.668713 5891.000000
-37.082874 6061.000000
-34.498878 6505.000000
-31.916718 5673.000000
-29.336405 6366.000000
-26.757919 5707.000000
-24.181276 6238.000000
-21.606459 6226.000000
-19.033482 6490.000000
-16.462324 6457.000000
-13.893001 6786.000000
-11.325502 7805.000000
-8.759823 6321.000000
-6.195970 6508.000000
-3.633929 5995.000000
-1.073713 5797.000000
1.484695 6178.000000
4.041282 6991.000000
6.596064 6625.000000
9.149030 5982.000000
11.700194 6707.000000
14.249546 6456.000000
16.797102 6607.000000
19.342846 6014.000000
21.886797 5736.000000
24.428944 6695.000000
26.969294 6820.000000
29.507858 6866.000000
32.044624 6217.000000
34.579590 5821.000000
37.112778 7230.000000
39.644184 6384.000000
42.173798 7140.000000
44.701614 6523.000000
47.227673 7822.000000
49.751942 5689.000000
52.274441 6193.000000
54.795143 6772.000000
57.314091 6222.000000
59.831264 6441.000000
62.346661 6638.000000
64.860283 5615.000000
67.372147 5697.000000
69.882263 6552.000000
72.390587 6550.000000
74.897156 5981.000000
77.401978 6355.000000
79.905045 6494.000000
82.406334 6260.000000
84.905884 6172.000000
87.403679 6418.000000
89.899742 5743.000000
92.394028 7305.000000
94.886574 5820.000000
97.377403 6925.000000
99.866463 7200.000000
102.353775 6371.000000
104.839363 6234.000000
107.323212 6372.000000
109.805313 5814.000000
112.285690 6540.000000
114.764343 6242.000000
117.241272 6409.000000
119.716446 7201.000000
122.189911 6896.000000
124.661644 5924.000000
127.131668 6733.000000
129.599930 6302.000000
132.066528 6271.000000
134.531372 5728.000000
136.994522 6276.000000
139.455933 7291.000000
141.915649 6821.000000
144.373642 6443.000000
146.829941 6012.000000
149.284531 5804.000000
151.737396 6815.000000
154.188583 6354.000000
156.638077 6539.000000
159.085846 6105.000000
161.531906 6629.000000
163.976288 8747.000000
166.418991 6440.000000
168.860001 6698.000000
171.299301 6290.000000
173.736893 7179.000000
176.172852 6595.000000
178.607071 6968.000000
181.039612 7169.000000
183.470505 6704.000000
185.899673 6795.000000
188.327194 6735.000000
190.753036 6321.000000
193.177200 6679.000000
195.599701 7168.000000
198.020508 7334.000000
200.439651 6499.000000
202.857132 6066.000000
205.272919 7574.000000
207.687057 7044.000000
210.099564 6413.000000
212.510391 6074.000000
214.919540 6277.000000
217.327057 7433.000000
219.732864 6212.000000
222.137085 6507.000000
224.539597 6673.000000
226.940491 6947.000000
229.339737 6434.000000
231.737320 6920.000000
234.133240 7375.000000
236.527542 6550.000000
238.920181 5843.000000
241.311203 6793.000000
243.700562 6585.000000
246.088303 6435.000000
248.474396 6925.000000
250.858856 6079.000000
253.241669 7939.000000
255.622910 6646.000000
258.002441 6650.000000
260.380402 6475.000000
262.756683 7503.000000
265.131409 7567.000000
267.504486 7852.000000
269.875916 6245.000000
272.245697 6450.000000
274.613922 5906.000000
276.980499 6335.000000
279.345490 6769.000000
281.708862 6018.000000
284.070587 6249.000000
286.430725 7057.000000
288.789246 5935.000000
291.146179 6594.000000
293.501495 6453.000000
295.855225 5954.000000
298.207306 5914.000000
300.557831 6423.000000
302.906769 6384.000000
305.254059 6782.000000
307.599823 6465.000000
309.943909 6488.000000
312.286469 7366.000000
314.627411 7548.000000
316.966736 7189.000000
319.304504 6986.000000
321.640717 8124.000000
323.975281 6253.000000
326.308289 6549.000000
328.639740 5914.000000
330.969604 6672.000000
333.297882 6384.000000
335.624542 7234.000000
337.949707 6370.000000
340.273254 6233.000000
342.595245 5992.000000
344.915680 7520.000000
347.234497 7705.000000
349.551758 6029.000000
351.867493 5854.000000
354.181641 6968.000000
356.494202 6324.000000
358.805206 6382.000000
361.114685 7083.000000
363.422638 6393.000000
365.728973 5692.000000
368.033722 6412.000000
370.337006 6464.000000
372.638672 6219.000000
374.938843 6390.000000
377.237457 6341.000000
379.534515 5728.000000
381.830017 6140.000000
384.123993 5879.000000
386.416382 5205.000000
388.707275 5611.000000
390.996643 6216.000000
393.284424 6288.000000
395.570679 6470.000000
397.855438 6962.000000
400.138580 5995.000000
402.420288 6445.000000
404.700470 6160.000000
406.979065 7221.000000
409.256134 6420.000000
411.531677 6743.000000
413.805695 6446.000000
416.078278 6373.000000
418.349243 6243.000000
420.618713 6396.000000
422.886688 7042.000000
425.153107 7212.000000
427.418030 6287.000000
429.681488 6302.000000
431.943359 6497.000000
434.203766 6021.000000
436.462616 6549.000000
438.720001 6114.000000
440.975891 5685.000000
443.230286 5851.000000
445.483154 5466.000000
447.734467 6926.000000
449.984375 6048.000000
452.232697 6311.000000
454.479584 5651.000000
456.725006 6512.000000
458.968872 6517.000000
461.211243 6784.000000
463.452118 5610.000000
465.691589 6646.000000
467.929474 5468.000000
470.165924 5907.000000
472.400848 6064.000000
474.634308 7272.000000
476.866333 6688.000000
479.096832 5693.000000
481.325836 6435.000000
483.553375 6308.000000
485.779419 6032.000000
488.004028 6477.000000
490.227173 5938.000000
492.448853 6446.000000
494.668976 6664.000000
496.887695 5648.000000
499.104919 6242.000000
501.320770 5621.000000
503.535004 6137.000000
505.747925 6429.000000
507.959259 6365.000000
510.169159 6869.000000
512.377625 6538.000000
514.584717 6535.000000
516.790222 6370.000000
518.994324 6579.000000
521.196899 6206.000000
523.398071 6545.000000
525.597900 6715.000000
527.796204 6941.000000
529.992981 5334.000000
532.188416 5788.000000
534.382324 5583.000000
536.574890 7586.000000
538.765930 6655.000000
540.955566 6004.000000
543.143799 6916.000000
545.330505 7150.000000
547.515747 6761.000000
549.699707 6271.000000
551.882080 6401.000000
554.063110 6236.000000
556.242615 6041.000000
558.420837 5879.000000
560.597534 6066.000000
562.772827 6395.000000
564.946716 6457.000000
567.119141 5899.000000
569.290161 6015.000000
571.459717 6284.000000
573.627991 5267.000000
575.794739 6434.000000
577.960022 6286.000000
580.123901 6159.000000
582.286499 5736.000000
584.447571 6067.000000
586.607239 5612.000000
588.765564 5772.000000
590.922363 6226.000000
593.077820 6624.000000
595.231873 5763.000000
597.384583 6221.000000
599.535767 7225.000000
601.685608 6713.000000
603.834106 6693.000000
605.981018 6059.000000
608.126709 6542.000000
610.270996 6475.000000
612.413818 7063.000000
614.555176 6223.000000
616.695313 6415.000000
618.833923 7549.000000
620.971252 5775.000000
623.107117 6591.000000
625.241577 6898.000000
627.374573 7211.000000
629.506409 6630.000000
631.636780 6607.000000
633.765747 6779.000000
635.893250 6489.000000
638.019470 6207.000000
640.144165 7292.000000
642.267639 6338.000000
644.389771 6838.000000
646.510437 6975.000000
648.629761 6554.000000
650.747681 5692.000000
652.864258 5657.000000
654.979431 6444.000000
657.093262 6470.000000
659.205627 5889.000000
661.316772 6153.000000
663.426514 5430.000000
665.534790 6089.000000
667.641907 6277.000000
669.747559 6850.000000
671.851746 5627.000000
673.954712 5761.000000
676.056274 6982.000000
678.156494 5358.000000
680.255310 6769.000000
682.352783 6191.000000
684.448975 7022.000000
686.543701 6173.000000
688.637207 6997.000000
690.729370 6658.000000
692.820007 7910.000000
694.909424 6616.000000
696.997559 6463.000000
699.084229 5998.000000
701.169678 6657.000000
703.253601 5104.000000
705.336304 5880.000000
707.417725 5902.000000
709.497681 7629.000000
711.576416 6354.000000
713.653687 5572.000000
715.729675 6600.000000
717.804382 6080.000000
719.877808 6910.000000
721.949707 6269.000000
724.020447 7288.000000
726.089844 5748.000000
728.157837 6532.000000
730.224487 6373.000000
732.289917 7026.000000
734.354004 5792.000000
736.416748 6164.000000
738.478149 6516.000000
740.538269 6606.000000
742.596985 6029.000000
744.654480 6633.000000
746.710693 6437.000000
748.765503 6693.000000
750.819031 6344.000000
752.871155 7507.000000
754.922058 5806.000000
756.971741 6603.000000
759.019958 6374.000000
761.066956 6168.000000
763.112671 7050.000000
765.156982 5309.000000
767.200012 5767.000000
769.241821 14881.000000
771.282288 6912.000000
773.321350 6425.000000
775.359253 6102.000000
777.395813 5995.000000
779.431152 5378.000000
781.465149 5796.000000
783.497742 6870.000000
785.529175 5513.000000
787.559204 12135.000000
789.587952 6005.000000
791.615540 6340.000000
793.641785 6301.000000
795.666626 5859.000000
797.690369 5574.000000
799.712708 6363.000000
801.733826 5880.000000
803.753601 6658.000000
805.772095 4858.000000
807.789368 6696.000000
809.805237 6839.000000
811.819946 5701.000000
813.833313 6373.000000
815.845459 6253.000000
817.856384 6201.000000
819.865967 6599.000000
821.874329 5294.000000
823.881287 5683.000000
825.887024 6078.000000
827.891541 5814.000000
829.894775 5678.000000
831.896729 6445.000000
833.897400 6007.000000
835.896851 6016.000000
837.894958 6373.000000
839.891968 6913.000000
841.887573 6215.000000
843.882019 5983.000000
845.875122 6169.000000
847.867004 6874.000000
849.857544 5519.000000
851.846802 6730.000000
853.835022 5971.000000
855.821838 5758.000000
857.807434 6421.000000
859.791748 7279.000000
861.774963 6296.000000
863.756775 6363.000000
865.737366 5833.000000
867.716675 7774.000000
869.694824 7119.000000
871.671631 6276.000000
873.647156 5914.000000
875.621643 6186.000000
877.594666 6053.000000
879.566650 5443.000000
881.537292 6416.000000
883.506775 6133.000000
885.474915 5548.000000
887.441895 5246.000000
889.407532 6151.000000
891.372009 5820.000000
893.335266 6034.000000
895.297302 6505.000000
897.258057 5817.000000
899.217590 6426.000000
901.175842 6680.000000
903.132996 6361.000000
905.088989 6075.000000
907.043579 6874.000000
908.996948 6513.000000
910.949158 6380.000000
912.900146 6398.000000
914.849854 7199.000000
916.798401 6345.000000
918.745728 6106.000000
920.691772 6120.000000
922.636536 6084.000000
924.580261 6339.000000
926.522827 6014.000000
928.464111 5632.000000
930.404053 6452.000000
932.342896 5760.000000
934.280457 5443.000000
936.216797 5945.000000
938.151978 5852.000000
940.085876 6000.000000
942.018677 5900.000000
943.950256 6790.000000
945.880676 5234.000000
947.809875 6417.000000
949.737732 7017.000000
951.664551 6636.000000
953.590088 5977.000000
955.514343 5368.000000
957.437500 6026.000000
959.359497 6670.000000
961.280212 7309.000000
963.199768 6422.000000
965.118164 5368.000000
967.035522 6400.000000
968.951416 6389.000000
970.866211 6115.000000
972.779785 6008.000000
974.692200 6356.000000
976.603394 6468.000000
978.513428 5527.000000
980.422180 6215.000000
982.329895 6112.000000
984.236389 6345.000000
986.141663 5736.000000
988.045837 6847.000000
989.948792 6246.000000
991.850525 6821.000000
993.751099 6570.000000
995.650513 6620.000000
997.548706 5287.000000
999.445740 6549.000000
1001.341553 6482.000000
1003.236206 7664.000000
1005.129761 5568.000000
1007.022034 7123.000000
1008.913391 6094.000000
1010.803406 5381.000000
1012.692200 6644.000000
1014.579834 6313.000000
1016.466309 6891.000000
1018.351624 6720.000000
1020.235779 5978.000000
1022.118713 5888.000000
1024.000610 6247.000000
1025.881226 5198.000000
1027.760742 5828.000000
1029.639282 6108.000000
1031.516479 5432.000000
1033.392334 6195.000000
1035.267212 5836.000000
1037.141113 6577.000000
1039.013550 7045.000000
1040.885010 6697.000000
1042.755127 5462.000000
1044.624268 5493.000000
1046.492188 5807.000000
1048.359009 7087.000000
1050.224731 6730.000000
1052.089233 6492.000000
1053.952637 6443.000000
1055.814697 6519.000000
1057.675781 5878.000000
1059.535767 6532.000000
1061.394409 6657.000000
1063.251953 5790.000000
1065.108398 6719.000000
1066.963745 5912.000000
1068.817871 5813.000000
1070.671143 6307.000000
1072.522949 6313.000000
1074.373779 6162.000000
1076.223389 6192.000000
1078.071777 5766.000000
1079.919312 7982.000000
1081.765503 5635.000000
1083.610474 6228.000000
1085.454590 5380.000000
1087.297363 5549.000000
1089.138916 6585.000000
1090.979736 5538.000000
1092.818970 5833.000000
1094.657471 6097.000000
1096.494629 6099.000000
1098.330566 6818.000000
1100.165527 6609.000000
1101.999268 5367.000000
1103.832031 5499.000000
1105.663452 6134.000000
1107.494019 7241.000000
1109.323242 6582.000000
1111.151489 6438.000000
1112.978516 7106.000000
1114.804565 5416.000000
1116.629395 6286.000000
1118.453125 7140.000000
1120.275635 6049.000000
1122.097046 5861.000000
1123.917603 5865.000000
1125.736694 6576.000000
1127.554932 7109.000000
1129.371826 6866.000000
1131.187866 6671.000000
1133.002686 6467.000000
1134.816406 5616.000000
1136.629028 5906.000000
1138.440430 5681.000000
1140.250854 6142.000000
1142.060181 6738.000000
1143.868164 7028.000000
1145.675415 5984.000000
1147.481201 5998.000000
1149.286133 5344.000000
1151.089966 5437.000000
1152.892578 6144.000000
1154.694336 6053.000000
1156.494629 6092.000000
1158.293945 6045.000000
1160.092285 5902.000000
1161.889282 5429.000000
1163.685547 5966.000000
1165.480469 6068.000000
1167.274292 6307.000000
1169.067261 7704.000000
1170.858887 5683.000000
1172.649536 6477.000000
1174.439209 6017.000000
1176.227417 5783.000000
1178.014771 7549.000000
1179.801025 6862.000000
1181.586182 5762.000000
1183.370239 5975.000000
1185.153198 7739.000000
1186.935181 5883.000000
1188.715942 5880.000000
1190.495728 6328.000000
1192.274414 6874.000000
1194.052124 6663.000000
1195.828613 7026.000000
1197.604004 6565.000000
1199.378296 6489.000000
1201.151489 6685.000000
1202.923828 6559.000000
1204.694824 6724.000000
1206.464966 5715.000000
1208.233887 6066.000000
1210.001709 6339.000000
1211.768677 5759.000000
1213.534302 5809.000000
1215.298950 7011.000000
1217.062500 6561.000000
1218.824951 5979.000000
1220.586548 6735.000000
1222.346924 5911.000000
1224.106201 6318.000000
1225.864624 6018.000000
1227.621826 7099.000000
1229.377930 6422.000000
1231.132935 5578.000000
1232.887085 5992.000000
1234.639893 5797.000000
1236.391724 6035.000000
1238.142700 5972.000000
1239.892334 4968.000000
1241.641113 7041.000000
1243.388550 6518.000000
1245.135254 6566.000000
1246.880737 6469.000000
1248.625366 6381.000000
1250.368652 6778.000000
1252.110962 6684.000000
1253.852173 5385.000000
1255.592529 5078.000000
1257.331787 5754.000000
1259.069824 6633.000000
1260.807007 7100.000000
1262.542969 6106.000000
1264.277954 6417.000000
1266.011963 7264.000000
1267.744995 5991.000000
1269.476807 6208.000000
1271.207642 6384.000000
1272.937256 7262.000000
1274.666016 5925.000000
1276.393677 5711.000000
1278.120239 5584.000000
1279.845947 5589.000000
1281.570313 6432.000000
1283.293823 5191.000000
1285.016357 6871.000000
1286.737915 6549.000000
1288.458252 6174.000000
1290.177612 6685.000000
1291.895874 7243.000000
1293.613159 6447.000000
1295.329468 5722.000000
1297.044556 6361.000000
1298.758667 6182.000000
1300.471802 5787.000000
1302.184082 6439.000000
1303.895142 8361.000000
1305.605225 5642.000000
1307.314209 6241.000000
1309.021973 6650.000000
1310.729126 6958.000000
1312.434814 5786.000000
1314.139771 6913.000000
1315.843750 6175.000000
1317.546509 6032.000000
1319.248291 6529.000000
1320.949219 6048.000000
1322.648804 9798.000000
1324.347534 31270.000000
1326.045532 5544.000000
1327.742188 6462.000000
1329.437744 7112.000000
1331.132446 6833.000000
1332.825928 5764.000000
1334.518555 5420.000000
1336.210327 7109.000000
1337.900757 6297.000000
1339.590454 6582.000000
1341.279053 6192.000000
1342.966553 7557.000000
1344.653076 5642.000000
1346.338501 6758.000000
1348.022949 5956.000000
1349.706543 7264.000000
1351.388916 6427.000000
1353.070313 5929.000000
1354.750854 6557.000000
1356.430176 6741.000000
1358.108887 5777.000000
1359.786255 6590.000000
1361.462524 5759.000000
1363.137817 5566.000000
1364.812378 6555.000000
1366.485718 6426.000000
1368.158081 6801.000000
1369.829468 5154.000000
1371.499878 6773.000000
1373.169189 6119.000000
1374.837524 5713.000000
1376.505005 6014.000000
1378.171387 6469.000000
1379.836792 6055.000000
1381.501221 5859.000000
1383.164429 5926.000000
1384.827026 5677.000000
1386.488281 6434.000000
1388.148682 6567.000000
1389.807983 6394.000000
1391.466309 6497.000000
1393.123901 6791.000000
1394.780273 6508.000000
1396.435791 6975.000000
1398.090088 6337.000000
1399.743530 5790.000000
1401.395874 6162.000000
1403.047485 6465.000000
1404.697876 7135.000000
1406.347168 6250.000000
1407.995728 7476.000000
1409.643188 7929.000000
1411.289673 6183.000000
1412.935303 6230.000000
1414.579956 5969.000000
1416.223389 7021.000000
1417.865967 7099.000000
1419.507446 6887.000000
1421.148071 6509.000000
1422.787720 6503.000000
1424.426270 5998.000000
1426.063965 6599.000000
1427.700562 6318.000000
1429.336182 6018.000000
1430.971069 6438.000000
1432.604858 5928.000000
1434.237549 6118.000000
1435.869263 5657.000000
1437.500122 6100.000000
1439.129883 6020.000000
1440.758545 7724.000000
1442.386597 5961.000000
1444.013550 6194.000000
1445.639282 6132.000000
1447.264404 6156.000000
1448.888428 6533.000000
1450.511475 6014.000000
1452.133545 6012.000000
1453.754517 7344.000000
1455.374512 6308.000000
1456.993774 6814.000000
1458.611694 5696.000000
1460.229004 17180.000000
1461.845337 5544.000000
1463.460449 7268.000000
1465.074707 6261.000000
1466.688110 5184.000000
1468.300415 5629.000000
1469.911865 6276.000000
1471.522461 6301.000000
1473.131836 5986.000000
1474.740234 5941.000000
1476.347778 6219.000000
1477.954346 6625.000000
1479.560181 5278.000000
1481.164795 6276.000000
1482.768555 5563.000000
1484.371094 6819.000000
1485.973022 5527.000000
1487.573730 5492.000000
1489.173706 5637.000000
1490.772583 6222.000000
1492.370605 6603.000000
1493.967529 6686.000000
1495.563599 6361.000000
1497.158691 5998.000000
1498.752808 5521.000000
1500.346191 6614.000000
1501.938477 5533.000000
1503.529541 5986.000000
1505.120117 6716.000000
1506.709351 6458.000000
1508.297974 6132.000000
1509.885498 6543.000000
1511.471924 6876.000000
1513.057617 6229.000000
1514.642212 6669.000000
1516.225952 6196.000000
1517.808594 6187.000000
1519.390503 6624.000000
1520.971313 6671.000000
1522.551392 6055.000000
1524.130249 6220.000000
1525.708252 6319.000000
1527.285522 6312.000000
1528.861572 5698.000000
1530.436890 5834.000000
1532.011108 6332.000000
1533.584595 5443.000000
1535.156860 5952.000000
1536.728394 6321.000000
1538.298950 6465.000000
1539.868652 6289.000000
1541.437134 5447.000000
1543.004883 6616.000000
1544.571777 5646.000000
1546.137451 6738.000000
1547.702393 5955.000000
1549.266235 5090.000000
1550.829468 7469.000000
1552.391357 6313.000000
1553.952637 5956.000000
1555.512817 5694.000000
1557.072266 5769.000000
1558.630615 5915.000000
1560.188232 6310.000000
1561.744751 7081.000000
1563.300049 5864.000000
1564.854736 6382.000000
1566.408691 5638.000000
1567.961670 6265.000000
1569.513306 5667.000000
1571.064209 5885.000000
1572.614380 6213.000000
1574.163574 6340.000000
1575.711426 5799.000000
1577.258789 5555.000000
1578.805176 5758.000000
1580.350708 5059.000000
1581.895264 6616.000000
1583.438599 6351.000000
1584.981323 6558.000000
1586.523193 6420.000000
1588.063965 6714.000000
1589.603760 5836.000000
1591.142822 6674.000000
1592.680786 5897.000000
1594.218262 6105.000000
1595.754395 5828.000000
1597.289429 6693.000000
1598.823975 6200.000000
1600.357544 5970.000000
1601.890259 5966.000000
1603.421387 6273.000000
1604.952271 6303.000000
1606.482300 5756.000000
1608.011108 6193.000000
1609.538818 6141.000000
1611.065918 5990.000000
1612.592285 5810.000000
1614.117676 6269.000000
1615.642212 5830.000000
1617.165405 5735.000000
1618.687866 5605.000000
1620.209595 6589.000000
1621.730469 7027.000000
1623.249878 15604.000000
1624.768799 6114.000000
1626.286987 6090.000000
1627.804321 5931.000000
1629.320557 6427.000000
1630.835449 7032.000000
1632.349854 6633.000000
1633.863525 5776.000000
1635.376099 6874.000000
1636.887451 5934.000000
1638.398438 6525.000000
1639.908325 6275.000000
1641.417358 6160.000000
1642.925049 5617.000000
1644.432373 6128.000000
1645.938843 7158.000000
1647.444336 6231.000000
1648.948975 6833.000000
1650.452148 6227.000000
1651.954712 6585.000000
1653.456909 6340.000000
1654.957764 6671.000000
1656.457520 7519.000000
1657.956421 5982.000000
1659.454956 6495.000000
1660.952271 6212.000000
1662.448853 5903.000000
1663.943848 6458.000000
1665.438599 6304.000000
1666.932495 5259.000000
1668.425415 5661.000000
1669.916992 20142.000000
1671.408081 6432.000000
1672.898560 6040.000000
1674.387939 5951.000000
1675.875854 7018.000000
1677.363525 6852.000000
1678.850220 6020.000000
1680.336060 5312.000000
1681.821045 6099.000000
1683.304565 6141.000000
1684.787842 6156.000000
1686.270264 5929.000000
1687.751587 6181.000000
1689.231445 6182.000000
1690.711060 5562.000000
1692.189941 6569.000000
1693.667847 6042.000000
1695.144775 6107.000000
1696.620483 5693.000000
1698.095825 6049.000000
1699.569946 6251.000000
1701.043457 5508.000000
1702.515503 5602.000000
1703.987305 6883.000000
1705.458130 6346.000000
1706.928101 7311.000000
1708.396729 5160.000000
1709.864868 5841.000000
1711.332275 6403.000000
1712.798584 5469.000000
1714.264282 5774.000000
1715.728271 6224.000000
1717.192139 5934.000000
1718.655151 6926.000000
1720.117188 6390.000000
1721.578003 6505.000000
1723.038208 5488.000000
1724.497681 5668.000000
1725.956299 6148.000000
1727.413940 6021.000000
1728.870239 6222.000000
1730.326294 6077.000000
1731.781372 6385.000000
1733.235474 6004.000000
1734.688354 6871.000000
1736.140991 6013.000000
1737.592529 6895.000000
1739.043335 5958.000000
1740.493164 6561.000000
1741.941650 5878.000000
1743.389771 7358.000000
1744.837036 6550.000000
1746.283569 6696.000000
1747.728516 6686.000000
1749.173218 6160.000000
1750.617065 5869.000000
1752.060059 5461.000000
1753.501587 6533.000000
1754.942871 6332.000000
1756.383301 6321.500000
1757.822754 6311.000000
1759.261230 5275.000000
1760.698730 6047.000000
1762.135742 7588.000000
1763.571777 5849.000000
1765.006958 7146.000000
1766.440674 6134.000000
1767.874268 6447.000000
1769.306885 6677.000000
1770.738647 5782.000000
1772.169556 5745.000000
1773.599243 6345.000000
1775.028198 6123.000000
1776.456665 6267.000000
1777.884155 6648.000000
1779.310303 6230.000000
1780.736206 5610.000000
1782.161011 6899.000000
1783.585205 5587.000000
1785.007935 6617.000000
1786.430176 6485.000000
1787.851685 6897.000000
1789.272461 5763.000000
1790.692261 6206.000000
1792.110718 6138.000000
1793.528687 6811.000000
1794.946045 5486.000000
1796.362549 6070.000000
1797.777588 6568.000000
1799.192261 5876.000000
1800.606323 6615.000000
1802.019165 6013.000000
1803.431396 6992.000000
1804.842285 7057.000000
1806.252686 7708.000000
1807.662354 6518.000000
1809.071045 5927.000000
1810.478638 5424.000000
1811.885742 6382.000000
1813.291992 6364.000000
1814.697266 6669.000000
1816.101440 5959.000000
1817.505249 5972.000000
1818.908081 6201.000000
1820.310059 5989.000000
1821.711426 5878.000000
1823.111328 6355.000000
1824.510620 6401.000000
1825.909424 6563.000000
1827.307373 7394.000000
1828.703979 5765.000000
1830.099976 6686.000000
1831.495239 5891.000000
1832.889893 8102.000000
1834.283569 6005.000000
1835.675903 6843.000000
1837.067749 6428.000000
1838.458984 5910.000000
1839.849243 7065.000000
1841.238281 6031.000000
1842.626953 6111.000000
1844.014648 5973.000000
1845.401611 5884.000000
1846.787231 6894.000000
1848.172607 5902.000000
1849.557129 6382.000000
1850.940918 6342.000000
1852.323608 6341.000000
1853.705078 5360.000000
1855.086060 6512.000000
1856.466553 6300.000000
1857.846069 5756.000000
1859.224121 5986.000000
1860.602051 6192.000000
1861.979004 7829.000000
1863.355225 6132.000000
1864.730591 6069.000000
1866.104492 5701.000000
1867.478271 5685.000000
1868.851196 6199.000000
1870.223022 5953.000000
1871.593872 6934.000000
1872.964355 5458.000000
1874.333740 6055.000000
1875.702637 6082.000000
1877.069946 7110.000000
1878.437134 6065.000000
1879.803345 5989.000000
1881.168823 6747.000000
1882.533569 7488.000000
1883.896729 6768.000000
1885.259766 6938.000000
1886.621948 6282.000000
1887.983276 6427.000000
1889.343262 5649.000000
1890.702881 5817.000000
1892.061890 6132.000000
1893.419922 6656.000000
1894.777100 7334.000000
1896.133057 5978.000000
1897.488770 7695.000000
1898.843506 5820.000000
1900.197388 5540.000000
1901.550171 5881.000000
1902.902466 5984.000000
1904.254028 5938.000000
1905.604736 6892.000000
1906.954224 6541.000000
1908.303223 6682.000000
1909.651367 5761.000000
1910.998901 6168.000000
1912.345703 6272.000000
1913.690918 6779.000000
1915.035889 6072.000000
1916.380127 5487.000000
1917.723511 6452.000000
1919.065552 5957.000000
1920.407349 6730.000000
1921.748291 7004.000000
1923.088501 6159.000000
1924.427734 6324.000000
1925.765991 6287.000000
1927.103638 6448.000000
1928.440552 7005.000000
1929.776611 6742.000000
1931.111450 5612.000000
1932.445923 6722.000000
1933.779663 7233.000000
1935.112549 6298.000000
1936.443970 5777.000000
1937.775513 6376.000000
1939.105713 6573.000000
1940.435425 5803.000000
1941.764282 6037.000000
1943.091919 5779.000000
1944.419067 5076.000000
1945.745483 5842.000000
1947.071167 6483.000000
1948.395508 5771.000000
1949.719604 6658.000000
1951.042847 6360.000000
1952.365356 6409.000000
1953.686768 5819.000000
1955.007202 7351.000000
1956.327026 5997.000000
1957.646484 5588.000000
1958.964966 6795.000000
1960.282104 5994.000000
1961.598877 5898.000000
1962.914917 6574.000000
1964.230225 6525.000000
1965.544067 6359.000000
1966.857666 5716.000000
1968.170532 6228.000000
1969.482544 6009.000000
1970.793945 6059.000000
1972.104004 6290.000000
1973.413574 5857.000000
1974.722412 6141.000000
1976.030640 6550.000000
1977.337524 6126.000000
1978.643799 7168.000000
1979.949707 5586.000000
1981.254395 6394.000000
1982.558594 5893.000000
1983.861572 5745.000000
1985.164185 7508.000000
1986.465820 6129.000000
1987.766846 6761.000000
1989.066284 6086.000000
1990.365845 6606.000000
1991.664307 5309.000000
1992.962280 6095.000000
1994.258667 6111.000000
1995.555054 5784.000000
1996.850464 5585.000000
1998.145142 6527.000000
1999.438965 5731.000000
2000.731567 6510.000000
2002.023682 5717.000000
2003.315308 7135.000000
2004.606201 6339.000000
2005.895508 6335.000000
2007.184570 6801.000000
2008.472900 5982.000000
2009.760498 6058.000000
2011.047241 6682.000000
2012.332886 5639.000000
2013.618164 6211.000000
2014.902466 5984.000000
2016.186157 5609.000000
2017.468506 6076.000000
2018.750488 6506.000000
2020.031982 6747.000000
2021.312500 5925.000000
2022.592285 6059.000000
2023.870972 6725.000000
2025.148926 5813.000000
2026.426392 5867.000000
2027.703247 6238.000000
2028.978394 5739.000000
2030.253662 6603.000000
2031.527954 6030.000000
2032.801270 5922.000000
2034.073730 5961.000000
2035.345825 6094.000000
2036.616821 6966.000000
2037.887573 6649.000000
2039.156982 5980.000000
2040.425293 6743.000000
2041.693604 6604.000000
2042.960938 5957.000000
2044.227539 5995.000000
2045.492920 5608.000000
2046.757690 5626.000000
2048.022217 5421.000000
2049.285645 5951.000000
2050.548584 6459.000000
2051.809570 6145.000000
2053.071045 6057.000000
2054.331299 5911.000000
2055.590820 6491.000000
2056.849609 6339.000000
2058.107422 6931.000000
2059.364746 6154.000000
2060.621338 5987.000000
2061.876465 6575.000000
2063.131592 5691.000000
2064.385742 5582.000000
2065.639160 5637.000000
2066.891846 6858.000000
2068.143311 6247.000000
2069.394531 6231.000000
2070.645020 5649.000000
2071.894775 5419.000000
2073.143066 6164.000000
2074.391357 6451.000000
2075.638672 7407.000000
2076.885254 5587.000000
2078.131104 6038.000000
2079.375732 7021.000000
2080.619873 7603.000000
2081.863525 5446.000000
2083.106201 5995.000000
2084.347656 6897.000000
2085.588867 5974.000000
2086.829590 6423.000000
2088.069336 6789.000000
2089.307861 7098.000000
2090.545898 6142.000000
2091.783203 5749.000000
2093.020264 6694.000000
2094.255859 6086.000000
2095.490723 6268.000000
2096.725342 6016.000000
2097.958984 5631.000000
2099.191650 6092.000000
2100.423584 6844.000000
2101.655029 6433.000000
2102.885498 6772.000000
2104.115234 5919.000000
2105.344727 6025.000000
2106.572266 5948.000000
2107.800049 6043.000000
2109.027100 6276.000000
2110.253174 5474.000000
2111.477783 6403.000000
2112.702637 7017.000000
2113.926270 7002.000000
2115.149414 6297.000000
2116.371338 7544.000000
2117.593018 5958.000000
2118.813721 6843.000000
2120.033691 5981.000000
2121.253174 6139.000000
2122.471191 6521.000000
2123.689209 7016.000000
2124.906250 5742.000000
2126.122803 5614.000000
2127.337646 6611.000000
2128.552734 6402.000000
2129.766846 6761.000000
2130.980225 5696.000000
2132.192871 6124.000000
2133.404053 5858.000000
2134.615479 6480.000000
2135.825684 6678.000000
2137.035400 5973.000000
2138.243652 6184.000000
2139.451904 5629.000000
2140.659424 5864.000000
2141.865723 7368.000000
2143.071289 5867.000000
2144.276611 5729.000000
2145.480957 5538.000000
2146.684570 6304.000000
2147.887695 6184.000000
2149.089355 6502.000000
2150.290771 5310.000000
2151.491455 6288.000000
2152.691406 6020.000000
2153.890137 5893.000000
2155.088623 6965.000000
2156.286621 6221.000000
2157.483643 6045.000000
2158.679932 5200.000000
2159.875000 5239.000000
2161.069824 6162.000000
2162.263916 5575.000000
2163.457031 6022.000000
2164.649170 6933.000000
2165.841064 5922.000000
2167.032227 6384.000000
2168.222412 6290.000000
2169.411865 6520.000000
2170.600830 6783.000000
2171.788818 6025.000000
2172.976563 5764.000000
2174.162842 5965.000000
2175.348389 6568.000000
2176.533691 6059.000000
2177.718506 5886.000000
2178.902100 6353.000000
2180.084961 7506.000000
2181.266846 6337.000000
2182.448486 6138.000000
2183.629639 6616.000000
2184.809570 5691.000000
2185.988525 5560.000000
2187.166992 6314.000000
2188.345215 6936.000000
2189.522217 7156.000000
2190.698242 6639.000000
2191.874023 6072.000000
2193.049316 5577.000000
2194.223145 6729.000000
2195.396484 6149.000000
2196.569580 6194.000000
2197.741455 6380.000000
2198.912842 7142.000000
2200.083740 6326.000000
2201.252930 6878.000000
2202.422119 7557.000000
2203.590820 6320.000000
2204.758545 5861.000000
2205.925293 5645.000000
2207.091309 7077.000000
2208.256836 6787.000000
2209.422119 5980.000000
2210.585938 6727.000000
2211.749268 5486.000000
2212.911377 6195.000000
2214.073730 6179.000000
2215.234863 6685.000000
2216.395020 6670.000000
2217.554688 6252.000000
2218.714111 6606.000000
2219.872314 6394.000000
2221.029541 6363.000000
2222.186523 6744.000000
2223.342773 6540.000000
2224.498291 6785.000000
2225.653076 6321.000000
2226.806885 6463.000000
2227.959717 6036.000000
2229.113037 6924.000000
2230.264404 6198.000000
2231.415527 6154.000000
2232.565918 6503.000000
2233.715820 7628.000000
2234.864746 6316.000000
2236.013184 5229.000000
2237.160156 6788.000000
2238.307373 7159.000000
2239.453369 6109.000000
2240.599121 7265.000000
2241.743164 7311.000000
2242.887451 6721.000000
2244.030762 6267.000000
2245.173340 6034.000000
2246.314941 5782.000000
2247.456299 5814.000000
2248.596680 6363.000000
2249.736328 6462.000000
2250.875488 5821.000000
2252.013428 5812.000000
2253.151367 6148.000000
2254.288330 5371.000000
2255.424561 6356.000000
2256.559814 6155.000000
2257.694336 7288.000000
2258.828613 6409.000000
2259.962402 5382.000000
2261.094727 6188.000000
2262.226563 6786.000000
2263.357910 6289.000000
2264.488281 6442.000000
2265.618408 8121.000000
2266.747314 6673.000000
2267.875732 6088.000000
2269.003662 5583.000000
2270.130615 6177.000000
2271.256836 5946.000000
2272.382080 6759.000000
2273.507324 6508.000000
2274.631836 6343.000000
2275.755127 5946.000000
2276.877686 6384.000000
2277.999756 5986.000000
2279.121338 7428.000000
2280.242188 6395.000000
2281.361816 6457.000000
2282.480957 7120.000000
2283.599854 7652.000000
2284.718018 7269.000000
2285.835205 5863.000000
2286.951416 6442.000000
2288.067383 7064.000000
2289.182617 6848.000000
2290.297119 7387.000000
2291.410400 5790.000000
2292.523682 6405.000000
2293.636230 5989.000000
2294.748047 5364.000000
2295.859131 6766.000000
2296.968994 6389.000000
2298.078369 6170.000000
2299.187500 6719.000000
2300.295654 6333.000000
2301.402832 6781.000000
2302.509766 5923.000000
2303.615967 6204.000000
2304.721680 6614.000000
2305.825928 6570.000000
2306.929932 5443.000000
2308.033447 5718.000000
2309.136475 6564.000000
2310.238281 7492.000000
2311.339355 7285.000000
2312.439941 6590.000000
2313.540039 5508.000000
2314.639404 6396.000000
2315.737305 6609.000000
2316.835693 6983.000000
2317.932617 8164.000000
2319.029297 6916.000000
2320.125488 5789.000000
2321.219971 6806.000000
2322.314453 7447.000000
2323.408203 5840.000000
2324.501709 6028.000000
2325.593506 6394.000000
2326.685303 6876.000000
2327.776367 6126.000000
2328.866699 6272.000000
2329.956055 6888.000000
2331.045410 6033.000000
2332.133545 6317.000000
2333.221191 6853.000000
2334.308594 6541.000000
2335.394287 6728.000000
2336.479736 7770.000000
2337.564941 6302.000000
2338.649170 6726.000000
2339.732422 5911.000000
2340.815430 6469.000000
2341.897461 7613.000000
2342.979248 6045.000000
2344.060303 7465.000000
2345.140137 6602.000000
2346.219482 5690.000000
2347.298340 6783.000000
2348.376709 6575.000000
2349.453613 6310.000000
2350.530273 6960.000000
2351.606689 6036.000000
2352.682129 6459.000000
2353.756592 5967.000000
2354.830811 6305.000000
2355.904297 6828.000000
2356.977295 6196.000000
2358.049072 7023.000000
2359.120605 6310.000000
2360.191162 6782.000000
2361.261475 7525.000000
2362.330811 7581.000000
2363.399170 6803.000000
2364.467285 6780.000000
2365.534668 7100.000000
2366.601563 7095.000000
2367.667725 6074.000000
2368.732666 6814.000000
2369.797607 7005.000000
2370.861816 6352.000000
2371.925293 6963.000000
2372.987549 5768.000000
2374.049805 6324.000000
2375.111084 6327.000000
2376.172119 5901.000000
2377.231934 6339.000000
2378.291016 7820.000000
2379.350098 6417.000000
2380.408203 7647.000000
2381.465576 6854.000000
2382.521973 7978.000000
2383.578125 7812.000000
2384.633789 6270.000000
2385.688721 6983.000000
2386.742188 6789.000000
2387.795898 6576.000000
2388.848633 6273.000000
2389.900879 6653.000000
2390.952393 6203.000000
2392.002930 6586.000000
2393.053223 6461.000000
2394.102539 6198.000000
2395.151855 6239.000000
2396.199707 6879.000000
2397.247070 7009.000000
2398.294189 6291.000000
2399.340332 6672.000000
2400.385742 6182.000000
2401.430420 6763.000000
2402.475098 7738.000000
2403.518311 7462.000000
2404.561523 6572.000000
2405.603271 5800.000000
2406.645264 6690.000000
2407.686523 7129.000000
2408.726807 6161.000000
2409.766357 6437.000000
2410.804932 6356.000000
2411.843750 5913.000000
2412.881348 6547.000000
2413.918701 6871.000000
2414.954834 7303.000000
2415.990723 6253.000000
2417.025879 6299.000000
2418.060547 6606.000000
2419.093750 7279.000000
2420.127197 6466.000000
2421.159668 6694.000000
2422.191895 6791.000000
2423.222656 7036.000000
2424.253418 6422.000000
2425.283691 6876.000000
2426.312744 6841.000000
2427.341797 6626.000000
2428.369141 7409.000000
2429.396973 6712.000000
2430.423584 7189.000000
2431.449951 6954.000000
2432.474854 7757.000000
2433.500000 6503.000000
2434.524170 7132.000000
2435.548096 6691.000000
2436.570801 5748.000000
2437.592773 6306.000000
2438.614502 6595.000000
2439.635498 6628.000000
2440.656006 6002.000000
2441.675293 6565.000000
2442.694580 6580.000000
2443.712891 8459.000000
2444.730957 6317.000000
2445.747559 6533.000000
2446.764160 6570.000000
2447.780029 6017.000000
2448.795898 6998.000000
2449.810303 6827.000000
2450.823975 5546.000000
2451.837158 7304.000000
2452.850098 6026.000000
2453.862305 7168.000000
2454.873535 6683.000000
2455.884521 7644.000000
2456.894775 6345.000000
2457.904541 7673.000000
2458.913330 5912.000000
2459.921387 5934.000000
2460.929443 6293.000000
2461.936279 7295.000000
2462.942871 5443.000000
2463.948242 7405.000000
2464.953369 6952.000000
2465.958252 5870.000000
2466.961914 6551.000000
2467.965332 6419.000000
2468.967773 7618.000000
2469.969971 7325.000000
2470.971680 6869.000000
2471.972412 6583.000000
2472.972168 6931.000000
2473.971924 6756.000000
2474.970703 5683.000000
2475.968994 6586.000000
2476.966309 7003.000000
2477.963379 6078.000000
2478.960449 6945.000000
2479.956055 5863.000000
2480.951660 7117.000000
2481.945557 6667.000000
2482.939453 8073.000000
2483.932861 6882.000000
2484.925781 6750.000000
2485.917725 7491.000000
2486.908936 7194.000000
2487.899902 6754.000000
2488.890381 5861.000000
2489.879883 6545.000000
2490.868652 6535.000000
2491.857422 5689.000000
2492.845215 6845.000000
2493.831787 6614.000000
2494.818359 7991.000000
2495.804443 6767.000000
2496.789795 7162.000000
2497.774170 8355.000000
2498.758301 6044.000000
2499.742432 6914.000000
2500.725098 5754.000000
2501.707275 6964.000000
2502.688965 6799.000000
2503.669922 7284.000000
2504.650391 6504.000000
2505.630615 5761.000000
2506.609375 6356.000000
2507.587891 7594.000000
2508.565918 6692.000000
2509.543457 7085.000000
2510.520020 6110.000000
2511.496338 6029.000000
2512.471924 6364.000000
2513.447021 6228.000000
2514.421631 6487.000000
2515.395020 7540.000000
2516.368164 6866.000000
2517.341064 6841.000000
2518.312988 6209.000000
2519.284180 6922.000000
2520.254883 6945.000000
2521.225342 7768.000000
2522.195068 8098.000000
2523.163818 6102.000000
2524.131836 6109.000000
2525.099854 7827.000000
2526.066895 6269.000000
2527.033691 5553.000000
2527.999268 7272.000000
2528.964844 6990.000000
2529.929688 7771.000000
2530.894043 6359.000000
2531.857178 6375.000000
2532.820557 5880.000000
2533.782959 5981.000000
2534.745117 6686.000000
2535.706055 6358.000000
2536.666260 6090.000000
2537.626709 6125.000000
2538.586182 6834.000000
2539.544922 6861.000000
2540.502686 6684.000000
2541.460693 6248.000000
2542.417969 6827.000000
2543.374268 6141.000000
2544.330322 7062.000000
2545.285156 6200.000000
2546.240234 7796.000000
2547.194580 7171.000000
2548.148193 6390.000000
2549.100830 7260.000000
2550.053223 6701.000000
2551.005127 7012.000000
2551.956299 6343.000000
2552.906738 7752.000000
2553.856689 7204.000000
2554.806396 7379.000000
2555.755371 6628.000000
2556.703857 6299.000000
2557.651123 7185.000000
2558.598389 6277.000000
2559.544922 6578.000000
2560.490967 6768.000000
2561.436035 7347.000000
2562.380859 6731.000000
2563.325195 7166.000000
2564.269043 6844.000000
2565.212402 6636.000000
2566.154297 6526.000000
2567.096436 6554.000000
2568.037842 6161.000000
2568.978516 7125.000000
2569.918457 7313.000000
2570.858398 5709.000000
2571.797363 6220.000000
2572.736084 7586.000000
2573.673828 7171.000000
2574.611328 5407.000000
2575.548096 6950.000000
2576.484131 6868.000000
2577.419678 7540.000000
2578.354492 6378.000000
2579.289307 5931.000000
2580.223145 7120.000000
2581.156494 7144.000000
2582.089111 5893.000000
2583.021484 6973.000000
2583.953125 5411.000000
2584.884277 7065.000000
2585.814941 7021.000000
2586.744385 6882.000000
2587.673828 7258.000000
2588.602783 6422.000000
2589.531494 7359.000000
2590.458496 7375.000000
2591.385742 5908.000000
2592.312500 6873.000000
2593.238525 6277.000000
2594.164307 5658.000000
2595.088867 7602.000000
2596.013184 7608.000000
2596.937012 5382.000000
2597.860352 7298.000000
2598.782715 6253.000000
2599.704834 6809.000000
2600.626465 8369.000000
2601.547363 6416.000000
2602.467529 5801.000000
2603.387451 6354.000000
2604.306885 6431.000000
2605.226074 6411.000000
2606.144287 5900.000000
2607.061279 6031.000000
2607.978516 7225.000000
2608.895508 5938.000000
2609.811523 7546.000000
2610.726318 6676.000000
2611.641602 6655.000000
2612.556152 6546.000000
2613.469727 6572.000000
2614.383301 6104.000000
2615.295654 7648.000000
2616.208008 7062.000000
2617.119385 6793.000000
2618.030518 5725.000000
2618.940918 7193.000000
2619.851074 6756.000000
2620.760498 6152.000000
2621.669434 6619.000000
2622.577393 6238.000000
2623.485596 6790.000000
2624.392822 6620.000000
2625.299561 7048.000000
2626.205566 5999.000000
2627.111328 6604.000000
2628.016357 6456.000000
2628.921143 7856.000000
2629.825195 6480.000000
2630.728271 6422.000000
2631.631348 6437.000000
2632.533447 5629.000000
2633.435547 6809.000000
2634.337402 6997.000000
2635.237549 6760.000000
2636.137939 6458.000000
2637.037598 6442.000000
2637.937012 6047.000000
2638.834961 6931.000000
2639.733398 6692.000000
2640.631348 6461.000000
2641.528564 6153.000000
2642.424561 6151.000000
2643.320557 6878.000000
2644.216309 6093.000000
2645.111328 6486.000000
2646.006104 6663.000000
2646.899414 7082.000000
2647.792725 6369.000000
2648.685791 6799.000000
2649.578613 6489.000000
2650.469727 7430.000000
2651.361084 6412.000000
2652.251953 7658.000000
2653.142090 7319.000000
2654.031982 6602.000000
2654.920654 7296.000000
2655.809570 6577.000000
2656.697998 6564.000000
2657.585449 7295.000000
2658.471924 6476.000000
2659.358887 7145.000000
2660.245117 6823.000000
2661.130859 6808.000000
2662.015381 6530.000000
2662.899902 6441.000000
2663.784180 6226.000000
2664.667725 7102.000000
2665.550781 7812.000000
2666.433105 7252.000000
2667.314941 6275.000000
2668.196045 6612.000000
2669.077393 6121.000000
2669.957275 6593.000000
2670.837402 7396.000000
2671.716797 7231.000000
2672.596191 6252.000000
2673.474854 6103.000000
2674.351807 6446.000000
2675.229492 6744.000000
2676.106445 6406.000000
2676.982666 8185.000000
2677.858398 7146.000000
2678.733398 6297.000000
2679.608643 7777.000000
2680.482910 6965.000000
2681.356689 7355.000000
2682.229736 7037.000000
2683.102539 6242.000000
2683.975098 6082.000000
2684.846924 6947.000000
2685.718018 6559.000000
2686.588867 6907.000000
2687.459229 7180.000000
2688.329346 6672.000000
2689.197754 6263.000000
2690.066895 7415.000000
2690.935303 7130.000000
2691.803467 6681.000000
2692.670898 6896.000000
2693.537109 5870.000000
2694.403809 7206.000000
2695.269531 7384.000000
2696.135254 7183.000000
2696.999512 7965.000000
2697.864502 6613.000000
2698.728027 7285.000000
2699.591797 5824.000000
2700.454102 7439.000000
2701.316895 6799.000000
2702.178711 5914.000000
2703.040039 6779.000000
2703.901367 6785.000000
2704.761475 7447.000000
2705.621582 7322.000000
2706.481201 6605.000000
2707.340576 6867.000000
2708.198242 7158.000000
2709.056152 6926.000000
2709.914551 7344.000000
2710.771729 6802.000000
2711.628174 5990.000000
2712.484131 6885.000000
2713.340088 6068.000000
2714.195313 6925.000000
2715.049805 6168.000000
2715.903809 6773.000000
2716.757813 7318.000000
2717.610840 6320.000000
2718.464111 6391.000000
2719.315674 7780.000000
2720.167725 6778.000000
2721.019531 6272.000000
2721.870117 6548.000000
2722.720703 6762.000000
2723.570801 7173.000000
2724.420166 7072.000000
2725.269531 6984.000000
2726.117676 6765.000000
2726.965332 6525.000000
2727.813477 7030.000000
2728.660400 6849.000000
2729.507813 5528.000000
2730.353760 7535.000000
2731.198975 6998.000000
2732.044678 6437.000000
2732.889404 7046.000000
2733.734131 7320.000000
2734.577637 6902.000000
2735.421387 7808.000000
2736.264404 7123.000000
2737.106934 6036.000000
2737.948486 6273.000000
2738.790527 6852.000000
2739.631592 6916.000000
2740.472412 5826.000000
2741.312988 5925.000000
2742.152344 7739.000000
2742.991699 6837.000000
2743.831055 6940.000000
2744.669189 6821.000000
2745.506836 7766.000000
2746.344482 6347.000000
2747.181641 7183.000000
2748.018555 6220.000000
2748.854980 6046.000000
2749.690186 6649.000000
2750.525635 6267.000000
2751.360596 6354.000000
2752.194824 6240.000000
2753.028809 6937.000000
2753.862305 6839.000000
2754.695801 8011.000000
2755.528320 6760.000000
2756.360352 7344.000000
2757.191895 6859.000000
2758.023438 7083.000000
2758.854004 7206.000000
2759.684814 7292.000000
2760.514404 7264.000000
2761.343994 6691.000000
2762.173340 7270.000000
2763.001953 6748.000000
2763.830078 6821.000000
2764.657715 6897.000000
2765.485352 6582.000000
2766.312500 7860.000000
2767.138916 5797.000000
2767.964844 7450.000000
2768.790283 6887.000000
2769.615479 7780.000000
2770.440674 7092.000000
2771.264648 6787.000000
2772.088623 6513.000000
2772.912598 7667.000000
2773.735352 6413.000000
2774.558350 6957.000000
2775.380127 6943.000000
2776.201904 6958.000000
2777.023682 6530.000000
2777.844482 7983.000000
2778.664551 6494.000000
2779.484863 7039.000000
2780.304688 7208.000000
2781.124512 6449.000000
2781.942383 5907.000000
2782.761475 8097.000000
2783.579346 6562.000000
2784.396973 6793.000000
2785.214111 7171.000000
2786.030762 7319.000000
2786.847168 7262.000000
2787.663086 6297.000000
2788.478760 5974.000000
2789.293457 6418.000000
2790.108643 6962.000000
2790.923096 7221.000000
2791.737061 6622.000000
2792.550781 7476.000000
2793.363281 8773.000000
2794.176025 6976.000000
2794.988281 7442.000000
2795.800049 7161.000000
2796.611084 7429.000000
2797.422852 6523.000000
2798.233398 7209.000000
2799.043945 7048.000000
2799.853027 7415.000000
2800.662842 8222.000000
2801.471924 7826.000000
2802.280762 6679.000000
2803.089111 7140.000000
2803.896484 6155.000000
2804.704346 6461.000000
2805.511475 6884.000000
2806.318359 6839.000000
2807.124023 7120.000000
2807.930176 6638.000000
2808.735596 6478.000000
2809.541016 7269.000000
2810.345703 6243.000000
2811.149414 7660.000000
2811.953613 7476.000000
2812.757324 6368.000000
2813.560791 6102.000000
2814.362793 6603.000000
2815.165527 7361.000000
2815.967529 7776.000000
2816.769287 6097.000000
2817.570557 6573.000000
2818.371338 7246.000000
2819.171631 6518.000000
2819.972168 6597.000000
2820.771729 8071.000000
2821.570801 7131.000000
2822.369873 6429.000000
2823.168701 6928.000000
2823.967041 6347.000000
2824.764404 7103.000000
2825.562012 7115.000000
2826.358887 6743.000000
2827.156006 7376.000000
2827.952393 7902.000000
2828.748047 7010.000000
2829.543701 7382.000000
2830.339111 7682.000000
2831.134033 7489.000000
2831.928223 6681.000000
2832.722412 6889.000000
2833.516357 5764.000000
2834.309814 6933.000000
2835.102539 7183.000000
2835.895020 8211.000000
2836.687500 7603.000000
2837.479736 7745.000000
2838.271484 6470.000000
2839.062256 6814.000000
2839.853027 8843.000000
2840.644043 7474.000000
2841.434082 6270.000000
2842.223633 7669.000000
2843.013428 7221.000000
2843.802246 7338.000000
2844.591064 7797.000000
2845.379883 7801.000000
2846.167725 7514.000000
2846.955078 7262.000000
2847.742676 7556.000000
2848.529785 7331.000000
2849.316162 6675.000000
2850.102539 7461.000000
2850.888672 7261.000000
2851.674316 7469.000000
2852.458984 7179.000000
2853.244141 6934.000000
2854.029053 7475.000000
2854.813232 7099.000000
2855.597412 6986.000000
2856.380371 8311.000000
2857.163574 6833.000000
2857.946533 6783.000000
2858.729004 7798.000000
2859.511230 6337.000000
2860.292969 6634.000000
2861.074463 7667.000000
2861.856201 7479.000000
2862.637207 7668.000000
2863.417480 6618.000000
2864.197510 6809.000000
2864.977539 8246.000000
2865.757324 7491.000000
2866.536133 8176.000000
2867.315186 7705.000000
2868.093750 6839.000000
2868.872070 6996.000000
2869.649902 7187.000000
2870.427490 7001.000000
2871.204834 7566.000000
2871.981934 6983.000000
2872.758545 6428.000000
2873.534668 7454.000000
2874.310791 7231.000000
2875.086426 8317.000000
2875.861816 7286.000000
2876.636719 6709.000000
2877.411377 8089.000000
2878.186035 6707.000000
2878.960449 7947.000000
2879.734131 6852.000000
2880.507080 7199.000000
2881.280762 6779.000000
2882.053467 7627.000000
2882.826172 7914.000000
2883.598145 8317.000000
2884.369873 6210.000000
2885.142090 6770.000000
2885.913086 6954.000000
2886.683594 6160.000000
2887.454590 8314.000000
2888.225586 7329.000000
2888.995850 8056.000000
2889.765137 7632.000000
2890.534668 6924.000000
2891.304199 7304.000000
2892.073242 7411.000000
2892.841797 7913.000000
2893.610352 7952.000000
2894.377930 7001.000000
2895.145996 6620.000000
2895.913574 7454.000000
2896.681152 8379.000000
2897.447510 7416.000000
2898.214844 6586.000000
2898.980957 7188.000000
2899.747314 7060.000000
2900.512207 8354.000000
2901.277588 6992.000000
2902.043457 6533.000000
2902.807861 7696.000000
2903.572266 7713.000000
2904.336914 8452.000000
2905.100586 6653.000000
2905.864990 8494.000000
2906.628662 6745.000000
2907.391602 8391.000000
2908.154297 6537.000000
2908.917480 8950.000000
2909.680176 7060.000000
2910.441650 6834.000000
2911.203613 6834.000000
