scanname Analyse117
timestamp 2017-02-10 23:06:01
ccdbias 953.066895
ccdgain 3.473401
sigmaread 8.960639
laserwavenum -0.483114
wavenumcorrection 0.039850
scancount 1
totalexposurems 10000
singleexposurems 10000
measurementstate Unknown
scanmode Manual
snr 45.668758 0.339438 0.171771
replacelist 0
peaks 4
809.868530 0.102172 0.000000 0.253303 0.000072
875.713379 0.097476 0.000000 0.151319 0.000015
1318.838135 0.094883 0.000000 4.328475 0.001204
2329.614502 0.039381 0.000000 0.193426 0.000199
finalresult GLS_Multiple 86
A13184	Piperidine hydrochloride	4.398757e-001
A9546	4-Methoxy-alpha-methylbenzyl alcohol	4.394430e-001
A7387	4-Hydroxypiperidine	4.346304e-001
A2703	Acetaldehyde dimethyl acetal	4.298095e-001
A4025	2,4-Dimethylpentane	4.246295e-001
A1676	Trifluoroacetic acid	4.246295e-001
A9321	Methyl 2-hydroxyisobutyrate	4.243900e-001
A5377	4-Methyl-2-nitroanisole	4.234326e-001
A3222	Potassium nitrite	4.227575e-001
A12082	Dipotassium tris(1,2-benzenediolato-O,O')germanate	4.226592e-001
A2017	Isopropylamine	4.222520e-001
A4807	2-(2-Nitroethoxy)tetrahydropyran	4.215220e-001
A4543	1,4-Butanediol divinyl ether	4.183463e-001
A2839	5-Azacytidine	4.179974e-001
A11872	Poly(methyl methacrylate)	4.175235e-001
A11768	Methyl (S)-(-)-3-Boc-2,2-dimethyl-4-oxazolidinecarboxylate	4.174955e-001
A11885	Poly(methyl methacrylate-co-butyl methacrylate)	4.160478e-001
A8180	Tetrahydro-2-(2-propynyloxy)-2H-pyran	4.159923e-001
A5310	4-Methyl-3-nitroanisole	4.159231e-001
A2211	2-(Isopropylamino)ethanol	4.154782e-001
A8849	2-Ethoxytetrahydrofuran	4.154366e-001
A0113	Hydrogen peroxide	4.149510e-001
A9660	3-(4-Methoxybenzoyl)propionic acid	4.148952e-001
A11101	Hydrogen peroxide, 70%	4.147842e-001
A2782	Acetamide	4.146177e-001
A11100	Hydrogen peroxide, 50%	4.144374e-001
A4367	N-Ethyldiethanolamine	4.142987e-001
A3285	4,N,N-Trimethylaniline	4.140908e-001
A4881	2-(2-Chloroethoxy)tetrahydro-2H-pyran	4.136477e-001
A12040	Ethanol w/ sweetener	4.136201e-001
A10296	Tri(ethylene glycol) divinyl ether	4.134536e-001
A10301	2-Methoxytetrahydropyran	4.132738e-001
A13507	Poly(methyl methacrylate-co-ethyl acrylate)	4.127343e-001
A0098	Roundup (weed and grass killer)	4.127203e-001
A12955	2-Chloro-1,3,2-dioxaphospholane	4.125268e-001
A11925	Butyl (S)-(-)-2-pyrrolidone-5-carboxylate	4.123060e-001
A11598	p-Tolylboronic acid	4.122228e-001
A12733	Tri-tert-butyl borate	4.120572e-001
A8462	Ethanol	4.118499e-001
A0251	Ethylamine	4.116152e-001
A0273	Denatured Solvent Alcohol	4.115876e-001
A4269	2,4-Dibromoanisole	4.107878e-001
A7515	Methyl 3-hydroxy-2-methylenebutyrate	4.107602e-001
A3640	(+/-)-1,2,4-Butanetriol	4.103743e-001
A7633	2-Nitro-p-cymene	4.098237e-001
A11767	Di(ethylene glycol) vinyl ether	4.097959e-001
A4972	Boric acid	4.097412e-001
A1351	Sodium propionate	4.096039e-001
A0825	D-Sorbitol	4.094111e-001
A14340	Titanium(IV) fluoride	4.080375e-001
A0969	Diethylene glycol monopropyl ether	4.075300e-001
A2435	Sodium percarbonate	4.075164e-001
A5385	Diisopropyloctylsilane	4.068727e-001
A10411	4,4'-Bipiperidyl dihydrochloride	4.067770e-001
A2709	Diglycidyl 1,2-cyclohexanedicarboxylate	4.063113e-001
A3976	2-Aminopyrimidine	4.059969e-001
A4645	1-Bromo-4-(trifluoromethoxy)benzene	4.054368e-001
A14021	Ethyl 4,4,4-trifluorobutyrate	4.050816e-001
A6700	4'-Methoxypropiophenone	4.047815e-001
A3132	4-Methyl-3-nitrobenzoic acid	4.046724e-001
A1149	Methyl 2-aminobenzoate	4.046724e-001
A8690	2-Amino-5-nitrobenzophenone	4.046586e-001
A2943	Potassium binoxalate	4.046450e-001
A0292	Hydrazine	4.046175e-001
A1300	p-Cymene	4.045362e-001
A2611	2-Nitroethanol	4.044951e-001
A11658	2-(2-Nitrovinyl)furan	4.044815e-001
A12691	Ethylamine hydrochloride	4.043723e-001
A1550	Nitroethane	4.043313e-001
A14405	4-(Difluoromethoxy)benzaldehyde	4.042357e-001
A12917	Tripropyl orthoformate	4.041269e-001
A1564	Cyclooctatetraene	4.041134e-001
A11482	Methyl 5-methoxysalicylate	4.039226e-001
A5356	N-Methylpropionamide	4.038816e-001
A0199	Isobutyric acid	4.038135e-001
A10581	Piperidine	4.037999e-001
A12862	Tropylium tetrafluoroborate	4.037591e-001
A12925	Ethyl 2-nitropropionate	4.036637e-001
A7943	Ethyl 3,3-dimethylacrylate	4.034594e-001
A0419	Sodium chlorite	4.032148e-001
A14612	Ammonium hydrogenoxalate hydrate	4.030376e-001
A4380	3-Amino-1,2,4-triazine	4.029289e-001
A14031	Methyl (S)-(+)-2-pyrrolidone-5-carboxylate	4.029152e-001
A0007	Cyclohexane	4.025754e-001
A8415	2-Chloro-6-methoxy-3-nitropyridine	4.021948e-001
A2453	Calcium chromate	4.011636e-001
spectrum 2048
-97.118340 45184.000000
-94.491470 45184.000000
-91.866478 45750.000000
-89.243378 45701.000000
-86.622147 46611.000000
-84.002815 46299.000000
-81.385345 46660.000000
-78.769753 46377.000000
-76.156036 46742.000000
-73.544197 47122.000000
-70.934219 46878.000000
-68.326126 47064.000000
-65.719879 47126.000000
-63.115509 47104.000000
-60.513000 47072.000000
-57.912346 47488.000000
-55.313553 46876.000000
-52.716618 46264.000000
-50.121536 46681.000000
-47.528309 46520.000000
-44.936932 46839.000000
-42.347401 46351.000000
-39.759712 47093.000000
-37.173874 46951.000000
-34.589878 46603.000000
-32.007721 47285.000000
-29.427408 46719.000000
-26.848923 47301.000000
-24.272280 46846.000000
-21.697462 46690.000000
-19.124485 46474.000000
-16.553328 46378.000000
-13.984003 46077.000000
-11.416506 45024.000000
-8.850826 46516.000000
-6.286972 46265.000000
-3.724931 46624.000000
-1.164716 46666.000000
1.393692 46227.000000
3.950279 45396.000000
6.505062 45302.000000
9.058027 45603.000000
11.609192 44376.000000
14.158543 43949.000000
16.706099 42945.000000
19.251842 42581.000000
21.795794 41346.000000
24.337940 38004.000000
26.878290 35846.000000
29.416855 32929.000000
31.953623 28937.000000
34.488590 18453.000000
37.021778 11852.000000
39.553185 7733.000000
42.082798 7121.000000
44.610615 7254.000000
47.136673 6323.000000
49.660942 5516.000000
52.183441 4634.000000
54.704144 4281.000000
57.223091 4597.000000
59.740265 5402.000000
62.255661 6945.000000
64.769279 8608.000000
67.281143 8346.000000
69.791260 6337.000000
72.299583 4061.000000
74.806152 3018.000000
77.310974 2384.000000
79.814041 2000.000000
82.315331 1645.000000
84.814880 1726.000000
87.312675 1668.000000
89.808739 1851.000000
92.303024 2107.000000
94.795570 2525.000000
97.286400 2476.000000
99.775459 2235.000000
102.262772 1698.000000
104.748360 1411.000000
107.232208 1205.000000
109.714310 1207.000000
112.194687 1079.000000
114.673340 1091.000000
117.150269 1026.000000
119.625443 938.000000
122.098907 907.000000
124.570641 891.000000
127.040665 822.000000
129.508926 933.000000
131.975525 852.000000
134.440369 993.000000
136.903519 925.000000
139.364929 1040.000000
141.824646 1013.000000
144.282639 1228.000000
146.738937 1318.000000
149.193527 1461.000000
151.646393 1655.000000
154.097580 1819.000000
156.547073 2104.000000
158.994843 2425.000000
161.440903 2746.000000
163.885284 2998.000000
166.327988 3418.000000
168.768997 3577.000000
171.208298 3823.000000
173.645889 3797.000000
176.081848 3944.000000
178.516068 3949.000000
180.948608 4007.000000
183.379501 3965.000000
185.808670 4074.000000
188.236191 4023.000000
190.662033 3902.000000
193.086197 4046.000000
195.508698 4038.000000
197.929504 4197.000000
200.348648 4146.000000
202.766129 4415.000000
205.181915 4413.000000
207.596054 4776.000000
210.008560 4838.000000
212.419388 5088.000000
214.828537 5385.000000
217.236053 5690.000000
219.641861 6119.000000
222.046082 6345.000000
224.448593 6572.000000
226.849487 6885.000000
229.248734 7160.000000
231.646317 7201.000000
234.042236 7202.000000
236.436539 7144.000000
238.829178 7282.000000
241.220200 7327.000000
243.609558 7287.000000
245.997299 7480.000000
248.383392 7252.000000
250.767853 7331.000000
253.150665 7242.000000
255.531906 7294.000000
257.911438 7340.000000
260.289398 7280.000000
262.665680 7161.000000
265.040405 7267.000000
267.413483 7268.000000
269.784912 7287.000000
272.154694 7185.000000
274.522919 7299.000000
276.889496 7245.000000
279.254486 7208.000000
281.617859 7238.000000
283.979584 7295.000000
286.339722 7171.000000
288.698242 7206.000000
291.055176 7224.000000
293.410492 7163.000000
295.764221 7314.000000
298.116302 7254.000000
300.466827 7284.000000
302.815765 7091.000000
305.163055 7062.000000
307.508820 7056.000000
309.852905 7108.000000
312.195465 7224.000000
314.536407 7066.000000
316.875732 7040.000000
319.213501 7060.000000
321.549713 6999.000000
323.884277 7021.000000
326.217285 6932.000000
328.548737 6928.000000
330.878601 6760.000000
333.206879 6995.000000
335.533539 6953.000000
337.858704 6912.000000
340.182251 6957.000000
342.504242 6836.000000
344.824677 6861.000000
347.143494 6827.000000
349.460754 6828.000000
351.776489 6814.000000
354.090637 6739.000000
356.403198 6722.000000
358.714203 6910.000000
361.023682 6776.000000
363.331635 6704.000000
365.637970 6758.000000
367.942719 6744.000000
370.246002 6836.000000
372.547668 6808.000000
374.847839 6840.000000
377.146454 6916.000000
379.443512 6771.000000
381.739014 6803.000000
384.032990 6940.000000
386.325378 6887.000000
388.616272 6899.000000
390.905640 6865.000000
393.193420 7034.000000
395.479675 7117.000000
397.764435 7050.000000
400.047577 7130.000000
402.329285 7170.000000
404.609467 7051.000000
406.888062 7066.000000
409.165131 7004.000000
411.440674 6924.000000
413.714691 6976.000000
415.987274 6906.000000
418.258240 6924.000000
420.527710 6900.000000
422.795685 6804.000000
425.062103 6792.000000
427.327026 6860.000000
429.590485 6800.000000
431.852356 6732.000000
434.112762 6776.000000
436.371613 6853.000000
438.628998 6773.000000
440.884888 6808.000000
443.139282 6628.000000
445.392151 6632.000000
447.643463 6593.000000
449.893372 6562.000000
452.141693 6555.000000
454.388580 6629.000000
456.634003 6568.000000
458.877869 6607.000000
461.120239 6404.000000
463.361115 6490.000000
465.600586 6533.000000
467.838470 6532.000000
470.074921 6446.000000
472.309845 6449.000000
474.543304 6360.000000
476.775330 6514.000000
479.005829 6451.000000
481.234833 6420.000000
483.462372 6326.000000
485.688416 6381.000000
487.913025 6432.000000
490.136169 6342.000000
492.357849 6384.000000
494.577972 6489.000000
496.796692 6414.000000
499.013916 6480.000000
501.229767 6507.000000
503.444000 6417.000000
505.656921 6514.000000
507.868256 6504.000000
510.078156 6396.000000
512.286621 6546.000000
514.493713 6395.000000
516.699219 6488.000000
518.903320 6476.000000
521.105896 6556.000000
523.307068 6336.000000
525.506897 6378.000000
527.705200 6459.000000
529.901978 6448.000000
532.097412 6516.000000
534.291321 6288.000000
536.483887 6476.000000
538.674927 6314.000000
540.864563 6301.000000
543.052795 6348.000000
545.239502 6344.000000
547.424744 6237.000000
549.608704 6149.000000
551.791077 6134.000000
553.972107 6191.000000
556.151611 6164.000000
558.329834 6077.000000
560.506531 6057.000000
562.681824 6072.000000
564.855713 6009.000000
567.028137 5911.000000
569.199158 5973.000000
571.368713 5971.000000
573.536987 6037.000000
575.703735 6127.000000
577.869019 6035.000000
580.032898 5977.000000
582.195496 6010.000000
584.356567 5945.000000
586.516235 6051.000000
588.674561 6098.000000
590.831360 6137.000000
592.986816 6075.000000
595.140869 6025.000000
597.293579 6061.000000
599.444763 5987.000000
601.594604 6118.000000
603.743103 6122.000000
605.890015 6095.000000
608.035706 6199.000000
610.179993 6070.000000
612.322815 6080.000000
614.464172 6188.000000
616.604309 6114.000000
618.742920 6023.000000
620.880249 6101.000000
623.016113 6045.000000
625.150574 5936.000000
627.283569 6016.000000
629.415405 5882.000000
631.545776 5875.000000
633.674744 5917.000000
635.802246 5980.000000
637.928467 5824.000000
640.053162 5836.000000
642.176636 5690.000000
644.298767 5883.000000
646.419434 5609.000000
648.538757 5687.000000
650.656677 5672.000000
652.773254 5684.000000
654.888428 5731.000000
657.002258 5662.000000
659.114624 5641.000000
661.225769 5616.000000
663.335510 5516.000000
665.443787 5559.000000
667.550903 5744.000000
669.656555 5562.000000
671.760742 5628.000000
673.863708 5643.000000
675.965271 5509.000000
678.065491 5664.000000
680.164307 5667.000000
682.261780 5807.000000
684.357971 5743.000000
686.452698 5810.000000
688.546204 5729.000000
690.638367 5633.000000
692.729004 5674.000000
694.818420 5891.000000
696.906555 5916.000000
698.993225 5793.000000
701.078674 5802.000000
703.162598 5876.000000
705.245300 5779.000000
707.326721 5583.000000
709.406677 5650.000000
711.485413 5484.000000
713.562683 5375.000000
715.638672 5434.000000
717.713379 5485.000000
719.786804 5457.000000
721.858704 5628.000000
723.929443 5513.000000
725.998840 5408.000000
728.066833 5407.000000
730.133484 5457.000000
732.198914 5369.000000
734.263000 5302.000000
736.325745 5360.000000
738.387146 5303.000000
740.447266 5309.000000
742.505981 5363.000000
744.563477 5307.000000
746.619690 5228.000000
748.674500 5173.000000
750.728027 5250.000000
752.780151 5226.000000
754.831055 5221.000000
756.880737 5193.000000
758.928955 5181.000000
760.975952 5263.000000
763.021667 5155.000000
765.065979 5058.000000
767.109009 5153.000000
769.150818 5038.000000
771.191284 5203.000000
773.230347 5187.000000
775.268250 5207.000000
777.304810 5197.000000
779.340149 5160.000000
781.374146 5274.000000
783.406738 5174.000000
785.438171 5294.000000
787.468201 5178.000000
789.496948 5311.000000
791.524536 5245.000000
793.550781 5395.000000
795.575623 5316.000000
797.599365 5375.000000
799.621704 5314.000000
801.642822 5370.000000
803.662598 5481.000000
805.681091 5595.000000
807.698364 5631.000000
809.714233 5524.000000
811.728943 5596.000000
813.742310 5638.000000
815.754456 5406.000000
817.765381 5257.000000
819.774963 5256.000000
821.783325 5093.000000
823.790283 5208.000000
825.796021 5169.000000
827.800537 5134.000000
829.803772 5168.000000
831.805725 4963.000000
833.806396 5056.000000
835.805847 5050.000000
837.803955 4959.000000
839.800964 5139.000000
841.796570 5143.000000
843.791016 5104.000000
845.784119 4979.000000
847.776001 4938.000000
849.766541 4794.000000
851.755798 4857.000000
853.744019 4769.000000
855.730835 4889.000000
857.716431 4768.000000
859.700745 4737.000000
861.683960 4765.000000
863.665771 4750.000000
865.646362 4887.000000
867.625671 4816.000000
869.603821 4826.000000
871.580627 4822.000000
873.556152 5016.000000
875.530640 4929.000000
877.503662 4960.000000
879.475647 5024.000000
881.446289 5080.000000
883.415771 5096.000000
885.383911 5030.000000
887.350891 5017.000000
889.316528 5017.000000
891.281006 4925.000000
893.244263 4829.000000
895.206299 4860.000000
897.167053 4893.000000
899.126587 4839.000000
901.084839 4887.000000
903.041992 4834.000000
904.997986 4932.000000
906.952576 4817.000000
908.905945 4773.000000
910.858154 4827.000000
912.809143 4739.000000
914.758850 4640.000000
916.707397 4655.000000
918.654724 4599.000000
920.600769 4666.000000
922.545532 4485.000000
924.489258 4424.000000
926.431824 4382.000000
928.373108 4309.000000
930.313049 4316.000000
932.251892 4330.000000
934.189453 4267.000000
936.125793 4277.000000
938.060974 4277.000000
939.994873 4284.000000
941.927673 4264.000000
943.859253 4231.000000
945.789673 4351.000000
947.718872 4303.000000
949.646729 4312.000000
951.573547 4315.000000
953.499084 4449.000000
955.423340 4417.000000
957.346497 4298.000000
959.268494 4428.000000
961.189209 4366.000000
963.108765 4370.000000
965.027161 4501.000000
966.944519 4437.000000
968.860413 4380.000000
970.775208 4488.000000
972.688782 4527.000000
974.601196 4478.000000
976.512390 4521.000000
978.422424 4467.000000
980.331177 4488.000000
982.238892 4398.000000
984.145386 4424.000000
986.050659 4347.000000
987.954834 4498.000000
989.857788 4288.000000
991.759521 4348.000000
993.660095 4279.000000
995.559509 4365.000000
997.457703 4332.000000
999.354736 4288.000000
1001.250549 4228.000000
1003.145203 4113.000000
1005.038757 4154.000000
1006.931030 4108.000000
1008.822388 3967.000000
1010.712402 3916.000000
1012.601196 4011.000000
1014.488831 3940.000000
1016.375305 3936.000000
1018.260620 3863.000000
1020.144775 3929.000000
1022.027710 3966.000000
1023.909607 3924.000000
1025.790283 3852.000000
1027.669800 3946.000000
1029.548340 3846.000000
1031.425537 4000.000000
1033.301392 3945.000000
1035.176270 3992.000000
1037.050171 3904.000000
1038.922607 3905.000000
1040.794067 3939.000000
1042.664185 3979.000000
1044.533325 3921.000000
1046.401245 3919.000000
1048.268066 3763.000000
1050.133789 3946.000000
1051.998291 3925.000000
1053.861694 4189.000000
1055.723755 3935.000000
1057.584839 4003.000000
1059.444824 3896.000000
1061.303467 3885.000000
1063.161011 3997.000000
1065.017456 3997.000000
1066.872803 3922.000000
1068.726929 4089.000000
1070.580200 4039.000000
1072.432007 3998.000000
1074.282837 4035.000000
1076.132446 3987.000000
1077.980835 4046.000000
1079.828369 3902.000000
1081.674561 4007.000000
1083.519531 3974.000000
1085.363647 3887.000000
1087.206421 3936.000000
1089.047974 3955.000000
1090.888794 3934.000000
1092.728027 3787.000000
1094.566528 3834.000000
1096.403687 3828.000000
1098.239624 3726.000000
1100.074585 3773.000000
1101.908325 3741.000000
1103.741089 3597.000000
1105.572510 3563.000000
1107.403076 3664.000000
1109.232300 3594.000000
1111.060547 3534.000000
1112.887573 3434.000000
1114.713623 3505.000000
1116.538452 3541.000000
1118.362183 3440.000000
1120.184692 3452.000000
1122.006104 3468.000000
1123.826660 3438.000000
1125.645752 3506.000000
1127.463989 3525.000000
1129.280884 3536.000000
1131.096924 3543.000000
1132.911743 3689.000000
1134.725464 3687.000000
1136.538086 3593.000000
1138.349487 3676.000000
1140.159912 3759.000000
1141.969238 3659.000000
1143.777222 3718.000000
1145.584473 3758.000000
1147.390259 3812.000000
1149.195190 3661.000000
1150.999023 3729.000000
1152.801636 3808.000000
1154.603394 3809.000000
1156.403687 3763.000000
1158.203003 3738.000000
1160.001343 3706.000000
1161.798340 3748.000000
1163.594604 3618.000000
1165.389526 3662.000000
1167.183350 3616.000000
1168.976318 3508.000000
1170.767944 3440.000000
1172.558594 3481.000000
1174.348267 3428.000000
1176.136475 3445.000000
1177.923828 3392.000000
1179.710083 3515.000000
1181.495239 3522.000000
1183.279297 3388.000000
1185.062256 3390.000000
1186.844238 3375.000000
1188.625000 3354.000000
1190.404785 3460.000000
1192.183472 3329.000000
1193.961182 3339.000000
1195.737671 3331.000000
1197.513062 3363.000000
1199.287354 3228.000000
1201.060547 3226.000000
1202.832886 3189.000000
1204.603882 3238.000000
1206.374023 3186.000000
1208.142944 3153.000000
1209.910767 3260.000000
1211.677734 3234.000000
1213.443359 3153.000000
1215.208008 3276.000000
1216.971558 3223.000000
1218.734009 3233.000000
1220.495605 3155.000000
1222.255981 3271.000000
1224.015259 3164.000000
1225.773682 3179.000000
1227.530884 3241.000000
1229.286987 3254.000000
1231.041992 3218.000000
1232.796143 3231.000000
1234.548950 3242.000000
1236.300781 3237.000000
1238.051758 3284.000000
1239.801392 3239.000000
1241.550171 3246.000000
1243.297607 3296.000000
1245.044312 3279.000000
1246.789795 3239.000000
1248.534424 3318.000000
1250.277710 3257.000000
1252.020020 3220.000000
1253.761230 3274.000000
1255.501587 3207.000000
1257.240845 3167.000000
1258.978882 3070.000000
1260.716064 3064.000000
1262.452026 3080.000000
1264.187012 3213.000000
1265.921021 3199.000000
1267.654053 3136.000000
1269.385864 3292.000000
1271.116699 3304.000000
1272.846313 3178.000000
1274.575073 3206.000000
1276.302734 3237.000000
1278.029297 3372.000000
1279.755005 3283.000000
1281.479370 3229.000000
1283.202881 3273.000000
1284.925415 3189.000000
1286.646973 3195.000000
1288.367310 3246.000000
1290.086670 3258.000000
1291.804932 3271.000000
1293.522217 3187.000000
1295.238525 3262.000000
1296.953613 3375.000000
1298.667725 3288.000000
1300.380859 3243.000000
1302.093140 3201.000000
1303.804199 3272.000000
1305.514282 3181.000000
1307.223267 3092.000000
1308.931030 3067.000000
1310.638184 3125.000000
1312.343872 3124.000000
1314.048828 3013.000000
1315.752808 3039.000000
1317.455566 3110.000000
1319.157349 3262.000000
1320.858276 3253.000000
1322.557861 5159.000000
1324.256592 977.000000
1325.954590 3004.000000
1327.651245 3084.000000
1329.346802 3114.000000
1331.041504 3038.000000
1332.734985 3066.000000
1334.427612 2949.000000
1336.119385 2977.000000
1337.809814 3028.000000
1339.499512 2952.000000
1341.188110 2901.000000
1342.875610 2919.000000
1344.562134 2903.000000
1346.247559 2925.000000
1347.932007 2892.000000
1349.615601 2979.000000
1351.297974 2906.000000
1352.979370 2891.000000
1354.659912 3061.000000
1356.339233 3119.000000
1358.017944 3050.000000
1359.695313 3069.000000
1361.371582 3159.000000
1363.046875 3149.000000
1364.721436 3058.000000
1366.394775 2988.000000
1368.067139 3097.000000
1369.738525 3102.000000
1371.408936 3134.000000
1373.078247 2991.000000
1374.746582 3116.000000
1376.414063 3009.000000
1378.080444 2948.000000
1379.745850 2988.000000
1381.410278 3043.000000
1383.073486 3007.000000
1384.736084 2999.000000
1386.397339 3032.000000
1388.057739 2920.000000
1389.717041 2885.000000
1391.375366 2871.000000
1393.032959 2798.000000
1394.689331 2812.000000
1396.344849 2824.000000
1397.999146 2867.000000
1399.652588 2790.000000
1401.304932 2719.000000
1402.956543 2960.000000
1404.606934 2835.000000
1406.256226 2805.000000
1407.904785 2732.000000
1409.552246 2662.000000
1411.198730 2597.000000
1412.844360 2650.000000
1414.489014 2565.000000
1416.132446 2605.000000
1417.775024 2643.000000
1419.416504 2563.000000
1421.057129 2701.000000
1422.696777 2634.000000
1424.335327 2650.000000
1425.973022 2646.000000
1427.609619 2642.000000
1429.245239 2662.000000
1430.880127 2583.000000
1432.513916 2575.000000
1434.146606 2592.000000
1435.778320 2501.000000
1437.409180 2525.000000
1439.038940 2577.000000
1440.667603 2615.000000
1442.295654 2596.000000
1443.922607 2585.000000
1445.548340 2542.000000
1447.173462 2535.000000
1448.797485 2639.000000
1450.420532 2596.000000
1452.042603 2602.000000
1453.663574 2589.000000
1455.283569 2699.000000
1456.902832 2783.000000
1458.520752 2788.000000
1460.138062 2480.000000
1461.754395 2674.000000
1463.369507 2738.000000
1464.983765 2614.000000
1466.597168 2696.000000
1468.209473 2656.000000
1469.820923 2760.000000
1471.431519 2571.000000
1473.040894 2661.000000
1474.649292 2592.000000
1476.256836 2508.000000
1477.863403 2620.000000
1479.469238 2581.000000
1481.073853 2597.000000
1482.677612 2532.000000
1484.280151 2500.000000
1485.882080 2373.000000
1487.482788 2449.000000
1489.082764 2407.000000
1490.681641 2307.000000
1492.279663 2331.000000
1493.876587 2338.000000
1495.472656 2418.000000
1497.067749 2586.000000
1498.661865 2370.000000
1500.255249 2498.000000
1501.847534 2412.000000
1503.438599 2468.000000
1505.029175 2424.000000
1506.618408 2456.000000
1508.207031 2384.000000
1509.794556 2376.000000
1511.380981 2365.000000
1512.966675 2361.000000
1514.551270 2372.000000
1516.135010 2347.000000
1517.717651 2389.000000
1519.299561 2259.000000
1520.880371 2394.000000
1522.460449 2295.000000
1524.039307 2207.000000
1525.617310 2231.000000
1527.194580 2238.000000
1528.770630 2108.000000
1530.345947 2170.000000
1531.920166 2197.000000
1533.493652 2162.000000
1535.065918 2136.000000
1536.637451 2141.000000
1538.208008 2160.000000
1539.777710 2122.000000
1541.346191 2175.000000
1542.913940 2204.000000
1544.480835 2094.000000
1546.046509 2145.000000
1547.611450 2136.000000
1549.175293 2094.000000
1550.738525 2136.000000
1552.300415 2249.000000
1553.861694 2194.000000
1555.421875 2147.000000
1556.981323 2152.000000
1558.539673 2107.000000
1560.097290 2181.000000
1561.653809 2171.000000
1563.209106 2174.000000
1564.763794 2040.000000
1566.317749 2113.000000
1567.870728 2106.000000
1569.422363 2122.000000
1570.973267 2132.000000
1572.523438 2092.000000
1574.072632 2042.000000
1575.620483 2141.000000
1577.167847 2072.000000
1578.714233 2136.000000
1580.259766 2108.000000
1581.804321 2048.000000
1583.347656 2154.000000
1584.890381 2015.000000
1586.432251 2080.000000
1587.973022 2140.000000
1589.512817 2139.000000
1591.051880 2077.000000
1592.589844 2138.000000
1594.127319 2048.000000
1595.663452 2021.000000
1597.198486 2127.000000
1598.733032 2013.000000
1600.266602 2016.000000
1601.799316 1983.000000
1603.330444 2035.000000
1604.861328 2055.000000
1606.391357 2079.000000
1607.920166 2041.000000
1609.447876 2027.000000
1610.974976 2005.000000
1612.501343 2199.000000
1614.026733 2046.000000
1615.551270 2157.000000
1617.074463 1941.000000
1618.596924 2026.000000
1620.118652 2045.000000
1621.639526 2047.000000
1623.158936 1911.000000
1624.677856 2045.000000
1626.196045 1947.000000
1627.713379 1906.000000
1629.229614 1966.000000
1630.744507 1907.000000
1632.258911 1906.000000
1633.772583 1941.000000
1635.285156 1908.000000
1636.796509 1937.000000
1638.307495 1875.000000
1639.817383 2031.000000
1641.326416 1874.000000
1642.834106 2008.000000
1644.341431 1966.000000
1645.847900 1939.000000
1647.353394 1903.000000
1648.858032 1825.000000
1650.361206 1868.000000
1651.863770 1781.000000
1653.365967 1918.000000
1654.866821 1893.000000
1656.366577 1821.000000
1657.865479 1821.000000
1659.364014 1750.000000
1660.861328 1768.000000
1662.357910 1858.000000
1663.852905 1853.000000
1665.347656 1690.000000
1666.841553 1732.000000
1668.334473 1812.000000
1669.826050 2084.000000
1671.317139 1765.000000
1672.807617 1768.000000
1674.296997 1683.000000
1675.784912 1692.000000
1677.272583 1753.000000
1678.759277 1721.000000
1680.245117 1684.000000
1681.730103 1781.000000
1683.213623 1696.000000
1684.696899 1721.000000
1686.179321 1698.000000
1687.660645 1708.000000
1689.140503 1682.000000
1690.620117 1700.000000
1692.098999 1651.000000
1693.576904 1665.000000
1695.053833 1617.000000
1696.529541 1705.000000
1698.004883 1667.000000
1699.479004 1725.000000
1700.952515 1718.000000
1702.424561 1637.000000
1703.896362 1673.000000
1705.367188 1642.000000
1706.837158 1639.000000
1708.305786 1652.000000
1709.773926 1642.000000
1711.241333 1646.000000
1712.707642 1644.000000
1714.173340 1685.000000
1715.637329 1697.000000
1717.101196 1684.000000
1718.564209 1608.000000
1720.026245 1615.000000
1721.487061 1621.000000
1722.947266 1682.000000
1724.406738 1741.000000
1725.865356 1537.000000
1727.322998 1658.000000
1728.779297 1638.000000
1730.235352 1612.000000
1731.690430 1613.000000
1733.144531 1651.000000
1734.597412 1627.000000
1736.050049 1612.000000
1737.501587 1631.000000
1738.952393 1590.000000
1740.402222 1549.000000
1741.850708 1657.000000
1743.298828 1505.000000
1744.746094 1549.000000
1746.192627 1617.000000
1747.637573 1465.000000
1749.082275 1591.000000
1750.526123 1398.000000
1751.969116 1430.000000
1753.410645 1651.000000
1754.851929 1514.000000
1756.292358 1439.000000
1757.731812 1604.000000
1759.170288 1440.000000
1760.607788 1446.000000
1762.044800 1447.000000
1763.480835 1470.000000
1764.916016 1504.000000
1766.349731 1471.000000
1767.783325 1517.000000
1769.215942 1527.000000
1770.647705 1532.000000
1772.078613 1421.000000
1773.508301 1598.000000
1774.937256 1482.000000
1776.365723 1414.000000
1777.793213 1337.000000
1779.219360 1303.000000
1780.645264 1517.000000
1782.070068 1424.000000
1783.494263 1412.000000
1784.916992 1482.000000
1786.339233 1294.000000
1787.760742 1342.000000
1789.181519 1349.000000
1790.601318 1492.000000
1792.019775 1381.000000
1793.437744 1375.000000
1794.855103 1308.000000
1796.271606 1351.000000
1797.686646 1416.000000
1799.101318 1322.000000
1800.515381 1375.000000
1801.928223 1347.000000
1803.340454 1309.000000
1804.751343 1428.000000
1806.161743 1387.000000
1807.571411 1218.000000
1808.980103 1342.000000
1810.387695 1305.000000
1811.794800 1304.000000
1813.201050 1365.000000
1814.606323 1288.000000
1816.010498 1397.000000
1817.414307 1397.000000
1818.817139 1372.000000
1820.219116 1327.000000
1821.620483 1317.000000
1823.020386 1370.000000
1824.419678 1334.000000
1825.818481 1325.000000
1827.216431 1323.000000
1828.613037 1221.000000
1830.009033 1245.000000
1831.404297 1360.000000
1832.798950 1417.000000
1834.192627 1377.000000
1835.584961 1279.000000
1836.976807 1330.000000
1838.368042 1272.000000
1839.758301 1307.000000
1841.147339 1285.000000
1842.536011 1306.000000
1843.923706 1307.000000
1845.310669 1284.000000
1846.696289 1310.000000
1848.081665 1382.000000
1849.466187 1276.000000
1850.849976 1253.000000
1852.232666 1311.000000
1853.614136 1272.000000
1854.995117 1172.000000
1856.375610 1176.000000
1857.755127 1178.000000
1859.133179 1142.000000
1860.511108 1259.000000
1861.888062 1279.000000
1863.264282 1157.000000
1864.639648 1244.000000
1866.013550 1127.000000
1867.387329 1166.000000
1868.760254 1223.000000
1870.132080 1190.000000
1871.502930 1160.000000
1872.873413 1139.000000
1874.242798 1155.000000
1875.611694 1175.000000
1876.979004 1095.000000
1878.346191 1112.000000
1879.712402 1155.000000
1881.077881 1147.000000
1882.442627 1118.000000
1883.805786 1169.000000
1885.168823 1152.000000
1886.531006 1117.000000
1887.892334 1107.000000
1889.252319 1180.000000
1890.611938 1159.000000
1891.970947 1075.000000
1893.328979 1074.000000
1894.686157 1046.000000
1896.042114 1044.000000
1897.397827 1021.000000
1898.752563 1070.000000
1900.106445 1039.000000
1901.459229 1073.000000
1902.811523 989.000000
1904.163086 1083.000000
1905.513794 1119.000000
1906.863281 1118.000000
1908.212280 1090.000000
1909.560425 1042.000000
1910.907959 1125.000000
1912.254761 1074.000000
1913.599976 1139.000000
1914.944946 1092.000000
1916.289185 1136.000000
1917.632568 1130.000000
1918.974609 1088.000000
1920.316406 1023.000000
1921.657349 1069.000000
1922.997559 1148.000000
1924.336792 1076.000000
1925.675049 1064.000000
1927.012695 994.000000
1928.349609 1114.000000
1929.685669 1060.000000
1931.020508 1053.000000
1932.354980 952.000000
1933.688721 1081.000000
1935.021606 1052.000000
1936.353027 1047.000000
1937.684570 1070.000000
1939.014771 1031.000000
1940.344482 1089.000000
1941.673340 1104.000000
1943.000977 1103.000000
1944.328125 1060.000000
1945.654541 1054.000000
1946.980225 1098.000000
1948.304565 948.000000
1949.628662 1038.000000
1950.951904 1028.000000
1952.274414 1040.000000
1953.595825 983.000000
1954.916260 895.000000
1956.236084 1036.000000
1957.555542 959.000000
1958.874023 945.000000
1960.191162 1078.000000
1961.507935 955.000000
1962.823975 983.000000
1964.139282 875.000000
1965.453125 985.000000
1966.766724 968.000000
1968.079590 1023.000000
1969.391602 994.000000
1970.703003 910.000000
1972.013062 854.000000
1973.322632 891.000000
1974.631470 1022.000000
1975.939697 907.000000
1977.246582 907.000000
1978.552856 868.000000
1979.858765 931.000000
1981.163452 861.000000
1982.467651 942.000000
1983.770630 833.000000
1985.073242 903.000000
1986.374878 939.000000
1987.675903 846.000000
1988.975342 885.000000
1990.274902 910.000000
1991.573364 883.000000
1992.871338 867.000000
1994.167725 855.000000
1995.464111 906.000000
1996.759521 924.000000
1998.054199 794.000000
1999.348022 910.000000
2000.640625 847.000000
2001.932739 824.000000
2003.224365 820.000000
2004.515259 859.000000
2005.804565 847.000000
2007.093628 886.000000
2008.381958 780.000000
2009.669556 888.000000
2010.956299 842.000000
2012.241943 899.000000
2013.527222 849.000000
2014.811523 908.000000
2016.095215 708.000000
2017.377563 872.000000
2018.659546 727.000000
2019.941040 746.000000
2021.221558 743.000000
2022.501343 835.000000
2023.780029 783.000000
2025.057983 818.000000
2026.335449 800.000000
2027.612305 839.000000
2028.887451 782.000000
2030.162720 758.000000
2031.437012 849.000000
2032.710327 779.000000
2033.982788 754.000000
2035.254883 791.000000
2036.525879 844.000000
2037.796631 785.000000
2039.066040 771.000000
2040.334351 800.000000
2041.602661 781.000000
2042.869995 787.000000
2044.136597 823.000000
2045.401978 694.000000
2046.666748 1147.000000
2047.931274 825.000000
2049.194580 774.000000
2050.457520 742.000000
2051.718506 785.000000
2052.979980 805.000000
2054.240234 759.000000
2055.499756 728.000000
2056.758545 681.000000
2058.016357 815.000000
2059.273682 753.000000
2060.530273 765.000000
2061.785400 797.000000
2063.040527 726.000000
2064.294678 814.000000
2065.548096 851.000000
2066.800781 727.000000
2068.052246 678.000000
2069.303467 824.000000
2070.553955 776.000000
2071.803711 722.000000
2073.052002 779.000000
2074.300293 671.000000
2075.547607 749.000000
2076.794189 703.000000
2078.040039 728.000000
2079.284668 738.000000
2080.528809 689.000000
2081.772461 678.000000
2083.015137 677.000000
2084.256592 748.000000
2085.497803 679.000000
2086.738525 599.000000
2087.978271 725.000000
2089.216797 702.000000
2090.454834 680.000000
2091.692139 718.000000
2092.929199 665.000000
2094.164795 722.000000
2095.399658 772.000000
2096.634277 716.000000
2097.867920 717.000000
2099.100586 678.000000
2100.332520 636.000000
2101.563965 685.000000
2102.794434 672.000000
2104.024170 735.000000
2105.253662 612.000000
2106.481201 595.000000
2107.708984 662.000000
2108.936035 600.000000
2110.162109 527.000000
2111.386719 657.000000
2112.611572 734.000000
2113.835205 572.000000
2115.058350 577.000000
2116.280273 737.000000
2117.501953 681.000000
2118.722656 564.000000
2119.942627 633.000000
2121.162109 595.000000
2122.380127 646.000000
2123.598145 674.000000
2124.815186 577.000000
2126.031738 610.000000
2127.246582 678.000000
2128.461670 688.000000
2129.675781 720.000000
2130.889160 634.000000
2132.101807 633.000000
2133.312988 652.000000
2134.524414 585.000000
2135.734619 747.000000
2136.944336 743.000000
2138.152588 657.000000
2139.360840 605.000000
2140.568359 690.000000
2141.774658 730.000000
2142.980225 683.000000
2144.185547 606.000000
2145.389893 665.000000
2146.593506 640.000000
2147.796631 647.000000
2148.998291 561.000000
2150.199707 691.000000
2151.400391 598.000000
2152.600342 645.000000
2153.799072 543.000000
2154.997559 677.000000
2156.195557 635.000000
2157.392578 601.000000
2158.588867 617.000000
2159.783936 597.000000
2160.978760 555.000000
2162.172852 578.000000
2163.365967 521.000000
2164.558105 578.000000
2165.750000 575.000000
2166.941162 538.000000
2168.131348 591.000000
2169.320801 570.000000
2170.509766 584.000000
2171.697754 519.000000
2172.885498 457.000000
2174.071777 570.000000
2175.257324 524.000000
2176.442627 567.000000
2177.627441 559.000000
2178.811035 471.000000
2179.993896 468.000000
2181.175781 547.000000
2182.357422 510.000000
2183.538574 503.000000
2184.718506 506.000000
2185.897461 437.000000
2187.075928 562.000000
2188.254150 543.000000
2189.431152 526.000000
2190.607178 573.000000
2191.782959 515.000000
2192.958252 553.000000
2194.132080 495.000000
2195.305420 544.000000
2196.478516 511.000000
2197.650391 574.000000
2198.821777 630.000000
2199.992676 485.000000
2201.161865 435.000000
2202.331055 479.000000
2203.499756 489.000000
2204.667480 505.000000
2205.834229 550.000000
2207.000244 482.000000
2208.165771 562.000000
2209.331055 558.000000
2210.494873 517.000000
2211.658203 560.000000
2212.820313 507.000000
2213.982666 435.000000
2215.143799 473.000000
2216.303955 437.000000
2217.463623 488.000000
2218.623047 513.000000
2219.781250 546.000000
2220.938477 567.000000
2222.095459 530.000000
2223.251709 427.000000
2224.407227 471.000000
2225.562012 439.000000
2226.715820 395.000000
2227.868652 489.000000
2229.021973 542.000000
2230.173340 418.000000
2231.324463 510.000000
2232.474854 551.000000
2233.624756 425.000000
2234.773682 496.000000
2235.922119 469.000000
2237.069092 471.000000
2238.216309 446.000000
2239.362305 446.000000
2240.508057 535.000000
2241.652100 385.000000
2242.796387 367.000000
2243.939697 436.000000
2245.082275 436.000000
2246.223877 443.000000
2247.365234 427.000000
2248.505615 342.000000
2249.645264 412.000000
2250.784424 379.000000
2251.922363 343.000000
2253.060303 427.000000
2254.197266 392.000000
2255.333496 448.000000
2256.468750 374.000000
2257.603271 454.000000
2258.737549 466.000000
2259.871338 432.000000
2261.003662 421.000000
2262.135498 393.000000
2263.266846 300.000000
2264.397217 396.000000
2265.527344 320.000000
2266.656250 410.000000
2267.784668 406.000000
2268.912598 377.000000
2270.039551 389.000000
2271.165771 447.000000
2272.291016 391.000000
2273.416260 333.000000
2274.540771 406.000000
2275.664063 350.000000
2276.786621 437.000000
2277.908691 406.000000
2279.030273 475.000000
2280.151123 408.000000
2281.270752 459.000000
2282.389893 299.000000
2283.508789 404.000000
2284.626953 429.000000
2285.744141 349.000000
2286.860352 466.000000
2287.976318 409.000000
2289.091553 396.000000
2290.206055 339.000000
2291.319336 343.000000
2292.432617 372.000000
2293.545166 305.000000
2294.656982 487.000000
2295.768066 414.000000
2296.877930 386.000000
2297.987305 348.000000
2299.096436 451.000000
2300.204590 299.000000
2301.311768 431.000000
2302.418701 395.000000
2303.524902 367.000000
2304.630615 322.000000
2305.734863 359.000000
2306.838867 350.000000
2307.942383 406.000000
2309.045410 414.000000
2310.147217 347.000000
2311.248291 390.000000
2312.348877 413.000000
2313.448975 388.000000
2314.548340 332.000000
2315.646240 314.000000
2316.744629 384.000000
2317.841553 319.000000
2318.938232 375.000000
2320.034424 272.000000
2321.128906 380.000000
2322.223389 292.000000
2323.317139 414.000000
2324.410645 370.000000
2325.502441 408.000000
2326.594238 465.000000
2327.685303 525.000000
2328.775635 445.000000
2329.864990 444.000000
2330.954346 560.000000
2332.042480 507.000000
2333.130127 341.000000
2334.217529 446.000000
2335.303223 451.000000
2336.388672 377.000000
2337.473877 317.000000
2338.558105 253.000000
2339.641357 384.000000
2340.724365 395.000000
2341.806396 721.000000
2342.888184 310.000000
2343.969238 337.000000
2345.049072 340.000000
2346.128418 331.000000
2347.207275 291.000000
2348.285645 316.000000
2349.362549 303.000000
2350.439209 241.000000
2351.515625 250.000000
2352.591064 205.000000
2353.665527 384.000000
2354.739746 315.000000
2355.813232 286.000000
2356.886230 260.000000
2357.958008 333.000000
2359.029541 251.000000
2360.100098 339.000000
2361.170410 371.000000
2362.239746 300.000000
2363.308105 298.000000
2364.376221 286.000000
2365.443604 337.000000
2366.510498 334.000000
2367.576660 329.000000
2368.641602 296.000000
2369.706543 280.000000
2370.770752 234.000000
2371.834229 228.000000
2372.896484 253.000000
2373.958740 315.000000
2375.020020 328.000000
2376.081055 272.000000
2377.140869 360.000000
2378.199951 310.000000
2379.259033 275.000000
2380.317139 320.000000
2381.374512 271.000000
2382.430908 235.000000
2383.487061 312.000000
2384.542725 246.000000
2385.597656 320.000000
2386.651123 227.000000
2387.704834 297.000000
2388.757568 276.000000
2389.809814 329.000000
2390.861328 227.000000
2391.911865 337.000000
2392.962158 247.000000
2394.011475 248.000000
2395.060791 229.000000
2396.108643 241.000000
2397.156006 298.000000
2398.203125 287.000000
2399.249268 308.000000
2400.294678 337.000000
2401.339355 177.000000
2402.384033 228.000000
2403.427246 243.000000
2404.470459 233.000000
2405.512207 349.000000
2406.554199 205.000000
2407.595459 208.000000
2408.635742 266.000000
2409.675293 253.000000
2410.713867 302.000000
2411.752686 246.000000
2412.790283 212.000000
2413.827637 241.000000
2414.863770 162.000000
2415.899658 175.000000
2416.934814 316.000000
2417.969482 319.000000
2419.002686 254.000000
2420.036133 224.000000
2421.068604 242.000000
2422.100830 361.000000
2423.131592 266.000000
2424.162354 277.000000
2425.192627 293.000000
2426.221680 259.000000
2427.250732 226.000000
2428.278076 239.000000
2429.305908 254.000000
2430.332520 337.000000
2431.358887 326.000000
2432.383789 297.000000
2433.408936 267.000000
2434.433105 276.000000
2435.457031 302.000000
2436.479736 223.000000
2437.501709 286.000000
2438.523438 322.000000
2439.544434 204.000000
2440.564941 228.000000
2441.584229 229.000000
2442.603516 188.000000
2443.621826 227.000000
2444.639893 317.000000
2445.656494 172.000000
2446.673096 241.000000
2447.688965 164.000000
2448.704834 174.000000
2449.719238 178.000000
2450.732910 197.000000
2451.746094 193.000000
2452.759033 208.000000
2453.771240 228.000000
2454.782471 209.000000
2455.793457 285.000000
2456.803711 158.000000
2457.813477 144.000000
2458.822266 248.000000
2459.830322 266.000000
2460.838379 154.000000
2461.845215 181.000000
2462.851807 192.000000
2463.857178 260.000000
2464.862305 155.000000
2465.867188 236.000000
2466.870850 131.000000
2467.874268 239.000000
2468.876709 333.000000
2469.878906 274.000000
2470.880615 147.000000
2471.881348 170.000000
2472.881104 186.000000
2473.880859 233.000000
2474.879639 240.000000
2475.877930 239.000000
2476.875244 276.000000
2477.872314 156.000000
2478.869385 189.000000
2479.864990 205.000000
2480.860596 149.000000
2481.854492 185.000000
2482.848389 245.000000
2483.841797 135.000000
2484.834717 133.000000
2485.826660 237.000000
2486.817871 194.000000
2487.808838 183.000000
2488.799316 239.000000
2489.788818 137.000000
2490.777588 181.000000
2491.766357 208.000000
2492.754150 282.000000
2493.740723 202.000000
2494.727295 202.000000
2495.713379 145.000000
2496.698730 60.000000
2497.683105 252.000000
2498.667236 252.000000
2499.651367 188.000000
2500.634033 247.000000
2501.616211 144.000000
2502.597900 244.000000
2503.578857 176.000000
2504.559326 121.000000
2505.539551 201.000000
2506.518311 179.000000
2507.496826 236.000000
2508.474854 128.000000
2509.452393 166.000000
2510.428955 269.000000
2511.405273 250.000000
2512.380859 145.000000
2513.355957 276.000000
2514.330566 173.000000
2515.303955 202.000000
2516.277100 268.000000
2517.250000 151.000000
2518.221924 112.000000
2519.193115 194.000000
2520.163818 248.000000
2521.134277 156.000000
2522.104004 86.000000
2523.072754 280.000000
2524.040771 160.000000
2525.008789 219.000000
2525.975830 188.000000
2526.942627 132.000000
2527.908203 165.000000
2528.873779 199.000000
2529.838623 153.000000
2530.802979 164.000000
2531.766113 119.000000
2532.729492 143.000000
2533.691895 126.000000
2534.654053 154.000000
2535.614990 223.000000
2536.575195 241.000000
2537.535645 282.000000
2538.495117 132.000000
2539.453857 237.000000
2540.411621 262.000000
2541.369629 93.000000
2542.326904 125.000000
2543.283203 128.000000
2544.239258 151.000000
2545.194092 225.000000
2546.149170 178.000000
2547.103516 157.000000
2548.057129 169.000000
2549.009766 217.000000
2549.962158 179.000000
2550.914063 109.000000
2551.865234 146.000000
2552.815674 210.000000
2553.765625 170.000000
2554.715332 206.000000
2555.664307 271.000000
2556.612793 103.000000
2557.560059 148.000000
2558.507324 213.000000
2559.453857 64.000000
2560.399902 75.000000
2561.344971 169.000000
2562.289795 152.000000
2563.234131 150.000000
2564.177979 47.000000
2565.121338 179.000000
2566.063232 103.000000
2567.005371 225.000000
2567.946777 284.000000
2568.887451 170.000000
2569.827393 135.000000
2570.767334 133.000000
2571.706299 191.000000
2572.645020 152.000000
2573.582764 128.000000
2574.520264 202.000000
2575.457031 170.000000
2576.393066 202.000000
2577.328613 132.000000
2578.263428 144.000000
2579.198242 41.000000
2580.132080 165.000000
2581.065430 48.000000
2581.998047 216.000000
2582.930420 201.000000
2583.862061 157.000000
2584.793213 101.000000
2585.723877 159.000000
2586.653320 167.000000
2587.582764 186.000000
2588.511719 126.000000
2589.440430 242.000000
2590.367432 147.000000
2591.294678 114.000000
2592.221436 68.000000
2593.147461 76.000000
2594.073242 145.000000
2594.997803 161.000000
2595.922119 148.000000
2596.845947 43.000000
2597.769287 111.000000
2598.691650 106.000000
2599.613770 149.000000
2600.535400 69.000000
2601.456299 158.000000
2602.376465 90.000000
2603.296387 132.000000
2604.215820 226.000000
2605.135010 122.000000
2606.053223 109.000000
2606.970215 15.000000
2607.887451 73.000000
2608.804443 104.000000
2609.720459 204.000000
2610.635254 135.000000
2611.550537 110.000000
2612.465088 166.000000
2613.378662 96.000000
2614.292236 144.000000
2615.204590 98.000000
2616.116943 68.000000
2617.028320 199.000000
2617.939453 91.000000
2618.849854 100.000000
2619.760010 124.000000
2620.669434 208.000000
2621.578369 154.000000
2622.486328 161.000000
2623.394531 61.000000
2624.301758 12.000000
2625.208496 97.000000
2626.114502 89.000000
2627.020264 174.000000
2627.925293 -59.000000
2628.830078 140.000000
2629.734131 127.000000
2630.637207 122.000000
2631.540283 188.000000
2632.442383 139.000000
2633.344482 175.000000
2634.246338 46.000000
2635.146484 119.000000
2636.046875 115.000000
2636.946533 98.000000
2637.845947 93.000000
2638.743896 87.000000
2639.642334 129.000000
2640.540283 86.000000
2641.437500 117.000000
2642.333496 133.000000
2643.229492 -78.000000
2644.125244 107.000000
2645.020264 160.000000
2645.915039 123.000000
2646.808350 93.000000
2647.701660 41.000000
2648.594727 178.000000
2649.487549 -7.000000
2650.378662 54.000000
2651.270020 126.000000
2652.160889 150.000000
2653.051025 56.000000
2653.940918 98.000000
2654.829590 113.000000
2655.718506 87.000000
2656.606934 80.000000
2657.494385 136.000000
2658.380859 108.000000
2659.267822 194.000000
2660.154053 155.000000
2661.039795 103.000000
2661.924316 103.000000
2662.808838 117.000000
2663.693115 60.000000
2664.576660 110.000000
2665.459717 151.000000
2666.342041 185.000000
2667.223877 130.000000
2668.104980 224.000000
2668.986328 136.000000
2669.866211 135.000000
2670.746338 114.000000
2671.625732 49.000000
2672.505127 99.000000
2673.383789 92.000000
2674.260742 107.000000
2675.138428 47.000000
2676.015381 102.000000
2676.891602 150.000000
2677.767334 120.000000
2678.642334 122.000000
2679.517578 50.000000
2680.391846 84.000000
2681.265625 12.000000
2682.138672 159.000000
2683.011475 35.000000
2683.884033 45.000000
2684.755859 132.000000
2685.626953 49.000000
2686.497803 87.000000
2687.368164 77.000000
2688.238281 58.000000
2689.106689 69.000000
2689.975830 -27.000000
2690.844238 98.000000
2691.712402 70.000000
2692.579834 -41.000000
2693.446045 121.000000
2694.312744 109.000000
2695.178467 55.000000
2696.044189 80.000000
2696.908447 98.000000
2697.773438 67.000000
2698.636963 50.000000
2699.500732 106.000000
2700.363037 67.000000
2701.225830 -52.000000
2702.087646 98.000000
2702.948975 -3.000000
2703.810303 135.000000
2704.670410 81.000000
2705.530518 80.000000
2706.390137 -31.000000
2707.249512 102.000000
2708.107178 47.000000
2708.965088 82.000000
2709.823486 56.000000
2710.680664 46.000000
2711.537109 29.000000
2712.393066 58.000000
2713.249023 -8.000000
2714.104248 28.000000
2714.958740 45.000000
2715.812744 73.000000
2716.666748 41.000000
2717.519775 71.000000
2718.373047 107.000000
2719.224609 70.000000
2720.076660 19.000000
2720.928467 -23.000000
2721.779053 165.000000
2722.629639 7.000000
2723.479736 179.000000
2724.329102 70.000000
2725.178467 102.000000
2726.026611 18.000000
2726.874268 42.000000
2727.722412 -55.000000
2728.569336 92.000000
2729.416748 83.000000
2730.262695 117.000000
2731.107910 28.000000
2731.953613 177.000000
2732.798340 124.000000
2733.643066 10.000000
2734.486572 113.000000
2735.330322 52.000000
2736.173340 43.000000
2737.015869 112.000000
2737.857422 87.000000
2738.699463 130.000000
2739.540527 119.000000
2740.381348 49.000000
2741.221924 39.000000
2742.061279 86.000000
2742.900635 52.000000
2743.739990 106.000000
2744.578125 65.000000
2745.415771 122.000000
2746.253418 104.000000
2747.090576 127.000000
2747.927490 40.000000
2748.763916 125.000000
2749.599121 45.000000
2750.434570 35.000000
2751.269531 78.000000
2752.103760 95.000000
2752.937744 -22.000000
2753.771240 -78.000000
2754.604736 101.000000
2755.437256 -17.000000
2756.269287 30.000000
2757.100830 32.000000
2757.932373 183.000000
2758.762939 77.000000
2759.593750 66.000000
2760.423340 124.000000
2761.252930 88.000000
2762.082275 121.000000
2762.910889 26.000000
2763.739014 0.000000
2764.566650 173.000000
2765.394287 15.000000
2766.221436 182.000000
2767.047852 57.000000
2767.873779 56.000000
2768.699219 34.000000
2769.524414 82.000000
2770.349609 77.000000
2771.173584 43.000000
2771.997559 -4.000000
2772.821533 8.000000
2773.644287 37.000000
2774.467285 38.000000
2775.289063 11.000000
2776.110840 -20.000000
2776.932617 20.000000
2777.753418 9.000000
2778.573486 157.000000
2779.393799 83.000000
2780.213623 -9.000000
2781.033447 89.000000
2781.851318 95.000000
2782.670410 10.000000
2783.488281 31.000000
2784.305908 35.000000
2785.123047 -25.000000
2785.939697 34.000000
2786.756104 -89.000000
2787.572021 78.000000
2788.387695 74.000000
2789.202393 -13.000000
2790.017578 100.000000
2790.832031 -7.000000
2791.645996 36.000000
2792.459717 -24.000000
2793.272217 103.000000
2794.084961 89.000000
2794.897217 14.000000
2795.708984 20.000000
2796.520020 123.000000
2797.331787 22.000000
2798.142334 145.000000
2798.952881 32.000000
2799.761963 -9.000000
2800.571777 30.000000
2801.380859 67.000000
2802.189697 42.000000
2802.998047 12.000000
2803.805420 50.000000
2804.613281 -25.000000
2805.420410 39.000000
2806.227295 28.000000
2807.032959 -40.000000
2807.839111 -15.000000
2808.644531 78.000000
2809.449951 35.000000
2810.254639 39.000000
2811.058350 49.000000
2811.862549 115.000000
2812.666260 85.000000
2813.469727 82.000000
2814.271729 38.000000
2815.074463 63.000000
2815.876465 134.000000
2816.678223 81.000000
2817.479492 39.000000
2818.280273 35.000000
2819.080566 63.000000
2819.881104 52.000000
2820.680664 53.000000
2821.479736 54.000000
2822.278809 78.000000
2823.077637 13.000000
2823.875977 56.000000
2824.673340 87.000000
2825.470947 108.000000
2826.267822 104.000000
2827.064941 -25.000000
2827.861328 -49.000000
2828.656982 -22.000000
2829.452637 -40.000000
2830.248047 196.000000
2831.042969 65.000000
2831.837158 103.000000
2832.631348 21.000000
2833.425293 91.000000
2834.218750 -31.000000
2835.011475 58.000000
2835.803955 9.000000
2836.596436 70.000000
2837.388672 17.000000
2838.180420 -14.000000
2838.971191 147.000000
2839.761963 21.000000
2840.552979 183.000000
2841.343018 95.000000
2842.132568 45.000000
2842.922363 -10.000000
2843.711182 3.000000
2844.500000 82.000000
2845.288818 98.000000
2846.076660 43.000000
2846.864014 89.000000
2847.651611 55.000000
2848.438721 23.000000
2849.225098 -27.000000
2850.011475 19.000000
2850.797607 -10.000000
2851.583252 130.000000
2852.367920 46.000000
2853.153076 21.000000
2853.937988 15.000000
2854.722168 100.000000
2855.506348 76.000000
2856.289307 -13.000000
2857.072510 105.000000
2857.855469 66.000000
2858.637939 4.000000
2859.420166 56.000000
2860.201904 29.000000
2860.983398 -25.000000
2861.765137 77.000000
2862.546143 23.000000
2863.326416 28.000000
2864.106445 -49.000000
2864.886475 -25.000000
2865.666260 59.000000
2866.445068 34.000000
2867.224121 0.000000
2868.002686 90.000000
2868.781006 131.000000
2869.558838 59.000000
2870.336426 0.000000
2871.113770 121.000000
2871.890869 101.000000
2872.667480 7.000000
2873.443604 -18.000000
2874.219727 109.000000
2874.995361 87.000000
2875.770752 129.000000
2876.545654 30.000000
2877.320313 89.000000
2878.094971 29.000000
2878.869385 30.000000
2879.643066 54.000000
2880.416016 116.000000
2881.189697 113.000000
2881.962402 47.000000
2882.735107 -44.000000
2883.507080 40.000000
2884.278809 92.000000
2885.051025 109.000000
2885.822021 122.000000
2886.592529 88.000000
2887.363525 -39.000000
2888.134521 -77.000000
2888.904785 95.000000
2889.674072 -29.000000
2890.443604 48.000000
2891.213135 2.000000
2891.982178 98.000000
2892.750732 114.000000
2893.519287 59.000000
2894.286865 59.000000
2895.054932 5.000000
2895.822510 59.000000
2896.590088 124.000000
2897.356445 90.000000
2898.123779 59.000000
2898.889893 58.000000
2899.656250 -6.000000
2900.421143 104.000000
2901.186523 177.000000
2901.952393 70.000000
2902.716797 52.000000
2903.481201 25.000000
2904.245850 97.000000
2905.009521 14.000000
2905.773926 -27.000000
2906.537598 48.000000
2907.300537 47.000000
2908.063232 122.000000
2908.826416 15.000000
2909.589111 -7.000000
2910.350586 12.000000
2911.112549 12.000000
spectrumdark 2048
-97.118340 6193.000000
-94.491470 6193.000000
-91.866478 6083.000000
-89.243378 6452.000000
-86.622147 5799.000000
-84.002815 6357.000000
-81.385345 6090.000000
-78.769753 6482.000000
-76.156036 6161.000000
-73.544197 5858.000000
-70.934219 6162.000000
-68.326126 5996.000000
-65.719879 5981.000000
-63.115509 6030.000000
-60.513000 6073.000000
-57.912346 5645.000000
-55.313553 6245.000000
-52.716618 6879.000000
-50.121536 6468.000000
-47.528309 6590.000000
-44.936932 6263.000000
-42.347401 6739.000000
-39.759712 5958.000000
-37.173874 6104.000000
-34.589878 6469.000000
-32.007721 5747.000000
-29.427408 6318.000000
-26.848923 5741.000000
-24.272280 6164.000000
-21.697462 6274.000000
-19.124485 6479.000000
-16.553328 6513.000000
-13.984003 6807.000000
-11.416506 7805.000000
-8.850826 6280.000000
-6.286972 6458.000000
-3.724931 5986.000000
-1.164716 5862.000000
1.393692 6179.000000
3.950279 6864.000000
6.505062 6676.000000
9.058027 6013.000000
11.609192 6700.000000
14.158543 6435.000000
16.706099 6640.000000
19.251842 6000.000000
21.795794 5735.000000
24.337940 6721.000000
26.878290 6791.000000
29.416855 6861.000000
31.953623 6209.000000
34.488590 5786.000000
37.021778 7247.000000
39.553185 6322.000000
42.082798 7127.000000
44.610615 6455.000000
47.136673 7832.000000
49.660942 5623.000000
52.183441 6265.000000
54.704144 6679.000000
57.223091 6302.000000
59.740265 6416.000000
62.255661 6558.000000
64.769279 5606.000000
67.281143 5735.000000
69.791260 6553.000000
72.299583 6536.000000
74.806152 5932.000000
77.310974 6357.000000
79.814041 6447.000000
82.315331 6375.000000
84.814880 6109.000000
87.312675 6385.000000
89.808739 5755.000000
92.303024 7267.000000
94.795570 5799.000000
97.286400 7006.000000
99.775459 7187.000000
102.262772 6362.000000
104.748360 6198.000000
107.232208 6435.000000
109.714310 5761.000000
112.194687 6554.000000
114.673340 6221.000000
117.150269 6433.000000
119.625443 7223.000000
122.098907 6814.000000
124.570641 5876.000000
127.040665 6814.000000
129.508926 6306.000000
131.975525 6342.000000
134.440369 5661.000000
136.903519 6181.000000
139.364929 7244.000000
141.824646 6889.000000
144.282639 6361.000000
146.738937 6006.000000
149.193527 5759.000000
151.646393 6741.000000
154.097580 6350.000000
156.547073 6559.000000
158.994843 6028.000000
161.440903 6574.000000
163.885284 8746.000000
166.327988 6425.000000
168.768997 6714.000000
171.208298 6244.000000
173.645889 7240.000000
176.081848 6628.000000
178.516068 6914.000000
180.948608 7124.000000
183.379501 6645.000000
185.808670 6741.000000
188.236191 6685.000000
190.662033 6436.000000
193.086197 6676.000000
195.508698 7163.000000
197.929504 7294.000000
200.348648 6479.000000
202.766129 5981.000000
205.181915 7608.000000
207.596054 6990.000000
210.008560 6385.000000
212.419388 6054.000000
214.828537 6263.000000
217.236053 7421.000000
219.641861 6133.000000
222.046082 6526.000000
224.448593 6692.000000
226.849487 6895.000000
229.248734 6475.000000
231.646317 6863.000000
234.042236 7264.000000
236.436539 6596.000000
238.829178 5862.000000
241.220200 6771.000000
243.609558 6558.000000
245.997299 6316.000000
248.383392 6989.000000
250.767853 6109.000000
253.150665 7887.000000
255.531906 6641.000000
257.911438 6684.000000
260.289398 6487.000000
262.665680 7587.000000
265.040405 7523.000000
267.413483 7818.000000
269.784912 6117.000000
272.154694 6454.000000
274.522919 5914.000000
276.889496 6343.000000
279.254486 6724.000000
281.617859 6055.000000
283.979584 6200.000000
286.339722 7092.000000
288.698242 5963.000000
291.055176 6536.000000
293.410492 6423.000000
295.764221 5920.000000
298.116302 5973.000000
300.466827 6343.000000
302.815765 6385.000000
305.163055 6830.000000
307.508820 6437.000000
309.852905 6447.000000
312.195465 7298.000000
314.536407 7507.000000
316.875732 7172.000000
319.213501 6958.000000
321.549713 8079.000000
323.884277 6220.000000
326.217285 6507.000000
328.548737 5985.000000
330.878601 6789.000000
333.206879 6362.000000
335.533539 7185.000000
337.858704 6370.000000
340.182251 6166.000000
342.504242 6042.000000
344.824677 7525.000000
347.143494 7718.000000
349.460754 5957.000000
351.776489 5773.000000
354.090637 7017.000000
356.403198 6375.000000
358.714203 6173.000000
361.023682 7099.000000
363.331635 6410.000000
365.637970 5671.000000
367.942719 6363.000000
370.246002 6415.000000
372.547668 6227.000000
374.847839 6324.000000
377.146454 6250.000000
379.443512 6047.000000
381.739014 6127.000000
384.032990 5842.000000
386.325378 5217.000000
388.616272 5581.000000
390.905640 6239.000000
393.193420 6207.000000
395.479675 6516.000000
397.764435 7002.000000
400.047577 6038.000000
402.329285 6394.000000
404.609467 6183.000000
406.888062 7212.000000
409.165131 6432.000000
411.440674 6785.000000
413.714691 6520.000000
415.987274 6422.000000
418.258240 6469.000000
420.527710 6421.000000
422.795685 7110.000000
425.062103 7321.000000
427.327026 6277.000000
429.590485 6246.000000
431.852356 6506.000000
434.112762 6008.000000
436.371613 6598.000000
438.628998 6178.000000
440.884888 5689.000000
443.139282 5808.000000
445.392151 5508.000000
447.643463 6937.000000
449.893372 6076.000000
452.141693 6211.000000
454.388580 5568.000000
456.634003 6417.000000
458.877869 6454.000000
461.120239 6776.000000
463.361115 5670.000000
465.600586 6669.000000
467.838470 5450.000000
470.074921 5917.000000
472.309845 6052.000000
474.543304 7360.000000
476.775330 6599.000000
479.005829 5661.000000
481.234833 6458.000000
483.462372 6329.000000
485.688416 5948.000000
487.913025 6535.000000
490.136169 5870.000000
492.357849 6409.000000
494.577972 6722.000000
496.796692 5636.000000
499.013916 6226.000000
501.229767 5565.000000
503.444000 6122.000000
505.656921 6481.000000
507.868256 6437.000000
510.078156 6889.000000
512.286621 6507.000000
514.493713 6560.000000
516.699219 6450.000000
518.903320 6546.000000
521.105896 6190.000000
523.307068 6627.000000
525.506897 6700.000000
527.705200 6925.000000
529.901978 5388.000000
532.097412 5784.000000
534.291321 5571.000000
536.483887 7493.000000
538.674927 6646.000000
540.864563 6056.000000
543.052795 6913.000000
545.239502 7071.000000
547.424744 6786.000000
549.608704 6224.000000
551.791077 6416.000000
553.972107 6167.000000
556.151611 5966.000000
558.329834 5869.000000
560.506531 6009.000000
562.681824 6364.000000
564.855713 6407.000000
567.028137 5933.000000
569.199158 6047.000000
571.368713 6326.000000
573.536987 5236.000000
575.703735 6330.000000
577.869019 6290.000000
580.032898 6139.000000
582.195496 5752.000000
584.356567 6033.000000
586.516235 5640.000000
588.674561 5788.000000
590.831360 6171.000000
592.986816 6581.000000
595.140869 5779.000000
597.293579 6209.000000
599.444763 7225.000000
601.594604 6726.000000
603.743103 6654.000000
605.890015 6070.000000
608.035706 6390.000000
610.179993 6403.000000
612.322815 7064.000000
614.464172 6160.000000
616.604309 6420.000000
618.742920 7540.000000
620.880249 5702.000000
623.016113 6632.000000
625.150574 6929.000000
627.283569 7145.000000
629.415405 6697.000000
631.545776 6564.000000
633.674744 6769.000000
635.802246 6474.000000
637.928467 6206.000000
640.053162 7270.000000
642.176636 6369.000000
644.298767 6722.000000
646.419434 6924.000000
648.538757 6565.000000
650.656677 5676.000000
652.773254 5690.000000
654.888428 6392.000000
657.002258 6481.000000
659.114624 5867.000000
661.225769 6185.000000
663.335510 5449.000000
665.443787 6044.000000
667.550903 6238.000000
669.656555 6842.000000
671.760742 5639.000000
673.863708 5691.000000
675.965271 7049.000000
678.065491 5329.000000
680.164307 6745.000000
682.261780 6263.000000
684.357971 6934.000000
686.452698 6207.000000
688.546204 6990.000000
690.638367 6643.000000
692.729004 7950.000000
694.818420 6592.000000
696.906555 6418.000000
698.993225 6033.000000
701.078674 6646.000000
703.162598 5105.000000
705.245300 5940.000000
707.326721 5977.000000
709.406677 7555.000000
711.485413 6252.000000
713.562683 5563.000000
715.638672 6581.000000
717.713379 6035.000000
719.786804 6854.000000
721.858704 6320.000000
723.929443 7399.000000
725.998840 5858.000000
728.066833 6462.000000
730.133484 6325.000000
732.198914 7064.000000
734.263000 5766.000000
736.325745 6112.000000
738.387146 6616.000000
740.447266 6591.000000
742.505981 6004.000000
744.563477 6621.000000
746.619690 6508.000000
748.674500 6705.000000
750.728027 6351.000000
752.780151 7421.000000
754.831055 5767.000000
756.880737 6636.000000
758.928955 6311.000000
760.975952 6215.000000
763.021667 6975.000000
765.065979 5363.000000
767.109009 5733.000000
769.150818 15011.000000
771.191284 6970.000000
773.230347 6350.000000
775.268250 6091.000000
777.304810 6027.000000
779.340149 5355.000000
781.374146 5765.000000
783.406738 6928.000000
785.438171 5554.000000
787.468201 11590.000000
789.496948 6031.000000
791.524536 6358.000000
793.550781 6305.000000
795.575623 5861.000000
797.599365 5625.000000
799.621704 6383.000000
801.642822 5873.000000
803.662598 6647.000000
805.681091 4919.000000
807.698364 6690.000000
809.714233 6855.000000
811.728943 5711.000000
813.742310 6378.000000
815.754456 6251.000000
817.765381 6145.000000
819.774963 6554.000000
821.783325 5378.000000
823.790283 5636.000000
825.796021 6038.000000
827.800537 5746.000000
829.803772 5656.000000
831.805725 6500.000000
833.806396 6045.000000
835.805847 5885.000000
837.803955 6389.000000
839.800964 6953.000000
841.796570 6228.000000
843.791016 5975.000000
845.784119 6203.000000
847.776001 6806.000000
849.766541 5555.000000
851.755798 6789.000000
853.744019 6014.000000
855.730835 5603.000000
857.716431 6408.000000
859.700745 7186.000000
861.683960 6315.000000
863.665771 6389.000000
865.646362 5794.000000
867.625671 7677.000000
869.603821 7032.000000
871.580627 6163.000000
873.556152 5878.000000
875.530640 6177.000000
877.503662 5998.000000
879.475647 5429.000000
881.446289 6422.000000
883.415771 6076.000000
885.383911 5571.000000
887.350891 5192.000000
889.316528 6122.000000
891.281006 5864.000000
893.244263 5956.000000
895.206299 6434.000000
897.167053 5881.000000
899.126587 6428.000000
901.084839 6660.000000
903.041992 6320.000000
904.997986 6004.000000
906.952576 6879.000000
908.905945 6497.000000
910.858154 6384.000000
912.809143 6337.000000
914.758850 7112.000000
916.707397 6350.000000
918.654724 6122.000000
920.600769 6068.000000
922.545532 6071.000000
924.489258 6340.000000
926.431824 5933.000000
928.373108 5545.000000
930.313049 6413.000000
932.251892 5702.000000
934.189453 5533.000000
936.125793 5974.000000
938.060974 5799.000000
939.994873 6122.000000
941.927673 5893.000000
943.859253 6750.000000
945.789673 5172.000000
947.718872 6394.000000
949.646729 7009.000000
951.573547 6583.000000
953.499084 5925.000000
955.423340 5297.000000
957.346497 5965.000000
959.268494 6658.000000
961.189209 7259.000000
963.108765 6446.000000
965.027161 5307.000000
966.944519 6414.000000
968.860413 6429.000000
970.775208 6139.000000
972.688782 5913.000000
974.601196 6403.000000
976.512390 6433.000000
978.422424 5487.000000
980.331177 6158.000000
982.238892 6119.000000
984.145386 6342.000000
986.050659 5718.000000
987.954834 6654.000000
989.857788 6204.000000
991.759521 6847.000000
993.660095 6577.000000
995.559509 6593.000000
997.457703 5305.000000
999.354736 6665.000000
1001.250549 6491.000000
1003.145203 7663.000000
1005.038757 5519.000000
1006.931030 7118.000000
1008.822388 6051.000000
1010.712402 5378.000000
1012.601196 6594.000000
1014.488831 6378.000000
1016.375305 6928.000000
1018.260620 6726.000000
1020.144775 5908.000000
1022.027710 5868.000000
1023.909607 6208.000000
1025.790283 5208.000000
1027.669800 5837.000000
1029.548340 6100.000000
1031.425537 5413.000000
1033.301392 6168.000000
1035.176270 5861.000000
1037.050171 6618.000000
1038.922607 7124.000000
1040.794067 6675.000000
1042.664185 5440.000000
1044.533325 5526.000000
1046.401245 5801.000000
1048.268066 7204.000000
1050.133789 6754.000000
1051.998291 6469.000000
1053.861694 6389.000000
1055.723755 6458.000000
1057.584839 5872.000000
1059.444824 6472.000000
1061.303467 6675.000000
1063.161011 5799.000000
1065.017456 6681.000000
1066.872803 5980.000000
1068.726929 5780.000000
1070.580200 6282.000000
1072.432007 6295.000000
1074.282837 6130.000000
1076.132446 6141.000000
1077.980835 5717.000000
1079.828369 7969.000000
1081.674561 5555.000000
1083.519531 6228.000000
1085.363647 5438.000000
1087.206421 5527.000000
1089.047974 6527.000000
1090.888794 5467.000000
1092.728027 5765.000000
1094.566528 6016.000000
1096.403687 6030.000000
1098.239624 6791.000000
1100.074585 6574.000000
1101.908325 5339.000000
1103.741089 5528.000000
1105.572510 6177.000000
1107.403076 7307.000000
1109.232300 6532.000000
1111.060547 6463.000000
1112.887573 7116.000000
1114.713623 5431.000000
1116.538452 6282.000000
1118.362183 7144.000000
1120.184692 6098.000000
1122.006104 5852.000000
1123.826660 5906.000000
1125.645752 6572.000000
1127.463989 7064.000000
1129.280884 6817.000000
1131.096924 6557.000000
1132.911743 6416.000000
1134.725464 5577.000000
1136.538086 5761.000000
1138.349487 5618.000000
1140.159912 6094.000000
1141.969238 6744.000000
1143.777222 6930.000000
1145.584473 5939.000000
1147.390259 5912.000000
1149.195190 5393.000000
1150.999023 5461.000000
1152.801636 6084.000000
1154.603394 6078.000000
1156.403687 6105.000000
1158.203003 6075.000000
1160.001343 5882.000000
1161.798340 5432.000000
1163.594604 5924.000000
1165.389526 6067.000000
1167.183350 6335.000000
1168.976318 7737.000000
1170.767944 5728.000000
1172.558594 6508.000000
1174.348267 6067.000000
1176.136475 5802.000000
1177.923828 7451.000000
1179.710083 6697.000000
1181.495239 5788.000000
1183.279297 5966.000000
1185.062256 7636.000000
1186.844238 5875.000000
1188.625000 5915.000000
1190.404785 6276.000000
1192.183472 6908.000000
1193.961182 6645.000000
1195.737671 7158.000000
1197.513062 6547.000000
1199.287354 6496.000000
1201.060547 6780.000000
1202.832886 6555.000000
1204.603882 6705.000000
1206.374023 5691.000000
1208.142944 6104.000000
1209.910767 6281.000000
1211.677734 5755.000000
1213.443359 5882.000000
1215.208008 6946.000000
1216.971558 6600.000000
1218.734009 5918.000000
1220.495605 6691.000000
1222.255981 5808.000000
1224.015259 6240.000000
1225.773682 6036.000000
1227.530884 7085.000000
1229.286987 6403.000000
1231.041992 5564.000000
1232.796143 5965.000000
1234.548950 5928.000000
1236.300781 6007.000000
1238.051758 5927.000000
1239.801392 4917.000000
1241.550171 6967.000000
1243.297607 6424.000000
1245.044312 6594.000000
1246.789795 6531.000000
1248.534424 6426.000000
1250.277710 6758.000000
1252.020020 6648.000000
1253.761230 5340.000000
1255.501587 5086.000000
1257.240845 5809.000000
1258.978882 6541.000000
1260.716064 7053.000000
1262.452026 6076.000000
1264.187012 6409.000000
1265.921021 7218.000000
1267.654053 6011.000000
1269.385864 6166.000000
1271.116699 6404.000000
1272.846313 7323.000000
1274.575073 5921.000000
1276.302734 5694.000000
1278.029297 5484.000000
1279.755005 5489.000000
1281.479370 6430.000000
1283.202881 5214.000000
1284.925415 6889.000000
1286.646973 6541.000000
1288.367310 6163.000000
1290.086670 6633.000000
1291.804932 7220.000000
1293.522217 6430.000000
1295.238525 5738.000000
1296.953613 6323.000000
1298.667725 6095.000000
1300.380859 5716.000000
1302.093140 6413.000000
1303.804199 8221.000000
1305.514282 5591.000000
1307.223267 6315.000000
1308.931030 6636.000000
1310.638184 6987.000000
1312.343872 5770.000000
1314.048828 6867.000000
1315.752808 6187.000000
1317.455566 6000.000000
1319.157349 6518.000000
1320.858276 5980.000000
1322.557861 9578.000000
1324.256592 31179.000000
1325.954590 5625.000000
1327.651245 6472.000000
1329.346802 7141.000000
1331.041504 6861.000000
1332.734985 5702.000000
1334.427612 5426.000000
1336.119385 7212.000000
1337.809814 6231.000000
1339.499512 6546.000000
1341.188110 6112.000000
1342.875610 7536.000000
1344.562134 5660.000000
1346.247559 6806.000000
1347.932007 5912.000000
1349.615601 7192.000000
1351.297974 6377.000000
1352.979370 6012.000000
1354.659912 6529.000000
1356.339233 6661.000000
1358.017944 5800.000000
1359.695313 6478.000000
1361.371582 5768.000000
1363.046875 5575.000000
1364.721436 6567.000000
1366.394775 6488.000000
1368.067139 6721.000000
1369.738525 5180.000000
1371.408936 6678.000000
1373.078247 6207.000000
1374.746582 5657.000000
1376.414063 5991.000000
1378.080444 6524.000000
1379.745850 6081.000000
1381.410278 5794.000000
1383.073486 5899.000000
1384.736084 5682.000000
1386.397339 6309.000000
1388.057739 6590.000000
1389.717041 6405.000000
1391.375366 6486.000000
1393.032959 6816.000000
1394.689331 6502.000000
1396.344849 7016.000000
1397.999146 6290.000000
1399.652588 5813.000000
1401.304932 6181.000000
1402.956543 6409.000000
1404.606934 7153.000000
1406.256226 6269.000000
1407.904785 7442.000000
1409.552246 7879.000000
1411.198730 6178.000000
1412.844360 6251.000000
1414.489014 6027.000000
1416.132446 7012.000000
1417.775024 7087.000000
1419.416504 6848.000000
1421.057129 6462.000000
1422.696777 6422.000000
1424.335327 6000.000000
1425.973022 6599.000000
1427.609619 6264.000000
1429.245239 5949.000000
1430.880127 6361.000000
1432.513916 5877.000000
1434.146606 6110.000000
1435.778320 5708.000000
1437.409180 6130.000000
1439.038940 6079.000000
1440.667603 7734.000000
1442.295654 5968.000000
1443.922607 6109.000000
1445.548340 6160.000000
1447.173462 6250.000000
1448.797485 6532.000000
1450.420532 6012.000000
1452.042603 6071.000000
1453.663574 7448.000000
1455.283569 6252.000000
1456.902832 6884.000000
1458.520752 5628.000000
1460.138062 16935.000000
1461.754395 5545.000000
1463.369507 7205.000000
1464.983765 6300.000000
1466.597168 5161.000000
1468.209473 5614.000000
1469.820923 6114.000000
1471.431519 6371.000000
1473.040894 5968.000000
1474.649292 5947.000000
1476.256836 6212.000000
1477.863403 6673.000000
1479.469238 5283.000000
1481.073853 6281.000000
1482.677612 5490.000000
1484.280151 6913.000000
1485.882080 5590.000000
1487.482788 5487.000000
1489.082764 5558.000000
1490.681641 6201.000000
1492.279663 6431.000000
1493.876587 6685.000000
1495.472656 6282.000000
1497.067749 5996.000000
1498.661865 5490.000000
1500.255249 6590.000000
1501.847534 5494.000000
1503.438599 5968.000000
1505.029175 6769.000000
1506.618408 6456.000000
1508.207031 6129.000000
1509.794556 6572.000000
1511.380981 6816.000000
1512.966675 6198.000000
1514.551270 6596.000000
1516.135010 6159.000000
1517.717651 6252.000000
1519.299561 6612.000000
1520.880371 6597.000000
1522.460449 6085.000000
1524.039307 6282.000000
1525.617310 6392.000000
1527.194580 6257.000000
1528.770630 5699.000000
1530.345947 5934.000000
1531.920166 6317.000000
1533.493652 5465.000000
1535.065918 6007.000000
1536.637451 6402.000000
1538.208008 6412.000000
1539.777710 6306.000000
1541.346191 5435.000000
1542.913940 6575.000000
1544.480835 5628.000000
1546.046509 6812.000000
1547.611450 5953.000000
1549.175293 5099.000000
1550.738525 7447.000000
1552.300415 6300.000000
1553.861694 5908.000000
1555.421875 5735.000000
1556.981323 5771.000000
1558.539673 6003.000000
1560.097290 6237.000000
1561.653809 6973.000000
1563.209106 5822.000000
1564.763794 6362.000000
1566.317749 5639.000000
1567.870728 6290.000000
1569.422363 5619.000000
1570.973267 5885.000000
1572.523438 6232.000000
1574.072632 6323.000000
1575.620483 5760.000000
1577.167847 5487.000000
1578.714233 5714.000000
1580.259766 5052.000000
1581.804321 6651.000000
1583.347656 6325.000000
1584.890381 6651.000000
1586.432251 6469.000000
1587.973022 6649.000000
1589.512817 5775.000000
1591.051880 6682.000000
1592.589844 5910.000000
1594.127319 6107.000000
1595.663452 5850.000000
1597.198486 6630.000000
1598.733032 6269.000000
1600.266602 5956.000000
1601.799316 5911.000000
1603.330444 6284.000000
1604.861328 6324.000000
1606.391357 5770.000000
1607.920166 6100.000000
1609.447876 6178.000000
1610.974976 5969.000000
1612.501343 5832.000000
1614.026733 6265.000000
1615.551270 5749.000000
1617.074463 5793.000000
1618.596924 5630.000000
1620.118652 6549.000000
1621.639526 6943.000000
1623.158936 15554.000000
1624.677856 6107.000000
1626.196045 6045.000000
1627.713379 5894.000000
1629.229614 6442.000000
1630.744507 7004.000000
1632.258911 6706.000000
1633.772583 5739.000000
1635.285156 6861.000000
1636.796509 5968.000000
1638.307495 6464.000000
1639.817383 6189.000000
1641.326416 6199.000000
1642.834106 5599.000000
1644.341431 6072.000000
1645.847900 7080.000000
1647.353394 6202.000000
1648.858032 6822.000000
1650.361206 6147.000000
1651.863770 6580.000000
1653.365967 6304.000000
1654.866821 6581.000000
1656.366577 7537.000000
1657.865479 5938.000000
1659.364014 6513.000000
1660.861328 6216.000000
1662.357910 5898.000000
1663.852905 6387.000000
1665.347656 6369.000000
1666.841553 5251.000000
1668.334473 5632.000000
1669.826050 20308.000000
1671.317139 6435.000000
1672.807617 6094.000000
1674.296997 5971.000000
1675.784912 6984.000000
1677.272583 6796.000000
1678.759277 6043.000000
1680.245117 5368.000000
1681.730103 6031.000000
1683.213623 6172.000000
1684.696899 6217.000000
1686.179321 5862.000000
1687.660645 6188.000000
1689.140503 6150.000000
1690.620117 5477.000000
1692.098999 6574.000000
1693.576904 5996.000000
1695.053833 6132.000000
1696.529541 5716.000000
1698.004883 6211.000000
1699.479004 6245.000000
1700.952515 5436.000000
1702.424561 5573.000000
1703.896362 6833.000000
1705.367188 6355.000000
1706.837158 7042.000000
1708.305786 5141.000000
1709.773926 5818.000000
1711.241333 6502.000000
1712.707642 5478.000000
1714.173340 5745.000000
1715.637329 6190.000000
1717.101196 5973.000000
1718.564209 6917.000000
1720.026245 6357.000000
1721.487061 6527.000000
1722.947266 5444.000000
1724.406738 5606.000000
1725.865356 6158.000000
1727.322998 5958.000000
1728.779297 6235.000000
1730.235352 6009.000000
1731.690430 6413.000000
1733.144531 5964.000000
1734.597412 6833.000000
1736.050049 5979.000000
1737.501587 6679.000000
1738.952393 5959.000000
1740.402222 6573.000000
1741.850708 5907.000000
1743.298828 7342.000000
1744.746094 6551.000000
1746.192627 6590.000000
1747.637573 6715.000000
1749.082275 6142.000000
1750.526123 5964.000000
1751.969116 5590.000000
1753.410645 6488.000000
1754.851929 6342.000000
1756.292358 19280.000000
1757.731812 6252.000000
1759.170288 5297.000000
1760.607788 6061.000000
1762.044800 7525.000000
1763.480835 5856.000000
1764.916016 7101.000000
1766.349731 6143.000000
1767.783325 6402.000000
1769.215942 6626.000000
1770.647705 5909.000000
1772.078613 5778.000000
1773.508301 6282.000000
1774.937256 6149.000000
1776.365723 6236.000000
1777.793213 6706.000000
1779.219360 6232.000000
1780.645264 5524.000000
1782.070068 6843.000000
1783.494263 5592.000000
1784.916992 6589.000000
1786.339233 6596.000000
1787.760742 6901.000000
1789.181519 5870.000000
1790.601318 5953.000000
1792.019775 6182.000000
1793.437744 6829.000000
1794.855103 5523.000000
1796.271606 6160.000000
1797.686646 6491.000000
1799.101318 5860.000000
1800.515381 6566.000000
1801.928223 5959.000000
1803.340454 6977.000000
1804.751343 7119.000000
1806.161743 7701.000000
1807.571411 6476.000000
1808.980103 5894.000000
1810.387695 5415.000000
1811.794800 6431.000000
1813.201050 6355.000000
1814.606323 6720.000000
1816.010498 5884.000000
1817.414307 5895.000000
1818.817139 6195.000000
1820.219116 6010.000000
1821.620483 5888.000000
1823.020386 6285.000000
1824.419678 6375.000000
1825.818481 6518.000000
1827.216431 7412.000000
1828.613037 5781.000000
1830.009033 6734.000000
1831.404297 5867.000000
1832.798950 8037.000000
1834.192627 6001.000000
1835.584961 6838.000000
1836.976807 6369.000000
1838.368042 5827.000000
1839.758301 7098.000000
1841.147339 6015.000000
1842.536011 6028.000000
1843.923706 5939.000000
1845.310669 5795.000000
1846.696289 6860.000000
1848.081665 5767.000000
1849.466187 6388.000000
1850.849976 6287.000000
1852.232666 6387.000000
1853.614136 5396.000000
1854.995117 6534.000000
1856.375610 6308.000000
1857.755127 5754.000000
1859.133179 5998.000000
1860.511108 6229.000000
1861.888062 7749.000000
1863.264282 6104.000000
1864.639648 6048.000000
1866.013550 5697.000000
1867.387329 5674.000000
1868.760254 6186.000000
1870.132080 5964.000000
1871.502930 6856.000000
1872.873413 5426.000000
1874.242798 6057.000000
1875.611694 6048.000000
1876.979004 7101.000000
1878.346191 6065.000000
1879.712402 5948.000000
1881.077881 6754.000000
1882.442627 7465.000000
1883.805786 6707.000000
1885.168823 6858.000000
1886.531006 6301.000000
1887.892334 6428.000000
1889.252319 5583.000000
1890.611938 5774.000000
1891.970947 6137.000000
1893.328979 6642.000000
1894.686157 7272.000000
1896.042114 5943.000000
1897.397827 7645.000000
1898.752563 5859.000000
1900.106445 5525.000000
1901.459229 5924.000000
1902.811523 6030.000000
1904.163086 5942.000000
1905.513794 6835.000000
1906.863281 6503.000000
1908.212280 6624.000000
1909.560425 5812.000000
1910.907959 6093.000000
1912.254761 6310.000000
1913.599976 6775.000000
1914.944946 6056.000000
1916.289185 5412.000000
1917.632568 6451.000000
1918.974609 5993.000000
1920.316406 6706.000000
1921.657349 6936.000000
1922.997559 6097.000000
1924.336792 6271.000000
1925.675049 6126.000000
1927.012695 6516.000000
1928.349609 6960.000000
1929.685669 6718.000000
1931.020508 5582.000000
1932.354980 6784.000000
1933.688721 7296.000000
1935.021606 6197.000000
1936.353027 5781.000000
1937.684570 6277.000000
1939.014771 6549.000000
1940.344482 5761.000000
1941.673340 6042.000000
1943.000977 5782.000000
1944.328125 5011.000000
1945.654541 5843.000000
1946.980225 6458.000000
1948.304565 5808.000000
1949.628662 6648.000000
1950.951904 6290.000000
1952.274414 6406.000000
1953.595825 5801.000000
1954.916260 7465.000000
1956.236084 6016.000000
1957.555542 5541.000000
1958.874023 6808.000000
1960.191162 5859.000000
1961.507935 5826.000000
1962.823975 6501.000000
1964.139282 6622.000000
1965.453125 6253.000000
1966.766724 5690.000000
1968.079590 6212.000000
1969.391602 5927.000000
1970.703003 6000.000000
1972.013062 6302.000000
1973.322632 5853.000000
1974.631470 6149.000000
1975.939697 6559.000000
1977.246582 6085.000000
1978.552856 7277.000000
1979.858765 5522.000000
1981.163452 6402.000000
1982.467651 5874.000000
1983.770630 5727.000000
1985.073242 7579.000000
1986.374878 6060.000000
1987.675903 6845.000000
1988.975342 6084.000000
1990.274902 6594.000000
1991.573364 5238.000000
1992.871338 6072.000000
1994.167725 6147.000000
1995.464111 5732.000000
1996.759521 5545.000000
1998.054199 6505.000000
1999.348022 5677.000000
2000.640625 6530.000000
2001.932739 5689.000000
2003.224365 7142.000000
2004.515259 6347.000000
2005.804565 6247.000000
2007.093628 6760.000000
2008.381958 5927.000000
2009.669556 5977.000000
2010.956299 6638.000000
2012.241943 5646.000000
2013.527222 6344.000000
2014.811523 5947.000000
2016.095215 5630.000000
2017.377563 5992.000000
2018.659546 6484.000000
2019.941040 6780.000000
2021.221558 5907.000000
2022.501343 6025.000000
2023.780029 6753.000000
2025.057983 5816.000000
2026.335449 5881.000000
2027.612305 6242.000000
2028.887451 5778.000000
2030.162720 6591.000000
2031.437012 6008.000000
2032.710327 5899.000000
2033.982788 5985.000000
2035.254883 6105.000000
2036.525879 6903.000000
2037.796631 6593.000000
2039.066040 6010.000000
2040.334351 6723.000000
2041.602661 6619.000000
2042.869995 5879.000000
2044.136597 6006.000000
2045.401978 5700.000000
2046.666748 5583.000000
2047.931274 5419.000000
2049.194580 5847.000000
2050.457520 6412.000000
2051.718506 6116.000000
2052.979980 6083.000000
2054.240234 5854.000000
2055.499756 6454.000000
2056.758545 6300.000000
2058.016357 6912.000000
2059.273682 6195.000000
2060.530273 5965.000000
2061.785400 6448.000000
2063.040527 5636.000000
2064.294678 5521.000000
2065.548096 5562.000000
2066.800781 6826.000000
2068.052246 6289.000000
2069.303467 6372.000000
2070.553955 5607.000000
2071.803711 5401.000000
2073.052002 6484.000000
2074.300293 6483.000000
2075.547607 7472.000000
2076.794189 5583.000000
2078.040039 6023.000000
2079.284668 7000.000000
2080.528809 7583.000000
2081.772461 5488.000000
2083.015137 6007.000000
2084.256592 6899.000000
2085.497803 5961.000000
2086.738525 6370.000000
2087.978271 6716.000000
2089.216797 7042.000000
2090.454834 6198.000000
2091.692139 5750.000000
2092.929199 6613.000000
2094.164795 6085.000000
2095.399658 6168.000000
2096.634277 6040.000000
2097.867920 5612.000000
2099.100586 6058.000000
2100.332520 6815.000000
2101.563965 6420.000000
2102.794434 6732.000000
2104.024170 5984.000000
2105.253662 5948.000000
2106.481201 6007.000000
2107.708984 5984.000000
2108.936035 6268.000000
2110.162109 5524.000000
2111.386719 6388.000000
2112.611572 6919.000000
2113.835205 7048.000000
2115.058350 6276.000000
2116.280273 7485.000000
2117.501953 5977.000000
2118.722656 6839.000000
2119.942627 5988.000000
2121.162109 6168.000000
2122.380127 6626.000000
2123.598145 7010.000000
2124.815186 5738.000000
2126.031738 5809.000000
2127.246582 6593.000000
2128.461670 6301.000000
2129.675781 6704.000000
2130.889160 5673.000000
2132.101807 6110.000000
2133.312988 5815.000000
2134.524414 6570.000000
2135.734619 6625.000000
2136.944336 5839.000000
2138.152588 6133.000000
2139.360840 5638.000000
2140.568359 5824.000000
2141.774658 7618.000000
2142.980225 5858.000000
2144.185547 5647.000000
2145.389893 5517.000000
2146.593506 6292.000000
2147.796631 6173.000000
2148.998291 6601.000000
2150.199707 5283.000000
2151.400391 6242.000000
2152.600342 6052.000000
2153.799072 5986.000000
2154.997559 6915.000000
2156.195557 6106.000000
2157.392578 6004.000000
2158.588867 5137.000000
2159.783936 5253.000000
2160.978760 6114.000000
2162.172852 5560.000000
2163.365967 6085.000000
2164.558105 6895.000000
2165.750000 5886.000000
2166.941162 6273.000000
2168.131348 6305.000000
2169.320801 6487.000000
2170.509766 6770.000000
2171.697754 6024.000000
2172.885498 5790.000000
2174.071777 5914.000000
2175.257324 6518.000000
2176.442627 5989.000000
2177.627441 5796.000000
2178.811035 6408.000000
2179.993896 7529.000000
2181.175781 6273.000000
2182.357422 6059.000000
2183.538574 6604.000000
2184.718506 5713.000000
2185.897461 5606.000000
2187.075928 6331.000000
2188.254150 6847.000000
2189.431152 7164.000000
2190.607178 6662.000000
2191.782959 6136.000000
2192.958252 5574.000000
2194.132080 6650.000000
2195.305420 6157.000000
2196.478516 6136.000000
2197.650391 6352.000000
2198.821777 7053.000000
2199.992676 6289.000000
2201.161865 6891.000000
2202.331055 7612.000000
2203.499756 6296.000000
2204.667480 5906.000000
2205.834229 5606.000000
2207.000244 7075.000000
2208.165771 6617.000000
2209.331055 5944.000000
2210.494873 6661.000000
2211.658203 5369.000000
2212.820313 6159.000000
2213.982666 6191.000000
2215.143799 6700.000000
2216.303955 6699.000000
2217.463623 6307.000000
2218.623047 6563.000000
2219.781250 6322.000000
2220.938477 6272.000000
2222.095459 6738.000000
2223.251709 6559.000000
2224.407227 6758.000000
2225.562012 6269.000000
2226.715820 6436.000000
2227.868652 6016.000000
2229.021973 6855.000000
2230.173340 6220.000000
2231.324463 6135.000000
2232.474854 6472.000000
2233.624756 7705.000000
2234.773682 6282.000000
2235.922119 5216.000000
2237.069092 6791.000000
2238.216309 7045.000000
2239.362305 6038.000000
2240.508057 7165.000000
2241.652100 7333.000000
2242.796387 6706.000000
2243.939697 6150.000000
2245.082275 5977.000000
2246.223877 5810.000000
2247.365234 5846.000000
2248.505615 6424.000000
2249.645264 6409.000000
2250.784424 5835.000000
2251.922363 5820.000000
2253.060303 6108.000000
2254.197266 5293.000000
2255.333496 6319.000000
2256.468750 6131.000000
2257.603271 7281.000000
2258.737549 6304.000000
2259.871338 5375.000000
2261.003662 6106.000000
2262.135498 6834.000000
2263.266846 6310.000000
2264.397217 6453.000000
2265.527344 8082.000000
2266.656250 6736.000000
2267.784668 6072.000000
2268.912598 5604.000000
2270.039551 6126.000000
2271.165771 5929.000000
2272.291016 6749.000000
2273.416260 6556.000000
2274.540771 6444.000000
2275.664063 5888.000000
2276.786621 6323.000000
2277.908691 5954.000000
2279.030273 7348.000000
2280.151123 6316.000000
2281.270752 6389.000000
2282.389893 7126.000000
2283.508789 7692.000000
2284.626953 7201.000000
2285.744141 5892.000000
2286.860352 6339.000000
2287.976318 6977.000000
2289.091553 6837.000000
2290.206055 7410.000000
2291.319336 5748.000000
2292.432617 6343.000000
2293.545166 6003.000000
2294.656982 5327.000000
2295.768066 6736.000000
2296.877930 6372.000000
2297.987305 6154.000000
2299.096436 6694.000000
2300.204590 6326.000000
2301.311768 6761.000000
2302.418701 5905.000000
2303.524902 6261.000000
2304.630615 6657.000000
2305.734863 6612.000000
2306.838867 5466.000000
2307.942383 5734.000000
2309.045410 6470.000000
2310.147217 7415.000000
2311.248291 7321.000000
2312.348877 6616.000000
2313.448975 5524.000000
2314.548340 6325.000000
2315.646240 6590.000000
2316.744629 6978.000000
2317.841553 8212.000000
2318.938232 6853.000000
2320.034424 5878.000000
2321.128906 6832.000000
2322.223389 7665.000000
2323.317139 5773.000000
2324.410645 6015.000000
2325.502441 6476.000000
2326.594238 6856.000000
2327.685303 6042.000000
2328.775635 6290.000000
2329.864990 6922.000000
2330.954346 5964.000000
2332.042480 6276.000000
2333.130127 6817.000000
2334.217529 6469.000000
2335.303223 6649.000000
2336.388672 7704.000000
2337.473877 6289.000000
2338.558105 6779.000000
2339.641357 5883.000000
2340.724365 6406.000000
2341.806396 7557.000000
2342.888184 6014.000000
2343.969238 7423.000000
2345.049072 6650.000000
2346.128418 5744.000000
2347.207275 6814.000000
2348.285645 6541.000000
2349.362549 6326.000000
2350.439209 7000.000000
2351.515625 6081.000000
2352.591064 6485.000000
2353.665527 5875.000000
2354.739746 6288.000000
2355.813232 6744.000000
2356.886230 6222.000000
2357.958008 6995.000000
2359.029541 6279.000000
2360.100098 6736.000000
2361.170410 7545.000000
2362.239746 7505.000000
2363.308105 6831.000000
2364.376221 6731.000000
2365.443604 7017.000000
2366.510498 7139.000000
2367.576660 6038.000000
2368.641602 6771.000000
2369.706543 6958.000000
2370.770752 6342.000000
2371.834229 6990.000000
2372.896484 5705.000000
2373.958740 6255.000000
2375.020020 6264.000000
2376.081055 5924.000000
2377.140869 6264.000000
2378.199951 7846.000000
2379.259033 6462.000000
2380.317139 7548.000000
2381.374512 6873.000000
2382.430908 8037.000000
2383.487061 7745.000000
2384.542725 6241.000000
2385.597656 6953.000000
2386.651123 6790.000000
2387.704834 6515.000000
2388.757568 6283.000000
2389.809814 6714.000000
2390.861328 6167.000000
2391.911865 6585.000000
2392.962158 6518.000000
2394.011475 6218.000000
2395.060791 6205.000000
2396.108643 6875.000000
2397.156006 6923.000000
2398.203125 6296.000000
2399.249268 6657.000000
2400.294678 6143.000000
2401.339355 6771.000000
2402.384033 7734.000000
2403.427246 7480.000000
2404.470459 6598.000000
2405.512207 5719.000000
2406.554199 6731.000000
2407.595459 7152.000000
2408.635742 6101.000000
2409.675293 6429.000000
2410.713867 6314.000000
2411.752686 6071.000000
2412.790283 6560.000000
2413.827637 6890.000000
2414.863770 7395.000000
2415.899658 6245.000000
2416.934814 6250.000000
2417.969482 6641.000000
2419.002686 7224.000000
2420.036133 6471.000000
2421.068604 6763.000000
2422.100830 6736.000000
2423.131592 7003.000000
2424.162354 6336.000000
2425.192627 6822.000000
2426.221680 6859.000000
2427.250732 6672.000000
2428.278076 6915.000000
2429.305908 6684.000000
2430.332520 7221.000000
2431.358887 6883.000000
2432.383789 7704.000000
2433.408936 6586.000000
2434.433105 7137.000000
2435.457031 6674.000000
2436.479736 5847.000000
2437.501709 6309.000000
2438.523438 6569.000000
2439.544434 6666.000000
2440.564941 6013.000000
2441.584229 6515.000000
2442.603516 6575.000000
2443.621826 8403.000000
2444.639893 6200.000000
2445.656494 6479.000000
2446.673096 6579.000000
2447.688965 6027.000000
2448.704834 7015.000000
2449.719238 6868.000000
2450.732910 5598.000000
2451.746094 7215.000000
2452.759033 5967.000000
2453.771240 7230.000000
2454.782471 6648.000000
2455.793457 7625.000000
2456.803711 6350.000000
2457.813477 7647.000000
2458.822266 5848.000000
2459.830322 5924.000000
2460.838379 6306.000000
2461.845215 7384.000000
2462.851807 5454.000000
2463.857178 7316.000000
2464.862305 6985.000000
2465.867188 5820.000000
2466.870850 6536.000000
2467.874268 6381.000000
2468.876709 7496.000000
2469.878906 7343.000000
2470.880615 6897.000000
2471.881348 6636.000000
2472.881104 6999.000000
2473.880859 6701.000000
2474.879639 5663.000000
2475.877930 6602.000000
2476.875244 6993.000000
2477.872314 6147.000000
2478.869385 6887.000000
2479.864990 5874.000000
2480.860596 7137.000000
2481.854492 6694.000000
2482.848389 8030.000000
2483.841797 6878.000000
2484.834717 6709.000000
2485.826660 7463.000000
2486.817871 7237.000000
2487.808838 6756.000000
2488.799316 5828.000000
2489.788818 6595.000000
2490.777588 6475.000000
2491.766357 5639.000000
2492.754150 6773.000000
2493.740723 6552.000000
2494.727295 8015.000000
2495.713379 6723.000000
2496.698730 7151.000000
2497.683105 8319.000000
2498.667236 5993.000000
2499.651367 6875.000000
2500.634033 5746.000000
2501.616211 7007.000000
2502.597900 6803.000000
2503.578857 7238.000000
2504.559326 6534.000000
2505.539551 5741.000000
2506.518311 6355.000000
2507.496826 7595.000000
2508.474854 6716.000000
2509.452393 7073.000000
2510.428955 6051.000000
2511.405273 5942.000000
2512.380859 6426.000000
2513.355957 6160.000000
2514.330566 6458.000000
2515.303955 7454.000000
2516.277100 6764.000000
2517.250000 6868.000000
2518.221924 6101.000000
2519.193115 6816.000000
2520.163818 6884.000000
2521.134277 7757.000000
2522.104004 8060.000000
2523.072754 5990.000000
2524.040771 6133.000000
2525.008789 7777.000000
2525.975830 6282.000000
2526.942627 5521.000000
2527.908203 7192.000000
2528.873779 7031.000000
2529.838623 7723.000000
2530.802979 6356.000000
2531.766113 6367.000000
2532.729492 5880.000000
2533.691895 5978.000000
2534.654053 6711.000000
2535.614990 6373.000000
2536.575195 6119.000000
2537.535645 6084.000000
2538.495117 6780.000000
2539.453857 6794.000000
2540.411621 6643.000000
2541.369629 6283.000000
2542.326904 6788.000000
2543.283203 6076.000000
2544.239258 7108.000000
2545.194092 6206.000000
2546.149170 7719.000000
2547.103516 7017.000000
2548.057129 6920.000000
2549.009766 7133.000000
2549.962158 6736.000000
2550.914063 6946.000000
2551.865234 6414.000000
2552.815674 7688.000000
2553.765625 7298.000000
2554.715332 7317.000000
2555.664307 6560.000000
2556.612793 6245.000000
2557.560059 7128.000000
2558.507324 6264.000000
2559.453857 6599.000000
2560.399902 6792.000000
2561.344971 7435.000000
2562.289795 6732.000000
2563.234131 7221.000000
2564.177979 6843.000000
2565.121338 6660.000000
2566.063232 6618.000000
2567.005371 6512.000000
2567.946777 6091.000000
2568.887451 7107.000000
2569.827393 7252.000000
2570.767334 5729.000000
2571.706299 6144.000000
2572.645020 7470.000000
2573.582764 7214.000000
2574.520264 5473.000000
2575.457031 6959.000000
2576.393066 6761.000000
2577.328613 7484.000000
2578.263428 6253.000000
2579.198242 6030.000000
2580.132080 7042.000000
2581.065430 7202.000000
2581.998047 5797.000000
2582.930420 6882.000000
2583.862061 5433.000000
2584.793213 7057.000000
2585.723877 7013.000000
2586.653320 6887.000000
2587.582764 7149.000000
2588.511719 6494.000000
2589.440430 7362.000000
2590.367432 7370.000000
2591.294678 5898.000000
2592.221436 6850.000000
2593.147461 6297.000000
2594.073242 5616.000000
2594.997803 7617.000000
2595.922119 7588.000000
2596.845947 5401.000000
2597.769287 7267.000000
2598.691650 6320.000000
2599.613770 6851.000000
2600.535400 8360.000000
2601.456299 6378.000000
2602.376465 5966.000000
2603.296387 6361.000000
2604.215820 6335.000000
2605.135010 6440.000000
2606.053223 5896.000000
2606.970215 6061.000000
2607.887451 7326.000000
2608.804443 5890.000000
2609.720459 7513.000000
2610.635254 6668.000000
2611.550537 6615.000000
2612.465088 6560.000000
2613.378662 6553.000000
2614.292236 6134.000000
2615.204590 7669.000000
2616.116943 7043.000000
2617.028320 6749.000000
2617.939453 5715.000000
2618.849854 7204.000000
2619.760010 6651.000000
2620.669434 6123.000000
2621.578369 6607.000000
2622.486328 6239.000000
2623.394531 6868.000000
2624.301758 6710.000000
2625.208496 7062.000000
2626.114502 5930.000000
2627.020264 6614.000000
2627.925293 6601.000000
2628.830078 7765.000000
2629.734131 6484.000000
2630.637207 6396.000000
2631.540283 6380.000000
2632.442383 5626.000000
2633.344482 6731.000000
2634.246338 7028.000000
2635.146484 6693.000000
2636.046875 6417.000000
2636.946533 6573.000000
2637.845947 6011.000000
2638.743896 6877.000000
2639.642334 6611.000000
2640.540283 6327.000000
2641.437500 6106.000000
2642.333496 6163.000000
2643.229492 6947.000000
2644.125244 6030.000000
2645.020264 6399.000000
2645.915039 6644.000000
2646.808350 7055.000000
2647.701660 6354.000000
2648.594727 6749.000000
2649.487549 6494.000000
2650.378662 7468.000000
2651.270020 6367.000000
2652.160889 7593.000000
2653.051025 7303.000000
2653.940918 6644.000000
2654.829590 7280.000000
2655.718506 6615.000000
2656.606934 6635.000000
2657.494385 7334.000000
2658.380859 6485.000000
2659.267822 7037.000000
2660.154053 6830.000000
2661.039795 6815.000000
2661.924316 6513.000000
2662.808838 6378.000000
2663.693115 6214.000000
2664.576660 6997.000000
2665.459717 7766.000000
2666.342041 7295.000000
2667.223877 6217.000000
2668.104980 6537.000000
2668.986328 6059.000000
2669.866211 6544.000000
2670.746338 7323.000000
2671.625732 7210.000000
2672.505127 6223.000000
2673.383789 6119.000000
2674.260742 6452.000000
2675.138428 6783.000000
2676.015381 6400.000000
2676.891602 8043.000000
2677.767334 7167.000000
2678.642334 6252.000000
2679.517578 7766.000000
2680.391846 6977.000000
2681.265625 7346.000000
2682.138672 6927.000000
2683.011475 6233.000000
2683.884033 6092.000000
2684.755859 6906.000000
2685.626953 6536.000000
2686.497803 6898.000000
2687.368164 7075.000000
2688.238281 6748.000000
2689.106689 6308.000000
2689.975830 7461.000000
2690.844238 7072.000000
2691.712402 6663.000000
2692.579834 6941.000000
2693.446045 5849.000000
2694.312744 7155.000000
2695.178467 7421.000000
2696.044189 7178.000000
2696.908447 7891.000000
2697.773438 6670.000000
2698.636963 7290.000000
2699.500732 5835.000000
2700.363037 7429.000000
2701.225830 6903.000000
2702.087646 5885.000000
2702.948975 6912.000000
2703.810303 6687.000000
2704.670410 7499.000000
2705.530518 7335.000000
2706.390137 6630.000000
2707.249512 6820.000000
2708.107178 7170.000000
2708.965088 6858.000000
2709.823486 7335.000000
2710.680664 6749.000000
2711.537109 5976.000000
2712.393066 6868.000000
2713.249023 6129.000000
2714.104248 6958.000000
2714.958740 6138.000000
2715.812744 6829.000000
2716.666748 7324.000000
2717.519775 6255.000000
2718.373047 6425.000000
2719.224609 7701.000000
2720.076660 6814.000000
2720.928467 6369.000000
2721.779053 6439.000000
2722.629639 6426.000000
2723.479736 7079.000000
2724.329102 6988.000000
2725.178467 6998.000000
2726.026611 6703.000000
2726.874268 6596.000000
2727.722412 7099.000000
2728.569336 6840.000000
2729.416748 5545.000000
2730.262695 7446.000000
2731.107910 7028.000000
2731.953613 6375.000000
2732.798340 6961.000000
2733.643066 7379.000000
2734.486572 6861.000000
2735.330322 7820.000000
2736.173340 7138.000000
2737.015869 6031.000000
2737.857422 6251.000000
2738.699463 6818.000000
2739.540527 6885.000000
2740.381348 5829.000000
2741.221924 5939.000000
2742.061279 7747.000000
2742.900635 6793.000000
2743.739990 6886.000000
2744.578125 6843.000000
2745.415771 7758.000000
2746.253418 6295.000000
2747.090576 7091.000000
2747.927490 6209.000000
2748.763916 5987.000000
2749.599121 6636.000000
2750.434570 6343.000000
2751.269531 6346.000000
2752.103760 6235.000000
2752.937744 6931.000000
2753.771240 6892.000000
2754.604736 7947.000000
2755.437256 6789.000000
2756.269287 7327.000000
2757.100830 6846.000000
2757.932373 7045.000000
2758.762939 7235.000000
2759.593750 7227.000000
2760.423340 7223.000000
2761.252930 6673.000000
2762.082275 7267.000000
2762.910889 6867.000000
2763.739014 6839.000000
2764.566650 6914.000000
2765.394287 6683.000000
2766.221436 7834.000000
2767.047852 5874.000000
2767.873779 7459.000000
2768.699219 6892.000000
2769.524414 7794.000000
2770.349609 7048.000000
2771.173584 6760.000000
2771.997559 6575.000000
2772.821533 7684.000000
2773.644287 6400.000000
2774.467285 6920.000000
2775.289063 6912.000000
2776.110840 6966.000000
2776.932617 6540.000000
2777.753418 7985.000000
2778.573486 6484.000000
2779.393799 7028.000000
2780.213623 7341.000000
2781.033447 6432.000000
2781.851318 5934.000000
2782.670410 8077.000000
2783.488281 6512.000000
2784.305908 6762.000000
2785.123047 7164.000000
2785.939697 7284.000000
2786.756104 7291.000000
2787.572021 6237.000000
2788.387695 5980.000000
2789.202393 6452.000000
2790.017578 6916.000000
2790.832031 7163.000000
2791.645996 6627.000000
2792.459717 7452.000000
2793.272217 8788.000000
2794.084961 6956.000000
2794.897217 7451.000000
2795.708984 7223.000000
2796.520020 7357.000000
2797.331787 6540.000000
2798.142334 7121.000000
2798.952881 7046.000000
2799.761963 7395.000000
2800.571777 8335.000000
2801.380859 7765.000000
2802.189697 6638.000000
2802.998047 7173.000000
2803.805420 6158.000000
2804.613281 6571.000000
2805.420410 6766.000000
2806.227295 6865.000000
2807.032959 7091.000000
2807.839111 6672.000000
2808.644531 6510.000000
2809.449951 7304.000000
2810.254639 6219.000000
2811.058350 7606.000000
2811.862549 7456.000000
2812.666260 6328.000000
2813.469727 6085.000000
2814.271729 6315.000000
2815.074463 7320.000000
2815.876465 7793.000000
2816.678223 6153.000000
2817.479492 6547.000000
2818.280273 7235.000000
2819.080566 6524.000000
2819.881104 6731.000000
2820.680664 8063.000000
2821.479736 7174.000000
2822.278809 6450.000000
2823.077637 6949.000000
2823.875977 6343.000000
2824.673340 6990.000000
2825.470947 6988.000000
2826.267822 6665.000000
2827.064941 7342.000000
2827.861328 8131.000000
2828.656982 7004.000000
2829.452637 7389.000000
2830.248047 7463.000000
2831.042969 7369.000000
2831.837158 6646.000000
2832.631348 6864.000000
2833.425293 5711.000000
2834.218750 6918.000000
2835.011475 7167.000000
2835.803955 8181.000000
2836.596436 7656.000000
2837.388672 7491.000000
2838.180420 6497.000000
2838.971191 6799.000000
2839.761963 8847.000000
2840.552979 7381.000000
2841.343018 6222.000000
2842.132568 7642.000000
2842.922363 7211.000000
2843.711182 7358.000000
2844.500000 7775.000000
2845.288818 7660.000000
2846.076660 7500.000000
2846.864014 7194.000000
2847.651611 7552.000000
2848.438721 7375.000000
2849.225098 6700.000000
2850.011475 7504.000000
2850.797607 7237.000000
2851.583252 7505.000000
2852.367920 7147.000000
2853.153076 6929.000000
2853.937988 7468.000000
2854.722168 7079.000000
2855.506348 6915.000000
2856.289307 8275.000000
2857.072510 6819.000000
2857.855469 6781.000000
2858.637939 7791.000000
2859.420166 6267.000000
2860.201904 6631.000000
2860.983398 7630.000000
2861.765137 7470.000000
2862.546143 7671.000000
2863.326416 6611.000000
2864.106445 6810.000000
2864.886475 8152.000000
2865.666260 7468.000000
2866.445068 8087.000000
2867.224121 7679.000000
2868.002686 6780.000000
2868.781006 6960.000000
2869.558838 7208.000000
2870.336426 6982.000000
2871.113770 7462.000000
2871.890869 6952.000000
2872.667480 6464.000000
2873.443604 7493.000000
2874.219727 7084.000000
2874.995361 8256.000000
2875.770752 7173.000000
2876.545654 6604.000000
2877.320313 7982.000000
2878.094971 6709.000000
2878.869385 7804.000000
2879.643066 6762.000000
2880.416016 7124.000000
2881.189697 6681.000000
2881.962402 7562.000000
2882.735107 7912.000000
2883.507080 8200.000000
2884.278809 6169.000000
2885.051025 6787.000000
2885.822021 6868.000000
2886.592529 6173.000000
2887.363525 8424.000000
2888.134521 7439.000000
2888.904785 7942.000000
2889.674072 7709.000000
2890.443604 6986.000000
2891.213135 7253.000000
2891.982178 7346.000000
2892.750732 7844.000000
2893.519287 7898.000000
2894.286865 6993.000000
2895.054932 6602.000000
2895.822510 7469.000000
2896.590088 8284.000000
2897.356445 7352.000000
2898.123779 6542.000000
2898.889893 7273.000000
2899.656250 7063.000000
2900.421143 8272.000000
2901.186523 6916.000000
2901.952393 6480.000000
2902.716797 7619.000000
2903.481201 7682.000000
2904.245850 8432.000000
2905.009521 6664.000000
2905.773926 8460.000000
2906.537598 6703.000000
2907.300537 8380.000000
2908.063232 6513.000000
2908.826416 9001.000000
2909.589111 6953.000000
2910.350586 6855.000000
2911.112549 6855.000000
