scanname Analyse029
timestamp 2017-02-10 20:36:20
ccdbias 902.084473
ccdgain 3.473401
sigmaread 8.960639
laserwavenum -0.625364
wavenumcorrection -0.102400
scancount 1
totalexposurems 10000
singleexposurems 10000
measurementstate Unknown
scanmode Manual
snr 280.518860 9.244146 7.849461
replacelist 6
374 53052.000000 15057.000000
672 44639.000000 31413.000000
673 44310.000000 5528.000000
754 39956.000000 19240.000000
755 38979.000000 5538.000000
858 34261.000000 15667.000000
peaks 57
278.303802 0.720814 0.000000 1.471634 0.000188
284.973663 0.720505 0.000000 0.780094 0.000060
293.692963 0.722603 0.000000 0.619727 0.000029
303.411224 0.723766 0.000000 0.149767 0.000022
334.336670 0.745810 0.000000 0.881384 0.000147
342.018494 0.744488 0.000000 0.803511 0.000035
350.117737 0.747828 0.000000 0.614936 0.000023
360.072754 0.749260 0.000000 0.383227 0.000019
386.020416 0.751920 0.000000 1.305506 0.000292
460.425232 0.766639 0.000000 0.245903 0.000041
487.676544 0.780163 0.000000 0.796201 0.000105
535.173462 0.782286 0.000000 0.556620 0.000137
559.541931 0.821225 0.000000 1.316481 0.000231
566.441528 0.826732 0.000000 1.213891 0.000107
571.757996 0.830203 0.000000 0.781823 0.000174
660.449036 0.853429 0.000000 1.037840 0.000150
673.476501 0.849612 0.000000 1.430759 0.000275
680.306580 0.849513 0.000000 0.426799 0.000047
715.806702 0.869616 0.000000 5.648315 0.001183
724.083862 0.851022 0.000000 1.328876 0.000056
740.949768 0.872523 0.000000 0.235064 0.000129
752.378967 0.879030 0.000000 1.092891 0.000051
764.726685 0.894633 0.000000 1.375059 0.000455
773.653320 0.894584 0.000000 3.574996 0.000432
832.005798 0.897007 0.000000 0.447260 0.000169
842.368713 0.901493 0.000000 1.104702 0.000055
853.059021 0.927384 0.000000 1.285288 0.000314
867.834900 0.921393 0.000000 0.575257 0.000134
937.586426 0.987871 0.000000 0.811333 0.000425
954.366394 0.967451 0.000000 3.482502 0.001056
1013.529175 0.997945 0.000000 2.075613 0.000783
1019.964355 0.998487 0.000000 0.889672 0.000141
1026.948486 1.009283 0.000000 0.607698 0.000253
1044.242798 1.007137 0.000000 4.065670 0.001320
1104.095215 1.009752 0.000000 2.140342 0.000589
1119.455688 1.044302 0.000000 2.104249 0.000422
1134.704102 1.023441 0.000000 2.167559 0.000909
1149.987671 1.001820 0.000000 2.462818 0.000977
1173.766479 1.004475 0.000000 1.112619 0.000402
1210.806274 1.035962 0.000000 0.516881 0.000190
1225.412109 1.040085 0.000000 0.654074 0.000152
1233.362183 1.032440 0.000000 1.542798 0.000375
1259.997192 1.038235 0.000000 2.182036 0.001059
1277.823975 0.987572 0.000000 0.314405 0.000427
1313.794189 0.998218 0.000000 1.545141 0.000896
1336.543457 1.018838 0.000000 9.914029 0.002112
1349.784546 0.994553 0.000000 1.335176 0.000384
1386.768799 0.957267 0.000000 0.658393 0.000127
1415.191772 0.936008 0.000000 1.078499 0.000523
1454.270630 0.982429 0.000000 6.454260 0.002230
1490.362671 0.944029 0.000000 2.669693 0.001557
1532.097046 0.896580 0.000000 0.620878 0.000440
1572.105957 0.878837 0.000000 0.242550 0.000100
1578.685547 0.883707 0.000000 1.208503 0.001028
1619.913940 0.886996 0.000000 1.371434 0.001152
1663.185547 0.884287 0.000000 9.617012 0.004170
1749.832153 0.814724 0.000000 6.383895 0.003131
finalresult GLS_NoMatch 0
spectrum 2048
-96.976089 46259.000000
-94.349220 46259.000000
-91.724228 46696.000000
-89.101128 46466.000000
-86.479897 47243.000000
-83.860565 46896.000000
-81.243095 47134.000000
-78.627502 46891.000000
-76.013786 47164.000000
-73.401947 47482.000000
-70.791969 47321.000000
-68.183876 47587.000000
-65.577629 47505.000000
-62.973259 47532.000000
-60.370750 47375.000000
-57.770096 47790.000000
-55.171303 47285.000000
-52.574368 46610.000000
-49.979286 46989.000000
-47.386059 47033.000000
-44.794682 47216.000000
-42.205151 46738.000000
-39.617462 47613.000000
-37.031624 47389.000000
-34.447628 46921.000000
-31.865471 47711.000000
-29.285158 47076.000000
-26.706673 47735.000000
-24.130030 47327.000000
-21.555212 47225.000000
-18.982235 46913.000000
-16.411077 46869.000000
-13.841753 46534.000000
-11.274256 45575.000000
-8.708576 47033.000000
-6.144722 46747.000000
-3.582681 47134.000000
-1.022465 47284.000000
1.535943 46779.000000
4.092529 46007.000000
6.647312 46186.000000
9.200277 46716.000000
11.751442 45937.000000
14.300793 45931.000000
16.848349 45399.000000
19.394093 45737.000000
21.938044 45207.000000
24.480190 43146.000000
27.020540 41222.000000
29.559105 38054.000000
32.095875 33801.000000
34.630840 27898.000000
37.164028 15897.000000
39.695435 10360.000000
42.225048 9659.000000
44.752865 8906.000000
47.278923 7939.000000
49.803192 6861.000000
52.325691 5991.000000
54.846394 5550.000000
57.365341 5920.000000
59.882515 7423.000000
62.397911 9098.000000
64.911530 10689.000000
67.423393 10764.000000
69.933510 8424.000000
72.441833 5527.000000
74.948402 4789.000000
77.453224 3867.000000
79.956291 2920.000000
82.457581 2776.000000
84.957130 2458.000000
87.454926 2566.000000
89.950989 2738.000000
92.445274 3288.000000
94.937820 3563.000000
97.428650 3480.000000
99.917709 3419.000000
102.405022 2709.000000
104.890610 2101.000000
107.374458 1943.000000
109.856560 1904.000000
112.336937 1814.000000
114.815590 1810.000000
117.292519 1534.000000
119.767693 1742.000000
122.241158 1703.000000
124.712891 1876.000000
127.182915 2011.000000
129.651184 2207.000000
132.117783 9020.000000
134.582626 26842.000000
137.045776 34536.000000
139.507187 35357.000000
141.966904 38358.000000
144.424896 41444.000000
146.881195 43521.000000
149.335785 44572.000000
151.788651 44298.000000
154.239838 45335.000000
156.689331 45541.000000
159.137100 46358.000000
161.583160 45972.000000
164.027542 44108.000000
166.470245 46497.000000
168.911255 46175.000000
171.350555 46880.000000
173.788147 45905.000000
176.224106 46631.000000
178.658325 46306.000000
181.090866 46075.000000
183.521759 46544.000000
185.950928 46182.000000
188.378448 46746.000000
190.804291 46955.000000
193.228455 46666.000000
195.650955 46292.000000
198.071762 46061.000000
200.490906 46983.000000
202.908386 47394.000000
205.324173 45815.000000
207.738312 46308.000000
210.150818 47118.000000
212.561646 47393.000000
214.970795 47213.000000
217.378311 46103.000000
219.784119 47345.000000
222.188339 46985.000000
224.590851 46719.000000
226.991745 46590.000000
229.390991 47070.000000
231.788574 46705.000000
234.184494 46241.000000
236.578796 47013.000000
238.971436 47439.000000
241.362457 46656.000000
243.751816 46961.000000
246.139557 47163.000000
248.525650 46582.000000
250.910110 47462.000000
253.292923 45573.000000
255.674164 46866.000000
258.053680 46811.000000
260.431641 46952.000000
262.807922 45944.000000
265.182648 45966.000000
267.555725 45608.000000
269.927155 47414.000000
272.296936 46985.000000
274.665161 47565.000000
277.031738 47203.000000
279.396729 46768.000000
281.760101 47408.000000
284.121826 47234.000000
286.481964 46306.000000
288.840485 47498.000000
291.197418 46965.000000
293.552734 47081.000000
295.906464 47527.000000
298.258545 47552.000000
300.609070 47099.000000
302.958008 47110.000000
305.305298 46693.000000
307.651062 47037.000000
309.995148 47004.000000
312.337708 46022.000000
314.678650 45963.000000
317.017975 46335.000000
319.355743 46554.000000
321.691956 45305.000000
324.026520 47231.000000
326.359528 47034.000000
328.690979 47505.000000
331.020844 46864.000000
333.349121 47091.000000
335.675781 46242.000000
338.000946 47152.000000
340.324493 47203.000000
342.646484 47492.000000
344.966919 45954.000000
347.285736 45709.000000
349.602997 47475.000000
351.918732 47579.000000
354.232880 46544.000000
356.545441 47173.000000
358.856445 47082.000000
361.165924 46458.000000
363.473877 47166.000000
365.780212 47817.000000
368.084961 47070.000000
370.388245 47076.000000
372.689911 47200.000000
374.990082 47103.000000
377.288696 47134.000000
379.585754 47731.000000
381.881256 47464.000000
384.175232 47660.000000
386.467621 48270.000000
388.758514 47888.000000
391.047882 47295.000000
393.335663 47244.000000
395.621918 46980.000000
397.906677 46496.000000
400.189819 47436.000000
402.471527 47010.000000
404.751709 47305.000000
407.030304 46165.000000
409.307373 47049.000000
411.582916 46719.000000
413.856934 46884.000000
416.129517 46989.000000
418.400482 47063.000000
420.669952 46958.000000
422.937927 46290.000000
425.204346 46195.000000
427.469269 47082.000000
429.732727 47162.000000
431.994598 47000.000000
434.255005 47496.000000
436.513855 46737.000000
438.771240 47232.000000
441.027130 47756.000000
443.281525 47623.000000
445.534393 47972.000000
447.785706 46517.000000
450.035614 47359.000000
452.283936 47132.000000
454.530823 47749.000000
456.776245 46917.000000
459.020111 46930.000000
461.262482 46738.000000
463.503357 47764.000000
465.742828 46689.000000
467.980713 47979.000000
470.217163 47552.000000
472.452087 47376.000000
474.685547 46084.000000
476.917572 46734.000000
479.148071 47718.000000
481.377075 46979.000000
483.604614 47080.000000
485.830658 47484.000000
488.055267 46851.000000
490.278412 47564.000000
492.500092 47007.000000
494.720215 46819.000000
496.938934 47764.000000
499.156158 47082.000000
501.372009 47829.000000
503.586243 47269.000000
505.799164 47031.000000
508.010498 47007.000000
510.220398 46544.000000
512.428894 46846.000000
514.635986 46823.000000
516.841492 47006.000000
519.045593 46890.000000
521.248169 47208.000000
523.449341 46875.000000
525.649170 46706.000000
527.847473 46512.000000
530.044250 47991.000000
532.239685 47572.000000
534.433594 47834.000000
536.626160 45844.000000
538.817200 46712.000000
541.006836 47430.000000
543.195068 46511.000000
545.381775 46248.000000
547.567017 46531.000000
549.750977 47176.000000
551.933350 46912.000000
554.114380 47163.000000
556.293884 47253.000000
558.472107 47501.000000
560.648804 47336.000000
562.824097 46892.000000
564.997986 46917.000000
567.170410 47430.000000
569.341431 47321.000000
571.510986 47121.000000
573.679260 48108.000000
575.846008 46999.000000
578.011292 47040.000000
580.175171 47202.000000
582.337769 47625.000000
584.498840 47321.000000
586.658508 47734.000000
588.816833 47559.000000
590.973633 47121.000000
593.129089 46754.000000
595.283142 47547.000000
597.435852 47292.000000
599.587036 46150.000000
601.736877 46530.000000
603.885376 46636.000000
606.032288 47246.000000
608.177979 46847.000000
610.322266 46831.000000
612.465088 46299.000000
614.606445 47111.000000
616.746582 46793.000000
618.885193 45646.000000
621.022522 47569.000000
623.158386 46670.000000
625.292847 46399.000000
627.425842 45989.000000
629.557678 46591.000000
631.688049 46725.000000
633.817017 46451.000000
635.944519 46690.000000
638.070740 47042.000000
640.195435 45959.000000
642.318909 46781.000000
644.441040 46441.000000
646.561707 46417.000000
648.681030 46656.000000
650.798950 47599.000000
652.915527 47563.000000
655.030701 46766.000000
657.144531 46729.000000
659.256897 47389.000000
661.368042 47113.000000
663.477783 47858.000000
665.586060 47172.000000
667.693176 46902.000000
669.798828 46323.000000
671.903015 47294.000000
674.005981 47531.000000
676.107544 46307.000000
678.207764 47859.000000
680.306580 46394.000000
682.404053 46920.000000
684.500244 46238.000000
686.594971 46837.000000
688.688477 46146.000000
690.780640 46512.000000
692.871277 45208.000000
694.960693 46447.000000
697.048828 46695.000000
699.135498 47167.000000
701.220947 46445.000000
703.304871 48016.000000
705.387573 47250.000000
707.468994 47215.000000
709.548950 45557.000000
711.627686 46949.000000
713.704956 47552.000000
715.780945 46567.000000
717.855652 47127.000000
719.929077 46114.000000
722.000977 46818.000000
724.071716 45719.000000
726.141113 47339.000000
728.209106 46627.000000
730.275757 46724.000000
732.341187 46005.000000
734.405273 47335.000000
736.468018 46838.000000
738.529419 46870.000000
740.589539 46457.000000
742.648254 47014.000000
744.705750 46438.000000
746.761963 46564.000000
748.816772 46359.000000
750.870300 46689.000000
752.922424 45543.000000
754.973328 47303.000000
757.023010 46417.000000
759.071228 46738.000000
761.118225 47010.000000
763.163940 46078.000000
765.208252 47706.000000
767.251282 47397.000000
769.293091 46756.500000
771.333557 46116.000000
773.372620 46681.000000
775.410522 46932.000000
777.447083 47069.000000
779.482422 47634.000000
781.516418 47332.000000
783.549011 46154.000000
785.580444 47593.000000
787.610474 41506.000000
789.639221 46976.000000
791.666809 46756.000000
793.693054 46636.000000
795.717896 47162.000000
797.741638 47508.000000
799.763977 46585.000000
801.785095 47111.000000
803.804871 46297.000000
805.823364 48136.000000
807.840637 46376.000000
809.856506 46205.000000
811.871216 47290.000000
813.884583 46438.000000
815.896729 46671.000000
817.907654 46841.000000
819.917236 46309.000000
821.925598 47561.000000
823.932556 47220.000000
825.938293 46845.000000
827.942810 47138.000000
829.946045 47230.000000
831.947998 46393.000000
833.948669 46704.000000
835.948120 46863.000000
837.946228 46475.000000
839.943237 45768.000000
841.938843 46515.000000
843.933289 46789.000000
845.926392 46618.000000
847.918274 45953.000000
849.908813 47184.000000
851.898071 46057.000000
853.886292 46846.000000
855.873108 47044.000000
857.858704 46307.000000
859.843018 45441.000000
861.826233 46446.000000
863.808044 46373.000000
865.788635 46944.000000
867.767944 45039.000000
869.746094 45670.000000
871.722900 46515.000000
873.698425 46527.000000
875.672913 46593.000000
877.645935 46699.000000
879.617920 47265.000000
881.588562 46322.000000
883.558044 46583.000000
885.526184 47170.000000
887.493164 47567.000000
889.458801 46575.000000
891.423279 46853.000000
893.386536 46630.000000
895.348572 46109.000000
897.309326 46786.000000
899.268860 46214.000000
901.227112 45934.000000
903.184265 46288.000000
905.140259 46558.000000
907.094849 45695.000000
909.048218 46033.000000
911.000427 46124.000000
912.951416 45984.000000
914.901123 45263.000000
916.849670 46093.000000
918.796997 46294.000000
920.743042 46188.000000
922.687805 46192.000000
924.631531 46039.000000
926.574097 46367.000000
928.515381 46679.000000
930.455322 45795.000000
932.394165 46516.000000
934.331726 46789.000000
936.268066 46286.000000
938.203247 46447.000000
940.137146 46202.000000
942.069946 46344.000000
944.001526 45482.000000
945.931946 47000.000000
947.861145 45806.000000
949.789001 45272.000000
951.715820 45648.000000
953.641357 46324.000000
955.565613 46957.000000
957.488770 46325.000000
959.410767 45512.000000
961.331482 45075.000000
963.251038 45824.000000
965.169434 46947.000000
967.086792 45857.000000
969.002686 45840.000000
970.917480 46125.000000
972.831055 46260.000000
974.743469 45801.000000
976.654663 45794.000000
978.564697 46765.000000
980.473450 45961.000000
982.381165 46067.000000
984.287659 45789.000000
986.192932 46496.000000
988.097107 45335.000000
990.000061 45867.000000
991.901794 45318.000000
993.802368 45491.000000
995.701782 45495.000000
997.599976 46698.000000
999.497009 45363.000000
1001.392822 45423.000000
1003.287476 44199.000000
1005.181030 46254.000000
1007.073303 44541.000000
1008.964661 45686.000000
1010.854675 46410.000000
1012.743469 45010.000000
1014.631104 45353.000000
1016.517578 44726.000000
1018.402893 44915.000000
1020.287048 45635.000000
1022.169983 45783.000000
1024.051880 45421.000000
1025.932495 46380.000000
1027.812012 45766.000000
1029.690552 45506.000000
1031.567749 46207.000000
1033.443604 45414.000000
1035.318481 45709.000000
1037.192383 45088.000000
1039.064819 44684.000000
1040.936279 44998.000000
1042.806396 46159.000000
1044.675537 46142.000000
1046.543457 45901.000000
1048.410278 44536.000000
1050.276001 44989.000000
1052.140503 45223.000000
1054.003906 45193.000000
1055.865967 45189.000000
1057.727051 45755.000000
1059.587036 45083.000000
1061.445679 45030.000000
1063.303223 45797.000000
1065.159668 44882.000000
1067.015015 45651.000000
1068.869141 45822.000000
1070.722412 45233.000000
1072.574219 45169.000000
1074.425049 45324.000000
1076.274658 45343.000000
1078.123047 45608.000000
1079.970581 43438.000000
1081.816772 45694.000000
1083.661743 45028.000000
1085.505859 45886.000000
1087.348633 45708.000000
1089.190186 44605.000000
1091.031006 45664.000000
1092.870239 45329.000000
1094.708740 44997.000000
1096.545898 45039.000000
1098.381836 44238.000000
1100.216797 44296.000000
1102.050537 45462.000000
1103.883301 45161.000000
1105.714722 44615.000000
1107.545288 43564.000000
1109.374512 44224.000000
1111.202759 44267.000000
1113.029785 43593.000000
1114.855835 45298.000000
1116.680664 44264.000000
1118.504395 43480.000000
1120.326904 44578.000000
1122.148315 44741.000000
1123.968872 44696.000000
1125.787964 44104.000000
1127.606201 43647.000000
1129.423096 43876.000000
1131.239136 44010.000000
1133.053955 44207.000000
1134.867676 45077.000000
1136.680298 44854.000000
1138.491699 44936.000000
1140.302124 44556.000000
1142.111450 43827.000000
1143.919434 43658.000000
1145.726685 44580.000000
1147.532471 44469.000000
1149.337402 45077.000000
1151.141235 45003.000000
1152.943848 44207.000000
1154.745605 44141.000000
1156.545898 44106.000000
1158.345215 44026.000000
1160.143555 44123.000000
1161.940552 44442.000000
1163.736816 43882.000000
1165.531738 43597.000000
1167.325562 43327.000000
1169.118530 41734.000000
1170.910156 43627.000000
1172.700806 42824.000000
1174.490479 43286.000000
1176.278687 43349.000000
1178.066040 41663.000000
1179.852295 42409.000000
1181.637451 43273.000000
1183.421509 42989.000000
1185.204468 41225.000000
1186.986450 42926.000000
1188.767212 42889.000000
1190.546997 42317.000000
1192.325684 41603.000000
1194.103394 41882.000000
1195.879883 41204.000000
1197.655273 41586.000000
1199.429565 41425.000000
1201.202759 41226.000000
1202.975098 41160.000000
1204.746094 40948.000000
1206.516235 41888.000000
1208.285156 41410.000000
1210.052979 41283.000000
1211.819946 41751.000000
1213.585571 41548.000000
1215.350220 40492.000000
1217.113770 41015.000000
1218.876221 41526.000000
1220.637817 40705.000000
1222.398193 41492.000000
1224.157471 41161.000000
1225.915894 41406.000000
1227.673096 40309.000000
1229.429199 41102.000000
1231.184204 41964.000000
1232.938354 41530.000000
1234.691162 41729.000000
1236.442993 41569.000000
1238.193970 41640.000000
1239.943604 42643.000000
1241.692383 40525.000000
1243.439819 41041.000000
1245.186523 40857.000000
1246.932007 40819.000000
1248.676636 40703.000000
1250.419922 40205.000000
1252.162231 40223.000000
1253.903442 41310.000000
1255.643799 41434.000000
1257.383057 40707.000000
1259.121094 39950.000000
1260.858276 39425.000000
1262.594238 40471.000000
1264.329224 40225.000000
1266.063232 39497.000000
1267.796265 40864.000000
1269.528076 40597.000000
1271.258911 40342.000000
1272.988525 39514.000000
1274.717285 40707.000000
1276.444946 40828.000000
1278.171509 40787.000000
1279.897217 40804.000000
1281.621582 39864.000000
1283.345093 40962.000000
1285.067627 39167.000000
1286.789185 39437.000000
1288.509521 39525.000000
1290.228882 39104.000000
1291.947144 38400.000000
1293.664429 39034.000000
1295.380737 39659.000000
1297.095825 38850.000000
1298.809937 38988.000000
1300.523071 39292.000000
1302.235352 38496.000000
1303.946411 36555.000000
1305.656494 39563.000000
1307.365479 38431.000000
1309.073242 38116.000000
1310.780396 37681.000000
1312.486084 38874.000000
1314.191040 37786.000000
1315.895020 38579.000000
1317.597778 38829.000000
1319.299561 38250.000000
1321.000488 38672.000000
1322.700073 34623.000000
1324.398804 36702.500000
1326.096802 24651.000000
1327.793457 36076.000000
1329.489014 35323.000000
1331.183716 35533.000000
1332.877197 36432.000000
1334.569824 36801.000000
1336.261597 34821.000000
1337.952026 36071.000000
1339.641724 35643.000000
1341.330322 36171.000000
1343.017822 34715.000000
1344.704346 36705.000000
1346.389771 35582.000000
1348.074219 36550.000000
1349.757813 35338.000000
1351.440186 36414.000000
1353.121582 36825.000000
1354.802124 36332.000000
1356.481445 36276.000000
1358.160156 36992.000000
1359.837524 36481.000000
1361.513794 37154.000000
1363.189087 37200.000000
1364.863647 36248.000000
1366.536987 36372.000000
1368.209351 35906.000000
1369.880737 37396.000000
1371.551147 35659.000000
1373.220459 36219.000000
1374.888794 36548.000000
1376.556274 36288.000000
1378.222656 35728.000000
1379.888062 35885.000000
1381.552490 35901.000000
1383.215698 35761.000000
1384.878296 35924.000000
1386.539551 35188.000000
1388.199951 35025.000000
1389.859253 35054.000000
1391.517578 34938.000000
1393.175171 34611.000000
1394.831543 34819.000000
1396.487061 34246.000000
1398.141357 34735.000000
1399.794800 35073.000000
1401.447144 34767.000000
1403.098755 34273.000000
1404.749146 33375.000000
1406.398438 33837.000000
1408.046997 32209.000000
1409.694458 31645.000000
1411.340942 32931.000000
1412.986572 32534.000000
1414.631226 32790.000000
1416.274658 31645.000000
1417.917236 31558.000000
1419.558716 31590.000000
1421.199341 31748.000000
1422.838989 31613.000000
1424.477539 31977.000000
1426.115234 31216.000000
1427.751831 31349.000000
1429.387451 31504.000000
1431.022339 31130.000000
1432.656128 31559.000000
1434.288818 31331.000000
1435.920532 31827.000000
1437.551392 31405.000000
1439.181152 31640.000000
1440.809814 30114.000000
1442.437866 31622.000000
1444.064819 31421.000000
1445.690552 31573.000000
1447.315674 31719.000000
1448.939697 31576.000000
1450.562744 32232.000000
1452.184814 32470.000000
1453.805786 31518.000000
1455.425781 32594.000000
1457.045044 32241.000000
1458.662964 33868.000000
1460.280273 33654.500000
1461.896606 25523.500000
1463.511719 30331.000000
1465.125977 31223.000000
1466.739380 32355.000000
1468.351685 32020.000000
1469.963135 31431.000000
1471.573730 31319.000000
1473.183105 31633.000000
1474.791504 31486.000000
1476.399048 31296.000000
1478.005615 30538.000000
1479.611450 31622.000000
1481.216064 30426.000000
1482.819824 30884.000000
1484.422363 29345.000000
1486.024292 30291.000000
1487.625000 30265.000000
1489.224976 30241.000000
1490.823853 29815.000000
1492.421875 29833.000000
1494.018799 29839.000000
1495.614868 30433.000000
1497.209961 30862.000000
1498.804077 31393.000000
1500.397461 30279.000000
1501.989746 31085.000000
1503.580811 30390.000000
1505.171387 29716.000000
1506.760620 29746.000000
1508.349243 29894.000000
1509.936768 29355.000000
1511.523193 28985.000000
1513.108887 29601.000000
1514.693481 28987.000000
1516.277222 29061.000000
1517.859863 29141.000000
1519.441772 28563.000000
1521.022583 28463.000000
1522.602661 28771.000000
1524.181519 28342.000000
1525.759521 27998.000000
1527.336792 27862.000000
1528.912842 28287.000000
1530.488159 28003.000000
1532.062378 27611.000000
1533.635864 28316.000000
1535.208130 27856.000000
1536.779663 27407.000000
1538.350220 27397.000000
1539.919922 27317.000000
1541.488403 27908.000000
1543.056152 26847.000000
1544.623047 27597.000000
1546.188721 26546.000000
1547.753662 27155.000000
1549.317505 27892.000000
1550.880737 25745.000000
1552.442627 26610.000000
1554.003906 26733.000000
1555.564087 26950.000000
1557.123535 26887.000000
1558.681885 26726.000000
1560.239502 26503.000000
1561.796021 25862.000000
1563.351318 26796.000000
1564.906006 26275.000000
1566.459961 26888.000000
1568.012939 26351.000000
1569.564575 26932.000000
1571.115479 26753.000000
1572.665649 26459.000000
1574.214844 26312.000000
1575.762695 26738.000000
1577.310059 26920.000000
1578.856445 26787.000000
1580.401978 27534.000000
1581.946533 26217.000000
1583.489868 26560.000000
1585.032593 26328.000000
1586.574463 26398.000000
1588.115234 25904.000000
1589.655029 26713.000000
1591.194092 25804.000000
1592.732056 26337.000000
1594.269531 26161.000000
1595.805664 26435.000000
1597.340698 25723.000000
1598.875244 25784.000000
1600.408813 25915.000000
1601.941528 25859.000000
1603.472656 25849.000000
1605.003540 25873.000000
1606.533569 26088.000000
1608.062378 25661.000000
1609.590088 25690.000000
1611.117188 25939.000000
1612.643555 26155.000000
1614.168945 25760.000000
1615.693481 26137.000000
1617.216675 26444.000000
1618.739136 27026.000000
1620.260864 26694.000000
1621.781738 26836.000000
1623.301147 26368.000000
1624.820068 25900.000000
1626.338257 25388.000000
1627.855591 25391.000000
1629.371826 25056.000000
1630.886719 24583.000000
1632.401123 24480.000000
1633.914795 25049.000000
1635.427368 24338.000000
1636.938721 24692.000000
1638.449707 24186.000000
1639.959595 24431.000000
1641.468628 24277.000000
1642.976318 24395.000000
1644.483643 24239.000000
1645.990112 23684.000000
1647.495605 24195.000000
1649.000244 23650.000000
1650.503418 23975.000000
1652.005981 23581.000000
1653.508179 23685.000000
1655.009033 23595.000000
1656.508789 22851.000000
1658.007690 23241.000000
1659.506226 23085.000000
1661.003540 23181.000000
1662.500122 23127.000000
1663.995117 22951.000000
1665.489868 23110.000000
1666.983765 25237.000000
1668.476685 26754.000000
1669.968262 13846.000000
1671.459351 22218.000000
1672.949829 22104.000000
1674.439209 22078.000000
1675.927124 21812.000000
1677.414795 21959.000000
1678.901489 22421.000000
1680.387329 22321.000000
1681.872314 21884.000000
1683.355835 21633.000000
1684.839111 21410.000000
1686.321533 21614.000000
1687.802856 21638.000000
1689.282715 21335.000000
1690.762329 21441.000000
1692.241211 21349.000000
1693.719116 21428.000000
1695.196045 21320.000000
1696.671753 21418.000000
1698.147095 21245.000000
1699.621216 21043.000000
1701.094727 21311.000000
1702.566772 21455.000000
1704.038574 21192.000000
1705.509399 21339.000000
1706.979370 21003.000000
1708.447998 21354.000000
1709.916138 21399.000000
1711.383545 21275.000000
1712.849854 21418.000000
1714.315552 21330.000000
1715.779541 21228.000000
1717.243408 21341.000000
1718.706421 21122.000000
1720.168457 21287.000000
1721.629272 21299.000000
1723.089478 21448.000000
1724.548950 21373.000000
1726.007568 21312.000000
1727.465210 21177.000000
1728.921509 21222.000000
1730.377563 21292.000000
1731.832642 21037.000000
1733.286743 21080.000000
1734.739624 20865.000000
1736.192261 21020.000000
1737.643799 20771.000000
1739.094604 20726.000000
1740.544434 20828.000000
1741.992920 20738.000000
1743.441040 20205.000000
1744.888306 20494.000000
1746.334839 20271.000000
1747.779785 20268.000000
1749.224487 20332.000000
1750.668335 20263.000000
1752.111328 20516.000000
1753.552856 21039.000000
1754.994141 24371.000000
1756.434570 13695.000000
1757.874023 19818.000000
1759.312500 19815.000000
1760.750000 19698.000000
1762.187012 19322.000000
1763.623047 19470.000000
1765.058228 19432.000000
1766.491943 19554.000000
1767.925537 19871.000000
1769.358154 19708.000000
1770.789917 19677.000000
1772.220825 19785.000000
1773.650513 19537.000000
1775.079468 19031.000000
1776.507935 18865.000000
1777.935425 18137.000000
1779.361572 17474.000000
1780.787476 18499.000000
1782.212280 18370.000000
1783.636475 18586.000000
1785.059204 18329.000000
1786.481445 18269.000000
1787.902954 18314.000000
1789.323730 18212.000000
1790.743530 18020.000000
1792.161987 17963.000000
1793.579956 17798.000000
1794.997314 17869.000000
1796.413818 18025.000000
1797.828857 17852.000000
1799.243530 17715.000000
1800.657593 17603.000000
1802.070435 17670.000000
1803.482666 17586.000000
1804.893555 17601.000000
1806.303955 17407.000000
1807.713623 17525.000000
1809.122314 17520.000000
1810.529907 17720.000000
1811.937012 17574.000000
1813.343262 17609.000000
1814.748535 17662.000000
1816.152710 17643.000000
1817.556519 17579.000000
1818.959351 17696.000000
1820.361328 17546.000000
1821.762695 17572.000000
1823.162598 17474.000000
1824.561890 17554.000000
1825.960693 17472.000000
1827.358643 17277.000000
1828.755249 17672.000000
1830.151245 17449.000000
1831.546509 17480.000000
1832.941162 17256.000000
1834.334839 17446.000000
1835.727173 17195.000000
1837.119019 17114.000000
1838.510254 17216.000000
1839.900513 17292.000000
1841.289551 17189.000000
1842.678223 17107.000000
1844.065918 17120.000000
1845.452881 17001.000000
1846.838501 16855.000000
1848.223877 16999.000000
1849.608398 16775.000000
1850.992188 16860.000000
1852.374878 16778.000000
1853.756348 16681.000000
1855.137329 16526.000000
1856.517822 16254.000000
1857.897339 16367.000000
1859.275391 16252.000000
1860.653320 16298.000000
1862.030273 16224.000000
1863.406494 16048.000000
1864.781860 15999.000000
1866.155762 15856.000000
1867.529541 15860.000000
1868.902466 15569.000000
1870.274292 15661.000000
1871.645142 15570.000000
1873.015625 15571.000000
1874.385010 15591.000000
1875.753906 15475.000000
1877.121216 15402.000000
1878.488403 15249.000000
1879.854614 15150.000000
1881.220093 15127.000000
1882.584839 15162.000000
1883.947998 15165.000000
1885.311035 15155.000000
1886.673218 15188.000000
1888.034546 14874.000000
1889.394531 14837.000000
1890.754150 14914.000000
1892.113159 14959.000000
1893.471191 14671.000000
1894.828369 14704.000000
1896.184326 14585.000000
1897.540039 14531.000000
1898.894775 14713.000000
1900.248657 14943.000000
1901.601440 14627.000000
1902.953735 14622.000000
1904.305298 14670.000000
1905.656006 14741.000000
1907.005493 14739.000000
1908.354492 14621.000000
1909.702637 14724.000000
1911.050171 14543.000000
1912.396973 14394.000000
1913.742188 14666.000000
1915.087158 14494.000000
1916.431396 14696.000000
1917.774780 14761.000000
1919.116821 14543.000000
1920.458618 14616.000000
1921.799561 14433.000000
1923.139771 14668.000000
1924.479004 14618.000000
1925.817261 14706.000000
1927.154907 14621.000000
1928.491821 14618.000000
1929.827881 14443.000000
1931.162720 14648.000000
1932.497192 14499.000000
1933.830933 14382.000000
1935.163818 14317.000000
1936.495239 14135.000000
1937.826782 14056.000000
1939.156982 13942.000000
1940.486694 14140.000000
1941.815552 14115.000000
1943.143188 14122.000000
1944.470337 14055.000000
1945.796753 14059.000000
1947.122437 13924.000000
1948.446777 14115.000000
1949.770874 13889.000000
1951.094116 13779.000000
1952.416626 13758.000000
1953.738037 13813.000000
1955.058472 13778.000000
1956.378296 13698.000000
1957.697754 13737.000000
1959.016235 13512.000000
1960.333374 13551.000000
1961.650146 13347.000000
1962.966187 13275.000000
1964.281494 13289.000000
1965.595337 13448.000000
1966.908936 13311.000000
1968.221802 13182.000000
1969.533813 13243.000000
1970.845215 13169.000000
1972.155273 13116.000000
1973.464844 12835.000000
1974.773682 12740.000000
1976.081909 12702.000000
1977.388794 12654.000000
1978.695068 12665.000000
1980.000977 12678.000000
1981.305664 12763.000000
1982.609863 12656.000000
1983.912842 12743.000000
1985.215454 12515.000000
1986.517090 12641.000000
1987.818115 12345.000000
1989.117554 12117.000000
1990.417114 12286.000000
1991.715576 12069.000000
1993.013550 12230.000000
1994.309937 12131.000000
1995.606323 12066.000000
1996.901733 12011.000000
1998.196411 11683.000000
1999.490234 11741.000000
2000.782837 11755.000000
2002.074951 11704.000000
2003.366577 11538.000000
2004.657471 11643.000000
2005.946777 11727.000000
2007.235840 11570.000000
2008.524170 11649.000000
2009.811768 11639.000000
2011.098511 11691.000000
2012.384155 11469.000000
2013.669434 11612.000000
2014.953735 11547.000000
2016.237427 11490.000000
2017.519775 11327.000000
2018.801758 11358.000000
2020.083252 11371.000000
2021.363770 11426.000000
2022.643555 11284.000000
2023.922241 11230.000000
2025.200195 11196.000000
2026.477661 11169.000000
2027.754517 11316.000000
2029.029663 11263.000000
2030.304932 11364.000000
2031.579224 11389.000000
2032.852539 11382.000000
2034.125000 11404.000000
2035.397095 11373.000000
2036.668091 11279.000000
2037.938843 11213.000000
2039.208252 11351.000000
2040.476563 11348.000000
2041.744873 11310.000000
2043.012207 11202.000000
2044.278809 11199.000000
2045.544189 11438.000000
2046.808960 11199.000000
2048.073486 11133.000000
2049.336670 11137.000000
2050.599609 11145.000000
2051.860596 11016.000000
2053.122070 10899.000000
2054.382324 10907.000000
2055.641846 10686.000000
2056.900635 10767.000000
2058.158447 10744.000000
2059.415771 10802.000000
2060.672363 10666.000000
2061.927490 10668.000000
2063.182617 10745.000000
2064.436768 10672.000000
2065.690186 10500.000000
2066.942871 10508.000000
2068.194336 10603.000000
2069.445557 10599.000000
2070.696045 10579.000000
2071.945801 10725.000000
2073.194092 10497.000000
2074.442383 10375.000000
2075.689697 10310.000000
2076.936279 10155.000000
2078.182129 10122.000000
2079.426758 10187.000000
2080.670898 10314.000000
2081.914551 9997.000000
2083.157227 10289.000000
2084.398682 9941.000000
2085.639893 10038.000000
2086.880615 10049.000000
2088.120361 9998.000000
2089.358887 9922.000000
2090.596924 9965.000000
2091.834229 9760.000000
2093.071289 9806.000000
2094.306885 9860.000000
2095.541748 9936.000000
2096.776367 9758.000000
2098.010010 9892.000000
2099.242676 9581.000000
2100.474609 9509.000000
2101.706055 9483.000000
2102.936523 9568.000000
2104.166260 9492.000000
2105.395752 9494.000000
2106.623291 9422.000000
2107.851074 9343.000000
2109.078125 9188.000000
2110.304199 9221.000000
2111.528809 9313.000000
2112.753662 9097.000000
2113.977295 9190.000000
2115.200439 9140.000000
2116.422363 9219.000000
2117.644043 9209.000000
2118.864746 9170.000000
2120.084717 9303.000000
2121.304199 9220.000000
2122.522217 9238.000000
2123.740234 9303.000000
2124.957275 9208.000000
2126.173828 9190.000000
2127.388672 9169.000000
2128.603760 9176.000000
2129.817871 9251.000000
2131.031250 9044.000000
2132.243896 8859.000000
2133.455078 8999.000000
2134.666504 9212.000000
2135.876709 9015.000000
2137.086426 8973.000000
2138.294678 9007.000000
2139.502930 9011.000000
2140.710449 8900.000000
2141.916748 8654.000000
2143.122314 8910.000000
2144.327637 8858.000000
2145.531982 8946.000000
2146.735596 8837.000000
2147.938721 8885.000000
2149.140381 8840.000000
2150.341797 8832.000000
2151.542480 8813.000000
2152.742432 8718.000000
2153.941162 8769.000000
2155.139648 8733.000000
2156.337646 8744.000000
2157.534668 8514.000000
2158.730957 8657.000000
2159.926025 8489.000000
2161.120850 8422.000000
2162.314941 8256.000000
2163.508057 8400.000000
2164.700195 8246.000000
2165.892090 8257.000000
2167.083252 8279.000000
2168.273438 8115.000000
2169.462891 8008.000000
2170.651855 7923.000000
2171.839844 7857.000000
2173.027588 7714.000000
2174.213867 7743.000000
2175.399414 7699.000000
2176.584717 7741.000000
2177.769531 7782.000000
2178.953125 7727.000000
2180.135986 7591.000000
2181.317871 7555.000000
2182.499512 7547.000000
2183.680664 7564.000000
2184.860596 7478.000000
2186.039551 7573.000000
2187.218018 7366.000000
2188.396240 7563.000000
2189.573242 7576.000000
2190.749268 7432.000000
2191.925049 7577.000000
2193.100342 7364.000000
2194.274170 7606.000000
2195.447510 7508.000000
2196.620605 7593.000000
2197.792480 7541.000000
2198.963867 7676.000000
2200.134766 7504.000000
2201.303955 7576.000000
2202.473145 7594.000000
2203.641846 7449.000000
2204.809570 7527.000000
2205.976318 7515.000000
2207.142334 7487.000000
2208.307861 7352.000000
2209.473145 7502.000000
2210.636963 7426.000000
2211.800293 7383.000000
2212.962402 7386.000000
2214.124756 7352.000000
2215.285889 7336.000000
2216.446045 7300.000000
2217.605713 7201.000000
2218.765137 7268.000000
2219.923340 7100.000000
2221.080566 7200.000000
2222.237549 7180.000000
2223.393799 7150.000000
2224.549316 7120.000000
2225.704102 7105.000000
2226.857910 7093.000000
2228.010742 7064.000000
2229.164063 7027.000000
2230.315430 6925.000000
2231.466553 6938.000000
2232.616943 6890.000000
2233.766846 6840.000000
2234.915771 6939.000000
2236.064209 6905.000000
2237.211182 6812.000000
2238.358398 6675.000000
2239.504395 6837.000000
2240.650146 6729.000000
2241.794189 6597.000000
2242.938477 6587.000000
2244.081787 6523.000000
2245.224365 6525.000000
2246.365967 6494.000000
2247.507324 6409.000000
2248.647705 6343.000000
2249.787354 6402.000000
2250.926514 6193.000000
2252.064453 6239.000000
2253.202393 6270.000000
2254.339355 6394.000000
2255.475586 6148.000000
2256.610840 6150.000000
2257.745361 6227.000000
2258.879639 6131.000000
2260.013428 6476.000000
2261.145752 6325.000000
2262.277588 6205.000000
2263.408936 6019.000000
2264.539307 5966.000000
2265.669434 5843.000000
2266.798340 5986.000000
2267.926758 5881.000000
2269.054688 5974.000000
2270.181641 5737.000000
2271.307861 5902.000000
2272.433105 5825.000000
2273.558350 6014.000000
2274.682861 5900.000000
2275.806152 5866.000000
2276.928711 5855.000000
2278.050781 5762.000000
2279.172363 5833.000000
2280.293213 5788.000000
2281.412842 5760.000000
2282.531982 5861.000000
2283.650879 5608.000000
2284.769043 5594.000000
2285.886230 5640.000000
2287.002441 5717.000000
2288.118408 5634.000000
2289.233643 5655.000000
2290.348145 5628.000000
2291.461426 5639.000000
2292.574707 5643.000000
2293.687256 5711.000000
2294.799072 5623.000000
2295.910156 5672.000000
2297.020020 5649.000000
2298.129395 5754.000000
2299.238525 5702.000000
2300.346680 5666.000000
2301.453857 5740.000000
2302.560791 5758.000000
2303.666992 5716.000000
2304.772705 5697.000000
2305.876953 5660.000000
2306.980957 5717.000000
2308.084473 5661.000000
2309.187500 5480.000000
2310.289307 5606.000000
2311.390381 5595.000000
2312.490967 5662.000000
2313.591064 5562.000000
2314.690430 5508.000000
2315.788330 5372.000000
2316.886719 5361.000000
2317.983643 5436.000000
2319.080322 5561.000000
2320.176514 5356.000000
2321.270996 5465.000000
2322.365479 5290.000000
2323.459229 5328.000000
2324.552734 5366.000000
2325.644531 5332.000000
2326.736328 5306.000000
2327.827393 5376.000000
2328.917725 5364.000000
2330.007080 5416.000000
2331.096436 5336.000000
2332.184570 5279.000000
2333.272217 5256.000000
2334.359619 5233.000000
2335.445313 5212.000000
2336.530762 4956.000000
2337.615967 4981.000000
2338.700195 5049.000000
2339.783447 4930.000000
2340.866455 5051.000000
2341.948486 5375.000000
2343.030273 4934.000000
2344.111328 4946.000000
2345.191162 4837.000000
2346.270508 4861.000000
2347.349365 4790.000000
2348.427734 4896.000000
2349.504639 4719.000000
2350.581299 4710.000000
2351.657715 4654.000000
2352.733154 4699.000000
2353.807617 4696.000000
2354.881836 4642.000000
2355.955322 4637.000000
2357.028320 4572.000000
2358.100098 4626.000000
2359.171631 4584.000000
2360.242188 4536.000000
2361.312500 4605.000000
2362.381836 4472.000000
2363.450195 4456.000000
2364.518311 4444.000000
2365.585693 4413.000000
2366.652588 4458.000000
2367.718750 4435.000000
2368.783691 4372.000000
2369.848633 4340.000000
2370.912842 4429.000000
2371.976318 4407.000000
2373.038574 4349.000000
2374.100830 4369.000000
2375.162109 4295.000000
2376.223145 4234.000000
2377.282959 4357.000000
2378.342041 4315.000000
2379.401123 4329.000000
2380.459229 4197.000000
2381.516602 4263.000000
2382.572998 4286.000000
2383.629150 4141.000000
2384.684814 4139.000000
2385.739746 4138.000000
2386.793213 4163.000000
2387.846924 4276.000000
2388.899658 4254.000000
2389.951904 4249.000000
2391.003418 4168.000000
2392.053955 4311.000000
2393.104248 4213.000000
2394.153564 4217.000000
2395.202881 4241.000000
2396.250732 4169.000000
2397.298096 4174.000000
2398.345215 4174.000000
2399.391357 4162.000000
2400.436768 4097.000000
2401.481445 4125.000000
2402.526123 4116.000000
2403.569336 4100.000000
2404.612549 4124.000000
2405.654297 4135.000000
2406.696289 4085.000000
2407.737549 4097.000000
2408.777832 4147.000000
2409.817383 4144.000000
2410.855957 4146.000000
2411.894775 4065.000000
2412.932373 4107.000000
2413.969727 4130.000000
2415.005859 4079.000000
2416.041748 4020.000000
2417.076904 4078.000000
2418.111572 4042.000000
2419.144775 4171.000000
2420.178223 3963.000000
2421.210693 4017.000000
2422.242920 3920.000000
2423.273682 4039.000000
2424.304443 4007.000000
2425.334717 3966.000000
2426.363770 3890.000000
2427.392822 3860.000000
2428.420166 3874.000000
2429.447998 3930.000000
2430.474609 3792.000000
2431.500977 3791.000000
2432.525879 3715.000000
2433.551025 3781.000000
2434.575195 3772.000000
2435.599121 3731.000000
2436.621826 3719.000000
2437.643799 3729.000000
2438.665527 3738.000000
2439.686523 3823.000000
2440.707031 3614.000000
2441.726318 3578.000000
2442.745605 3521.000000
2443.763916 3460.000000
2444.781982 3589.000000
2445.798584 3476.000000
2446.815186 3639.000000
2447.831055 3479.000000
2448.846924 3501.000000
2449.861328 3542.000000
2450.875000 3525.000000
2451.888184 3559.000000
2452.901123 3494.000000
2453.913330 3453.000000
2454.924561 3429.000000
2455.935547 3466.000000
2456.945801 3462.000000
2457.955566 3460.000000
2458.964355 3355.000000
2459.972412 3342.000000
2460.980469 3361.000000
2461.987305 3284.000000
2462.993896 3299.000000
2463.999268 3265.000000
2465.004395 3239.000000
2466.009277 3209.000000
2467.012939 3139.000000
2468.016357 3386.000000
2469.018799 3239.000000
2470.020996 3278.000000
2471.022705 3322.000000
2472.023438 3226.000000
2473.023193 3257.000000
2474.022949 3197.000000
2475.021729 3252.000000
2476.020020 3196.000000
2477.017334 3216.000000
2478.014404 3250.000000
2479.011475 3197.000000
2480.007080 3259.000000
2481.002686 3188.000000
2481.996582 3163.000000
2482.990479 3185.000000
2483.983887 3135.000000
2484.976807 3169.000000
2485.968750 3164.000000
2486.959961 3107.000000
2487.950928 3102.000000
2488.941406 3133.000000
2489.930908 3190.000000
2490.919678 3155.000000
2491.908447 3178.000000
2492.896240 3120.000000
2493.882813 3230.000000
2494.869385 3088.000000
2495.855469 3150.000000
2496.840820 3156.000000
2497.825195 3141.000000
2498.809326 3195.000000
2499.793457 3024.000000
2500.776123 3045.000000
2501.758301 3193.000000
2502.739990 2966.000000
2503.720947 2978.000000
2504.701416 3076.000000
2505.681641 3134.000000
2506.660400 3107.000000
2507.638916 3187.000000
2508.616943 3037.000000
2509.594482 2904.000000
2510.571045 3043.000000
2511.547363 3018.000000
2512.522949 2898.000000
2513.498047 2962.000000
2514.472656 3000.000000
2515.446045 2967.000000
2516.419189 2928.000000
2517.392090 2948.000000
2518.364014 2991.000000
2519.335205 2812.000000
2520.305908 2950.000000
2521.276367 2927.000000
2522.246094 2881.000000
2523.214844 2885.000000
2524.182861 2803.000000
2525.150879 2892.000000
2526.117920 2798.000000
2527.084717 2833.000000
2528.050293 2774.000000
2529.015869 2934.000000
2529.980713 2751.000000
2530.945068 2767.000000
2531.908203 2753.000000
2532.871582 2724.000000
2533.833984 2781.000000
2534.796143 2702.000000
2535.757080 2746.000000
2536.717285 2693.000000
2537.677734 2828.000000
2538.637207 2698.000000
2539.595947 2624.000000
2540.553711 2720.000000
2541.511719 2654.000000
2542.468994 2701.000000
2543.425293 2612.000000
2544.381348 2612.000000
2545.336182 2620.000000
2546.291260 2497.000000
2547.245605 2573.000000
2548.199219 2469.000000
2549.151855 2553.000000
2550.104248 2621.000000
2551.056152 2462.000000
2552.007324 2541.000000
2552.957764 2483.000000
2553.907715 2567.000000
2554.857422 2586.000000
2555.806396 2600.000000
2556.754883 2541.000000
2557.702148 2611.000000
2558.649414 2422.000000
2559.595947 2449.000000
2560.541992 2388.000000
2561.487061 2310.000000
2562.431885 2375.000000
2563.376221 2420.000000
2564.320068 2434.000000
2565.263428 2405.000000
2566.205322 2457.000000
2567.147461 2454.000000
2568.088867 2361.000000
2569.029541 2383.000000
2569.969482 2365.000000
2570.909424 2354.000000
2571.848389 2444.000000
2572.787109 2298.000000
2573.724854 2465.000000
2574.662354 2402.000000
2575.599121 2309.000000
2576.535156 2424.000000
2577.470703 2421.000000
2578.405518 2371.000000
2579.340332 2432.000000
2580.274170 2338.000000
2581.207520 2224.000000
2582.140137 2354.000000
2583.072510 2289.000000
2584.004150 2432.000000
2584.935303 2332.000000
2585.865967 2328.000000
2586.795410 2416.000000
2587.724854 2270.000000
2588.653809 2327.000000
2589.582520 2215.000000
2590.509521 2232.000000
2591.436768 2412.000000
2592.363525 2344.000000
2593.289551 2373.000000
2594.215332 2310.000000
2595.139893 2268.000000
2596.064209 2193.000000
2596.988037 2267.000000
2597.911377 2286.000000
2598.833740 2200.000000
2599.755859 2317.000000
2600.677490 2269.000000
2601.598389 2319.000000
2602.518555 2137.000000
2603.438477 2281.000000
2604.357910 2231.000000
2605.277100 2289.000000
2606.195313 2214.000000
2607.112305 2273.000000
2608.029541 2189.000000
2608.946533 2294.000000
2609.862549 2127.000000
2610.777344 2153.000000
2611.692627 2181.000000
2612.607178 2170.000000
2613.520752 2173.000000
2614.434326 2167.000000
2615.346680 2058.000000
2616.259033 2110.000000
2617.170410 2065.000000
2618.081543 2130.000000
2618.991943 2153.000000
2619.902100 2128.000000
2620.811523 1992.000000
2621.720459 2101.000000
2622.628418 1979.000000
2623.536621 2127.000000
2624.443848 2168.000000
2625.350586 2088.000000
2626.256592 2018.000000
2627.162354 2033.000000
2628.067383 2115.000000
2628.972168 2072.000000
2629.876221 1988.000000
2630.779297 2068.000000
2631.682373 2038.000000
2632.584473 2015.000000
2633.486572 2007.000000
2634.388428 2005.000000
2635.288574 1967.000000
2636.188965 2060.000000
2637.088623 1882.000000
2637.988037 1943.000000
2638.885986 1970.000000
2639.784424 1939.000000
2640.682373 1945.000000
2641.579590 1971.000000
2642.475586 1957.000000
2643.371582 1835.000000
2644.267334 1862.000000
2645.162354 1890.000000
2646.057129 1882.000000
2646.950439 1842.000000
2647.843750 1882.000000
2648.736816 1864.000000
2649.629639 1849.000000
2650.520752 1775.000000
2651.412109 1872.000000
2652.302979 1805.000000
2653.193115 1841.000000
2654.083008 1754.000000
2654.971680 1754.000000
2655.860596 1800.000000
2656.749023 1829.000000
2657.636475 1797.000000
2658.522949 1796.000000
2659.409912 1811.000000
2660.296143 1832.000000
2661.181885 1794.000000
2662.066406 1850.000000
2662.950928 1743.000000
2663.835205 1837.000000
2664.718750 1829.000000
2665.601807 1732.000000
2666.484131 1803.000000
2667.365967 1843.000000
2668.247070 1674.000000
2669.128418 1795.000000
2670.008301 1787.000000
2670.888428 1794.000000
2671.767822 1722.000000
2672.647217 1764.000000
2673.525879 1714.000000
2674.402832 1735.000000
2675.280518 1653.000000
2676.157471 1784.000000
2677.033691 1769.000000
2677.909424 1723.000000
2678.784424 1687.000000
2679.659668 1746.000000
2680.533936 1651.000000
2681.407715 1622.000000
2682.280762 1666.000000
2683.153564 1717.000000
2684.026123 1652.000000
2684.897949 1665.000000
2685.769043 1644.000000
2686.639893 1761.000000
2687.510254 1605.000000
2688.380371 1783.000000
2689.248779 1702.000000
2690.117920 1557.000000
2690.986328 1606.000000
2691.854492 1649.000000
2692.721924 1567.000000
2693.588135 1636.000000
2694.454834 1657.000000
2695.320557 1605.000000
2696.186279 1553.000000
2697.050537 1626.000000
2697.915527 1619.000000
2698.779053 1562.000000
2699.642822 1587.000000
2700.505127 1574.000000
2701.367920 1432.000000
2702.229736 1618.000000
2703.091064 1592.000000
2703.952393 1574.000000
2704.812500 1525.000000
2705.672607 1508.000000
2706.532227 1623.000000
2707.391602 1585.000000
2708.249268 1469.000000
2709.107178 1546.000000
2709.965576 1520.000000
2710.822754 1487.000000
2711.679199 1499.000000
2712.535156 1370.000000
2713.391113 1468.000000
2714.246338 1440.000000
2715.100830 1586.000000
2715.954834 1491.000000
2716.808838 1445.000000
2717.661865 1457.000000
2718.515137 1471.000000
2719.366699 1408.000000
2720.218750 1485.000000
2721.070557 1458.000000
2721.921143 1450.000000
2722.771729 1385.000000
2723.621826 1440.000000
2724.471191 1442.000000
2725.320557 1451.000000
2726.168701 1389.000000
2727.016357 1414.000000
2727.864502 1352.000000
2728.711426 1436.000000
2729.558838 1443.000000
2730.404785 1430.000000
2731.250000 1320.000000
2732.095703 1336.000000
2732.940430 1385.000000
2733.785156 1402.000000
2734.628662 1428.000000
2735.472412 1297.000000
2736.315430 1344.000000
2737.157959 1289.000000
2737.999512 1440.000000
2738.841553 1329.000000
2739.682617 1626.000000
2740.523438 1344.000000
2741.364014 1370.000000
2742.203369 1276.000000
2743.042725 1314.000000
2743.882080 1365.000000
2744.720215 1376.000000
2745.557861 1276.000000
2746.395508 1324.000000
2747.232666 1395.000000
2748.069580 1326.000000
2748.906006 1316.000000
2749.741211 1311.000000
2750.576660 1279.000000
2751.411621 1286.000000
2752.245850 1265.000000
2753.079834 1223.000000
2753.913330 1261.000000
2754.746826 1233.000000
2755.579346 1237.000000
2756.411377 1278.000000
2757.242920 1253.000000
2758.074463 1398.000000
2758.905029 1386.000000
2759.735840 1222.000000
2760.565430 1284.000000
2761.395020 1222.000000
2762.224365 1232.000000
2763.052979 1232.000000
2763.881104 1276.000000
2764.708740 1369.000000
2765.536377 1248.000000
2766.363525 1232.000000
2767.189941 1227.000000
2768.015869 1165.000000
2768.841309 1246.000000
2769.666504 1109.000000
2770.491699 1188.000000
2771.315674 1215.000000
2772.139648 1281.000000
2772.963623 1191.000000
2773.786377 1222.000000
2774.609375 992.000000
2775.431152 1194.000000
2776.252930 1193.000000
2777.074707 1166.000000
2777.895508 1183.000000
2778.715576 1181.000000
2779.535889 1228.000000
2780.355713 1203.000000
2781.175537 1135.000000
2781.993408 1094.000000
2782.812500 1063.000000
2783.630371 1207.000000
2784.447998 1134.000000
2785.265137 1030.000000
2786.081787 1125.000000
2786.898193 1126.000000
2787.714111 1177.000000
2788.529785 1096.000000
2789.344482 1104.000000
2790.159668 1134.000000
2790.974121 1080.000000
2791.788086 999.000000
2792.601807 1101.000000
2793.414307 1093.000000
2794.227051 1067.000000
2795.039307 1073.000000
2795.851074 1051.000000
2796.662109 998.000000
2797.473877 989.000000
2798.284424 1006.000000
2799.094971 1059.000000
2799.904053 1129.000000
2800.713867 1115.000000
2801.522949 1042.000000
2802.331787 1063.000000
2803.140137 1126.000000
2803.947510 1059.000000
2804.755371 843.000000
2805.562500 1148.000000
2806.369385 1038.000000
2807.175049 1259.000000
2807.981201 915.000000
2808.786621 1058.000000
2809.592041 1063.000000
2810.396729 1059.000000
2811.200439 1018.000000
2812.004639 1018.000000
2812.808350 1040.000000
2813.611816 1029.000000
2814.413818 1159.000000
2815.216553 1023.000000
2816.018555 996.000000
2816.820313 1057.000000
2817.621582 1034.000000
2818.422363 1022.000000
2819.222656 1014.000000
2820.023193 935.000000
2820.822754 1033.000000
2821.621826 964.000000
2822.420898 924.000000
2823.219727 921.000000
2824.018066 997.000000
2824.815430 895.000000
2825.613037 1071.000000
2826.409912 1027.000000
2827.207031 1026.000000
2828.003418 906.000000
2828.799072 961.000000
2829.594727 999.000000
2830.390137 975.000000
2831.185059 929.000000
2831.979248 867.000000
2832.773438 933.000000
2833.567383 866.000000
2834.360840 954.000000
2835.153564 974.000000
2835.946045 886.000000
2836.738525 861.000000
2837.530762 1024.000000
2838.322510 924.000000
2839.113281 1067.000000
2839.904053 915.000000
2840.695068 969.000000
2841.485107 965.000000
2842.274658 919.000000
2843.064453 890.000000
2843.853271 878.000000
2844.642090 918.000000
2845.430908 903.000000
2846.218750 891.000000
2847.006104 884.000000
2847.793701 951.000000
2848.580811 960.000000
2849.367188 923.000000
2850.153564 862.000000
2850.939697 915.000000
2851.725342 890.000000
2852.510010 805.000000
2853.295166 791.000000
2854.080078 876.000000
2854.864258 863.000000
2855.648438 873.000000
2856.431396 837.000000
2857.214600 835.000000
2857.997559 901.000000
2858.780029 882.000000
2859.562256 842.000000
2860.343994 882.000000
2861.125488 747.000000
2861.907227 811.000000
2862.688232 816.000000
2863.468506 827.000000
2864.248535 807.000000
2865.028564 827.000000
2865.808350 882.000000
2866.587158 847.000000
2867.366211 750.000000
2868.144775 930.000000
2868.923096 830.000000
2869.700928 824.000000
2870.478516 733.000000
2871.255859 900.000000
2872.032959 765.000000
2872.809570 820.000000
2873.585693 800.000000
2874.361816 866.000000
2875.137451 871.000000
2875.912842 833.000000
2876.687744 957.000000
2877.462402 828.000000
2878.237061 835.000000
2879.011475 769.000000
2879.785156 706.000000
2880.558105 730.000000
2881.331787 792.000000
2882.104492 818.000000
2882.877197 943.000000
2883.649170 817.000000
2884.420898 865.000000
2885.193115 839.000000
2885.964111 784.000000
2886.734619 673.000000
2887.505615 641.000000
2888.276611 750.000000
2889.046875 769.000000
2889.816162 836.000000
2890.585693 718.000000
2891.355225 834.000000
2892.124268 728.000000
2892.892822 814.000000
2893.661377 812.000000
2894.428955 741.000000
2895.197021 759.000000
2895.964600 727.000000
2896.732178 783.000000
2897.498535 776.000000
2898.265869 842.000000
2899.031982 805.000000
2899.798340 794.000000
2900.563232 650.000000
2901.328613 619.000000
2902.094482 747.000000
2902.858887 793.000000
2903.623291 680.000000
2904.387939 884.000000
2905.151611 723.000000
2905.916016 703.000000
2906.679688 785.000000
2907.442627 733.000000
2908.205322 732.000000
2908.968506 637.000000
2909.731201 643.000000
2910.492676 726.000000
2911.254639 726.000000
spectrumdark 2048
-96.976089 6218.000000
-94.349220 6218.000000
-91.724228 6056.000000
-89.101128 6458.000000
-86.479897 5848.000000
-83.860565 6272.000000
-81.243095 6109.000000
-78.627502 6437.000000
-76.013786 6196.000000
-73.401947 5924.000000
-70.791969 6108.000000
-68.183876 5907.000000
-65.577629 5975.000000
-62.973259 5957.000000
-60.370750 6121.000000
-57.770096 5693.000000
-55.171303 6251.000000
-52.574368 6863.000000
-49.979286 6490.000000
-47.386059 6487.000000
-44.794682 6271.000000
-42.205151 6746.000000
-39.617462 5858.000000
-37.031624 6081.000000
-34.447628 6535.000000
-31.865471 5695.000000
-29.285158 6340.000000
-26.706673 5684.000000
-24.130030 6098.000000
-21.555212 6171.000000
-18.982235 6435.000000
-16.411077 6472.000000
-13.841753 6785.000000
-11.274256 7724.000000
-8.708576 6231.000000
-6.144722 6470.000000
-3.582681 6052.000000
-1.022465 5855.000000
1.535943 6296.000000
4.092529 6954.000000
6.647312 6657.000000
9.200277 6068.000000
11.751442 6734.000000
14.300793 6500.000000
16.848349 6748.000000
19.394093 5950.000000
21.938044 5733.000000
24.480190 6693.000000
27.020540 6784.000000
29.559105 6885.000000
32.095875 6205.000000
34.630840 5727.000000
37.164028 7234.000000
39.695435 6284.000000
42.225048 7047.000000
44.752865 6466.000000
47.278923 7851.000000
49.803192 5685.000000
52.325691 6225.000000
54.846394 6731.000000
57.365341 6336.000000
59.882515 6430.000000
62.397911 6639.000000
64.911530 5583.000000
67.423393 5715.000000
69.933510 6517.000000
72.441833 6592.000000
74.948402 5906.000000
77.453224 6346.000000
79.956291 6451.000000
82.457581 6195.000000
84.957130 6132.000000
87.454926 6341.000000
89.950989 5792.000000
92.445274 7238.000000
94.937820 5739.000000
97.428650 6860.000000
99.917709 7103.000000
102.405022 6400.000000
104.890610 6232.000000
107.374458 6414.000000
109.856560 5752.000000
112.336937 6766.000000
114.815590 6144.000000
117.292519 6520.000000
119.767693 7221.000000
122.241158 6817.000000
124.712891 5900.000000
127.182915 6761.000000
129.651184 6221.000000
132.117783 6254.000000
134.582626 5654.000000
137.045776 6212.000000
139.507187 7351.000000
141.966904 6950.000000
144.424896 6340.000000
146.881195 5968.000000
149.335785 5852.000000
151.788651 6819.000000
154.239838 6361.000000
156.689331 6596.000000
159.137100 6060.000000
161.583160 6685.000000
164.027542 8743.000000
166.470245 6455.000000
168.911255 6816.000000
171.350555 6200.000000
173.788147 7270.000000
176.224106 6603.000000
178.658325 6911.000000
181.090866 7180.000000
183.521759 6757.000000
185.950928 7160.000000
188.378448 6618.000000
190.804291 6375.000000
193.228455 6713.000000
195.650955 7119.000000
198.071762 7384.000000
200.490906 6457.000000
202.908386 6026.000000
205.324173 7623.000000
207.738312 7166.000000
210.150818 6389.000000
212.561646 6075.000000
214.970795 6236.000000
217.378311 7354.000000
219.784119 6168.000000
222.188339 6542.000000
224.590851 6746.000000
226.991745 6944.000000
229.390991 6445.000000
231.788574 6817.000000
234.184494 7273.000000
236.578796 6505.000000
238.971436 6077.000000
241.362457 6862.000000
243.751816 6539.000000
246.139557 6346.000000
248.525650 6955.000000
250.910110 6091.000000
253.292923 7900.000000
255.674164 6635.000000
258.053680 6688.000000
260.431641 6514.000000
262.807922 7534.000000
265.182648 7544.000000
267.555725 7911.000000
269.927155 6120.000000
272.296936 6500.000000
274.665161 5900.000000
277.031738 6293.000000
279.396729 6747.000000
281.760101 6049.000000
284.121826 6244.000000
286.481964 7152.000000
288.840485 6007.000000
291.197418 6526.000000
293.552734 6418.000000
295.906464 5945.000000
298.258545 5932.000000
300.609070 6375.000000
302.958008 6405.000000
305.305298 6813.000000
307.651062 6427.000000
309.995148 6497.000000
312.337708 7478.000000
314.678650 7495.000000
317.017975 7182.000000
319.355743 6923.000000
321.691956 8154.000000
324.026520 6257.000000
326.359528 6455.000000
328.690979 5973.000000
331.020844 6590.000000
333.349121 6432.000000
335.675781 7255.000000
338.000946 6314.000000
340.324493 6250.000000
342.646484 6012.000000
344.966919 7501.000000
347.285736 7786.000000
349.602997 5993.000000
351.918732 5844.000000
354.232880 6940.000000
356.545441 6326.000000
358.856445 6376.000000
361.165924 7018.000000
363.473877 6324.000000
365.780212 5648.000000
368.084961 6412.000000
370.388245 6389.000000
372.689911 6248.000000
374.990082 6369.000000
377.288696 6325.000000
379.585754 5745.000000
381.881256 6051.000000
384.175232 5825.000000
386.467621 5211.000000
388.758514 5614.000000
391.047882 6206.000000
393.335663 6223.000000
395.621918 6471.000000
397.906677 7007.000000
400.189819 6032.000000
402.471527 6413.000000
404.751709 6202.000000
407.030304 7306.000000
409.307373 6418.000000
411.582916 6757.000000
413.856934 6563.000000
416.129517 6465.000000
418.400482 6360.000000
420.669952 6452.000000
422.937927 7134.000000
425.204346 7247.000000
427.469269 6298.000000
429.732727 6293.000000
431.994598 6441.000000
434.255005 5964.000000
436.513855 6671.000000
438.771240 6213.000000
441.027130 5666.000000
443.281525 5835.000000
445.534393 5428.000000
447.785706 6895.000000
450.035614 6087.000000
452.283936 6284.000000
454.530823 5623.000000
456.776245 6500.000000
459.020111 6482.000000
461.262482 6698.000000
463.503357 5649.000000
465.742828 6747.000000
467.980713 5448.000000
470.217163 5865.000000
472.452087 6029.000000
474.685547 7351.000000
476.917572 6690.000000
479.148071 5688.000000
481.377075 6447.000000
483.604614 6339.000000
485.830658 5926.000000
488.055267 6569.000000
490.278412 5868.000000
492.500092 6426.000000
494.720215 6643.000000
496.938934 5649.000000
499.156158 6314.000000
501.372009 5584.000000
503.586243 6165.000000
505.799164 6446.000000
508.010498 6403.000000
510.220398 6869.000000
512.428894 6545.000000
514.635986 6566.000000
516.841492 6420.000000
519.045593 6535.000000
521.248169 6178.000000
523.449341 6531.000000
525.649170 6721.000000
527.847473 6880.000000
530.044250 5375.000000
532.239685 5824.000000
534.433594 5559.000000
536.626160 7575.000000
538.817200 6704.000000
541.006836 5978.000000
543.195068 6885.000000
545.381775 7139.000000
547.567017 6851.000000
549.750977 6217.000000
551.933350 6469.000000
554.114380 6210.000000
556.293884 6106.000000
558.472107 5895.000000
560.648804 6035.000000
562.824097 6474.000000
564.997986 6433.000000
567.170410 5941.000000
569.341431 6051.000000
571.510986 6246.000000
573.679260 5281.000000
575.846008 6386.000000
578.011292 6334.000000
580.175171 6143.000000
582.337769 5713.000000
584.498840 6054.000000
586.658508 5612.000000
588.816833 5793.000000
590.973633 6194.000000
593.129089 6611.000000
595.283142 5784.000000
597.435852 6080.000000
599.587036 7207.000000
601.736877 6788.000000
603.885376 6722.000000
606.032288 6097.000000
608.177979 6493.000000
610.322266 6467.000000
612.465088 7001.000000
614.606445 6201.000000
616.746582 6494.000000
618.885193 7675.000000
621.022522 5743.000000
623.158386 6618.000000
625.292847 6858.000000
627.425842 7273.000000
629.557678 6679.000000
631.688049 6559.000000
633.817017 6809.000000
635.944519 6553.000000
638.070740 6202.000000
640.195435 7298.000000
642.318909 6451.000000
644.441040 6811.000000
646.561707 6810.000000
648.681030 6568.000000
650.798950 5672.000000
652.915527 5686.000000
655.030701 6475.000000
657.144531 6493.000000
659.256897 5844.000000
661.368042 6129.000000
663.477783 5345.000000
665.586060 6082.000000
667.693176 6319.000000
669.798828 6904.000000
671.903015 5926.000000
674.005981 5731.000000
676.107544 6965.000000
678.207764 5371.000000
680.306580 6809.000000
682.404053 6293.000000
684.500244 6983.000000
686.594971 6339.000000
688.688477 7047.000000
690.780640 6654.000000
692.871277 7978.000000
694.960693 6727.000000
697.048828 6466.000000
699.135498 6027.000000
701.220947 6740.000000
703.304871 5133.000000
705.387573 5934.000000
707.468994 5948.000000
709.548950 7583.000000
711.627686 6205.000000
713.704956 5606.000000
715.780945 6605.000000
717.855652 6040.000000
719.929077 6986.000000
722.000977 6322.000000
724.071716 7405.000000
726.141113 5782.000000
728.209106 6488.000000
730.275757 6365.000000
732.341187 7096.000000
734.405273 5742.000000
736.468018 6245.000000
738.529419 6232.000000
740.589539 6614.000000
742.648254 6060.000000
744.705750 6613.000000
746.761963 6514.000000
748.816772 6721.000000
750.870300 6381.000000
752.922424 7497.000000
754.973328 5767.000000
757.023010 6664.000000
759.071228 6342.000000
761.118225 6091.000000
763.163940 7030.000000
765.208252 5359.000000
767.251282 5637.000000
769.293091 6309.500000
771.333557 6982.000000
773.372620 6364.000000
775.410522 6139.000000
777.447083 6007.000000
779.482422 5399.000000
781.516418 5733.000000
783.549011 6912.000000
785.580444 5458.000000
787.610474 11567.000000
789.639221 6095.000000
791.666809 6255.000000
793.693054 6376.000000
795.717896 5857.000000
797.741638 5530.000000
799.763977 6410.000000
801.785095 5915.000000
803.804871 6692.000000
805.823364 4882.000000
807.840637 6600.000000
809.856506 6805.000000
811.871216 5710.000000
813.884583 6493.000000
815.896729 6281.000000
817.907654 6140.000000
819.917236 6619.000000
821.925598 5344.000000
823.932556 5683.000000
825.938293 6055.000000
827.942810 5716.000000
829.946045 5635.000000
831.947998 6453.000000
833.948669 6127.000000
835.948120 5954.000000
837.946228 6317.000000
839.943237 7023.000000
841.938843 6270.000000
843.933289 6014.000000
845.926392 6169.000000
847.918274 6835.000000
849.908813 5639.000000
851.898071 6733.000000
853.886292 5948.000000
855.873108 5722.000000
857.858704 6442.000000
859.843018 7278.000000
861.826233 6307.000000
863.808044 6416.000000
865.788635 5804.000000
867.767944 7720.000000
869.746094 7080.000000
871.722900 6231.000000
873.698425 6184.000000
875.672913 6192.000000
877.645935 6036.000000
879.617920 5440.000000
881.588562 6450.000000
883.558044 6124.000000
885.526184 5549.000000
887.493164 5136.000000
889.458801 6104.000000
891.423279 5812.000000
893.386536 6049.000000
895.348572 6542.000000
897.309326 5844.000000
899.268860 6437.000000
901.227112 6720.000000
903.184265 6343.000000
905.140259 6028.000000
907.094849 6893.000000
909.048218 6498.000000
911.000427 6384.000000
912.951416 6454.000000
914.901123 7149.000000
916.849670 6335.000000
918.796997 6097.000000
920.743042 6149.000000
922.687805 6124.000000
924.631531 6270.000000
926.574097 5910.000000
928.515381 5615.000000
930.455322 6451.000000
932.394165 5749.000000
934.331726 5457.000000
936.268066 5980.000000
938.203247 5810.000000
940.137146 6074.000000
942.069946 5898.000000
944.001526 6779.000000
945.931946 5269.000000
947.861145 6488.000000
949.789001 7016.000000
951.715820 6649.000000
953.641357 5967.000000
955.565613 5370.000000
957.488770 5976.000000
959.410767 6768.000000
961.331482 7227.000000
963.251038 6438.000000
965.169434 5320.000000
967.086792 6457.000000
969.002686 6424.000000
970.917480 6119.000000
972.831055 5976.000000
974.743469 6421.000000
976.654663 6431.000000
978.564697 5488.000000
980.473450 6235.000000
982.381165 6117.000000
984.287659 6383.000000
986.192932 5670.000000
988.097107 6816.000000
990.000061 6254.000000
991.901794 6770.000000
993.802368 6554.000000
995.701782 6529.000000
997.599976 5241.000000
999.497009 6576.000000
1001.392822 6461.000000
1003.287476 7652.000000
1005.181030 5531.000000
1007.073303 7238.000000
1008.964661 6072.000000
1010.854675 5286.000000
1012.743469 6661.000000
1014.631104 6310.000000
1016.517578 6909.000000
1018.402893 6725.000000
1020.287048 5993.000000
1022.169983 5875.000000
1024.051880 6181.000000
1025.932495 5230.000000
1027.812012 5835.000000
1029.690552 6119.000000
1031.567749 5438.000000
1033.443604 6214.000000
1035.318481 5920.000000
1037.192383 6551.000000
1039.064819 6971.000000
1040.936279 6653.000000
1042.806396 5517.000000
1044.675537 5533.000000
1046.543457 5766.000000
1048.410278 7115.000000
1050.276001 6702.000000
1052.140503 6478.000000
1054.003906 6506.000000
1055.865967 6497.000000
1057.727051 5923.000000
1059.587036 6572.000000
1061.445679 6632.000000
1063.303223 5817.000000
1065.159668 6734.000000
1067.015015 5946.000000
1068.869141 5785.000000
1070.722412 6312.000000
1072.574219 6331.000000
1074.425049 6141.000000
1076.274658 6124.000000
1078.123047 5842.000000
1079.970581 7972.000000
1081.816772 5631.000000
1083.661743 6254.000000
1085.505859 5372.000000
1087.348633 5521.000000
1089.190186 6604.000000
1091.031006 5490.000000
1092.870239 5772.000000
1094.708740 6064.000000
1096.545898 6007.000000
1098.381836 6773.000000
1100.216797 6621.000000
1102.050537 5401.000000
1103.883301 5677.000000
1105.714722 6202.000000
1107.545288 7266.000000
1109.374512 6571.000000
1111.202759 6447.000000
1113.029785 7107.000000
1114.855835 5417.000000
1116.680664 6408.000000
1118.504395 7139.000000
1120.326904 6083.000000
1122.148315 5927.000000
1123.968872 5926.000000
1125.787964 6552.000000
1127.606201 7071.000000
1129.423096 6831.000000
1131.239136 6655.000000
1133.053955 6481.000000
1134.867676 5612.000000
1136.680298 5794.000000
1138.491699 5730.000000
1140.302124 6119.000000
1142.111450 6766.000000
1143.919434 6960.000000
1145.726685 5965.000000
1147.532471 5984.000000
1149.337402 5334.000000
1151.141235 5392.000000
1152.943848 6105.000000
1154.745605 6122.000000
1156.545898 6040.000000
1158.345215 6069.000000
1160.143555 5876.000000
1161.940552 5471.000000
1163.736816 5917.000000
1165.531738 6092.000000
1167.325562 6279.000000
1169.118530 7768.000000
1170.910156 5791.000000
1172.700806 6491.000000
1174.490479 5964.000000
1176.278687 5851.000000
1178.066040 7489.000000
1179.852295 6691.000000
1181.637451 5790.000000
1183.421509 5952.000000
1185.204468 7687.000000
1186.986450 5891.000000
1188.767212 5847.000000
1190.546997 6377.000000
1192.325684 7008.000000
1194.103394 6646.000000
1195.879883 7138.000000
1197.655273 6558.000000
1199.429565 6563.000000
1201.202759 6653.000000
1202.975098 6612.000000
1204.746094 6732.000000
1206.516235 5741.000000
1208.285156 6122.000000
1210.052979 6275.000000
1211.819946 5805.000000
1213.585571 5945.000000
1215.350220 6999.000000
1217.113770 6485.000000
1218.876221 5930.000000
1220.637817 6731.000000
1222.398193 5959.000000
1224.157471 6270.000000
1225.915894 6066.000000
1227.673096 7228.000000
1229.429199 6482.000000
1231.184204 5546.000000
1232.938354 6008.000000
1234.691162 5828.000000
1236.442993 5993.000000
1238.193970 5941.000000
1239.943604 4901.000000
1241.692383 7004.000000
1243.439819 6493.000000
1245.186523 6607.000000
1246.932007 6487.000000
1248.676636 6462.000000
1250.419922 6817.000000
1252.162231 6658.000000
1253.903442 5362.000000
1255.643799 5127.000000
1257.383057 5804.000000
1259.121094 6582.000000
1260.858276 7125.000000
1262.594238 6101.000000
1264.329224 6438.000000
1266.063232 7285.000000
1267.796265 6000.000000
1269.528076 6215.000000
1271.258911 6450.000000
1272.988525 7241.000000
1274.717285 5938.000000
1276.444946 5677.000000
1278.171509 5602.000000
1279.897217 5560.000000
1281.621582 6371.000000
1283.345093 5208.000000
1285.067627 6891.000000
1286.789185 6569.000000
1288.509521 6368.000000
1290.228882 6643.000000
1291.947144 7264.000000
1293.664429 6470.000000
1295.380737 5726.000000
1297.095825 6445.000000
1298.809937 6178.000000
1300.523071 5781.000000
1302.235352 6452.000000
1303.946411 8348.000000
1305.656494 5239.000000
1307.365479 6277.000000
1309.073242 6622.000000
1310.780396 7024.000000
1312.486084 5817.000000
1314.191040 6891.000000
1315.895020 6170.000000
1317.597778 5936.000000
1319.299561 6529.000000
1321.000488 6067.000000
1322.700073 10087.000000
1324.398804 7807.500000
1326.096802 18958.000000
1327.793457 6503.000000
1329.489014 7127.000000
1331.183716 6843.000000
1332.877197 5799.000000
1334.569824 5412.000000
1336.261597 7466.000000
1337.952026 6246.000000
1339.641724 6578.000000
1341.330322 6163.000000
1343.017822 7604.000000
1344.704346 5673.000000
1346.389771 6776.000000
1348.074219 5980.000000
1349.757813 7299.000000
1351.440186 6337.000000
1353.121582 5967.000000
1354.802124 6553.000000
1356.481445 6673.000000
1358.160156 5966.000000
1359.837524 6454.000000
1361.513794 5763.000000
1363.189087 5614.000000
1364.863647 6586.000000
1366.536987 6453.000000
1368.209351 6777.000000
1369.880737 5158.000000
1371.551147 6793.000000
1373.220459 6209.000000
1374.888794 5726.000000
1376.556274 5938.000000
1378.222656 6468.000000
1379.888062 6139.000000
1381.552490 5927.000000
1383.215698 5968.000000
1384.878296 5692.000000
1386.539551 6409.000000
1388.199951 6487.000000
1389.859253 6431.000000
1391.517578 6465.000000
1393.175171 6813.000000
1394.831543 6487.000000
1396.487061 7015.000000
1398.141357 6367.000000
1399.794800 5874.000000
1401.447144 6118.000000
1403.098755 6455.000000
1404.749146 7143.000000
1406.398438 6243.000000
1408.046997 7549.000000
1409.694458 7877.000000
1411.340942 6134.000000
1412.986572 6287.000000
1414.631226 5955.000000
1416.274658 7135.000000
1417.917236 7138.000000
1419.558716 6872.000000
1421.199341 6495.000000
1422.838989 6542.000000
1424.477539 6007.000000
1426.115234 6620.000000
1427.751831 6308.000000
1429.387451 6071.000000
1431.022339 6436.000000
1432.656128 5906.000000
1434.288818 6165.000000
1435.920532 5644.000000
1437.551392 6134.000000
1439.181152 6053.000000
1440.809814 7713.000000
1442.437866 6051.000000
1444.064819 6249.000000
1445.690552 6209.000000
1447.315674 6163.000000
1448.939697 6551.000000
1450.562744 6055.000000
1452.184814 6010.000000
1453.805786 7319.000000
1455.425781 6315.000000
1457.045044 6918.000000
1458.662964 5606.000000
1460.280273 5572.000000
1461.896606 13243.500000
1463.511719 7247.000000
1465.125977 6376.000000
1466.739380 5185.000000
1468.351685 5620.000000
1469.963135 6296.000000
1471.573730 6398.000000
1473.183105 5981.000000
1474.791504 6042.000000
1476.399048 6173.000000
1478.005615 6800.000000
1479.611450 5356.000000
1481.216064 6279.000000
1482.819824 5540.000000
1484.422363 6798.000000
1486.024292 5573.000000
1487.625000 5444.000000
1489.224976 5622.000000
1490.823853 6261.000000
1492.421875 6517.000000
1494.018799 6682.000000
1495.614868 6317.000000
1497.209961 6012.000000
1498.804077 5459.000000
1500.397461 6506.000000
1501.989746 5553.000000
1503.580811 6183.000000
1505.171387 6777.000000
1506.760620 6535.000000
1508.349243 6144.000000
1509.936768 6590.000000
1511.523193 6862.000000
1513.108887 6130.000000
1514.693481 6635.000000
1516.277222 6440.000000
1517.859863 6213.000000
1519.441772 6636.000000
1521.022583 6632.000000
1522.602661 6038.000000
1524.181519 6185.000000
1525.759521 6406.000000
1527.336792 6297.000000
1528.912842 5692.000000
1530.488159 5908.000000
1532.062378 6299.000000
1533.635864 5473.000000
1535.208130 5942.000000
1536.779663 6440.000000
1538.350220 6361.000000
1539.919922 6303.000000
1541.488403 5474.000000
1543.056152 6537.000000
1544.623047 5709.000000
1546.188721 6762.000000
1547.753662 5950.000000
1549.317505 5056.000000
1550.880737 7411.000000
1552.442627 6371.000000
1554.003906 5984.000000
1555.564087 5676.000000
1557.123535 5745.000000
1558.681885 5991.000000
1560.239502 6291.000000
1561.796021 7036.000000
1563.351318 5869.000000
1564.906006 6354.000000
1566.459961 5614.000000
1568.012939 6254.000000
1569.564575 5593.000000
1571.115479 5902.000000
1572.665649 6224.000000
1574.214844 6364.000000
1575.762695 5773.000000
1577.310059 5498.000000
1578.856445 5748.000000
1580.401978 5108.000000
1581.946533 6696.000000
1583.489868 6394.000000
1585.032593 6589.000000
1586.574463 6405.000000
1588.115234 6801.000000
1589.655029 5813.000000
1591.194092 6685.000000
1592.732056 5910.000000
1594.269531 6082.000000
1595.805664 5923.000000
1597.340698 6678.000000
1598.875244 6250.000000
1600.408813 5980.000000
1601.941528 6160.000000
1603.472656 6291.000000
1605.003540 6237.000000
1606.533569 5809.000000
1608.062378 6153.000000
1609.590088 6200.000000
1611.117188 5990.000000
1612.643555 5870.000000
1614.168945 6310.000000
1615.693481 5803.000000
1617.216675 5785.000000
1618.739136 5649.000000
1620.260864 6576.000000
1621.781738 6972.000000
1623.301147 6593.000000
1624.820068 6214.000000
1626.338257 6062.000000
1627.855591 5929.000000
1629.371826 6436.000000
1630.886719 7003.000000
1632.401123 6832.000000
1633.914795 5792.000000
1635.427368 6830.000000
1636.938721 5973.000000
1638.449707 6559.000000
1639.959595 6277.000000
1641.468628 6213.000000
1642.976318 5645.000000
1644.483643 6103.000000
1645.990112 7127.000000
1647.495605 6254.000000
1649.000244 6834.000000
1650.503418 6110.000000
1652.005981 6567.000000
1653.508179 6374.000000
1655.009033 6692.000000
1656.508789 7537.000000
1658.007690 6141.000000
1659.506226 6527.000000
1661.003540 6245.000000
1662.500122 5920.000000
1663.995117 6486.000000
1665.489868 6359.000000
1666.983765 5211.000000
1668.476685 5702.000000
1669.968262 20348.000000
1671.459351 6488.000000
1672.949829 6079.000000
1674.439209 5950.000000
1675.927124 6968.000000
1677.414795 6857.000000
1678.901489 6064.000000
1680.387329 5510.000000
1681.872314 6089.000000
1683.355835 6168.000000
1684.839111 6223.000000
1686.321533 5900.000000
1687.802856 6241.000000
1689.282715 6231.000000
1690.762329 5597.000000
1692.241211 6574.000000
1693.719116 5985.000000
1695.196045 6155.000000
1696.671753 5754.000000
1698.147095 6027.000000
1699.621216 6364.000000
1701.094727 5495.000000
1702.566772 5595.000000
1704.038574 6916.000000
1705.509399 6354.000000
1706.979370 7044.000000
1708.447998 5135.000000
1709.916138 5806.000000
1711.383545 6333.000000
1712.849854 5460.000000
1714.315552 5748.000000
1715.779541 6250.000000
1717.243408 5997.000000
1718.706421 6982.000000
1720.168457 6409.000000
1721.629272 6601.000000
1723.089478 5469.000000
1724.548950 6379.000000
1726.007568 6117.000000
1727.465210 6075.000000
1728.921509 6266.000000
1730.377563 6051.000000
1731.832642 6483.000000
1733.286743 6019.000000
1734.739624 6911.000000
1736.192261 5960.000000
1737.643799 6827.000000
1739.094604 5995.000000
1740.544434 6547.000000
1741.992920 5962.000000
1743.441040 7660.000000
1744.888306 6555.000000
1746.334839 6739.000000
1747.779785 6730.000000
1749.224487 6204.000000
1750.668335 5944.000000
1752.111328 5475.000000
1753.552856 6562.000000
1754.994141 6353.000000
1756.434570 19545.000000
1757.874023 6300.000000
1759.312500 5267.000000
1760.750000 6113.000000
1762.187012 7518.000000
1763.623047 5827.000000
1765.058228 7184.000000
1766.491943 6206.000000
1767.925537 6439.000000
1769.358154 6684.000000
1770.789917 5814.000000
1772.220825 5880.000000
1773.650513 6388.000000
1775.079468 6070.000000
1776.507935 6280.000000
1777.935425 6629.000000
1779.361572 6237.000000
1780.787476 5616.000000
1782.212280 6909.000000
1783.636475 5524.000000
1785.059204 6655.000000
1786.481445 6534.000000
1787.902954 6844.000000
1789.323730 5986.000000
1790.743530 5992.000000
1792.161987 6170.000000
1793.579956 6817.000000
1794.997314 5496.000000
1796.413818 6004.000000
1797.828857 6584.000000
1799.243530 5876.000000
1800.657593 6603.000000
1802.070435 6001.000000
1803.482666 6956.000000
1804.893555 7128.000000
1806.303955 7824.000000
1807.713623 6463.000000
1809.122314 5931.000000
1810.529907 5385.000000
1811.937012 6404.000000
1813.343262 6333.000000
1814.748535 6671.000000
1816.152710 5979.000000
1817.556519 5975.000000
1818.959351 6256.000000
1820.361328 6043.000000
1821.762695 5886.000000
1823.162598 6391.000000
1824.561890 6466.000000
1825.960693 6589.000000
1827.358643 7462.000000
1828.755249 5712.000000
1830.151245 6798.000000
1831.546509 5889.000000
1832.941162 8123.000000
1834.334839 6001.000000
1835.727173 6889.000000
1837.119019 6453.000000
1838.510254 5938.000000
1839.900513 7106.000000
1841.289551 6058.000000
1842.678223 6074.000000
1844.065918 5998.000000
1845.452881 5864.000000
1846.838501 6925.000000
1848.223877 5880.000000
1849.608398 6456.000000
1850.992188 6269.000000
1852.374878 6344.000000
1853.756348 5411.000000
1855.137329 6541.000000
1856.517822 6385.000000
1857.897339 5707.000000
1859.275391 6028.000000
1860.653320 6211.000000
1862.030273 7834.000000
1863.406494 6111.000000
1864.781860 6086.000000
1866.155762 5648.000000
1867.529541 5743.000000
1868.902466 6256.000000
1870.274292 5966.000000
1871.645142 6909.000000
1873.015625 5461.000000
1874.385010 6075.000000
1875.753906 6052.000000
1877.121216 7148.000000
1878.488403 6086.000000
1879.854614 6011.000000
1881.220093 6778.000000
1882.584839 7493.000000
1883.947998 6796.000000
1885.311035 6904.000000
1886.673218 6318.000000
1888.034546 6496.000000
1889.394531 5638.000000
1890.754150 5776.000000
1892.113159 6140.000000
1893.471191 6697.000000
1894.828369 7244.000000
1896.184326 5925.000000
1897.540039 7673.000000
1898.894775 5905.000000
1900.248657 5502.000000
1901.601440 5917.000000
1902.953735 5918.000000
1904.305298 5975.000000
1905.656006 6907.000000
1907.005493 6560.000000
1908.354492 6671.000000
1909.702637 5840.000000
1911.050171 6147.000000
1912.396973 6314.000000
1913.742188 6864.000000
1915.087158 6118.000000
1916.431396 5532.000000
1917.774780 6467.000000
1919.116821 5981.000000
1920.458618 6805.000000
1921.799561 7040.000000
1923.139771 6168.000000
1924.479004 6282.000000
1925.817261 6327.000000
1927.154907 6498.000000
1928.491821 6953.000000
1929.827881 6813.000000
1931.162720 5572.000000
1932.497192 6711.000000
1933.830933 7236.000000
1935.163818 6254.000000
1936.495239 5794.000000
1937.826782 6416.000000
1939.156982 6634.000000
1940.486694 5785.000000
1941.815552 6088.000000
1943.143188 5837.000000
1944.470337 5013.000000
1945.796753 5833.000000
1947.122437 6594.000000
1948.446777 5740.000000
1949.770874 6658.000000
1951.094116 6378.000000
1952.416626 6422.000000
1953.738037 5776.000000
1955.058472 7345.000000
1956.378296 6065.000000
1957.697754 5569.000000
1959.016235 6845.000000
1960.333374 5900.000000
1961.650146 5915.000000
1962.966187 6579.000000
1964.281494 6643.000000
1965.595337 6279.000000
1966.908936 5672.000000
1968.221802 6226.000000
1969.533813 6010.000000
1970.845215 6043.000000
1972.155273 6319.000000
1973.464844 5828.000000
1974.773682 6196.000000
1976.081909 6609.000000
1977.388794 6134.000000
1978.695068 7266.000000
1980.000977 5580.000000
1981.305664 6425.000000
1982.609863 5943.000000
1983.912842 5645.000000
1985.215454 7560.000000
1986.517090 6084.000000
1987.818115 6783.000000
1989.117554 6122.000000
1990.417114 6606.000000
1991.715576 5385.000000
1993.013550 6041.000000
1994.309937 6154.000000
1995.606323 5805.000000
1996.901733 5629.000000
1998.196411 6590.000000
1999.490234 5782.000000
2000.782837 6608.000000
2002.074951 5767.000000
2003.366577 7178.000000
2004.657471 6424.000000
2005.946777 6260.000000
2007.235840 6857.000000
2008.524170 5946.000000
2009.811768 5997.000000
2011.098511 6664.000000
2012.384155 5661.000000
2013.669434 6323.000000
2014.953735 6020.000000
2016.237427 5563.000000
2017.519775 6060.000000
2018.801758 6563.000000
2020.083252 6819.000000
2021.363770 5909.000000
2022.643555 6098.000000
2023.922241 6785.000000
2025.200195 5931.000000
2026.477661 5943.000000
2027.754517 6359.000000
2029.029663 5785.000000
2030.304932 6646.000000
2031.579224 6018.000000
2032.852539 5954.000000
2034.125000 5978.000000
2035.397095 6199.000000
2036.668091 7013.000000
2037.938843 6629.000000
2039.208252 6013.000000
2040.476563 6772.000000
2041.744873 6611.000000
2043.012207 5958.000000
2044.278809 5994.000000
2045.544189 5531.000000
2046.808960 5885.000000
2048.073486 5382.000000
2049.336670 5888.000000
2050.599609 6385.000000
2051.860596 6150.000000
2053.122070 6122.000000
2054.382324 5856.000000
2055.641846 6616.000000
2056.900635 6318.000000
2058.158447 6892.000000
2059.415771 6176.000000
2060.672363 5964.000000
2061.927490 6505.000000
2063.182617 5621.000000
2064.436768 5605.000000
2065.690186 5672.000000
2066.942871 6813.000000
2068.194336 6307.000000
2069.445557 6354.000000
2070.696045 5611.000000
2071.945801 5396.000000
2073.194092 6514.000000
2074.442383 6498.000000
2075.689697 7421.000000
2076.936279 5670.000000
2078.182129 6068.000000
2079.426758 7052.000000
2080.670898 7625.000000
2081.914551 5542.000000
2083.157227 6037.000000
2084.398682 6976.000000
2085.639893 5973.000000
2086.880615 6326.000000
2088.120361 6741.000000
2089.358887 7006.000000
2090.596924 6181.000000
2091.834229 5810.000000
2093.071289 6584.000000
2094.306885 6091.000000
2095.541748 6220.000000
2096.776367 6099.000000
2098.010010 5621.000000
2099.242676 6140.000000
2100.474609 6910.000000
2101.706055 6449.000000
2102.936523 6811.000000
2104.166260 6019.000000
2105.395752 5996.000000
2106.623291 5989.000000
2107.851074 5982.000000
2109.078125 6391.000000
2110.304199 5514.000000
2111.528809 6392.000000
2112.753662 6902.000000
2113.977295 7120.000000
2115.200439 6235.000000
2116.422363 7472.000000
2117.644043 5969.000000
2118.864746 6801.000000
2120.084717 6045.000000
2121.304199 6187.000000
2122.522217 6592.000000
2123.740234 7010.000000
2124.957275 5719.000000
2126.173828 5807.000000
2127.388672 6586.000000
2128.603760 6413.000000
2129.817871 6972.000000
2131.031250 5695.000000
2132.243896 6103.000000
2133.455078 5824.000000
2134.666504 6539.000000
2135.876709 6676.000000
2137.086426 5966.000000
2138.294678 6194.000000
2139.502930 5684.000000
2140.710449 5883.000000
2141.916748 7693.000000
2143.122314 5893.000000
2144.327637 5724.000000
2145.531982 5529.000000
2146.735596 6366.000000
2147.938721 6202.000000
2149.140381 6519.000000
2150.341797 5336.000000
2151.542480 6302.000000
2152.742432 6148.000000
2153.941162 5905.000000
2155.139648 6966.000000
2156.337646 6196.000000
2157.534668 6076.000000
2158.730957 5116.000000
2159.926025 5291.000000
2161.120850 6120.000000
2162.314941 5604.000000
2163.508057 6028.000000
2164.700195 6932.000000
2165.892090 5963.000000
2167.083252 6277.000000
2168.273438 6325.000000
2169.462891 6488.000000
2170.651855 6801.000000
2171.839844 6015.000000
2173.027588 5782.000000
2174.213867 5930.000000
2175.399414 6573.000000
2176.584717 6063.000000
2177.769531 5815.000000
2178.953125 6345.000000
2180.135986 7592.000000
2181.317871 6346.000000
2182.499512 6022.000000
2183.680664 6582.000000
2184.860596 5779.000000
2186.039551 5597.000000
2187.218018 6445.000000
2188.396240 6824.000000
2189.573242 7229.000000
2190.749268 6750.000000
2191.925049 6131.000000
2193.100342 5662.000000
2194.274170 6661.000000
2195.447510 6179.000000
2196.620605 6128.000000
2197.792480 6499.000000
2198.963867 7028.000000
2200.134766 6338.000000
2201.303955 6871.000000
2202.473145 7509.000000
2203.641846 6303.000000
2204.809570 5953.000000
2205.976318 5645.000000
2207.142334 7127.000000
2208.307861 6771.000000
2209.473145 5998.000000
2210.636963 6730.000000
2211.800293 5514.000000
2212.962402 6175.000000
2214.124756 6186.000000
2215.285889 6724.000000
2216.446045 6681.000000
2217.605713 6365.000000
2218.765137 6626.000000
2219.923340 6432.000000
2221.080566 6337.000000
2222.237549 6827.000000
2223.393799 6594.000000
2224.549316 6757.000000
2225.704102 6276.000000
2226.857910 6390.000000
2228.010742 6066.000000
2229.164063 6833.000000
2230.315430 6258.000000
2231.466553 6184.000000
2232.616943 6501.000000
2233.766846 7668.000000
2234.915771 6338.000000
2236.064209 5197.000000
2237.211182 6768.000000
2238.358398 6987.000000
2239.504395 6056.000000
2240.650146 7221.000000
2241.794189 7307.000000
2242.938477 6745.000000
2244.081787 6190.000000
2245.224365 6025.000000
2246.365967 5755.000000
2247.507324 5843.000000
2248.647705 6410.000000
2249.787354 6369.000000
2250.926514 5863.000000
2252.064453 5895.000000
2253.202393 6203.000000
2254.339355 5244.000000
2255.475586 6386.000000
2256.610840 6130.000000
2257.745361 7242.000000
2258.879639 6411.000000
2260.013428 5389.000000
2261.145752 6116.000000
2262.277588 6824.000000
2263.408936 6288.000000
2264.539307 6530.000000
2265.669434 8131.000000
2266.798340 6688.000000
2267.926758 6049.000000
2269.054688 5533.000000
2270.181641 6208.000000
2271.307861 5943.000000
2272.433105 6800.000000
2273.558350 6502.000000
2274.682861 6427.000000
2275.806152 5972.000000
2276.928711 6323.000000
2278.050781 5977.000000
2279.172363 7404.000000
2280.293213 6375.000000
2281.412842 6405.000000
2282.531982 7047.000000
2283.650879 7654.000000
2284.769043 7236.000000
2285.886230 5858.000000
2287.002441 6386.000000
2288.118408 7026.000000
2289.233643 6925.000000
2290.348145 7421.000000
2291.461426 5905.000000
2292.574707 6344.000000
2293.687256 5977.000000
2294.799072 5442.000000
2295.910156 6726.000000
2297.020020 6447.000000
2298.129395 6165.000000
2299.238525 6730.000000
2300.346680 6336.000000
2301.453857 6764.000000
2302.560791 5826.000000
2303.666992 6231.000000
2304.772705 6588.000000
2305.876953 6640.000000
2306.980957 5428.000000
2308.084473 5808.000000
2309.187500 6594.000000
2310.289307 7416.000000
2311.390381 7353.000000
2312.490967 6553.000000
2313.591064 5525.000000
2314.690430 6316.000000
2315.788330 6600.000000
2316.886719 7051.000000
2317.983643 8254.000000
2319.080322 6806.000000
2320.176514 5808.000000
2321.270996 6828.000000
2322.365479 7583.000000
2323.459229 5825.000000
2324.552734 6004.000000
2325.644531 6441.000000
2326.736328 6984.000000
2327.827393 6059.000000
2328.917725 6226.000000
2330.007080 6949.000000
2331.096436 6015.000000
2332.184570 6329.000000
2333.272217 6798.000000
2334.359619 6572.000000
2335.445313 6666.000000
2336.530762 7831.000000
2337.615967 6291.000000
2338.700195 6724.000000
2339.783447 5941.000000
2340.866455 6373.000000
2341.948486 7123.000000
2343.030273 6010.000000
2344.111328 7429.000000
2345.191162 6666.000000
2346.270508 5719.000000
2347.349365 6786.000000
2348.427734 6573.000000
2349.504639 6315.000000
2350.581299 7020.000000
2351.657715 6038.000000
2352.733154 6485.000000
2353.807617 5907.000000
2354.881836 6322.000000
2355.955322 6776.000000
2357.028320 6273.000000
2358.100098 7026.000000
2359.171631 6250.000000
2360.242188 6812.000000
2361.312500 7457.000000
2362.381836 7571.000000
2363.450195 6804.000000
2364.518311 6753.000000
2365.585693 7068.000000
2366.652588 7114.000000
2367.718750 6083.000000
2368.783691 6908.000000
2369.848633 7019.000000
2370.912842 6329.000000
2371.976318 6909.000000
2373.038574 5839.000000
2374.100830 6376.000000
2375.162109 6351.000000
2376.223145 5975.000000
2377.282959 6275.000000
2378.342041 7902.000000
2379.401123 6429.000000
2380.459229 7663.000000
2381.516602 6899.000000
2382.572998 8050.000000
2383.629150 7849.000000
2384.684814 6282.000000
2385.739746 7075.000000
2386.793213 6786.000000
2387.846924 6560.000000
2388.899658 6303.000000
2389.951904 6773.000000
2391.003418 6190.000000
2392.053955 6644.000000
2393.104248 6488.000000
2394.153564 6342.000000
2395.202881 6211.000000
2396.250732 6880.000000
2397.298096 7028.000000
2398.345215 6293.000000
2399.391357 6672.000000
2400.436768 6175.000000
2401.481445 6789.000000
2402.526123 7724.000000
2403.569336 7471.000000
2404.612549 6580.000000
2405.654297 5762.000000
2406.696289 6719.000000
2407.737549 7076.000000
2408.777832 6119.000000
2409.817383 6457.000000
2410.855957 6377.000000
2411.894775 6063.000000
2412.932373 6508.000000
2413.969727 6886.000000
2415.005859 7395.000000
2416.041748 6258.000000
2417.076904 6283.000000
2418.111572 6660.000000
2419.144775 7189.000000
2420.178223 6502.000000
2421.210693 6700.000000
2422.242920 6846.000000
2423.273682 7065.000000
2424.304443 6330.000000
2425.334717 6853.000000
2426.363770 6869.000000
2427.392822 6632.000000
2428.420166 7426.000000
2429.447998 6709.000000
2430.474609 7263.000000
2431.500977 6959.000000
2432.525879 7789.000000
2433.551025 6564.000000
2434.575195 7067.000000
2435.599121 6695.000000
2436.621826 5862.000000
2437.643799 6359.000000
2438.665527 6668.000000
2439.686523 6627.000000
2440.707031 6059.000000
2441.726318 6549.000000
2442.745605 6595.000000
2443.763916 8508.000000
2444.781982 6363.000000
2445.798584 6490.000000
2446.815186 6539.000000
2447.831055 6038.000000
2448.846924 7072.000000
2449.861328 6834.000000
2450.875000 5576.000000
2451.888184 7186.000000
2452.901123 6005.000000
2453.913330 7149.000000
2454.924561 6692.000000
2455.935547 7725.000000
2456.945801 6361.000000
2457.955566 7590.000000
2458.964355 5918.000000
2459.972412 5989.000000
2460.980469 6354.000000
2461.987305 7355.000000
2462.993896 5445.000000
2463.999268 7405.000000
2465.004395 6935.000000
2466.009277 5913.000000
2467.012939 6619.000000
2468.016357 6347.000000
2469.018799 7614.000000
2470.020996 7363.000000
2471.022705 6882.000000
2472.023438 6598.000000
2473.023193 6894.000000
2474.022949 6769.000000
2475.021729 5615.000000
2476.020020 6613.000000
2477.017334 7028.000000
2478.014404 6053.000000
2479.011475 6987.000000
2480.007080 5763.000000
2481.002686 7127.000000
2481.996582 6685.000000
2482.990479 8090.000000
2483.983887 6866.000000
2484.976807 6723.000000
2485.968750 7507.000000
2486.959961 7230.000000
2487.950928 6749.000000
2488.941406 5845.000000
2489.930908 6598.000000
2490.919678 6515.000000
2491.908447 5617.000000
2492.896240 6818.000000
2493.882813 6542.000000
2494.869385 8117.000000
2495.855469 6751.000000
2496.840820 7087.000000
2497.825195 8020.000000
2498.809326 5973.000000
2499.793457 6931.000000
2500.776123 5814.000000
2501.758301 7006.000000
2502.739990 6925.000000
2503.720947 7330.000000
2504.701416 6502.000000
2505.681641 5701.000000
2506.660400 6296.000000
2507.638916 7475.000000
2508.616943 6764.000000
2509.594482 7124.000000
2510.571045 6071.000000
2511.547363 5941.000000
2512.522949 6502.000000
2513.498047 6261.000000
2514.472656 6504.000000
2515.446045 7622.000000
2516.419189 6831.000000
2517.392090 6957.000000
2518.364014 6063.000000
2519.335205 6889.000000
2520.305908 6901.000000
2521.276367 7851.000000
2522.246094 8038.000000
2523.214844 6103.000000
2524.182861 6151.000000
2525.150879 7687.000000
2526.117920 6318.000000
2527.084717 5577.000000
2528.050293 7238.000000
2529.015869 6947.000000
2529.980713 7735.000000
2530.945068 6297.000000
2531.908203 6271.000000
2532.871582 5884.000000
2533.833984 5978.000000
2534.796143 6687.000000
2535.757080 6330.000000
2536.717285 6151.000000
2537.677734 6097.000000
2538.637207 7017.000000
2539.595947 6926.000000
2540.553711 6685.000000
2541.511719 6235.000000
2542.468994 6774.000000
2543.425293 6107.000000
2544.381348 7053.000000
2545.336182 6202.000000
2546.291260 7814.000000
2547.245605 7057.000000
2548.199219 6862.000000
2549.151855 7178.000000
2550.104248 6668.000000
2551.056152 6956.000000
2552.007324 6471.000000
2552.957764 7772.000000
2553.907715 7288.000000
2554.857422 7345.000000
2555.806396 6600.000000
2556.754883 6235.000000
2557.702148 7060.000000
2558.649414 6268.000000
2559.595947 6570.000000
2560.541992 6808.000000
2561.487061 7478.000000
2562.431885 6748.000000
2563.376221 7237.000000
2564.320068 6812.000000
2565.263428 6616.000000
2566.205322 6572.000000
2567.147461 6540.000000
2568.088867 6190.000000
2569.029541 7229.000000
2569.969482 7301.000000
2570.909424 5740.000000
2571.848389 6156.000000
2572.787109 7492.000000
2573.724854 7183.000000
2574.662354 5487.000000
2575.599121 6988.000000
2576.535156 6800.000000
2577.470703 7484.000000
2578.405518 6414.000000
2579.340332 5931.000000
2580.274170 7076.000000
2581.207520 7097.000000
2582.140137 5840.000000
2583.072510 6933.000000
2584.004150 5394.000000
2584.935303 7069.000000
2585.865967 7050.000000
2586.795410 6824.000000
2587.724854 7250.000000
2588.653809 6529.000000
2589.582520 7419.000000
2590.509521 7365.000000
2591.436768 5896.000000
2592.363525 6813.000000
2593.289551 6259.000000
2594.215332 5627.000000
2595.139893 7622.000000
2596.064209 7696.000000
2596.988037 5375.000000
2597.911377 7386.000000
2598.833740 6339.000000
2599.755859 6816.000000
2600.677490 8285.000000
2601.598389 6318.000000
2602.518555 5824.000000
2603.438477 6374.000000
2604.357910 6412.000000
2605.277100 6443.000000
2606.195313 5824.000000
2607.112305 5941.000000
2608.029541 7261.000000
2608.946533 5861.000000
2609.862549 7598.000000
2610.777344 6628.000000
2611.692627 6611.000000
2612.607178 6546.000000
2613.520752 6590.000000
2614.434326 6084.000000
2615.346680 7652.000000
2616.259033 7050.000000
2617.170410 6832.000000
2618.081543 5713.000000
2618.991943 7197.000000
2619.902100 6636.000000
2620.811523 6280.000000
2621.720459 6601.000000
2622.628418 6283.000000
2623.536621 6842.000000
2624.443848 6564.000000
2625.350586 7016.000000
2626.256592 6027.000000
2627.162354 6635.000000
2628.067383 6528.000000
2628.972168 7848.000000
2629.876221 6477.000000
2630.779297 6390.000000
2631.682373 6442.000000
2632.584473 5612.000000
2633.486572 6753.000000
2634.388428 6954.000000
2635.288574 6697.000000
2636.188965 6368.000000
2637.088623 6417.000000
2637.988037 6002.000000
2638.885986 6873.000000
2639.784424 6766.000000
2640.682373 6380.000000
2641.579590 6071.000000
2642.475586 6133.000000
2643.371582 6815.000000
2644.267334 6133.000000
2645.162354 6477.000000
2646.057129 6598.000000
2646.950439 7310.000000
2647.843750 6314.000000
2648.736816 6766.000000
2649.629639 6410.000000
2650.520752 7529.000000
2651.412109 6457.000000
2652.302979 7656.000000
2653.193115 7292.000000
2654.083008 6612.000000
2654.971680 7343.000000
2655.860596 6642.000000
2656.749023 6605.000000
2657.636475 7321.000000
2658.522949 6461.000000
2659.409912 7123.000000
2660.296143 6896.000000
2661.181885 6823.000000
2662.066406 6446.000000
2662.950928 6427.000000
2663.835205 6183.000000
2664.718750 7052.000000
2665.601807 7823.000000
2666.484131 7305.000000
2667.365967 6162.000000
2668.247070 6658.000000
2669.128418 6084.000000
2670.008301 6571.000000
2670.888428 7343.000000
2671.767822 7177.000000
2672.647217 6325.000000
2673.525879 6193.000000
2674.402832 6398.000000
2675.280518 6758.000000
2676.157471 6350.000000
2677.033691 8074.000000
2677.909424 7175.000000
2678.784424 6296.000000
2679.659668 7704.000000
2680.533936 7017.000000
2681.407715 7404.000000
2682.280762 7079.000000
2683.153564 6189.000000
2684.026123 6105.000000
2684.897949 6963.000000
2685.769043 6505.000000
2686.639893 6850.000000
2687.510254 7139.000000
2688.380371 6635.000000
2689.248779 6283.000000
2690.117920 7442.000000
2690.986328 7100.000000
2691.854492 6635.000000
2692.721924 6910.000000
2693.588135 5838.000000
2694.454834 7109.000000
2695.320557 7448.000000
2696.186279 7207.000000
2697.050537 7900.000000
2697.915527 6593.000000
2698.779053 7270.000000
2699.642822 5840.000000
2700.505127 7442.000000
2701.367920 6893.000000
2702.229736 5970.000000
2703.091064 6861.000000
2703.952393 6709.000000
2704.812500 7440.000000
2705.672607 7343.000000
2706.532227 6533.000000
2707.391602 6834.000000
2708.249268 7162.000000
2709.107178 6865.000000
2709.965576 7306.000000
2710.822754 6746.000000
2711.679199 5984.000000
2712.535156 6921.000000
2713.391113 6102.000000
2714.246338 6973.000000
2715.100830 6040.000000
2715.954834 6804.000000
2716.808838 7314.000000
2717.661865 6268.000000
2718.515137 6623.000000
2719.366699 7780.000000
2720.218750 6749.000000
2721.070557 6272.000000
2721.921143 6497.000000
2722.771729 6455.000000
2723.621826 7125.000000
2724.471191 7047.000000
2725.320557 6981.000000
2726.168701 6654.000000
2727.016357 6563.000000
2727.864502 7007.000000
2728.711426 6831.000000
2729.558838 5518.000000
2730.404785 7465.000000
2731.250000 7026.000000
2732.095703 6451.000000
2732.940430 7002.000000
2733.785156 7312.000000
2734.628662 6838.000000
2735.472412 7796.000000
2736.315430 7183.000000
2737.157959 6085.000000
2737.999512 6205.000000
2738.841553 6752.000000
2739.682617 7277.000000
2740.523438 5806.000000
2741.364014 5906.000000
2742.203369 7818.000000
2743.042725 6836.000000
2743.882080 6886.000000
2744.720215 6740.000000
2745.557861 7908.000000
2746.395508 6372.000000
2747.232666 7113.000000
2748.069580 6228.000000
2748.906006 6036.000000
2749.741211 6641.000000
2750.576660 6293.000000
2751.411621 6322.000000
2752.245850 6276.000000
2753.079834 6937.000000
2753.913330 6855.000000
2754.746826 8027.000000
2755.579346 6812.000000
2756.411377 7316.000000
2757.242920 6787.000000
2758.074463 7058.000000
2758.905029 7166.000000
2759.735840 7264.000000
2760.565430 7320.000000
2761.395020 6707.000000
2762.224365 7289.000000
2763.052979 6841.000000
2763.881104 6788.000000
2764.708740 6844.000000
2765.536377 6690.000000
2766.363525 7875.000000
2767.189941 5803.000000
2768.015869 7484.000000
2768.841309 6808.000000
2769.666504 7824.000000
2770.491699 7070.000000
2771.315674 6782.000000
2772.139648 6505.000000
2772.963623 7673.000000
2773.786377 6624.000000
2774.609375 6929.000000
2775.431152 6909.000000
2776.252930 6959.000000
2777.074707 6502.000000
2777.895508 7945.000000
2778.715576 6554.000000
2779.535889 6971.000000
2780.355713 7266.000000
2781.175537 6461.000000
2781.993408 5983.000000
2782.812500 8148.000000
2783.630371 6491.000000
2784.447998 6768.000000
2785.265137 7199.000000
2786.081787 7286.000000
2786.898193 7220.000000
2787.714111 6287.000000
2788.529785 5981.000000
2789.344482 6411.000000
2790.159668 7024.000000
2790.974121 7188.000000
2791.788086 6618.000000
2792.601807 7470.000000
2793.414307 8770.000000
2794.227051 7025.000000
2795.039307 7412.000000
2795.851074 7184.000000
2796.662109 7409.000000
2797.473877 6617.000000
2798.284424 7230.000000
2799.094971 7044.000000
2799.904053 7365.000000
2800.713867 8139.000000
2801.522949 7862.000000
2802.331787 6633.000000
2803.140137 7192.000000
2803.947510 6182.000000
2804.755371 6594.000000
2805.562500 6704.000000
2806.369385 7003.000000
2807.175049 6993.000000
2807.981201 6672.000000
2808.786621 6489.000000
2809.592041 7313.000000
2810.396729 6211.000000
2811.200439 7642.000000
2812.004639 7476.000000
2812.808350 6366.000000
2813.611816 6107.000000
2814.413818 6562.000000
2815.216553 7317.000000
2816.018555 7832.000000
2816.820313 6124.000000
2817.621582 6543.000000
2818.422363 7285.000000
2819.222656 6495.000000
2820.023193 6725.000000
2820.822754 8037.000000
2821.621826 7154.000000
2822.420898 6451.000000
2823.219727 6878.000000
2824.018066 6367.000000
2824.815430 7062.000000
2825.613037 7013.000000
2826.409912 6651.000000
2827.207031 7348.000000
2828.003418 8038.000000
2828.799072 6997.000000
2829.594727 7266.000000
2830.390137 7518.000000
2831.185059 7444.000000
2831.979248 6685.000000
2832.773438 6859.000000
2833.567383 5764.000000
2834.360840 6888.000000
2835.153564 7137.000000
2835.946045 8163.000000
2836.738525 7727.000000
2837.530762 7413.000000
2838.322510 6449.000000
2839.113281 6747.000000
2839.904053 8859.000000
2840.695068 7459.000000
2841.485107 6174.000000
2842.274658 7651.000000
2843.064453 7194.000000
2843.853271 7386.000000
2844.642090 7842.000000
2845.430908 7728.000000
2846.218750 7554.000000
2847.006104 7249.000000
2847.793701 7433.000000
2848.580811 7256.000000
2849.367188 6644.000000
2850.153564 7452.000000
2850.939697 7207.000000
2851.725342 7554.000000
2852.510010 7172.000000
2853.295166 6944.000000
2854.080078 7485.000000
2854.864258 7094.000000
2855.648438 6952.000000
2856.431396 8305.000000
2857.214600 6784.000000
2857.997559 6750.000000
2858.780029 7749.000000
2859.562256 6300.000000
2860.343994 6626.000000
2861.125488 7616.000000
2861.907227 7480.000000
2862.688232 7667.000000
2863.468506 6573.000000
2864.248535 6753.000000
2865.028564 8136.000000
2865.808350 7452.000000
2866.587158 8159.000000
2867.366211 7686.000000
2868.144775 6755.000000
2868.923096 7012.000000
2869.700928 7193.000000
2870.478516 7031.000000
2871.255859 7441.000000
2872.032959 7062.000000
2872.809570 6484.000000
2873.585693 7511.000000
2874.361816 7151.000000
2875.137451 8287.000000
2875.912842 7257.000000
2876.687744 6672.000000
2877.462402 8118.000000
2878.237061 6783.000000
2879.011475 7971.000000
2879.785156 6947.000000
2880.558105 7304.000000
2881.331787 6844.000000
2882.104492 7615.000000
2882.877197 7818.000000
2883.649170 8286.000000
2884.420898 6208.000000
2885.193115 6797.000000
2885.964111 6918.000000
2886.734619 6221.000000
2887.505615 8397.000000
2888.276611 7413.000000
2889.046875 8015.000000
2889.816162 7657.000000
2890.585693 6963.000000
2891.355225 7206.000000
2892.124268 7414.000000
2892.892822 7871.000000
2893.661377 7674.000000
2894.428955 6990.000000
2895.197021 6637.000000
2895.964600 7481.000000
2896.732178 8283.000000
2897.498535 7377.000000
2898.265869 6489.000000
2899.031982 7195.000000
2899.798340 7022.000000
2900.563232 8366.000000
2901.328613 7023.000000
2902.094482 6471.000000
2902.858887 7755.000000
2903.623291 7820.000000
2904.387939 8361.000000
2905.151611 6634.000000
2905.916016 8478.000000
2906.679688 6659.000000
2907.442627 8408.000000
2908.205322 6542.000000
2908.968506 9065.000000
2909.731201 7012.000000
2910.492676 6783.000000
2911.254639 6783.000000
