scanname Analyse064
timestamp 2017-02-10 21:25:45
ccdbias 893.074707
ccdgain 3.473401
sigmaread 8.960639
laserwavenum -0.607169
wavenumcorrection -0.084205
scancount 1
totalexposurems 10000
singleexposurems 10000
measurementstate Unknown
scanmode Manual
snr 197.059509 4.474066 3.915793
replacelist 3
374 36998.000000 15000.000000
383 36941.000000 11993.000000
672 36185.000000 31238.000000
peaks 27
277.491333 0.548403 0.000000 1.302998 0.000156
289.673615 0.546948 0.000000 0.314178 0.000018
297.863251 0.547158 0.000000 0.329474 0.000026
328.620880 0.548651 0.000000 0.554961 0.000103
388.113098 0.568414 0.000000 1.255494 0.000256
451.245026 0.556178 0.000000 0.378844 0.000017
497.684692 0.564209 0.000000 0.833312 0.000028
533.563171 0.564512 0.000000 0.692015 0.000134
581.878540 0.570539 0.000000 0.403479 0.000027
670.897705 0.565430 0.000000 0.684306 0.000051
715.966064 0.564270 0.000000 3.944203 0.000748
739.245911 0.553029 0.000000 0.909037 0.000065
767.004578 0.575867 0.000000 3.138880 0.000666
785.843811 0.567072 0.000000 1.990994 0.000477
829.238647 0.543662 0.000000 0.601472 0.000074
853.031006 0.548169 0.000000 0.155149 0.000111
875.597412 0.577808 0.000000 2.145951 0.000555
940.564392 0.527617 0.000000 0.119123 0.000047
1038.322876 0.518937 0.000000 0.080117 0.000025
1046.127319 0.521182 0.000000 0.660114 0.000208
1081.239136 0.514118 0.000000 0.323119 0.000037
1089.303711 0.512943 0.000000 0.548194 0.000089
1151.939331 0.499284 0.000000 0.492255 0.000195
1322.496704 0.584795 0.000000 16.146194 0.004912
1456.947388 0.496577 0.000000 3.499748 0.001543
1651.968872 0.420324 0.000000 0.582255 0.000078
1661.148560 0.422447 0.000000 1.578959 0.000520
finalresult GLS_NoMatch 0
spectrum 2048
-96.994286 45290.000000
-94.367416 45290.000000
-91.742424 45930.000000
-89.119324 45961.000000
-86.498093 46897.000000
-83.878761 46614.000000
-81.261292 46913.000000
-78.645699 46681.000000
-76.031982 47002.000000
-73.420143 47446.000000
-70.810165 47177.000000
-68.202072 47387.000000
-65.595825 47399.000000
-62.991455 47340.000000
-60.388947 47323.000000
-57.788292 47833.000000
-55.189499 47270.000000
-52.592564 46574.000000
-49.997482 46969.000000
-47.404255 46950.000000
-44.812878 47170.000000
-42.223347 46716.000000
-39.635658 47511.000000
-37.049820 47378.000000
-34.465824 46916.000000
-31.883665 47700.000000
-29.303352 47008.000000
-26.724867 47662.000000
-24.148224 47271.000000
-21.573406 47039.000000
-19.000429 46804.000000
-16.429272 46684.000000
-13.859949 46420.000000
-11.292451 45478.000000
-8.726771 46814.000000
-6.162918 46535.000000
-3.600877 46945.000000
-1.040661 47011.000000
1.517747 46557.000000
4.074334 45668.000000
6.629116 45678.000000
9.182081 45961.000000
11.733246 44590.000000
14.282598 44135.000000
16.830154 43131.000000
19.375898 43108.000000
21.919849 42481.000000
24.461996 39812.000000
27.002346 37898.000000
29.540911 34969.000000
32.077679 31728.000000
34.612644 25234.000000
37.145832 14435.000000
39.677238 8597.000000
42.206852 7811.000000
44.734669 7515.000000
47.260727 6547.000000
49.784996 5741.000000
52.307495 5173.000000
54.828197 4819.000000
57.347145 4890.000000
59.864319 5802.000000
62.379715 7442.000000
64.893333 9439.000000
67.405197 9138.000000
69.915314 6520.000000
72.423637 4240.000000
74.930206 3436.000000
77.435028 2917.000000
79.938095 2361.000000
82.439384 2196.000000
84.938934 1944.000000
87.436729 1873.000000
89.932793 2118.000000
92.427078 2445.000000
94.919624 2791.000000
97.410454 2784.000000
99.899513 2350.000000
102.386826 1912.000000
104.872414 1567.000000
107.356262 1385.000000
109.838364 1501.000000
112.318741 1268.000000
114.797394 1168.000000
117.274323 1154.000000
119.749496 1138.000000
122.222961 1198.000000
124.694695 1152.000000
127.164719 1319.000000
129.632980 1364.000000
132.099579 1560.000000
134.564423 1617.000000
137.027573 1864.000000
139.488983 2181.000000
141.948700 2784.000000
144.406693 3280.000000
146.862991 3925.000000
149.317581 5125.000000
151.770447 6186.000000
154.221634 7512.000000
156.671127 9044.000000
159.118896 10842.000000
161.564957 12606.000000
164.009338 15652.000000
166.452042 15981.000000
168.893051 17299.000000
171.332352 18317.000000
173.769943 19003.000000
176.205902 19455.000000
178.640121 19651.000000
181.072662 19907.000000
183.503555 20059.000000
185.932724 20113.000000
188.360245 20242.000000
190.786087 20289.000000
193.210251 20517.000000
195.632751 20705.000000
198.053558 20741.000000
200.472702 21872.000000
202.890182 24293.000000
205.305969 24515.000000
207.720108 26341.000000
210.132614 28154.000000
212.543442 29745.000000
214.952591 31173.000000
217.360107 31642.000000
219.765915 34155.000000
222.170135 34791.000000
224.572647 35170.000000
226.973541 35390.000000
229.372787 36116.000000
231.770370 35951.000000
234.166290 35589.000000
236.560593 36407.000000
238.953232 37096.000000
241.344254 36124.000000
243.733612 36422.000000
246.121353 36589.000000
248.507446 36026.000000
250.891907 36913.000000
253.274719 35080.000000
255.655960 36463.000000
258.035492 36206.000000
260.413452 36308.000000
262.789734 35166.000000
265.164459 35271.000000
267.537537 34729.000000
269.908966 36176.000000
272.278748 35848.000000
274.646973 36300.000000
277.013550 35838.000000
279.378540 35397.000000
281.741913 36115.000000
284.103638 35888.000000
286.463776 34975.000000
288.822296 36151.000000
291.179230 35445.000000
293.534546 35578.000000
295.888275 36064.000000
298.240356 36029.000000
300.590881 35650.000000
302.939819 35606.000000
305.287109 35044.000000
307.632874 35464.000000
309.976959 35361.000000
312.319519 34624.000000
314.660461 34381.000000
316.999786 34593.000000
319.337555 34804.000000
321.673767 33471.000000
324.008331 35128.000000
326.341339 34785.000000
328.672791 35281.000000
331.002655 34676.000000
333.330933 34841.000000
335.657593 34005.000000
337.982758 34937.000000
340.306305 35022.000000
342.628296 35191.000000
344.948730 33790.000000
347.267548 33477.000000
349.584808 34938.000000
351.900543 35104.000000
354.214691 34157.000000
356.527252 34755.000000
358.838257 34750.000000
361.147736 33993.000000
363.455688 34651.000000
365.762024 35322.000000
368.066772 34658.000000
370.370056 34707.000000
372.671722 34943.000000
374.971893 34869.000000
377.270508 35059.000000
379.567566 35580.000000
381.863068 35483.000000
384.157043 35766.000000
386.449432 36533.000000
388.740326 36363.000000
391.029694 35875.000000
393.317474 35986.000000
395.603729 35952.000000
397.888489 35465.000000
400.171631 36339.000000
402.453339 35966.000000
404.733521 36248.000000
407.012115 35049.000000
409.289185 35830.000000
411.564728 35357.000000
413.838745 35532.000000
416.111328 35532.000000
418.382294 35706.000000
420.651764 35517.000000
422.919739 34782.000000
425.186157 34588.000000
427.451080 35360.000000
429.714539 35161.000000
431.976410 34913.000000
434.236816 35285.000000
436.495667 34609.000000
438.753052 35000.000000
441.008942 35267.000000
443.263336 35042.000000
445.516205 35341.000000
447.767517 33854.000000
450.017426 34488.000000
452.265747 34311.000000
454.512634 34833.000000
456.758057 34019.000000
459.001923 33987.000000
461.244293 33665.000000
463.485168 34670.000000
465.724640 33647.000000
467.962524 34854.000000
470.198975 34418.000000
472.433899 34387.000000
474.667358 33004.000000
476.899384 33533.000000
479.129883 34425.000000
481.358887 33660.000000
483.586426 33955.000000
485.812469 34268.000000
488.037079 33773.000000
490.260223 34510.000000
492.481903 33949.000000
494.702026 33827.000000
496.920746 34781.000000
499.137970 34245.000000
501.353821 34964.000000
503.568054 34521.000000
505.780975 34261.000000
507.992310 34437.000000
510.202209 34054.000000
512.410706 34400.000000
514.617798 34302.000000
516.823303 34349.000000
519.027405 34138.000000
521.229980 34421.000000
523.431152 34013.000000
525.630981 33852.000000
527.829285 33446.000000
530.026062 34845.000000
532.221497 34289.000000
534.415405 34723.000000
536.607971 32805.000000
538.799011 33532.000000
540.988647 34131.000000
543.176880 33106.000000
545.363586 32658.000000
547.548828 32594.000000
549.732788 32891.000000
551.915161 32529.000000
554.096191 32615.000000
556.275696 32577.000000
558.453918 32672.000000
560.630615 32498.000000
562.805908 32062.000000
564.979797 32070.000000
567.152222 32522.000000
569.323242 32396.000000
571.492798 32161.000000
573.661072 33272.000000
575.827820 32283.000000
577.993103 32412.000000
580.156982 32532.000000
582.319580 32981.000000
584.480652 32773.000000
586.640320 33305.000000
588.798645 33208.000000
590.955444 33028.000000
593.110901 32687.000000
595.264954 33513.000000
597.417664 33406.000000
599.568848 32395.000000
601.718689 32827.000000
603.867188 32823.000000
606.014099 33306.000000
608.159790 33032.000000
610.304077 33106.000000
612.446899 32546.000000
614.588257 33374.000000
616.728394 33024.000000
618.867004 31840.000000
621.004333 33592.000000
623.140198 32680.000000
625.274658 32343.000000
627.407654 31896.000000
629.539490 32195.000000
631.669861 32147.000000
633.798828 31844.000000
635.926331 31934.000000
638.052551 32056.000000
640.177246 30875.000000
642.300720 31710.000000
644.422852 31116.000000
646.543518 30900.000000
648.662842 30949.000000
650.780762 31630.000000
652.897339 31579.000000
655.012512 30876.000000
657.126343 30697.000000
659.238708 31141.000000
661.349854 30960.000000
663.459595 31647.000000
665.567871 31203.000000
667.674988 31010.000000
669.780640 30573.000000
671.884827 31633.000000
673.987793 31646.000000
676.089355 30625.000000
678.189575 32356.000000
680.288391 31118.000000
682.385864 31878.000000
684.482056 31225.000000
686.576782 31814.000000
688.670288 31276.000000
690.762451 31535.000000
692.853088 30305.000000
694.942505 31430.000000
697.030640 31473.000000
699.117310 31665.000000
701.202759 30905.000000
703.286682 32207.000000
705.369385 31396.000000
707.450806 31339.000000
709.530762 29490.000000
711.609497 30407.000000
713.686768 30937.000000
715.762756 30093.000000
717.837463 30750.000000
719.910889 29837.000000
721.982788 30586.000000
724.053528 29425.000000
726.122925 30679.000000
728.190918 29849.000000
730.257568 29887.000000
732.322998 29099.000000
734.387085 30235.000000
736.449829 29770.000000
738.511230 29445.000000
740.571350 29311.000000
742.630066 29849.000000
744.687561 29254.000000
746.743774 29335.000000
748.798584 29058.000000
750.852112 29505.000000
752.904236 28306.000000
754.955139 29839.000000
757.004822 28887.000000
759.053040 29317.000000
761.100037 29641.000000
763.145752 28844.000000
765.190063 30706.000000
767.233093 30658.000000
769.274902 30157.500000
771.315369 29657.000000
773.354431 29128.000000
775.392334 29357.000000
777.428894 29572.000000
779.464233 30409.000000
781.498230 30354.000000
783.530823 29509.000000
785.562256 31166.000000
787.592285 30838.000000
789.621033 30510.000000
791.648621 29629.000000
793.674866 29613.000000
795.699707 30068.000000
797.723450 30428.000000
799.745789 29681.000000
801.766907 30421.000000
803.786682 29366.000000
805.805176 31112.000000
807.822449 29272.000000
809.838318 29249.000000
811.853027 29967.000000
813.866394 29116.000000
815.878540 29033.000000
817.889465 28951.000000
819.899048 28290.000000
821.907410 29362.000000
823.914368 28759.000000
825.920105 28415.000000
827.924622 28654.000000
829.927856 28740.000000
831.929810 27893.000000
833.930481 28311.000000
835.929932 28354.000000
837.928040 27981.000000
839.925049 27359.000000
841.920654 28017.000000
843.915100 28046.000000
845.908203 27755.000000
847.900085 27071.000000
849.890625 28173.000000
851.879883 26918.000000
853.868103 27755.000000
855.854919 27987.000000
857.840515 27578.000000
859.824829 26886.000000
861.808044 27848.000000
863.789856 27838.000000
865.770447 28627.000000
867.749756 27071.000000
869.727905 27772.000000
871.704712 28771.000000
873.680237 29212.000000
875.654724 29163.000000
877.627747 29425.000000
879.599731 29960.000000
881.570374 28922.000000
883.539856 29076.000000
885.507996 29134.000000
887.474976 29287.000000
889.440613 28285.000000
891.405090 28435.000000
893.368347 28167.000000
895.330383 27648.000000
897.291138 28222.000000
899.250671 27522.000000
901.208923 27246.000000
903.166077 27539.000000
905.122070 27693.000000
907.076660 26948.000000
909.030029 27237.000000
910.982239 27069.000000
912.933228 27034.000000
914.882935 26138.000000
916.831482 26516.000000
918.778809 26442.000000
920.724854 26241.000000
922.669617 25900.000000
924.613342 25461.000000
926.555908 25404.000000
928.497192 25596.000000
930.437134 24695.000000
932.375977 24908.000000
934.313538 25102.000000
936.249878 24864.000000
938.185059 24835.000000
940.118958 24741.000000
942.051758 25031.000000
943.983337 24409.000000
945.913757 25625.000000
947.842957 24949.000000
949.770813 24621.000000
951.697632 24786.000000
953.623169 25202.000000
955.547424 25745.000000
957.470581 25683.000000
959.392578 25369.000000
961.313293 24887.000000
963.232849 25341.000000
965.151245 26295.000000
967.068604 25521.000000
968.984497 25606.000000
970.899292 25853.000000
972.812866 26058.000000
974.725281 25698.000000
976.636475 25621.000000
978.546509 26171.000000
980.455261 25602.000000
982.362976 25735.000000
984.269470 25499.000000
986.174744 25941.000000
988.078918 25114.000000
989.981873 25596.000000
991.883606 25110.000000
993.784180 25215.000000
995.683594 24925.000000
997.581787 25669.000000
999.478821 24781.000000
1001.374634 24657.000000
1003.269287 23534.000000
1005.162842 24434.000000
1007.055115 23354.000000
1008.946472 23699.000000
1010.836487 24139.000000
1012.725281 23443.000000
1014.612915 23696.000000
1016.499390 23407.000000
1018.384705 23274.000000
1020.268860 23478.000000
1022.151794 23451.000000
1024.033691 23171.000000
1025.914307 23741.000000
1027.793823 23517.000000
1029.672363 23436.000000
1031.549561 23778.000000
1033.425415 23494.000000
1035.300293 23774.000000
1037.174194 23678.000000
1039.046631 23412.000000
1040.918091 23449.000000
1042.788208 23771.000000
1044.657349 23909.000000
1046.525269 24112.000000
1048.392090 23632.000000
1050.257813 23857.000000
1052.122314 24030.000000
1053.985718 24086.000000
1055.847778 23964.000000
1057.708862 24225.000000
1059.568848 23985.000000
1061.427490 23784.000000
1063.285034 24392.000000
1065.141479 23835.000000
1066.996826 24290.000000
1068.850952 24405.000000
1070.704224 24104.000000
1072.556030 24123.000000
1074.406860 24150.000000
1076.256470 24200.000000
1078.104858 24713.000000
1079.952393 23164.000000
1081.798584 24366.000000
1083.643555 23851.000000
1085.487671 24240.000000
1087.330444 24247.000000
1089.171997 23808.000000
1091.012817 23853.000000
1092.852051 23379.000000
1094.690552 23628.000000
1096.527710 23458.000000
1098.363647 22833.000000
1100.198608 22518.000000
1102.032349 22278.000000
1103.865112 22212.000000
1105.696533 22345.000000
1107.527100 22266.000000
1109.356323 22136.000000
1111.184570 21424.000000
1113.011597 21100.000000
1114.837646 21627.000000
1116.662476 21392.000000
1118.486206 21187.000000
1120.308716 21483.000000
1122.130127 21444.000000
1123.950684 21530.000000
1125.769775 21363.000000
1127.588013 21250.000000
1129.404907 21433.000000
1131.220947 21515.000000
1133.035767 21511.000000
1134.849487 21649.000000
1136.662109 21760.000000
1138.473511 22122.000000
1140.283936 22075.000000
1142.093262 21938.000000
1143.901245 22049.000000
1145.708496 22195.000000
1147.514282 22160.000000
1149.319214 22357.000000
1151.123047 22456.000000
1152.925659 22346.000000
1154.727417 22351.000000
1156.527710 22224.000000
1158.327026 22090.000000
1160.125366 21948.000000
1161.922363 22064.000000
1163.718628 21897.000000
1165.513550 21639.000000
1167.307373 21636.000000
1169.100342 21143.000000
1170.891968 21176.000000
1172.682617 20850.000000
1174.472290 20698.000000
1176.260498 20815.000000
1178.047852 20647.000000
1179.834106 20863.000000
1181.619263 20873.000000
1183.403320 20843.000000
1185.186279 20338.000000
1186.968262 20707.000000
1188.749023 20522.000000
1190.528809 20623.000000
1192.307495 20179.000000
1194.085205 20287.000000
1195.861694 20097.000000
1197.637085 19797.000000
1199.411377 19622.000000
1201.184570 19493.000000
1202.956909 19431.000000
1204.727905 19342.000000
1206.498047 19371.000000
1208.266968 19324.000000
1210.034790 19227.000000
1211.801758 19235.000000
1213.567383 19201.000000
1215.332031 19119.000000
1217.095581 19227.000000
1218.858032 19311.000000
1220.619629 19030.000000
1222.380005 19222.000000
1224.139282 18898.000000
1225.897705 18965.000000
1227.654907 19063.000000
1229.411011 19316.000000
1231.166016 19196.000000
1232.920166 19485.000000
1234.672974 19511.000000
1236.424805 19569.000000
1238.175781 19676.000000
1239.925415 19856.000000
1241.674194 19706.000000
1243.421631 19662.000000
1245.168335 19623.000000
1246.913818 19839.000000
1248.658447 19836.000000
1250.401733 19680.000000
1252.144043 19725.000000
1253.885254 19753.000000
1255.625610 19435.000000
1257.364868 18944.000000
1259.102905 18464.000000
1260.840088 18342.000000
1262.576050 18359.000000
1264.311035 18786.000000
1266.045044 18884.000000
1267.778076 19395.000000
1269.509888 19647.000000
1271.240723 19547.000000
1272.970337 19479.000000
1274.699097 19829.000000
1276.426758 19882.000000
1278.153320 19706.000000
1279.879028 19846.000000
1281.603394 19658.000000
1283.326904 19718.000000
1285.049438 19388.000000
1286.770996 19364.000000
1288.491333 19421.000000
1290.210693 19207.000000
1291.928955 19080.000000
1293.646240 19133.000000
1295.362549 19148.000000
1297.077637 19317.000000
1298.791748 19290.000000
1300.504883 19192.000000
1302.217163 18695.000000
1303.928223 18236.000000
1305.638306 18477.000000
1307.347290 18221.000000
1309.055054 18228.000000
1310.762207 18030.000000
1312.467896 18152.000000
1314.172852 18109.000000
1315.876831 18317.000000
1317.579590 18635.000000
1319.281372 19471.000000
1320.982300 23673.000000
1322.681885 23227.000000
1324.380615 20449.000000
1326.078613 17671.000000
1327.775269 17491.000000
1329.470825 17417.000000
1331.165527 17382.000000
1332.859009 17482.000000
1334.551636 17397.000000
1336.243408 17039.000000
1337.933838 17254.000000
1339.623535 16972.000000
1341.312134 17057.000000
1342.999634 16890.000000
1344.686157 17067.000000
1346.371582 16887.000000
1348.056030 16973.000000
1349.739624 16938.000000
1351.421997 17045.000000
1353.103394 17239.000000
1354.783936 17506.000000
1356.463257 17530.000000
1358.141968 17628.000000
1359.819336 17795.000000
1361.495605 17787.000000
1363.170898 17967.000000
1364.845459 17912.000000
1366.518799 17844.000000
1368.191162 17846.000000
1369.862549 17863.000000
1371.532959 17749.000000
1373.202271 17828.000000
1374.870605 17779.000000
1376.538086 17880.000000
1378.204468 17609.000000
1379.869873 17553.000000
1381.534302 17520.000000
1383.197510 17426.000000
1384.860107 17269.000000
1386.521362 17143.000000
1388.181763 16947.000000
1389.841064 16968.000000
1391.499390 16949.000000
1393.156982 16806.000000
1394.813354 17043.000000
1396.468872 16941.000000
1398.123169 16876.000000
1399.776611 16989.000000
1401.428955 17048.000000
1403.080566 17017.000000
1404.730957 16790.000000
1406.380249 16420.000000
1408.028809 16009.000000
1409.676270 15900.000000
1411.322754 15869.000000
1412.968384 15768.000000
1414.613037 15772.000000
1416.256470 15642.000000
1417.899048 15592.000000
1419.540527 15533.000000
1421.181152 15735.000000
1422.820801 15608.000000
1424.459351 15461.000000
1426.097046 15416.000000
1427.733643 15263.000000
1429.369263 15374.000000
1431.004150 15224.000000
1432.637939 15322.000000
1434.270630 15336.000000
1435.902344 15265.000000
1437.533203 15207.000000
1439.162964 15212.000000
1440.791626 15208.000000
1442.419678 15481.000000
1444.046631 15367.000000
1445.672363 15330.000000
1447.297485 15475.000000
1448.921509 15748.000000
1450.544556 15978.000000
1452.166626 15846.000000
1453.787598 16080.000000
1455.407593 16274.000000
1457.026855 16236.000000
1458.644775 19156.000000
1460.262085 14305.000000
1461.878418 15763.000000
1463.493530 15716.000000
1465.107788 15628.000000
1466.721191 15697.000000
1468.333496 15813.000000
1469.944946 15714.000000
1471.555542 15615.000000
1473.164917 15663.000000
1474.773315 15502.000000
1476.380859 15498.000000
1477.987427 15812.000000
1479.593262 15778.000000
1481.197876 15550.000000
1482.801636 15405.000000
1484.404175 15043.000000
1486.006104 14584.000000
1487.606812 14548.000000
1489.206787 14441.000000
1490.805664 14178.000000
1492.403687 14278.000000
1494.000610 14187.000000
1495.596680 14712.000000
1497.191772 15258.000000
1498.785889 15217.000000
1500.379272 14897.000000
1501.971558 14983.000000
1503.562622 14851.000000
1505.153198 14817.000000
1506.742432 14650.000000
1508.331055 14690.000000
1509.918579 14311.000000
1511.505005 14465.000000
1513.090698 14209.000000
1514.675293 14273.000000
1516.259033 14391.000000
1517.841675 14093.000000
1519.423584 14253.000000
1521.004395 14221.000000
1522.584473 14190.000000
1524.163330 13982.000000
1525.741333 13769.000000
1527.318604 13622.000000
1528.894653 13687.000000
1530.469971 13689.000000
1532.044189 13636.000000
1533.617676 13578.000000
1535.189941 13545.000000
1536.761475 13454.000000
1538.332031 13617.000000
1539.901733 13364.000000
1541.470215 13445.000000
1543.037964 13342.000000
1544.604858 13349.000000
1546.170532 13095.000000
1547.735474 13248.000000
1549.299316 13178.000000
1550.862549 13208.000000
1552.424438 13085.000000
1553.985718 13295.000000
1555.545898 13129.000000
1557.105347 13008.000000
1558.663696 13040.000000
1560.221313 12850.000000
1561.777832 12950.000000
1563.333130 12942.000000
1564.887817 12957.000000
1566.441772 13088.000000
1567.994751 12935.000000
1569.546387 13088.000000
1571.097290 12984.000000
1572.647461 13063.000000
1574.196655 12965.000000
1575.744507 13054.000000
1577.291870 13092.000000
1578.838257 13121.000000
1580.383789 13151.000000
1581.928345 13090.000000
1583.471680 13116.000000
1585.014404 13236.000000
1586.556274 12938.000000
1588.097046 13038.000000
1589.636841 13144.000000
1591.175903 12913.000000
1592.713867 12933.000000
1594.251343 12847.000000
1595.787476 12997.000000
1597.322510 12887.000000
1598.857056 12731.000000
1600.390625 12737.000000
1601.923340 12747.000000
1603.454468 12858.000000
1604.985352 12999.000000
1606.515381 12978.000000
1608.044189 12666.000000
1609.571899 12751.000000
1611.098999 12875.000000
1612.625366 12895.000000
1614.150757 12877.000000
1615.675293 12833.000000
1617.198486 12706.000000
1618.720947 12894.000000
1620.242676 12845.000000
1621.763550 13078.000000
1623.282959 11846.000000
1624.801880 12797.000000
1626.320068 12540.000000
1627.837402 12598.000000
1629.353638 12576.000000
1630.868530 12409.000000
1632.382935 12371.000000
1633.896606 12365.000000
1635.409180 12464.000000
1636.920532 12312.000000
1638.431519 12234.000000
1639.941406 12225.000000
1641.450439 12314.000000
1642.958130 12219.000000
1644.465454 12045.000000
1645.971924 12012.000000
1647.477417 12014.000000
1648.982056 11964.000000
1650.485229 12103.000000
1651.987793 11985.000000
1653.489990 11847.000000
1654.990845 11737.000000
1656.490601 11703.000000
1657.989502 11518.000000
1659.488037 11623.000000
1660.985352 11593.000000
1662.481934 11583.000000
1663.976929 11511.000000
1665.471680 11445.000000
1666.965576 11287.000000
1668.458496 12638.000000
1669.950073 8898.000000
1671.441162 11142.000000
1672.931641 11082.000000
1674.421021 10954.000000
1675.908936 11016.000000
1677.396606 10985.000000
1678.883301 11212.000000
1680.369141 11161.000000
1681.854126 11040.000000
1683.337646 10716.000000
1684.820923 10661.000000
1686.303345 10884.000000
1687.784668 10659.000000
1689.264526 10796.000000
1690.744141 10637.000000
1692.223022 10718.000000
1693.700928 10663.000000
1695.177856 10515.000000
1696.653564 10729.000000
1698.128906 10586.000000
1699.603027 10536.000000
1701.076538 10490.000000
1702.548584 10587.000000
1704.020386 10391.000000
1705.491211 10636.000000
1706.961182 10521.000000
1708.429810 10589.000000
1709.897949 10478.000000
1711.365356 10555.000000
1712.831665 10579.000000
1714.297363 10385.000000
1715.761353 10727.000000
1717.225220 10540.000000
1718.688232 10377.000000
1720.150269 10455.000000
1721.611084 10455.000000
1723.071289 10575.000000
1724.530762 10508.000000
1725.989380 10611.000000
1727.447021 10626.000000
1728.903320 10502.000000
1730.359375 10398.000000
1731.814453 10421.000000
1733.268555 10531.000000
1734.721436 10488.000000
1736.174072 10361.000000
1737.625610 10349.000000
1739.076416 10313.000000
1740.526245 10242.000000
1741.974731 10277.000000
1743.422852 10062.000000
1744.870117 10255.000000
1746.316650 10165.000000
1747.761597 10055.000000
1749.206299 10074.000000
1750.650146 10052.000000
1752.093140 10106.000000
1753.534668 9990.000000
1754.975952 10465.000000
1756.416382 8939.000000
1757.855835 9957.000000
1759.294312 9812.000000
1760.731812 9855.000000
1762.168823 9586.000000
1763.604858 9682.000000
1765.040039 9617.000000
1766.473755 9688.000000
1767.907349 9769.000000
1769.339966 9712.000000
1770.771729 9792.000000
1772.202637 9718.000000
1773.632324 9583.000000
1775.061279 9381.000000
1776.489746 9364.000000
1777.917236 8964.000000
1779.343384 8629.000000
1780.769287 9181.000000
1782.194092 9119.000000
1783.618286 9196.000000
1785.041016 9197.000000
1786.463257 9099.000000
1787.884766 8986.000000
1789.305542 9123.000000
1790.725342 8836.000000
1792.143799 8817.000000
1793.561768 8858.000000
1794.979126 8936.000000
1796.395630 8910.000000
1797.810669 8756.000000
1799.225342 8738.000000
1800.639404 8711.000000
1802.052246 8804.000000
1803.464478 8681.000000
1804.875366 8769.000000
1806.285767 8552.000000
1807.695435 8697.000000
1809.104126 8724.000000
1810.511719 8715.000000
1811.918823 8831.000000
1813.325073 8772.000000
1814.730347 8750.000000
1816.134521 8668.000000
1817.538330 8803.000000
1818.941162 8810.000000
1820.343140 8767.000000
1821.744507 8648.000000
1823.144409 8680.000000
1824.543701 8682.000000
1825.942505 8736.000000
1827.340454 8611.000000
1828.737061 8704.000000
1830.133057 8564.000000
1831.528320 8665.000000
1832.922974 8592.000000
1834.316650 8726.000000
1835.708984 8592.000000
1837.100830 8644.000000
1838.492065 8583.000000
1839.882324 8647.000000
1841.271362 8556.000000
1842.660034 8732.000000
1844.047729 8461.000000
1845.434692 8565.000000
1846.820313 8653.000000
1848.205688 8493.000000
1849.590210 8463.000000
1850.973999 8387.000000
1852.356689 8302.000000
1853.738159 8315.000000
1855.119141 8246.000000
1856.499634 8214.000000
1857.879150 8197.000000
1859.257202 8208.000000
1860.635132 8170.000000
1862.012085 8076.000000
1863.388306 8020.000000
1864.763672 8014.000000
1866.137573 7999.000000
1867.511353 7748.000000
1868.884277 7876.000000
1870.256104 7741.000000
1871.626953 7772.000000
1872.997437 7747.000000
1874.366821 7672.000000
1875.735718 7604.000000
1877.103027 7677.000000
1878.470215 7571.000000
1879.836426 7631.000000
1881.201904 7600.000000
1882.566650 7580.000000
1883.929810 7650.000000
1885.292847 7491.000000
1886.655029 7506.000000
1888.016357 7443.000000
1889.376343 7407.000000
1890.735962 7432.000000
1892.094971 7442.000000
1893.453003 7311.000000
1894.810181 7362.000000
1896.166138 7370.000000
1897.521851 7261.000000
1898.876587 7344.000000
1900.230469 7471.000000
1901.583252 7377.000000
1902.935547 7284.000000
1904.287109 7382.000000
1905.637817 7289.000000
1906.987305 7303.000000
1908.336304 7350.000000
1909.684448 7463.000000
1911.031982 7336.000000
1912.378784 7251.000000
1913.723999 7330.000000
1915.068970 7240.000000
1916.413208 7401.000000
1917.756592 7376.000000
1919.098633 7353.000000
1920.440430 7381.000000
1921.781372 7183.000000
1923.121582 7262.000000
1924.460815 7351.000000
1925.799072 7281.000000
1927.136719 7397.000000
1928.473633 7241.000000
1929.809692 7213.000000
1931.144531 7446.000000
1932.479004 7249.000000
1933.812744 7262.000000
1935.145630 7149.000000
1936.477051 7157.000000
1937.808594 7144.000000
1939.138794 7106.000000
1940.468506 7040.000000
1941.797363 7106.000000
1943.125000 7271.000000
1944.452148 7036.000000
1945.778564 7123.000000
1947.104248 7031.000000
1948.428589 7056.000000
1949.752686 6982.000000
1951.075928 7115.000000
1952.398438 7059.000000
1953.719849 6995.000000
1955.040283 6912.000000
1956.360107 6969.000000
1957.679565 6986.000000
1958.998047 6817.000000
1960.315186 6806.000000
1961.631958 6737.000000
1962.947998 6862.000000
1964.263306 6884.000000
1965.577148 6766.000000
1966.890747 6732.000000
1968.203613 6645.000000
1969.515625 6769.000000
1970.827026 6684.000000
1972.137085 6617.000000
1973.446655 6599.000000
1974.755493 6466.000000
1976.063721 6454.000000
1977.370605 6531.000000
1978.676880 6545.000000
1979.982788 6477.000000
1981.287476 6541.000000
1982.591675 6499.000000
1983.894653 6386.000000
1985.197266 6514.000000
1986.498901 6390.000000
1987.799927 6218.000000
1989.099365 6219.000000
1990.398926 6220.000000
1991.697388 6235.000000
1992.995361 6083.000000
1994.291748 6149.000000
1995.588135 6135.000000
1996.883545 6119.000000
1998.178223 6097.000000
1999.472046 6037.000000
2000.764648 5938.000000
2002.056763 5998.000000
2003.348389 5871.000000
2004.639282 6019.000000
2005.928589 5967.000000
2007.217651 5893.000000
2008.505981 6001.000000
2009.793579 5934.000000
2011.080322 5910.000000
2012.365967 5898.000000
2013.651245 5945.000000
2014.935547 5935.000000
2016.219238 5824.000000
2017.501587 5771.000000
2018.783569 5859.000000
2020.065063 5822.000000
2021.345581 5806.000000
2022.625366 5867.000000
2023.904053 5767.000000
2025.182007 5815.000000
2026.459473 5788.000000
2027.736328 5892.000000
2029.011475 5882.000000
2030.286743 5891.000000
2031.561035 5833.000000
2032.834351 5928.000000
2034.106812 5895.000000
2035.378906 5944.000000
2036.649902 5925.000000
2037.920654 5822.000000
2039.190063 5899.000000
2040.458374 5866.000000
2041.726685 6052.000000
2042.994019 5887.000000
2044.260620 5812.000000
2045.526001 5901.000000
2046.790771 5588.000000
2048.055176 5808.000000
2049.318604 5830.000000
2050.581543 5791.000000
2051.842529 5770.000000
2053.104004 5736.000000
2054.364258 5832.000000
2055.623779 5485.000000
2056.882568 5613.000000
2058.140381 5632.000000
2059.397705 5685.000000
2060.654297 5553.000000
2061.909424 5649.000000
2063.164551 5622.000000
2064.418701 5667.000000
2065.672119 5546.000000
2066.924805 5562.000000
2068.176270 5606.000000
2069.427490 5444.000000
2070.677979 5621.000000
2071.927734 5640.000000
2073.176025 5160.000000
2074.424316 5580.000000
2075.671631 5372.000000
2076.918213 5383.000000
2078.164063 5300.000000
2079.408691 5324.000000
2080.652832 5497.000000
2081.896484 5325.000000
2083.139160 5366.000000
2084.380615 5351.000000
2085.621826 5141.000000
2086.862549 5335.000000
2088.102295 5218.000000
2089.340820 5251.000000
2090.578857 5210.000000
2091.816162 5243.000000
2093.053223 5090.000000
2094.288818 5068.000000
2095.523682 5126.000000
2096.758301 5100.000000
2097.991943 5146.000000
2099.224609 4988.000000
2100.456543 5104.000000
2101.687988 5081.000000
2102.918457 5112.000000
2104.148193 5064.000000
2105.377686 4967.000000
2106.605225 5072.000000
2107.833008 4983.000000
2109.060059 4953.000000
2110.286133 4880.000000
2111.510742 4922.000000
2112.735596 4848.000000
2113.959229 4846.000000
2115.182373 4837.000000
2116.404297 4789.000000
2117.625977 4807.000000
2118.846680 4895.000000
2120.066650 4896.000000
2121.286133 4865.000000
2122.504150 4930.000000
2123.722168 4830.000000
2124.939209 4955.000000
2126.155762 4952.000000
2127.370605 4902.000000
2128.585693 4899.000000
2129.799805 4832.000000
2131.013184 4862.000000
2132.225830 4764.000000
2133.437012 4892.000000
2134.648438 4918.000000
2135.858643 4961.000000
2137.068359 4876.000000
2138.276611 4901.000000
2139.484863 4844.000000
2140.692383 4684.000000
2141.898682 4639.000000
2143.104248 4756.000000
2144.309570 4850.000000
2145.513916 4788.000000
2146.717529 4753.000000
2147.920654 4765.000000
2149.122314 4729.000000
2150.323730 4755.000000
2151.524414 4752.000000
2152.724365 4801.000000
2153.923096 4687.000000
2155.121582 4659.000000
2156.319580 4733.000000
2157.516602 4579.000000
2158.712891 4698.000000
2159.907959 4611.000000
2161.102783 4481.000000
2162.296875 4534.000000
2163.489990 4453.000000
2164.682129 4351.000000
2165.874023 4447.000000
2167.065186 4449.000000
2168.255371 4312.000000
2169.444824 4275.000000
2170.633789 4319.000000
2171.821777 4233.000000
2173.009521 4275.000000
2174.195801 4241.000000
2175.381348 4167.000000
2176.566650 4190.000000
2177.751465 4150.000000
2178.935059 4222.000000
2180.117920 4185.000000
2181.299805 4150.000000
2182.481445 4063.000000
2183.662598 4104.000000
2184.842529 4123.000000
2186.021484 4138.000000
2187.199951 4065.000000
2188.378174 4191.000000
2189.555176 4077.000000
2190.731201 4182.000000
2191.906982 4133.000000
2193.082275 4050.000000
2194.256104 4003.000000
2195.429443 4094.000000
2196.602539 4029.000000
2197.774414 4061.000000
2198.945801 4061.000000
2200.116699 4058.000000
2201.285889 4016.000000
2202.455078 4154.000000
2203.623779 4139.000000
2204.791504 4151.000000
2205.958252 4116.000000
2207.124268 4047.000000
2208.289795 4117.000000
2209.455078 4073.000000
2210.618896 4059.000000
2211.782227 4164.000000
2212.944336 4051.000000
2214.106689 3982.000000
2215.267822 3966.000000
2216.427979 4062.000000
2217.587646 4055.000000
2218.747070 4109.000000
2219.905273 3884.000000
2221.062500 3968.000000
2222.219482 4013.000000
2223.375732 3909.000000
2224.531250 3886.000000
2225.686035 3832.000000
2226.839844 3852.000000
2227.992676 3969.000000
2229.145996 3814.000000
2230.297363 3832.000000
2231.448486 3811.000000
2232.598877 3725.000000
2233.748779 3767.000000
2234.897705 3771.000000
2236.046143 3792.000000
2237.193115 3690.000000
2238.340332 3754.000000
2239.486328 3641.000000
2240.632080 3678.000000
2241.776123 3529.000000
2242.920410 3573.000000
2244.063721 3520.000000
2245.206299 3531.000000
2246.347900 3592.000000
2247.489258 3629.000000
2248.629639 3581.000000
2249.769287 3456.000000
2250.908447 3470.000000
2252.046387 3404.000000
2253.184326 3438.000000
2254.321289 3458.000000
2255.457520 3548.000000
2256.592773 3461.000000
2257.727295 3504.000000
2258.861572 3536.000000
2259.995361 3600.000000
2261.127686 3571.000000
2262.259521 3419.000000
2263.390869 3297.000000
2264.521240 3353.000000
2265.651367 3209.000000
2266.780273 3319.000000
2267.908691 3258.000000
2269.036621 3373.000000
2270.163574 3290.000000
2271.289795 3385.000000
2272.415039 3197.000000
2273.540283 3249.000000
2274.664795 3175.000000
2275.788086 3256.000000
2276.910645 3290.000000
2278.032715 3215.000000
2279.154297 3294.000000
2280.275146 3226.000000
2281.394775 3299.000000
2282.513916 3308.000000
2283.632813 3162.000000
2284.750977 3092.000000
2285.868164 3140.000000
2286.984375 3222.000000
2288.100342 3160.000000
2289.215576 3157.000000
2290.330078 3143.000000
2291.443359 3221.000000
2292.556641 3152.000000
2293.669189 3240.000000
2294.781006 3266.000000
2295.892090 3114.000000
2297.001953 3127.000000
2298.111328 3284.000000
2299.220459 3253.000000
2300.328613 3204.000000
2301.435791 3205.000000
2302.542725 3194.000000
2303.648926 3188.000000
2304.754639 3241.000000
2305.858887 3205.000000
2306.962891 3126.000000
2308.066406 3049.000000
2309.169434 3256.000000
2310.271240 3146.000000
2311.372314 3061.000000
2312.472900 3080.000000
2313.572998 3090.000000
2314.672363 3089.000000
2315.770264 3072.000000
2316.868652 3045.000000
2317.965576 3036.000000
2319.062256 3089.000000
2320.158447 3129.000000
2321.252930 2988.000000
2322.347412 2987.000000
2323.441162 2981.000000
2324.534668 3047.000000
2325.626465 2987.000000
2326.718262 3112.000000
2327.809326 3037.000000
2328.899658 3150.000000
2329.989014 3022.000000
2331.078369 3115.000000
2332.166504 2975.000000
2333.254150 2999.000000
2334.341553 3021.000000
2335.427246 2888.000000
2336.512695 2933.000000
2337.597900 2887.000000
2338.682129 2811.000000
2339.765381 2861.000000
2340.848389 2759.000000
2341.930420 2774.000000
2343.012207 2797.000000
2344.093262 2866.000000
2345.173096 2742.000000
2346.252441 2934.000000
2347.331299 2851.000000
2348.409668 2714.000000
2349.486572 2515.000000
2350.563232 2648.000000
2351.639648 2651.000000
2352.715088 2822.000000
2353.789551 2588.000000
2354.863770 2726.000000
2355.937256 2716.000000
2357.010254 2686.000000
2358.082031 2621.000000
2359.153564 2605.000000
2360.224121 2675.000000
2361.294434 2572.000000
2362.363770 2607.000000
2363.432129 2586.000000
2364.500244 2659.000000
2365.567627 2554.000000
2366.634521 2559.000000
2367.700684 2530.000000
2368.765625 2392.000000
2369.830566 2494.000000
2370.894775 2420.000000
2371.958252 2502.000000
2373.020508 2512.000000
2374.082764 2513.000000
2375.144043 2432.000000
2376.205078 2597.000000
2377.264893 2503.000000
2378.323975 2469.000000
2379.383057 2409.000000
2380.441162 2497.000000
2381.498535 2543.000000
2382.554932 2507.000000
2383.611084 2533.000000
2384.666748 2438.000000
2385.721680 2546.000000
2386.775146 2486.000000
2387.828857 2442.000000
2388.881592 2421.000000
2389.933838 2520.000000
2390.985352 2473.000000
2392.035889 2349.000000
2393.086182 2455.000000
2394.135498 2429.000000
2395.184814 2379.000000
2396.232666 2401.000000
2397.280029 2415.000000
2398.327148 2341.000000
2399.373291 2427.000000
2400.418701 2370.000000
2401.463379 2391.000000
2402.508057 2318.000000
2403.551270 2253.000000
2404.594482 2394.000000
2405.636230 2411.000000
2406.678223 2342.000000
2407.719482 2401.000000
2408.759766 2322.000000
2409.799316 2509.000000
2410.837891 2443.000000
2411.876709 2368.000000
2412.914307 2423.000000
2413.951660 2421.000000
2414.987793 2367.000000
2416.023682 2335.000000
2417.058838 2360.000000
2418.093506 2378.000000
2419.126709 2406.000000
2420.160156 2329.000000
2421.192627 2333.000000
2422.224854 2269.000000
2423.255615 2248.000000
2424.286377 2304.000000
2425.316650 2318.000000
2426.345703 2250.000000
2427.374756 2247.000000
2428.402100 2204.000000
2429.429932 2301.000000
2430.456543 2197.000000
2431.482910 2283.000000
2432.507813 2213.000000
2433.532959 2268.000000
2434.557129 2127.000000
2435.581055 2178.000000
2436.603760 2183.000000
2437.625732 2213.000000
2438.647461 2159.000000
2439.668457 2194.000000
2440.688965 2176.000000
2441.708252 2206.000000
2442.727539 2070.000000
2443.745850 1982.000000
2444.763916 2056.000000
2445.780518 2087.000000
2446.797119 2077.000000
2447.812988 2133.000000
2448.828857 2077.000000
2449.843262 2013.000000
2450.856934 2011.000000
2451.870117 2033.000000
2452.883057 2018.000000
2453.895264 2035.000000
2454.906494 2018.000000
2455.917480 1995.000000
2456.927734 1970.000000
2457.937500 1957.000000
2458.946289 1983.000000
2459.954346 1831.000000
2460.962402 1917.000000
2461.969238 1952.000000
2462.975830 1946.000000
2463.981201 1862.000000
2464.986328 1926.000000
2465.991211 1886.000000
2466.994873 1976.000000
2467.998291 1972.000000
2469.000732 1952.000000
2470.002930 1948.000000
2471.004639 1987.000000
2472.005371 1917.000000
2473.005127 1891.000000
2474.004883 1840.000000
2475.003662 1864.000000
2476.001953 1838.000000
2476.999268 1771.000000
2477.996338 1890.000000
2478.993408 1947.000000
2479.989014 1911.000000
2480.984619 1837.000000
2481.978516 1759.000000
2482.972412 1876.000000
2483.965820 1794.000000
2484.958740 1742.000000
2485.950684 1859.000000
2486.941895 1850.000000
2487.932861 1816.000000
2488.923340 1845.000000
2489.912842 1936.000000
2490.901611 1862.000000
2491.890381 1971.000000
2492.878174 1920.000000
2493.864746 1818.000000
2494.851318 1857.000000
2495.837402 1863.000000
2496.822754 1839.000000
2497.807129 1720.000000
2498.791260 1889.000000
2499.775391 1863.000000
2500.758057 1870.000000
2501.740234 1798.000000
2502.721924 1801.000000
2503.702881 1769.000000
2504.683350 1769.000000
2505.663574 1832.000000
2506.642334 1756.000000
2507.620850 1835.000000
2508.598877 1790.000000
2509.576416 1806.000000
2510.552979 1748.000000
2511.529297 1800.000000
2512.504883 1798.000000
2513.479980 1765.000000
2514.454590 1756.000000
2515.427979 1712.000000
2516.401123 1680.000000
2517.374023 1736.000000
2518.345947 1702.000000
2519.317139 1667.000000
2520.287842 1679.000000
2521.258301 1735.000000
2522.228027 1685.000000
2523.196777 1708.000000
2524.164795 1638.000000
2525.132813 1707.000000
2526.099854 1682.000000
2527.066650 1677.000000
2528.032227 1560.000000
2528.997803 1697.000000
2529.962646 1637.000000
2530.927002 1668.000000
2531.890137 1662.000000
2532.853516 1667.000000
2533.815918 1758.000000
2534.778076 1606.000000
2535.739014 1663.000000
2536.699219 1568.000000
2537.659668 1623.000000
2538.619141 1671.000000
2539.577881 1748.000000
2540.535645 1645.000000
2541.493652 1587.000000
2542.450928 1534.000000
2543.407227 1662.000000
2544.363281 1596.000000
2545.318115 1507.000000
2546.273193 1607.000000
2547.227539 1572.000000
2548.181152 1295.000000
2549.133789 1496.000000
2550.086182 1610.000000
2551.038086 1482.000000
2551.989258 1588.000000
2552.939697 1323.000000
2553.889648 1495.000000
2554.839355 1376.000000
2555.788330 1469.000000
2556.736816 1476.000000
2557.684082 1546.000000
2558.631348 1463.000000
2559.577881 1463.000000
2560.523926 1470.000000
2561.468994 1444.000000
2562.413818 1504.000000
2563.358154 1462.000000
2564.302002 1529.000000
2565.245361 1483.000000
2566.187256 1432.000000
2567.129395 1339.000000
2568.070801 1435.000000
2569.011475 1373.000000
2569.951416 1422.000000
2570.891357 1493.000000
2571.830322 1446.000000
2572.769043 1494.000000
2573.706787 1399.000000
2574.644287 1404.000000
2575.581055 1374.000000
2576.517090 1448.000000
2577.452637 1459.000000
2578.387451 1462.000000
2579.322266 1429.000000
2580.256104 1303.000000
2581.189453 1544.000000
2582.122070 1474.000000
2583.054443 1364.000000
2583.986084 1410.000000
2584.917236 1346.000000
2585.847900 1420.000000
2586.777344 1420.000000
2587.706787 1367.000000
2588.635742 1323.000000
2589.564453 1500.000000
2590.491455 1504.000000
2591.418701 1448.000000
2592.345459 1403.000000
2593.271484 1330.000000
2594.197266 1349.000000
2595.121826 1365.000000
2596.046143 1328.000000
2596.969971 1406.000000
2597.893311 1361.000000
2598.815674 1318.000000
2599.737793 1322.000000
2600.659424 1360.000000
2601.580322 1324.000000
2602.500488 1323.000000
2603.420410 1429.000000
2604.339844 1340.000000
2605.259033 1305.000000
2606.177246 1333.000000
2607.094238 1350.000000
2608.011475 1343.000000
2608.928467 1253.000000
2609.844482 1270.000000
2610.759277 1238.000000
2611.674561 1260.000000
2612.589111 1314.000000
2613.502686 1278.000000
2614.416260 1220.000000
2615.328613 1285.000000
2616.240967 1276.000000
2617.152344 1295.000000
2618.063477 1200.000000
2618.973877 1204.000000
2619.884033 1221.000000
2620.793457 1317.000000
2621.702393 1206.000000
2622.610352 1207.000000
2623.518555 1159.000000
2624.425781 1226.000000
2625.332520 1246.000000
2626.238525 1236.000000
2627.144287 1290.000000
2628.049316 1349.000000
2628.954102 1187.000000
2629.858154 1228.000000
2630.761230 1260.000000
2631.664307 1264.000000
2632.566406 1190.000000
2633.468506 1218.000000
2634.370361 1156.000000
2635.270508 1180.000000
2636.170898 1124.000000
2637.070557 1296.000000
2637.969971 1177.000000
2638.867920 1176.000000
2639.766357 1157.000000
2640.664307 1145.000000
2641.561523 1120.000000
2642.457520 1118.000000
2643.353516 1060.000000
2644.249268 1186.000000
2645.144287 1175.000000
2646.039063 1199.000000
2646.932373 1088.000000
2647.825684 1071.000000
2648.718750 1161.000000
2649.611572 1122.000000
2650.502686 1102.000000
2651.394043 1052.000000
2652.284912 1074.000000
2653.175049 1018.000000
2654.064941 1052.000000
2654.953613 1108.000000
2655.842529 1096.000000
2656.730957 1080.000000
2657.618408 1056.000000
2658.504883 1044.000000
2659.391846 964.000000
2660.278076 1011.000000
2661.163818 1124.000000
2662.048340 1059.000000
2662.932861 1172.000000
2663.817139 1184.000000
2664.700684 1071.000000
2665.583740 1144.000000
2666.466064 1070.000000
2667.347900 1132.000000
2668.229004 1089.000000
2669.110352 1114.000000
2669.990234 1111.000000
2670.870361 1016.000000
2671.749756 1032.000000
2672.629150 1033.000000
2673.507813 1024.000000
2674.384766 1110.000000
2675.262451 1109.000000
2676.139404 996.000000
2677.015625 1014.000000
2677.891357 1011.000000
2678.766357 1056.000000
2679.641602 1114.000000
2680.515869 1063.000000
2681.389648 948.000000
2682.262695 1089.000000
2683.135498 1089.000000
2684.008057 1143.000000
2684.879883 947.000000
2685.750977 993.000000
2686.621826 1098.000000
2687.492188 961.000000
2688.362305 1025.000000
2689.230713 954.000000
2690.099854 1062.000000
2690.968262 993.000000
2691.836426 959.000000
2692.703857 966.000000
2693.570068 1007.000000
2694.436768 1020.000000
2695.302490 998.000000
2696.168213 1025.000000
2697.032471 1031.000000
2697.897461 994.000000
2698.760986 977.000000
2699.624756 920.000000
2700.487061 978.000000
2701.349854 955.000000
2702.211670 955.000000
2703.072998 926.000000
2703.934326 852.000000
2704.794434 884.000000
2705.654541 993.000000
2706.514160 889.000000
2707.373535 991.000000
2708.231201 985.000000
2709.089111 912.000000
2709.947510 974.000000
2710.804688 969.000000
2711.661133 930.000000
2712.517090 1047.000000
2713.373047 908.000000
2714.228271 912.000000
2715.082764 962.000000
2715.936768 940.000000
2716.790771 1014.000000
2717.643799 809.000000
2718.497070 999.000000
2719.348633 956.000000
2720.200684 948.000000
2721.052490 795.000000
2721.903076 906.000000
2722.753662 783.000000
2723.603760 980.000000
2724.453125 952.000000
2725.302490 893.000000
2726.150635 892.000000
2726.998291 875.000000
2727.846436 920.000000
2728.693359 841.000000
2729.540771 918.000000
2730.386719 872.000000
2731.231934 935.000000
2732.077637 799.000000
2732.922363 786.000000
2733.767090 888.000000
2734.610596 873.000000
2735.454346 922.000000
2736.297363 886.000000
2737.139893 777.000000
2737.981445 808.000000
2738.823486 889.000000
2739.664551 852.000000
2740.505371 824.000000
2741.345947 789.000000
2742.185303 885.000000
2743.024658 806.000000
2743.864014 884.000000
2744.702148 933.000000
2745.539795 782.000000
2746.377441 831.000000
2747.214600 887.000000
2748.051514 861.000000
2748.887939 839.000000
2749.723145 796.000000
2750.558594 831.000000
2751.393555 803.000000
2752.227783 713.000000
2753.061768 902.000000
2753.895264 783.000000
2754.728760 801.000000
2755.561279 757.000000
2756.393311 831.000000
2757.224854 749.000000
2758.056396 846.000000
2758.886963 885.000000
2759.717773 818.000000
2760.547363 802.000000
2761.376953 749.000000
2762.206299 789.000000
2763.034912 835.000000
2763.863037 873.000000
2764.690674 811.000000
2765.518311 726.000000
2766.345459 851.000000
2767.171875 726.000000
2767.997803 805.000000
2768.823242 730.000000
2769.648438 851.000000
2770.473633 767.000000
2771.297607 745.000000
2772.121582 778.000000
2772.945557 768.000000
2773.768311 677.000000
2774.591309 775.000000
2775.413086 799.000000
2776.234863 800.000000
2777.056641 720.000000
2777.877441 674.000000
2778.697510 786.000000
2779.517822 757.000000
2780.337646 700.000000
2781.157471 704.000000
2781.975342 800.000000
2782.794434 679.000000
2783.612305 717.000000
2784.429932 725.000000
2785.247070 780.000000
2786.063721 711.000000
2786.880127 722.000000
2787.696045 718.000000
2788.511719 678.000000
2789.326416 632.000000
2790.141602 763.000000
2790.956055 625.000000
2791.770020 653.000000
2792.583740 663.000000
2793.396240 663.000000
2794.208984 706.000000
2795.021240 634.000000
2795.833008 726.000000
2796.644043 746.000000
2797.455811 638.000000
2798.266357 676.000000
2799.076904 696.000000
2799.885986 669.000000
2800.695801 692.000000
2801.504883 684.000000
2802.313721 633.000000
2803.122070 755.000000
2803.929443 715.000000
2804.737305 716.000000
2805.544434 595.000000
2806.351318 578.000000
2807.156982 638.000000
2807.963135 635.000000
2808.768555 616.000000
2809.573975 578.000000
2810.378662 732.000000
2811.182373 683.000000
2811.986572 607.000000
2812.790283 675.000000
2813.593750 628.000000
2814.395752 655.000000
2815.198486 711.000000
2816.000488 594.000000
2816.802246 691.000000
2817.603516 691.000000
2818.404297 670.000000
2819.204590 647.000000
2820.005127 660.000000
2820.804688 662.000000
2821.603760 605.000000
2822.402832 675.000000
2823.201660 637.000000
2824.000000 708.000000
2824.797363 679.000000
2825.594971 658.000000
2826.391846 674.000000
2827.188965 629.000000
2827.985352 569.000000
2828.781006 710.000000
2829.576660 631.000000
2830.372070 625.000000
2831.166992 675.000000
2831.961182 650.000000
2832.755371 732.000000
2833.549316 619.000000
2834.342773 599.000000
2835.135498 585.000000
2835.927979 551.000000
2836.720459 620.000000
2837.512695 550.000000
2838.304443 641.000000
2839.095215 647.000000
2839.885986 550.000000
2840.677002 687.000000
2841.467041 656.000000
2842.256592 647.000000
2843.046387 658.000000
2843.835205 592.000000
2844.624023 582.000000
2845.412842 684.000000
2846.200684 610.000000
2846.988037 629.000000
2847.775635 589.000000
2848.562744 640.000000
2849.349121 640.000000
2850.135498 572.000000
2850.921631 593.000000
2851.707275 642.000000
2852.491943 600.000000
2853.277100 600.000000
2854.062012 521.000000
2854.846191 667.000000
2855.630371 701.000000
2856.413330 657.000000
2857.196533 593.000000
2857.979492 606.000000
2858.761963 690.000000
2859.544189 673.000000
2860.325928 639.000000
2861.107422 582.000000
2861.889160 592.000000
2862.670166 585.000000
2863.450439 626.000000
2864.230469 682.000000
2865.010498 649.000000
2865.790283 596.000000
2866.569092 707.000000
2867.348145 616.000000
2868.126709 476.000000
2868.905029 625.000000
2869.682861 572.000000
2870.460449 641.000000
2871.237793 587.000000
2872.014893 592.000000
2872.791504 667.000000
2873.567627 700.000000
2874.343750 769.000000
2875.119385 714.000000
2875.894775 807.000000
2876.669678 714.000000
2877.444336 724.000000
2878.218994 777.000000
2878.993408 729.000000
2879.767090 805.000000
2880.540039 781.000000
2881.313721 707.000000
2882.086426 730.000000
2882.859131 749.000000
2883.631104 685.000000
2884.402832 817.000000
2885.175049 835.000000
2885.946045 792.000000
2886.716553 773.000000
2887.487549 783.000000
2888.258545 903.000000
2889.028809 789.000000
2889.798096 712.000000
2890.567627 690.000000
2891.337158 727.000000
2892.106201 897.000000
2892.874756 798.000000
2893.643311 792.000000
2894.410889 671.000000
2895.178955 713.000000
2895.946533 686.000000
2896.714111 681.000000
2897.480469 760.000000
2898.247803 743.000000
2899.013916 738.000000
2899.780273 677.000000
2900.545166 690.000000
2901.310547 668.000000
2902.076416 630.000000
2902.840820 693.000000
2903.605225 661.000000
2904.369873 631.000000
2905.133545 639.000000
2905.897949 592.000000
2906.661621 718.000000
2907.424561 662.000000
2908.187256 669.000000
2908.950439 634.000000
2909.713135 728.000000
2910.474609 692.000000
2911.236572 692.000000
spectrumdark 2048
-96.994286 6138.000000
-94.367416 6138.000000
-91.742424 6007.000000
-89.119324 6396.000000
-86.498093 5712.000000
-83.878761 6213.000000
-81.261292 6056.000000
-78.645699 6386.000000
-76.031982 6185.000000
-73.420143 5793.000000
-70.810165 6094.000000
-68.202072 5904.000000
-65.595825 5956.000000
-62.991455 6038.000000
-60.388947 6067.000000
-57.788292 5581.000000
-55.189499 6176.000000
-52.592564 6845.000000
-49.997482 6444.000000
-47.404255 6471.000000
-44.812878 6242.000000
-42.223347 6672.000000
-39.635658 5871.000000
-37.049820 6025.000000
-34.465824 6479.000000
-31.883665 5684.000000
-29.303352 6320.000000
-26.724867 5699.000000
-24.148224 6039.000000
-21.573406 6231.000000
-19.000429 6417.000000
-16.429272 6484.000000
-13.859949 6754.000000
-11.292451 7723.000000
-8.726771 6282.000000
-6.162918 6475.000000
-3.600877 6008.000000
-1.040661 5801.000000
1.517747 6138.000000
4.074334 6860.000000
6.629116 6579.000000
9.182081 5909.000000
11.733246 6742.000000
14.282598 6464.000000
16.830154 6685.000000
19.375898 5971.000000
21.919849 5711.000000
24.461996 6637.000000
27.002346 6677.000000
29.540911 6855.000000
32.077679 6126.000000
34.612644 5746.000000
37.145832 7239.000000
39.677238 6338.000000
42.206852 7074.000000
44.734669 6425.000000
47.260727 7813.000000
49.784996 5651.000000
52.307495 6193.000000
54.828197 6676.000000
57.347145 6255.000000
59.864319 6354.000000
62.379715 6638.000000
64.893333 5586.000000
67.405197 5761.000000
69.915314 6494.000000
72.423637 6544.000000
74.930206 5880.000000
77.435028 6333.000000
79.938095 6394.000000
82.439384 6188.000000
84.938934 6185.000000
87.436729 6400.000000
89.932793 5678.000000
92.427078 7189.000000
94.919624 5801.000000
97.410454 6827.000000
99.899513 7177.000000
102.386826 6380.000000
104.872414 6202.000000
107.356262 6435.000000
109.838364 5670.000000
112.318741 6574.000000
114.797394 6149.000000
117.274323 6413.000000
119.749496 7210.000000
122.222961 6764.000000
124.694695 5888.000000
127.164719 6699.000000
129.632980 6238.000000
132.099579 6241.000000
134.564423 5692.000000
137.027573 6205.000000
139.488983 7283.000000
141.948700 6769.000000
144.406693 6382.000000
146.862991 6005.000000
149.317581 5778.000000
151.770447 6855.000000
154.221634 6267.000000
156.671127 6564.000000
159.118896 6111.000000
161.564957 6569.000000
164.009338 6295.000000
166.452042 6506.000000
168.893051 6709.000000
171.332352 6210.000000
173.769943 7203.000000
176.205902 6591.000000
178.640121 6904.000000
181.072662 7178.000000
183.503555 6640.000000
185.932724 7075.000000
188.360245 6666.000000
190.786087 6329.000000
193.210251 6633.000000
195.632751 7101.000000
198.053558 7355.000000
200.472702 6473.000000
202.890182 5967.000000
205.305969 7662.000000
207.720108 7019.000000
210.132614 6334.000000
212.543442 6042.000000
214.952591 6207.000000
217.360107 7361.000000
219.765915 6118.000000
222.170135 6493.000000
224.572647 6705.000000
226.973541 6935.000000
229.372787 6483.000000
231.770370 6792.000000
234.166290 7291.000000
236.560593 6511.000000
238.953232 5795.000000
241.344254 6786.000000
243.733612 6588.000000
246.121353 6347.000000
248.507446 6987.000000
250.891907 6054.000000
253.274719 7885.000000
255.655960 6517.000000
258.035492 6670.000000
260.413452 6479.000000
262.789734 7605.000000
265.164459 7499.000000
267.537537 7843.000000
269.908966 6216.000000
272.278748 6374.000000
274.646973 5859.000000
277.013550 6270.000000
279.378540 6751.000000
281.741913 6001.000000
284.103638 6176.000000
286.463776 7107.000000
288.822296 5905.000000
291.179230 6527.000000
293.534546 6431.000000
295.888275 5925.000000
298.240356 5951.000000
300.590881 6290.000000
302.939819 6302.000000
305.287109 6863.000000
307.632874 6426.000000
309.976959 6491.000000
312.319519 7305.000000
314.660461 7492.000000
316.999786 7154.000000
319.337555 6869.000000
321.673767 8046.000000
324.008331 6218.000000
326.341339 6425.000000
328.672791 5933.000000
331.002655 6551.000000
333.330933 6425.000000
335.657593 7260.000000
337.982758 6283.000000
340.306305 6143.000000
342.628296 5967.000000
344.948730 7495.000000
347.267548 7701.000000
349.584808 6011.000000
351.900543 5819.000000
354.214691 6875.000000
356.527252 6311.000000
358.838257 6318.000000
361.147736 7078.000000
363.455688 6323.000000
365.762024 5671.000000
368.066772 6418.000000
370.370056 6453.000000
372.671722 6256.000000
374.971893 6383.000000
377.270508 6267.000000
379.567566 5765.000000
381.863068 6026.000000
384.157043 5853.000000
386.449432 5207.000000
388.740326 5562.000000
391.029694 6223.000000
393.317474 6272.000000
395.603729 6430.000000
397.888489 6995.000000
400.171631 6028.000000
402.453339 6390.000000
404.733521 6101.000000
407.012115 7220.000000
409.289185 6414.000000
411.564728 6745.000000
413.838745 6548.000000
416.111328 6415.000000
418.382294 6224.000000
420.651764 6392.000000
422.919739 7091.000000
425.186157 7209.000000
427.451080 6238.000000
429.714539 6292.000000
431.976410 6465.000000
434.236816 5970.000000
436.495667 6606.000000
438.753052 6100.000000
441.008942 5624.000000
443.263336 5766.000000
445.516205 5397.000000
447.767517 6920.000000
450.017426 6121.000000
452.265747 6192.000000
454.512634 5616.000000
456.758057 6474.000000
459.001923 6489.000000
461.244293 6766.000000
463.485168 5641.000000
465.724640 6696.000000
467.962524 5408.000000
470.198975 5878.000000
472.433899 6000.000000
474.667358 7359.000000
476.899384 6749.000000
479.129883 5664.000000
481.358887 6493.000000
483.586426 6256.000000
485.812469 5931.000000
488.037079 6499.000000
490.260223 5849.000000
492.481903 6410.000000
494.702026 6616.000000
496.920746 5598.000000
499.137970 6247.000000
501.353821 5542.000000
503.568054 6129.000000
505.780975 6493.000000
507.992310 6405.000000
510.202209 6854.000000
512.410706 6516.000000
514.617798 6547.000000
516.823303 6407.000000
519.027405 6566.000000
521.229980 6164.000000
523.431152 6548.000000
525.630981 6655.000000
527.829285 6891.000000
530.026062 5276.000000
532.221497 5857.000000
534.415405 5512.000000
536.607971 7534.000000
538.799011 6710.000000
540.988647 5932.000000
543.176880 6898.000000
545.363586 7100.000000
547.548828 6821.000000
549.732788 6189.000000
551.915161 6345.000000
554.096191 6137.000000
556.275696 6044.000000
558.453918 5879.000000
560.630615 5995.000000
562.805908 6446.000000
564.979797 6370.000000
567.152222 5856.000000
569.323242 6014.000000
571.492798 6306.000000
573.661072 5209.000000
575.827820 6345.000000
577.993103 6277.000000
580.156982 6129.000000
582.319580 5705.000000
584.480652 5974.000000
586.640320 5579.000000
588.798645 5798.000000
590.955444 6143.000000
593.110901 6598.000000
595.264954 5777.000000
597.417664 6054.000000
599.568848 7261.000000
601.718689 6751.000000
603.867188 6624.000000
606.014099 6055.000000
608.159790 6393.000000
610.304077 6391.000000
612.446899 7015.000000
614.588257 6133.000000
616.728394 6430.000000
618.867004 7618.000000
621.004333 5682.000000
623.140198 6539.000000
625.274658 6827.000000
627.407654 7148.000000
629.539490 6573.000000
631.669861 6513.000000
633.798828 6702.000000
635.926331 6423.000000
638.052551 6184.000000
640.177246 7306.000000
642.300720 6326.000000
644.422852 6692.000000
646.543518 6771.000000
648.662842 6496.000000
650.780762 5645.000000
652.897339 5621.000000
655.012512 6376.000000
657.126343 6418.000000
659.238708 5841.000000
661.349854 6086.000000
663.459595 5406.000000
665.567871 5965.000000
667.674988 6280.000000
669.780640 6779.000000
671.884827 5628.000000
673.987793 5701.000000
676.089355 6979.000000
678.189575 5340.000000
680.288391 6798.000000
682.385864 6169.000000
684.482056 6926.000000
686.576782 6323.000000
688.670288 6885.000000
690.762451 6609.000000
692.853088 7922.000000
694.942505 6656.000000
697.030640 6398.000000
699.117310 6050.000000
701.202759 6683.000000
703.286682 5088.000000
705.369385 5852.000000
707.450806 5880.000000
709.530762 7557.000000
711.609497 6310.000000
713.686768 5585.000000
715.762756 6580.000000
717.837463 6044.000000
719.910889 7038.000000
721.982788 6324.000000
724.053528 7351.000000
726.122925 5800.000000
728.190918 6444.000000
730.257568 6332.000000
732.322998 7073.000000
734.387085 5746.000000
736.449829 6117.000000
738.511230 6477.000000
740.571350 6600.000000
742.630066 5999.000000
744.687561 6544.000000
746.743774 6435.000000
748.798584 6694.000000
750.852112 6273.000000
752.904236 7439.000000
754.955139 5813.000000
757.004822 6702.000000
759.053040 6320.000000
761.100037 6051.000000
763.145752 7027.000000
765.190063 5274.000000
767.233093 5700.000000
769.274902 6281.500000
771.315369 6863.000000
773.354431 6323.000000
775.392334 6064.000000
777.428894 5996.000000
779.464233 5332.000000
781.498230 5691.000000
783.530823 6910.000000
785.562256 5477.000000
787.592285 5772.500000
789.621033 6068.000000
791.648621 6314.000000
793.674866 6333.000000
795.699707 5839.000000
797.723450 5534.000000
799.745789 6360.000000
801.766907 5701.000000
803.786682 6714.000000
805.805176 4846.000000
807.822449 6736.000000
809.838318 6753.000000
811.853027 5706.000000
813.866394 6372.000000
815.878540 6244.000000
817.889465 6077.000000
819.899048 6531.000000
821.907410 5272.000000
823.914368 5677.000000
825.920105 6016.000000
827.924622 5727.000000
829.927856 5590.000000
831.929810 6448.000000
833.930481 6022.000000
835.929932 5948.000000
837.928040 6358.000000
839.925049 6973.000000
841.920654 6173.000000
843.915100 5976.000000
845.908203 6157.000000
847.900085 6768.000000
849.890625 5527.000000
851.879883 6799.000000
853.868103 5981.000000
855.854919 5762.000000
857.840515 6352.000000
859.824829 7251.000000
861.808044 6299.000000
863.789856 6363.000000
865.770447 5788.000000
867.749756 7633.000000
869.727905 7051.000000
871.704712 6131.000000
873.680237 5879.000000
875.654724 6104.000000
877.627747 6003.000000
879.599731 5422.000000
881.570374 6351.000000
883.539856 6026.000000
885.507996 5569.000000
887.474976 5202.000000
889.440613 6072.000000
891.405090 5763.000000
893.368347 5945.000000
895.330383 6454.000000
897.291138 5772.000000
899.250671 6421.000000
901.208923 6666.000000
903.166077 6290.000000
905.122070 6072.000000
907.076660 6841.000000
909.030029 6482.000000
910.982239 6456.000000
912.933228 6337.000000
914.882935 7041.000000
916.831482 6318.000000
918.778809 6125.000000
920.724854 6081.000000
922.669617 6082.000000
924.613342 6306.000000
926.555908 5945.000000
928.497192 5495.000000
930.437134 6426.000000
932.375977 5720.000000
934.313538 5449.000000
936.249878 5867.000000
938.185059 5819.000000
940.118958 6033.000000
942.051758 5809.000000
943.983337 6726.000000
945.913757 5134.000000
947.842957 6347.000000
949.770813 6967.000000
951.697632 6595.000000
953.623169 5904.000000
955.547424 5317.000000
957.470581 5938.000000
959.392578 6687.000000
961.313293 7259.000000
963.232849 6468.000000
965.151245 5306.000000
967.068604 6429.000000
968.984497 6430.000000
970.899292 6103.000000
972.812866 5916.000000
974.725281 6364.000000
976.636475 6395.000000
978.546509 5501.000000
980.455261 6199.000000
982.362976 6089.000000
984.269470 6301.000000
986.174744 5723.000000
988.078918 6755.000000
989.981873 6163.000000
991.883606 6750.000000
993.784180 6522.000000
995.683594 6535.000000
997.581787 5266.000000
999.478821 6534.000000
1001.374634 6484.000000
1003.269287 7664.000000
1005.162842 5575.000000
1007.055115 7112.000000
1008.946472 6064.000000
1010.836487 5236.000000
1012.725281 6597.000000
1014.612915 6278.000000
1016.499390 6773.000000
1018.384705 6701.000000
1020.268860 5921.000000
1022.151794 5866.000000
1024.033691 6273.000000
1025.914307 5127.000000
1027.793823 5870.000000
1029.672363 6051.000000
1031.549561 5381.000000
1033.425415 6122.000000
1035.300293 5911.000000
1037.174194 6625.000000
1039.046631 7063.000000
1040.918091 6650.000000
1042.788208 5497.000000
1044.657349 5498.000000
1046.525269 5783.000000
1048.392090 7050.000000
1050.257813 6717.000000
1052.122314 6431.000000
1053.985718 6441.000000
1055.847778 6442.000000
1057.708862 5816.000000
1059.568848 6459.000000
1061.427490 6615.000000
1063.285034 5718.000000
1065.141479 6661.000000
1066.996826 5897.000000
1068.850952 5731.000000
1070.704224 6231.000000
1072.556030 6301.000000
1074.406860 6126.000000
1076.256470 6107.000000
1078.104858 5751.000000
1079.952393 7931.000000
1081.798584 5571.000000
1083.643555 6209.000000
1085.487671 5375.000000
1087.330444 5546.000000
1089.171997 6451.000000
1091.012817 5434.000000
1092.852051 5786.000000
1094.690552 5994.000000
1096.527710 6072.000000
1098.363647 6862.000000
1100.198608 6516.000000
1102.032349 5365.000000
1103.865112 5633.000000
1105.696533 6112.000000
1107.527100 7249.000000
1109.356323 6492.000000
1111.184570 6442.000000
1113.011597 7091.000000
1114.837646 5392.000000
1116.662476 6374.000000
1118.486206 7165.000000
1120.308716 6025.000000
1122.130127 5830.000000
1123.950684 5845.000000
1125.769775 6557.000000
1127.588013 7074.000000
1129.404907 6791.000000
1131.220947 6593.000000
1133.035767 6443.000000
1134.849487 5655.000000
1136.662109 5816.000000
1138.473511 5610.000000
1140.283936 6122.000000
1142.093262 6699.000000
1143.901245 6919.000000
1145.708496 5925.000000
1147.514282 5857.000000
1149.319214 5349.000000
1151.123047 5286.000000
1152.925659 6155.000000
1154.727417 6134.000000
1156.527710 6063.000000
1158.327026 6087.000000
1160.125366 5825.000000
1161.922363 5450.000000
1163.718628 5813.000000
1165.513550 6103.000000
1167.307373 6275.000000
1169.100342 7623.000000
1170.891968 5705.000000
1172.682617 6434.000000
1174.472290 5995.000000
1176.260498 5867.000000
1178.047852 7442.000000
1179.834106 6659.000000
1181.619263 5768.000000
1183.403320 5939.000000
1185.186279 7654.000000
1186.968262 5844.000000
1188.749023 5879.000000
1190.528809 6312.000000
1192.307495 6990.000000
1194.085205 6677.000000
1195.861694 7209.000000
1197.637085 6578.000000
1199.411377 6496.000000
1201.184570 6613.000000
1202.956909 6486.000000
1204.727905 6722.000000
1206.498047 5632.000000
1208.266968 6104.000000
1210.034790 6298.000000
1211.801758 5724.000000
1213.567383 5884.000000
1215.332031 7032.000000
1217.095581 6513.000000
1218.858032 5912.000000
1220.619629 6716.000000
1222.380005 5860.000000
1224.139282 6232.000000
1225.897705 6027.000000
1227.654907 7076.000000
1229.411011 6397.000000
1231.166016 5500.000000
1232.920166 5984.000000
1234.672974 5770.000000
1236.424805 5973.000000
1238.175781 5918.000000
1239.925415 4900.000000
1241.674194 6968.000000
1243.421631 6489.000000
1245.168335 6586.000000
1246.913818 6445.000000
1248.658447 6400.000000
1250.401733 6765.000000
1252.144043 6626.000000
1253.885254 5317.000000
1255.625610 5026.000000
1257.364868 5785.000000
1259.102905 6522.000000
1260.840088 7044.000000
1262.576050 6066.000000
1264.311035 6425.000000
1266.045044 7255.000000
1267.778076 5965.000000
1269.509888 6121.000000
1271.240723 6396.000000
1272.970337 7199.000000
1274.699097 5870.000000
1276.426758 5635.000000
1278.153320 5506.000000
1279.879028 5516.000000
1281.603394 6410.000000
1283.326904 5161.000000
1285.049438 6843.000000
1286.770996 6632.000000
1288.491333 6088.000000
1290.210693 6665.000000
1291.928955 7263.000000
1293.646240 6398.000000
1295.362549 5716.000000
1297.077637 6245.000000
1298.791748 6111.000000
1300.504883 5730.000000
1302.217163 6420.000000
1303.928223 8288.000000
1305.638306 5251.000000
1307.347290 6310.000000
1309.055054 6608.000000
1310.762207 6993.000000
1312.467896 5736.000000
1314.172852 6871.000000
1315.876831 6109.000000
1317.579590 5909.000000
1319.281372 6475.000000
1320.982300 5972.000000
1322.681885 9826.000000
1324.380615 7692.000000
1326.078613 5558.000000
1327.775269 6442.000000
1329.470825 7105.000000
1331.165527 6861.000000
1332.859009 5732.000000
1334.551636 5377.000000
1336.243408 7392.000000
1337.933838 6183.000000
1339.623535 6623.000000
1341.312134 6048.000000
1342.999634 7574.000000
1344.686157 5580.000000
1346.371582 6739.000000
1348.056030 5922.000000
1349.739624 7225.000000
1351.421997 6416.000000
1353.103394 5928.000000
1354.783936 6530.000000
1356.463257 6636.000000
1358.141968 5870.000000
1359.819336 6624.000000
1361.495605 5772.000000
1363.170898 5577.000000
1364.845459 6529.000000
1366.518799 6481.000000
1368.191162 6748.000000
1369.862549 5184.000000
1371.532959 6723.000000
1373.202271 6118.000000
1374.870605 5671.000000
1376.538086 5921.000000
1378.204468 6505.000000
1379.869873 6107.000000
1381.534302 5865.000000
1383.197510 5870.000000
1384.860107 5662.000000
1386.521362 6330.000000
1388.181763 6578.000000
1389.841064 6415.000000
1391.499390 6468.000000
1393.156982 6829.000000
1394.813354 6452.000000
1396.468872 7025.000000
1398.123169 6386.000000
1399.776611 5789.000000
1401.428955 6106.000000
1403.080566 6401.000000
1404.730957 7167.000000
1406.380249 6232.000000
1408.028809 7467.000000
1409.676270 7888.000000
1411.322754 6151.000000
1412.968384 6251.000000
1414.613037 5957.000000
1416.256470 7007.000000
1417.899048 7189.000000
1419.540527 6859.000000
1421.181152 6387.000000
1422.820801 6455.000000
1424.459351 6022.000000
1426.097046 6542.000000
1427.733643 6354.000000
1429.369263 6039.000000
1431.004150 6342.000000
1432.637939 5921.000000
1434.270630 6109.000000
1435.902344 5633.000000
1437.533203 6171.000000
1439.162964 6052.000000
1440.791626 7759.000000
1442.419678 5946.000000
1444.046631 6198.000000
1445.672363 6119.000000
1447.297485 6173.000000
1448.921509 6506.000000
1450.544556 5980.000000
1452.166626 6033.000000
1453.787598 7414.000000
1455.407593 6242.000000
1457.026855 6853.000000
1458.644775 5684.000000
1460.262085 17310.000000
1461.878418 5521.000000
1463.493530 7196.000000
1465.107788 6207.000000
1466.721191 5152.000000
1468.333496 5549.000000
1469.944946 6171.000000
1471.555542 6317.000000
1473.164917 5947.000000
1474.773315 5969.000000
1476.380859 6179.000000
1477.987427 6655.000000
1479.593262 5250.000000
1481.197876 6259.000000
1482.801636 5458.000000
1484.404175 6655.000000
1486.006104 5555.000000
1487.606812 5520.000000
1489.206787 5594.000000
1490.805664 6268.000000
1492.403687 6546.000000
1494.000610 6583.000000
1495.596680 6349.000000
1497.191772 5976.000000
1498.785889 5460.000000
1500.379272 6572.000000
1501.971558 5498.000000
1503.562622 6183.000000
1505.153198 6732.000000
1506.742432 6485.000000
1508.331055 6121.000000
1509.918579 6468.000000
1511.505005 6811.000000
1513.090698 6189.000000
1514.675293 6622.000000
1516.259033 6183.000000
1517.841675 6125.000000
1519.423584 6527.000000
1521.004395 6659.000000
1522.584473 6016.000000
1524.163330 6179.000000
1525.741333 6347.000000
1527.318604 6275.000000
1528.894653 5702.000000
1530.469971 5824.000000
1532.044189 6250.000000
1533.617676 5418.000000
1535.189941 5930.000000
1536.761475 6413.000000
1538.332031 6345.000000
1539.901733 6265.000000
1541.470215 5432.000000
1543.037964 6593.000000
1544.604858 5566.000000
1546.170532 6770.000000
1547.735474 5887.000000
1549.299316 5017.000000
1550.862549 7358.000000
1552.424438 6317.000000
1553.985718 5896.000000
1555.545898 5678.000000
1557.105347 5763.000000
1558.663696 5920.000000
1560.221313 6254.000000
1561.777832 7016.000000
1563.333130 5840.000000
1564.887817 6330.000000
1566.441772 5596.000000
1567.994751 6265.000000
1569.546387 5609.000000
1571.097290 6193.000000
1572.647461 6176.000000
1574.196655 6344.000000
1575.744507 5755.000000
1577.291870 5458.000000
1578.838257 5682.000000
1580.383789 5072.000000
1581.928345 6624.000000
1583.471680 6287.000000
1585.014404 6577.000000
1586.556274 6464.000000
1588.097046 6641.000000
1589.636841 5760.000000
1591.175903 6686.000000
1592.713867 5886.000000
1594.251343 6117.000000
1595.787476 5890.000000
1597.322510 6689.000000
1598.857056 6224.000000
1600.390625 5997.000000
1601.923340 5938.000000
1603.454468 6257.000000
1604.985352 6290.000000
1606.515381 5748.000000
1608.044189 6119.000000
1609.571899 6112.000000
1611.098999 5935.000000
1612.625366 5824.000000
1614.150757 6224.000000
1615.675293 5742.000000
1617.198486 5713.000000
1618.720947 5571.000000
1620.242676 6545.000000
1621.763550 6889.000000
1623.282959 15577.000000
1624.801880 6178.000000
1626.320068 6035.000000
1627.837402 5894.000000
1629.353638 6327.000000
1630.868530 7046.000000
1632.382935 6748.000000
1633.896606 5718.000000
1635.409180 6820.000000
1636.920532 5879.000000
1638.431519 6420.000000
1639.941406 6213.000000
1641.450439 6169.000000
1642.958130 5593.000000
1644.465454 6086.000000
1645.971924 7077.000000
1647.477417 6266.000000
1648.982056 6834.000000
1650.485229 6114.000000
1651.987793 6541.000000
1653.489990 6331.000000
1654.990845 6612.000000
1656.490601 7565.000000
1657.989502 5937.000000
1659.488037 6494.000000
1660.985352 6235.000000
1662.481934 5920.000000
1663.976929 6462.000000
1665.471680 6362.000000
1666.965576 5140.000000
1668.458496 5599.000000
1669.950073 21169.000000
1671.441162 6481.000000
1672.931641 6076.000000
1674.421021 5969.000000
1675.908936 6938.000000
1677.396606 6846.000000
1678.883301 5971.000000
1680.369141 5360.000000
1681.854126 6055.000000
1683.337646 6197.000000
1684.820923 6177.000000
1686.303345 5806.000000
1687.784668 6200.000000
1689.264526 6123.000000
1690.744141 5434.000000
1692.223022 6503.000000
1693.700928 6029.000000
1695.177856 6100.000000
1696.653564 5730.000000
1698.128906 6017.000000
1699.603027 6315.000000
1701.076538 5451.000000
1702.548584 5552.000000
1704.020386 6856.000000
1705.491211 6351.000000
1706.961182 7062.000000
1708.429810 5122.000000
1709.897949 5888.000000
1711.365356 6300.000000
1712.831665 5519.000000
1714.297363 5765.000000
1715.761353 6120.000000
1717.225220 5940.000000
1718.688232 6985.000000
1720.150269 6362.000000
1721.611084 6654.000000
1723.071289 5428.000000
1724.530762 6377.000000
1725.989380 6070.000000
1727.447021 5941.000000
1728.903320 6269.000000
1730.359375 6056.000000
1731.814453 6454.000000
1733.268555 5932.000000
1734.721436 6826.000000
1736.174072 5970.000000
1737.625610 6840.000000
1739.076416 5961.000000
1740.526245 6541.000000
1741.974731 5952.000000
1743.422852 7292.000000
1744.870117 6532.000000
1746.316650 6639.000000
1747.761597 6663.000000
1749.206299 6136.000000
1750.650146 5873.000000
1752.093140 5484.000000
1753.534668 6467.000000
1754.975952 6295.000000
1756.416382 19373.000000
1757.855835 6194.000000
1759.294312 5384.000000
1760.731812 6007.000000
1762.168823 7507.000000
1763.604858 5858.000000
1765.040039 7125.000000
1766.473755 6080.000000
1767.907349 6427.000000
1769.339966 6610.000000
1770.771729 5713.000000
1772.202637 5730.000000
1773.632324 6357.000000
1775.061279 6071.000000
1776.489746 6168.000000
1777.917236 6678.000000
1779.343384 6188.000000
1780.769287 5599.000000
1782.194092 6910.000000
1783.618286 5524.000000
1785.041016 6608.000000
1786.463257 6412.000000
1787.884766 6827.000000
1789.305542 5788.000000
1790.725342 6108.000000
1792.143799 6113.000000
1793.561768 6873.000000
1794.979126 5495.000000
1796.395630 6037.000000
1797.810669 6533.000000
1799.225342 5926.000000
1800.639404 6623.000000
1802.052246 5978.000000
1803.464478 6978.000000
1804.875366 7054.000000
1806.285767 7820.000000
1807.695435 6431.000000
1809.104126 5912.000000
1810.511719 5364.000000
1811.918823 6456.000000
1813.325073 6369.000000
1814.730347 6691.000000
1816.134521 5936.000000
1817.538330 5904.000000
1818.941162 6256.000000
1820.343140 5991.000000
1821.744507 5811.000000
1823.144409 6344.000000
1824.543701 6496.000000
1825.942505 6520.000000
1827.340454 7418.000000
1828.737061 5674.000000
1830.133057 6700.000000
1831.528320 5888.000000
1832.922974 8180.000000
1834.316650 5977.000000
1835.708984 6796.000000
1837.100830 6357.000000
1838.492065 5816.000000
1839.882324 7073.000000
1841.271362 6014.000000
1842.660034 6028.000000
1844.047729 5958.000000
1845.434692 5841.000000
1846.820313 6835.000000
1848.205688 5808.000000
1849.590210 6289.000000
1850.973999 6324.000000
1852.356689 6399.000000
1853.738159 5370.000000
1855.119141 6512.000000
1856.499634 6291.000000
1857.879150 5677.000000
1859.257202 5903.000000
1860.635132 6180.000000
1862.012085 7856.000000
1863.388306 6090.000000
1864.763672 6019.000000
1866.137573 5559.000000
1867.511353 5761.000000
1868.884277 6185.000000
1870.256104 5964.000000
1871.626953 6855.000000
1872.997437 5406.000000
1874.366821 6014.000000
1875.735718 6078.000000
1877.103027 7121.000000
1878.470215 6091.000000
1879.836426 6004.000000
1881.201904 6765.000000
1882.566650 7464.000000
1883.929810 6682.000000
1885.292847 6914.000000
1886.655029 6296.000000
1888.016357 6491.000000
1889.376343 5685.000000
1890.735962 5792.000000
1892.094971 6093.000000
1893.453003 6673.000000
1894.810181 7219.000000
1896.166138 5938.000000
1897.521851 7644.000000
1898.876587 5839.000000
1900.230469 5474.000000
1901.583252 5874.000000
1902.935547 5893.000000
1904.287109 5929.000000
1905.637817 6886.000000
1906.987305 6572.000000
1908.336304 6680.000000
1909.684448 5755.000000
1911.031982 6114.000000
1912.378784 6280.000000
1913.723999 6816.000000
1915.068970 6060.000000
1916.413208 5423.000000
1917.756592 6501.000000
1919.098633 5969.000000
1920.440430 6668.000000
1921.781372 7033.000000
1923.121582 6183.000000
1924.460815 6223.000000
1925.799072 6315.000000
1927.136719 6429.000000
1928.473633 7023.000000
1929.809692 6770.000000
1931.144531 5562.000000
1932.479004 6655.000000
1933.812744 7235.000000
1935.145630 6231.000000
1936.477051 5777.000000
1937.808594 6281.000000
1939.138794 6598.000000
1940.468506 5762.000000
1941.797363 6034.000000
1943.125000 5778.000000
1944.452148 5055.000000
1945.778564 5865.000000
1947.104248 6501.000000
1948.428589 5740.000000
1949.752686 6673.000000
1951.075928 6291.000000
1952.398438 6398.000000
1953.719849 5782.000000
1955.040283 7365.000000
1956.360107 5986.000000
1957.679565 5486.000000
1958.998047 6841.000000
1960.315186 5892.000000
1961.631958 5762.000000
1962.947998 6444.000000
1964.263306 6509.000000
1965.577148 6294.000000
1966.890747 5668.000000
1968.203613 6261.000000
1969.515625 6004.000000
1970.827026 5930.000000
1972.137085 6320.000000
1973.446655 5837.000000
1974.755493 6135.000000
1976.063721 6581.000000
1977.370605 6069.000000
1978.676880 7245.000000
1979.982788 5487.000000
1981.287476 6394.000000
1982.591675 5891.000000
1983.894653 5727.000000
1985.197266 7539.000000
1986.498901 6122.000000
1987.799927 6793.000000
1989.099365 6062.000000
1990.398926 6595.000000
1991.697388 5251.000000
1992.995361 6129.000000
1994.291748 6086.000000
1995.588135 5756.000000
1996.883545 5575.000000
1998.178223 6471.000000
1999.472046 5699.000000
2000.764648 6521.000000
2002.056763 5740.000000
2003.348389 7170.000000
2004.639282 6418.000000
2005.928589 6254.000000
2007.217651 6846.000000
2008.505981 5980.000000
2009.793579 6060.000000
2011.080322 6788.000000
2012.365967 5656.000000
2013.651245 6337.000000
2014.935547 5972.000000
2016.219238 5600.000000
2017.501587 6089.000000
2018.783569 6485.000000
2020.065063 6786.000000
2021.345581 5892.000000
2022.625366 6049.000000
2023.904053 6742.000000
2025.182007 5786.000000
2026.459473 5860.000000
2027.736328 6281.000000
2029.011475 5718.000000
2030.286743 6560.000000
2031.561035 6041.000000
2032.834351 5944.000000
2034.106812 5935.000000
2035.378906 6100.000000
2036.649902 6929.000000
2037.920654 6614.000000
2039.190063 6037.000000
2040.458374 6702.000000
2041.726685 6573.000000
2042.994019 5862.000000
2044.260620 5981.000000
2045.526001 5543.000000
2046.790771 5957.000000
2048.055176 5402.000000
2049.318604 5793.000000
2050.581543 6331.000000
2051.842529 6159.000000
2053.104004 6106.000000
2054.364258 5797.000000
2055.623779 6450.000000
2056.882568 6239.000000
2058.140381 6866.000000
2059.397705 6100.000000
2060.654297 6006.000000
2061.909424 6433.000000
2063.164551 5634.000000
2064.418701 5493.000000
2065.672119 5685.000000
2066.924805 6801.000000
2068.176270 6259.000000
2069.427490 6268.000000
2070.677979 5623.000000
2071.927734 5378.000000
2073.176025 6430.000000
2074.424316 6354.000000
2075.671631 7404.000000
2076.918213 5578.000000
2078.164063 6024.000000
2079.408691 7017.000000
2080.652832 7540.000000
2081.896484 5488.000000
2083.139160 6029.000000
2084.380615 6905.000000
2085.621826 6026.000000
2086.862549 6300.000000
2088.102295 6737.000000
2089.340820 6995.000000
2090.578857 6159.000000
2091.816162 5728.000000
2093.053223 6625.000000
2094.288818 6094.000000
2095.523682 6214.000000
2096.758301 5995.000000
2097.991943 5576.000000
2099.224609 6086.000000
2100.456543 6784.000000
2101.687988 6384.000000
2102.918457 6719.000000
2104.148193 5973.000000
2105.377686 5997.000000
2106.605225 5936.000000
2107.833008 5960.000000
2109.060059 6242.000000
2110.286133 5434.000000
2111.510742 6391.000000
2112.735596 6941.000000
2113.959229 7048.000000
2115.182373 6253.000000
2116.404297 7536.000000
2117.625977 6031.000000
2118.846680 6815.000000
2120.066650 6024.000000
2121.286133 6143.000000
2122.504150 6592.000000
2123.722168 7022.000000
2124.939209 5686.000000
2126.155762 5785.000000
2127.370605 6570.000000
2128.585693 6333.000000
2129.799805 6976.000000
2131.013184 5669.000000
2132.225830 6098.000000
2133.437012 5772.000000
2134.648438 6435.000000
2135.858643 6792.000000
2137.068359 5907.000000
2138.276611 6172.000000
2139.484863 5601.000000
2140.692383 5902.000000
2141.898682 7728.000000
2143.104248 5855.000000
2144.309570 5589.000000
2145.513916 5502.000000
2146.717529 6276.000000
2147.920654 6173.000000
2149.122314 6518.000000
2150.323730 5307.000000
2151.524414 6249.000000
2152.724365 6021.000000
2153.923096 5914.000000
2155.121582 6940.000000
2156.319580 6163.000000
2157.516602 5995.000000
2158.712891 5130.000000
2159.907959 5256.000000
2161.102783 6113.000000
2162.296875 5527.000000
2163.489990 5999.000000
2164.682129 6925.000000
2165.874023 5872.000000
2167.065186 6287.000000
2168.255371 6290.000000
2169.444824 6458.000000
2170.633789 6770.000000
2171.821777 6205.000000
2173.009521 5654.000000
2174.195801 5860.000000
2175.381348 6532.000000
2176.566650 5937.000000
2177.751465 5818.000000
2178.935059 6301.000000
2180.117920 7437.000000
2181.299805 6312.000000
2182.481445 6027.000000
2183.662598 6520.000000
2184.842529 5671.000000
2186.021484 5495.000000
2187.199951 6396.000000
2188.378174 6822.000000
2189.555176 7236.000000
2190.731201 6714.000000
2191.906982 6074.000000
2193.082275 5588.000000
2194.256104 6692.000000
2195.429443 6173.000000
2196.602539 6184.000000
2197.774414 6377.000000
2198.945801 7088.000000
2200.116699 6301.000000
2201.285889 6895.000000
2202.455078 7533.000000
2203.623779 6222.000000
2204.791504 5852.000000
2205.958252 5635.000000
2207.124268 7151.000000
2208.289795 6642.000000
2209.455078 5961.000000
2210.618896 6712.000000
2211.782227 5354.000000
2212.944336 6198.000000
2214.106689 6160.000000
2215.267822 6698.000000
2216.427979 6637.000000
2217.587646 6293.000000
2218.747070 6561.000000
2219.905273 6356.000000
2221.062500 6288.000000
2222.219482 6746.000000
2223.375732 6571.000000
2224.531250 6758.000000
2225.686035 6293.000000
2226.839844 6417.000000
2227.992676 5973.000000
2229.145996 6879.000000
2230.297363 6137.000000
2231.448486 6187.000000
2232.598877 6514.000000
2233.748779 7670.000000
2234.897705 6271.000000
2236.046143 5118.000000
2237.193115 6775.000000
2238.340332 7049.000000
2239.486328 6009.000000
2240.632080 7246.000000
2241.776123 7368.000000
2242.920410 6706.000000
2244.063721 6159.000000
2245.206299 5990.000000
2246.347900 5744.000000
2247.489258 5781.000000
2248.629639 6361.000000
2249.769287 6411.000000
2250.908447 5828.000000
2252.046387 5825.000000
2253.184326 6162.000000
2254.321289 5302.000000
2255.457520 6259.000000
2256.592773 6132.000000
2257.727295 7266.000000
2258.861572 6341.000000
2259.995361 5324.000000
2261.127686 6075.000000
2262.259521 6796.000000
2263.390869 6296.000000
2264.521240 6474.000000
2265.651367 8140.000000
2266.780273 6666.000000
2267.908691 6052.000000
2269.036621 5505.000000
2270.163574 6145.000000
2271.289795 5869.000000
2272.415039 6749.000000
2273.540283 6524.000000
2274.664795 6490.000000
2275.788086 5959.000000
2276.910645 6382.000000
2278.032715 5966.000000
2279.154297 7392.000000
2280.275146 6372.000000
2281.394775 6387.000000
2282.513916 7065.000000
2283.632813 7700.000000
2284.750977 7300.000000
2285.868164 5876.000000
2286.984375 6426.000000
2288.100342 6999.000000
2289.215576 6924.000000
2290.330078 7337.000000
2291.443359 5760.000000
2292.556641 6353.000000
2293.669189 5938.000000
2294.781006 5317.000000
2295.892090 6762.000000
2297.001953 6424.000000
2298.111328 6123.000000
2299.220459 6668.000000
2300.328613 6302.000000
2301.435791 6776.000000
2302.542725 5885.000000
2303.648926 6182.000000
2304.754639 6557.000000
2305.858887 6512.000000
2306.962891 5437.000000
2308.066406 5782.000000
2309.169434 6516.000000
2310.271240 7399.000000
2311.372314 7337.000000
2312.472900 6603.000000
2313.572998 5544.000000
2314.672363 6348.000000
2315.770264 6539.000000
2316.868652 7003.000000
2317.965576 8202.000000
2319.062256 6876.000000
2320.158447 5769.000000
2321.252930 6859.000000
2322.347412 7630.000000
2323.441162 5836.000000
2324.534668 6020.000000
2325.626465 6418.000000
2326.718262 6975.000000
2327.809326 6073.000000
2328.899658 6225.000000
2329.989014 6925.000000
2331.078369 5992.000000
2332.166504 6339.000000
2333.254150 6854.000000
2334.341553 6454.000000
2335.427246 6766.000000
2336.512695 7737.000000
2337.597900 6286.000000
2338.682129 6748.000000
2339.765381 5857.000000
2340.848389 6389.000000
2341.930420 7051.000000
2343.012207 5977.000000
2344.093262 7373.000000
2345.173096 6642.000000
2346.252441 5598.000000
2347.331299 6711.000000
2348.409668 6554.000000
2349.486572 6383.000000
2350.563232 6940.000000
2351.639648 6037.000000
2352.715088 6390.000000
2353.789551 5964.000000
2354.863770 6279.000000
2355.937256 6732.000000
2357.010254 6218.000000
2358.082031 7000.000000
2359.153564 6236.000000
2360.224121 6755.000000
2361.294434 7497.000000
2362.363770 7521.000000
2363.432129 6757.000000
2364.500244 6660.000000
2365.567627 7074.000000
2366.634521 7123.000000
2367.700684 6010.000000
2368.765625 6914.000000
2369.830566 6953.000000
2370.894775 6324.000000
2371.958252 6911.000000
2373.020508 5748.000000
2374.082764 6296.000000
2375.144043 6294.000000
2376.205078 5868.000000
2377.264893 6287.000000
2378.323975 7892.000000
2379.383057 6501.000000
2380.441162 7600.000000
2381.498535 6852.000000
2382.554932 8042.000000
2383.611084 7749.000000
2384.666748 6199.000000
2385.721680 7005.000000
2386.775146 6705.000000
2387.828857 6589.000000
2388.881592 6251.000000
2389.933838 6723.000000
2390.985352 6114.000000
2392.035889 6686.000000
2393.086182 6459.000000
2394.135498 6187.000000
2395.184814 6175.000000
2396.232666 6925.000000
2397.280029 6952.000000
2398.327148 6323.000000
2399.373291 6634.000000
2400.418701 6167.000000
2401.463379 6710.000000
2402.508057 7725.000000
2403.551270 7551.000000
2404.594482 6565.000000
2405.636230 5679.000000
2406.678223 6652.000000
2407.719482 7086.000000
2408.759766 6118.000000
2409.799316 6338.000000
2410.837891 6282.000000
2411.876709 5960.000000
2412.914307 6492.000000
2413.951660 6832.000000
2414.987793 7264.000000
2416.023682 6204.000000
2417.058838 6249.000000
2418.093506 6797.000000
2419.126709 7164.000000
2420.160156 6445.000000
2421.192627 6645.000000
2422.224854 6818.000000
2423.255615 7082.000000
2424.286377 6317.000000
2425.316650 6795.000000
2426.345703 6846.000000
2427.374756 6684.000000
2428.402100 7381.000000
2429.429932 6678.000000
2430.456543 7250.000000
2431.482910 6861.000000
2432.507813 7773.000000
2433.532959 6535.000000
2434.557129 7088.000000
2435.581055 6640.000000
2436.603760 5778.000000
2437.625732 6279.000000
2438.647461 6591.000000
2439.668457 6561.000000
2440.688965 6008.000000
2441.708252 6456.000000
2442.727539 6523.000000
2443.745850 8446.000000
2444.763916 6207.000000
2445.780518 6437.000000
2446.797119 6528.000000
2447.812988 5962.000000
2448.828857 6968.000000
2449.843262 6818.000000
2450.856934 5578.000000
2451.870117 7221.000000
2452.883057 5913.000000
2453.895264 7200.000000
2454.906494 6700.000000
2455.917480 7648.000000
2456.927734 6350.000000
2457.937500 7574.000000
2458.946289 5928.000000
2459.954346 5965.000000
2460.962402 6313.000000
2461.969238 7361.000000
2462.975830 5357.000000
2463.981201 7373.000000
2464.986328 6927.000000
2465.991211 5846.000000
2466.994873 6478.000000
2467.998291 6363.000000
2469.000732 7539.000000
2470.002930 7310.000000
2471.004639 6837.000000
2472.005371 6564.000000
2473.005127 6875.000000
2474.004883 6782.000000
2475.003662 5637.000000
2476.001953 6570.000000
2476.999268 7044.000000
2477.996338 6043.000000
2478.993408 6949.000000
2479.989014 5779.000000
2480.984619 7128.000000
2481.978516 6688.000000
2482.972412 8018.000000
2483.965820 6835.000000
2484.958740 6810.000000
2485.950684 7456.000000
2486.941895 7217.000000
2487.932861 6756.000000
2488.923340 5762.000000
2489.912842 6549.000000
2490.901611 6493.000000
2491.890381 5587.000000
2492.878174 6733.000000
2493.864746 6601.000000
2494.851318 8034.000000
2495.837402 6723.000000
2496.822754 7102.000000
2497.807129 8054.000000
2498.791260 5950.000000
2499.775391 6872.000000
2500.758057 5735.000000
2501.740234 6969.000000
2502.721924 6868.000000
2503.702881 7209.000000
2504.683350 6501.000000
2505.663574 5735.000000
2506.642334 6350.000000
2507.620850 7584.000000
2508.598877 6731.000000
2509.576416 7059.000000
2510.552979 6075.000000
2511.529297 5909.000000
2512.504883 6388.000000
2513.479980 6146.000000
2514.454590 6423.000000
2515.427979 7518.000000
2516.401123 6846.000000
2517.374023 6845.000000
2518.345947 6136.000000
2519.317139 6843.000000
2520.287842 6925.000000
2521.258301 7745.000000
2522.228027 8082.000000
2523.196777 6088.000000
2524.164795 6142.000000
2525.132813 7782.000000
2526.099854 6258.000000
2527.066650 5461.000000
2528.032227 7284.000000
2528.997803 6940.000000
2529.962646 7709.000000
2530.927002 6313.000000
2531.890137 6291.000000
2532.853516 5841.000000
2533.815918 5925.000000
2534.778076 6667.000000
2535.739014 6383.000000
2536.699219 6082.000000
2537.659668 6110.000000
2538.619141 6727.000000
2539.577881 6731.000000
2540.535645 6671.000000
2541.493652 6209.000000
2542.450928 6736.000000
2543.407227 5999.000000
2544.363281 7087.000000
2545.318115 6218.000000
2546.273193 7690.000000
2547.227539 7024.000000
2548.181152 6999.000000
2549.133789 7211.000000
2550.086182 6681.000000
2551.038086 6921.000000
2551.989258 6340.000000
2552.939697 7742.000000
2553.889648 7291.000000
2554.839355 7366.000000
2555.788330 6578.000000
2556.736816 6221.000000
2557.684082 7020.000000
2558.631348 6230.000000
2559.577881 6521.000000
2560.523926 6733.000000
2561.468994 7411.000000
2562.413818 6673.000000
2563.358154 7129.000000
2564.302002 6791.000000
2565.245361 6611.000000
2566.187256 6566.000000
2567.129395 6591.000000
2568.070801 6119.000000
2569.011475 7151.000000
2569.951416 7238.000000
2570.891357 5660.000000
2571.830322 6139.000000
2572.769043 7450.000000
2573.706787 7110.000000
2574.644287 5465.000000
2575.581055 7057.000000
2576.517090 6799.000000
2577.452637 7493.000000
2578.387451 6260.000000
2579.322266 5910.000000
2580.256104 7063.000000
2581.189453 6975.000000
2582.122070 5799.000000
2583.054443 6941.000000
2583.986084 5453.000000
2584.917236 7067.000000
2585.847900 6971.000000
2586.777344 6803.000000
2587.706787 7275.000000
2588.635742 6475.000000
2589.564453 7518.000000
2590.491455 7231.000000
2591.418701 5871.000000
2592.345459 6786.000000
2593.271484 6270.000000
2594.197266 5608.000000
2595.121826 7682.000000
2596.046143 7655.000000
2596.969971 5349.000000
2597.893311 7244.000000
2598.815674 6277.000000
2599.737793 6885.000000
2600.659424 8318.000000
2601.580322 6374.000000
2602.500488 5764.000000
2603.420410 6294.000000
2604.339844 6350.000000
2605.259033 6416.000000
2606.177246 5832.000000
2607.094238 5968.000000
2608.011475 7204.000000
2608.928467 5908.000000
2609.844482 7588.000000
2610.759277 6644.000000
2611.674561 6616.000000
2612.589111 6537.000000
2613.502686 6528.000000
2614.416260 6152.000000
2615.328613 7624.000000
2616.240967 6993.000000
2617.152344 6791.000000
2618.063477 5737.000000
2618.973877 7169.000000
2619.884033 6673.000000
2620.793457 6098.000000
2621.702393 6655.000000
2622.610352 6223.000000
2623.518555 6859.000000
2624.425781 6634.000000
2625.332520 7072.000000
2626.238525 6026.000000
2627.144287 6563.000000
2628.049316 6387.000000
2628.954102 7765.000000
2629.858154 6444.000000
2630.761230 6316.000000
2631.664307 6374.000000
2632.566406 5607.000000
2633.468506 6723.000000
2634.370361 6973.000000
2635.270508 6693.000000
2636.170898 6432.000000
2637.070557 6294.000000
2637.969971 5954.000000
2638.867920 6894.000000
2639.766357 6662.000000
2640.664307 6408.000000
2641.561523 6060.000000
2642.457520 6184.000000
2643.353516 6701.000000
2644.249268 6036.000000
2645.144287 6436.000000
2646.039063 6569.000000
2646.932373 7029.000000
2647.825684 6239.000000
2648.718750 6724.000000
2649.611572 6409.000000
2650.502686 7411.000000
2651.394043 6466.000000
2652.284912 7606.000000
2653.175049 7284.000000
2654.064941 6531.000000
2654.953613 7266.000000
2655.842529 6584.000000
2656.730957 6577.000000
2657.618408 7340.000000
2658.504883 6463.000000
2659.391846 7200.000000
2660.278076 6837.000000
2661.163818 6806.000000
2662.048340 6501.000000
2662.932861 6306.000000
2663.817139 6133.000000
2664.700684 7038.000000
2665.583740 7748.000000
2666.466064 7270.000000
2667.347900 6161.000000
2668.229004 6538.000000
2669.110352 6000.000000
2669.990234 6545.000000
2670.870361 7413.000000
2671.749756 7166.000000
2672.629150 6257.000000
2673.507813 6148.000000
2674.384766 6387.000000
2675.262451 6718.000000
2676.139404 6328.000000
2677.015625 8090.000000
2677.891357 7213.000000
2678.766357 6250.000000
2679.641602 7689.000000
2680.515869 6941.000000
2681.389648 7313.000000
2682.262695 6931.000000
2683.135498 6152.000000
2684.008057 6003.000000
2684.879883 6938.000000
2685.750977 6562.000000
2686.621826 6854.000000
2687.492188 7093.000000
2688.362305 6679.000000
2689.230713 6332.000000
2690.099854 7340.000000
2690.968262 7076.000000
2691.836426 6674.000000
2692.703857 6870.000000
2693.570068 5833.000000
2694.436768 7080.000000
2695.302490 7401.000000
2696.168213 7157.000000
2697.032471 7865.000000
2697.897461 6610.000000
2698.760986 7252.000000
2699.624756 5811.000000
2700.487061 7347.000000
2701.349854 6790.000000
2702.211670 5921.000000
2703.072998 6929.000000
2703.934326 6690.000000
2704.794434 7422.000000
2705.654541 7253.000000
2706.514160 6627.000000
2707.373535 6735.000000
2708.231201 7084.000000
2709.089111 6881.000000
2709.947510 7239.000000
2710.804688 6707.000000
2711.661133 5986.000000
2712.517090 6684.000000
2713.373047 6086.000000
2714.228271 6927.000000
2715.082764 6110.000000
2715.936768 6769.000000
2716.790771 7281.000000
2717.643799 6308.000000
2718.497070 6547.000000
2719.348633 7644.000000
2720.200684 6699.000000
2721.052490 6351.000000
2721.903076 6468.000000
2722.753662 6442.000000
2723.603760 7093.000000
2724.453125 6918.000000
2725.302490 6963.000000
2726.150635 6608.000000
2726.998291 6536.000000
2727.846436 6891.000000
2728.693359 6804.000000
2729.540771 5487.000000
2730.386719 7453.000000
2731.231934 6964.000000
2732.077637 6455.000000
2732.922363 6992.000000
2733.767090 7335.000000
2734.610596 6886.000000
2735.454346 7728.000000
2736.297363 7078.000000
2737.139893 6052.000000
2737.981445 6198.000000
2738.823486 6729.000000
2739.664551 6884.000000
2740.505371 5753.000000
2741.345947 5901.000000
2742.185303 7732.000000
2743.024658 6834.000000
2743.864014 6840.000000
2744.702148 6730.000000
2745.539795 7903.000000
2746.377441 6296.000000
2747.214600 7061.000000
2748.051514 6192.000000
2748.887939 5992.000000
2749.723145 6638.000000
2750.558594 6244.000000
2751.393555 6322.000000
2752.227783 6281.000000
2753.061768 6824.000000
2753.895264 6833.000000
2754.728760 7925.000000
2755.561279 6829.000000
2756.393311 7258.000000
2757.224854 6840.000000
2758.056396 7078.000000
2758.886963 7111.000000
2759.717773 7214.000000
2760.547363 7253.000000
2761.376953 6689.000000
2762.206299 7256.000000
2763.034912 6794.000000
2763.863037 6764.000000
2764.690674 6903.000000
2765.518311 6659.000000
2766.345459 7876.000000
2767.171875 5800.000000
2767.997803 7465.000000
2768.823242 6887.000000
2769.648438 7739.000000
2770.473633 6984.000000
2771.297607 6708.000000
2772.121582 6486.000000
2772.945557 7602.000000
2773.768311 6627.000000
2774.591309 6976.000000
2775.413086 6860.000000
2776.234863 6905.000000
2777.056641 6537.000000
2777.877441 7939.000000
2778.697510 6532.000000
2779.517822 6969.000000
2780.337646 7298.000000
2781.157471 6402.000000
2781.975342 5915.000000
2782.794434 8033.000000
2783.612305 6491.000000
2784.429932 6692.000000
2785.247070 7225.000000
2786.063721 7231.000000
2786.880127 7199.000000
2787.696045 6250.000000
2788.511719 5957.000000
2789.326416 6471.000000
2790.141602 6922.000000
2790.956055 7186.000000
2791.770020 6548.000000
2792.583740 7415.000000
2793.396240 8775.000000
2794.208984 6944.000000
2795.021240 7420.000000
2795.833008 7224.000000
2796.644043 7310.000000
2797.455811 6554.000000
2798.266357 7204.000000
2799.076904 6997.000000
2799.885986 7416.000000
2800.695801 8145.000000
2801.504883 7760.000000
2802.313721 6648.000000
2803.122070 7151.000000
2803.929443 6080.000000
2804.737305 6387.000000
2805.544434 6929.000000
2806.351318 7020.000000
2807.156982 7075.000000
2807.963135 6632.000000
2808.768555 6506.000000
2809.573975 7339.000000
2810.378662 6129.000000
2811.182373 7603.000000
2811.986572 7476.000000
2812.790283 6321.000000
2813.593750 6063.000000
2814.395752 6591.000000
2815.198486 7274.000000
2816.000488 7800.000000
2816.802246 6114.000000
2817.603516 6519.000000
2818.404297 7231.000000
2819.204590 6440.000000
2820.005127 6656.000000
2820.804688 7993.000000
2821.603760 7151.000000
2822.402832 6383.000000
2823.201660 6957.000000
2824.000000 6336.000000
2824.797363 7039.000000
2825.594971 7019.000000
2826.391846 6639.000000
2827.188965 7339.000000
2827.985352 8148.000000
2828.781006 6942.000000
2829.576660 7303.000000
2830.372070 7734.000000
2831.166992 7362.000000
2831.961182 6608.000000
2832.755371 6772.000000
2833.549316 5626.000000
2834.342773 6884.000000
2835.135498 7189.000000
2835.927979 8221.000000
2836.720459 7617.000000
2837.512695 7465.000000
2838.304443 6377.000000
2839.095215 6766.000000
2839.885986 8906.000000
2840.677002 7527.000000
2841.467041 6202.000000
2842.256592 7630.000000
2843.046387 7141.000000
2843.835205 7349.000000
2844.624023 7798.000000
2845.412842 7657.000000
2846.200684 7509.000000
2846.988037 7186.000000
2847.775635 7466.000000
2848.562744 7300.000000
2849.349121 6614.000000
2850.135498 7471.000000
2850.921631 7117.000000
2851.707275 7501.000000
2852.491943 7132.000000
2853.277100 6900.000000
2854.062012 7502.000000
2854.846191 7070.000000
2855.630371 6834.000000
2856.413330 8180.000000
2857.196533 6816.000000
2857.979492 6716.000000
2858.761963 7717.000000
2859.544189 6213.000000
2860.325928 6564.000000
2861.107422 7580.000000
2861.889160 7468.000000
2862.670166 7642.000000
2863.450439 6534.000000
2864.230469 6713.000000
2865.010498 8148.000000
2865.790283 7456.000000
2866.569092 8048.000000
2867.348145 7609.000000
2868.126709 6887.000000
2868.905029 6993.000000
2869.682861 7277.000000
2870.460449 6945.000000
2871.237793 7479.000000
2872.014893 6982.000000
2872.791504 6414.000000
2873.567627 7474.000000
2874.343750 7095.000000
2875.119385 8263.000000
2875.894775 7169.000000
2876.669678 6604.000000
2877.444336 7984.000000
2878.218994 6543.000000
2878.993408 7810.000000
2879.767090 6735.000000
2880.540039 7116.000000
2881.313721 6801.000000
2882.086426 7610.000000
2882.859131 7873.000000
2883.631104 8263.000000
2884.402832 6185.000000
2885.175049 6726.000000
2885.946045 6852.000000
2886.716553 6175.000000
2887.487549 8258.000000
2888.258545 7226.000000
2889.028809 7869.000000
2889.798096 7612.000000
2890.567627 6954.000000
2891.337158 7196.000000
2892.106201 7281.000000
2892.874756 7827.000000
2893.643311 7624.000000
2894.410889 6961.000000
2895.178955 6565.000000
2895.946533 7443.000000
2896.714111 8398.000000
2897.480469 7345.000000
2898.247803 6494.000000
2899.013916 7194.000000
2899.780273 6970.000000
2900.545166 8244.000000
2901.310547 6947.000000
2902.076416 6500.000000
2902.840820 7728.000000
2903.605225 7721.000000
2904.369873 8429.000000
2905.133545 6635.000000
2905.897949 8533.000000
2906.661621 6628.000000
2907.424561 8374.000000
2908.187256 6487.000000
2908.950439 8899.000000
2909.713135 6947.000000
2910.474609 6768.000000
2911.236572 6768.000000
