scanname Analyse009
timestamp 2017-02-10 20:00:21
ccdbias 905.817871
ccdgain 3.473401
sigmaread 8.960639
laserwavenum -0.614723
wavenumcorrection -0.091759
scancount 1
totalexposurems 10000
singleexposurems 10000
measurementstate Unknown
scanmode Manual
snr 298.693939 9.819861 8.305801
replacelist 4
672 52048.000000 30848.000000
754 50522.000000 14423.000000
858 44721.000000 15647.000000
889 42549.000000 21239.000000
peaks 68
278.443115 0.723329 0.000000 1.542827 0.000194
284.584900 0.722989 0.000000 0.927327 0.000067
292.299469 0.724556 0.000000 0.776869 0.000033
302.824432 0.725323 0.000000 0.157095 0.000023
330.210541 0.743174 0.000000 0.938677 0.000151
342.954254 0.746577 0.000000 0.757258 0.000034
350.223877 0.750081 0.000000 0.668227 0.000025
360.264435 0.753603 0.000000 0.827287 0.000068
386.181732 0.753187 0.000000 1.325208 0.000295
461.220917 0.769347 0.000000 0.191274 0.000038
487.079468 0.782321 0.000000 0.863227 0.000111
534.990601 0.784846 0.000000 0.630376 0.000146
559.591553 0.824710 0.000000 1.348690 0.000235
573.239136 0.830446 0.000000 0.261408 0.000072
583.037781 0.825189 0.000000 0.652690 0.000106
660.537048 0.859270 0.000000 1.013343 0.000148
673.160278 0.855186 0.000000 1.390840 0.000270
715.766724 0.875435 0.000000 5.668602 0.001190
724.144348 0.856616 0.000000 1.313942 0.000055
741.982117 0.879917 0.000000 1.105703 0.000120
757.186523 0.906231 0.000000 5.996813 0.000689
779.272644 0.909129 0.000000 8.585703 0.001342
832.833191 0.908278 0.000000 0.382653 0.000161
843.025879 0.913777 0.000000 1.168680 0.000057
853.350220 0.938773 0.000000 1.102726 0.000286
867.838318 0.933686 0.000000 0.590054 0.000136
937.622253 1.008599 0.000000 0.705581 0.000404
954.340698 0.987368 0.000000 3.560274 0.001083
1005.170349 1.023192 0.000000 1.020084 0.000113
1013.716431 1.027572 0.000000 1.905843 0.000749
1020.518005 1.030221 0.000000 0.930067 0.000147
1026.756348 1.042174 0.000000 0.713142 0.000277
1044.299683 1.038780 0.000000 4.210315 0.001376
1104.544556 1.057010 0.000000 2.182625 0.000609
1117.753540 1.095667 0.000000 2.205957 0.000640
1134.788574 1.074588 0.000000 2.238586 0.000946
1150.274292 1.057030 0.000000 2.444000 0.000993
1174.466797 1.084831 0.000000 1.366746 0.000472
1185.761719 1.088929 0.000000 0.966263 0.000077
1211.007568 1.158829 0.000000 0.813587 0.000252
1222.498047 1.170324 0.000000 1.528564 0.000570
1232.761719 1.153262 0.000000 1.302917 0.000347
1260.026367 1.188930 0.000000 2.858754 0.001353
1281.010742 1.134075 0.000000 0.397714 0.000480
1312.899658 1.189844 0.000000 1.636934 0.000652
1330.194824 1.242490 0.000000 2.758280 0.001471
1348.275146 1.249779 0.000000 0.611320 0.000655
1388.813843 1.226447 0.000000 0.734762 0.000291
1414.960327 1.280213 0.000000 1.789001 0.000817
1434.195068 1.334103 0.000000 1.607509 0.000799
1446.868896 1.335674 0.000000 2.432372 0.001099
1459.770386 1.326252 0.000000 2.501978 0.001635
1489.887817 1.363766 0.000000 3.666374 0.002272
1511.334229 1.288977 0.000000 0.338352 0.000167
1531.990112 1.323758 0.000000 0.685380 0.000870
1558.244873 1.330859 0.000000 1.355186 0.000829
1578.035889 1.320806 0.000000 1.579418 0.001397
1616.190186 1.294045 0.000000 2.041482 0.001698
1642.471069 1.271149 0.000000 0.499458 0.000128
1668.397461 1.339806 0.000000 4.421698 0.003374
1700.792114 1.265869 0.000000 1.101882 0.001351
1713.305786 1.251318 0.000000 0.595562 0.000411
1749.290039 1.224368 0.000000 1.126013 0.000916
1763.040039 1.215535 0.000000 1.050323 0.000607
1778.682983 1.219425 0.000000 2.320420 0.002361
1798.364258 1.203688 0.000000 0.647546 0.000743
1809.904907 1.194888 0.000000 0.870094 0.000871
1844.589844 1.166238 0.000000 0.302996 0.000102
finalresult GLS_NoMatch 0
spectrum 2048
-96.986732 45428.000000
-94.359863 45428.000000
-91.734871 46076.000000
-89.111771 46098.000000
-86.490540 46966.000000
-83.871208 46719.000000
-81.253738 47056.000000
-78.638145 46789.000000
-76.024429 47071.000000
-73.412590 47379.000000
-70.802612 47338.000000
-68.194519 47492.000000
-65.588272 47455.000000
-62.983902 47546.000000
-60.381393 47398.000000
-57.780739 47965.000000
-55.181946 47332.000000
-52.585011 46673.000000
-49.989929 47020.000000
-47.396702 46936.000000
-44.805325 47191.000000
-42.215794 46760.000000
-39.628105 47618.000000
-37.042267 47448.000000
-34.458271 47001.000000
-31.876112 47753.000000
-29.295799 47184.000000
-26.717314 47701.000000
-24.140671 47315.000000
-21.565853 47158.000000
-18.992876 46866.000000
-16.421719 46919.000000
-13.852394 46567.000000
-11.284896 45537.000000
-8.719216 46988.000000
-6.155363 46747.000000
-3.593322 47079.000000
-1.033106 47187.000000
1.525302 46629.000000
4.081889 45873.000000
6.636671 45970.000000
9.189636 46503.000000
11.740801 45370.000000
14.290153 45130.000000
16.837708 44353.000000
19.383451 44723.000000
21.927402 44270.000000
24.469549 41951.000000
27.009899 39797.000000
29.548464 36451.000000
32.085232 32114.000000
34.620197 22825.000000
37.153385 13078.000000
39.684792 8933.000000
42.214405 8107.000000
44.742222 7928.000000
47.268280 6834.000000
49.792549 6048.000000
52.315048 5349.000000
54.835751 4922.000000
57.354698 5047.000000
59.871872 5780.000000
62.387268 7469.000000
64.900887 8550.000000
67.412750 7851.000000
69.922867 6191.000000
72.431190 4405.000000
74.937759 3715.000000
77.442581 3069.000000
79.945648 2530.000000
82.446938 2266.000000
84.946487 2355.000000
87.444283 2267.000000
89.940346 2469.000000
92.434631 3016.000000
94.927177 3297.000000
97.418007 3202.000000
99.907066 2978.000000
102.394379 2250.000000
104.879967 1883.000000
107.363815 1802.000000
109.845917 1844.000000
112.326294 19375.000000
114.804947 30487.000000
117.281876 35290.000000
119.757050 37092.000000
122.230515 40041.000000
124.702248 43321.000000
127.172272 43550.000000
129.640549 44760.000000
132.107147 45468.000000
134.571991 46503.000000
137.035141 46321.000000
139.496552 45547.000000
141.956268 46015.000000
144.414261 46693.000000
146.870560 47138.000000
149.325150 47526.000000
151.778015 46442.000000
154.229202 47054.000000
156.678696 46845.000000
159.126465 47356.000000
161.572525 46772.000000
164.016907 44745.000000
166.459610 47091.000000
168.900620 46798.000000
171.339920 47307.000000
173.777512 46332.000000
176.213470 46979.000000
178.647690 46615.000000
181.080231 46428.000000
183.511124 46874.000000
185.940292 46448.000000
188.367813 46858.000000
190.793655 47222.000000
193.217819 46884.000000
195.640320 46453.000000
198.061127 46293.000000
200.480270 47151.000000
202.897751 47612.000000
205.313538 46000.000000
207.727676 46539.000000
210.140182 47182.000000
212.551010 47602.000000
214.960159 47331.000000
217.367676 46211.000000
219.773483 47358.000000
222.177704 47109.000000
224.580215 46944.000000
226.981110 46671.000000
229.380356 47233.000000
231.777939 46801.000000
234.173859 46395.000000
236.568161 47108.000000
238.960800 47482.000000
241.351822 46791.000000
243.741180 47106.000000
246.128922 47258.000000
248.515015 46645.000000
250.899475 47448.000000
253.282288 45714.000000
255.663528 46992.000000
258.043060 46973.000000
260.421021 47127.000000
262.797302 45992.000000
265.172028 46029.000000
267.545105 45780.000000
269.916534 47410.000000
272.286316 47121.000000
274.654541 47659.000000
277.021118 47239.000000
279.386108 47185.000000
281.749481 47576.000000
284.111206 47373.000000
286.471344 46446.000000
288.829865 47655.000000
291.186798 47030.000000
293.542114 47209.000000
295.895844 47569.000000
298.247925 47640.000000
300.598450 47234.000000
302.947388 47201.000000
305.294678 46838.000000
307.640442 47147.000000
309.984528 47085.000000
312.327087 46136.000000
314.668030 46059.000000
317.007355 46356.000000
319.345123 46553.000000
321.681335 45493.000000
324.015900 47297.000000
326.348907 47037.000000
328.680359 47665.000000
331.010223 46998.000000
333.338501 47218.000000
335.665161 46310.000000
337.990326 47261.000000
340.313873 47358.000000
342.635864 47619.000000
344.956299 46035.000000
347.275116 45855.000000
349.592377 47675.000000
351.908112 47740.000000
354.222260 46678.000000
356.534821 47237.000000
358.845825 47374.000000
361.155304 46503.000000
363.463257 47239.000000
365.769592 47911.000000
368.074341 47074.000000
370.377625 47125.000000
372.679291 47242.000000
374.979462 47222.000000
377.278076 47298.000000
379.575134 47893.000000
381.870636 47499.000000
384.164612 47717.000000
386.457001 48420.000000
388.747894 47991.000000
391.037262 47319.000000
393.325043 47390.000000
395.611298 47118.000000
397.896057 46555.000000
400.179199 47485.000000
402.460907 47109.000000
404.741089 47444.000000
407.019684 46360.000000
409.296753 47127.000000
411.572296 46778.000000
413.846313 47087.000000
416.118896 47107.000000
418.389862 47285.000000
420.659332 47194.000000
422.927307 46448.000000
425.193726 46283.000000
427.458649 47209.000000
429.722107 47222.000000
431.983978 47089.000000
434.244385 47565.000000
436.503235 46813.000000
438.760620 47462.000000
441.016510 47880.000000
443.270905 47789.000000
445.523773 48129.000000
447.775085 46607.000000
450.024994 47427.000000
452.273315 47319.000000
454.520203 47942.000000
456.765625 47114.000000
459.009491 46998.000000
461.251862 47058.000000
463.492737 47922.000000
465.732208 46817.000000
467.970093 48104.000000
470.206543 47583.000000
472.441467 47456.000000
474.674927 46359.000000
476.906952 46759.000000
479.137451 47932.000000
481.366455 47110.000000
483.593994 47232.000000
485.820038 47662.000000
488.044647 47069.000000
490.267792 47603.000000
492.489471 47083.000000
494.709595 46867.000000
496.928314 47799.000000
499.145538 47278.000000
501.361389 48002.000000
503.575623 47390.000000
505.788544 47089.000000
507.999878 47169.000000
510.209778 46672.000000
512.418213 47055.000000
514.625305 46987.000000
516.830811 47094.000000
519.034912 46923.000000
521.237488 47328.000000
523.438660 47034.000000
525.638489 46854.000000
527.836792 46604.000000
530.033569 48237.000000
532.229004 47699.000000
534.422913 47956.000000
536.615479 46053.000000
538.806519 46837.000000
540.996155 47494.000000
543.184387 46642.000000
545.371094 46316.000000
547.556335 46787.000000
549.740295 47307.000000
551.922668 47109.000000
554.103699 47345.000000
556.283203 47489.000000
558.461426 47617.000000
560.638123 47514.000000
562.813416 47142.000000
564.987305 47053.000000
567.159729 47651.000000
569.330750 47427.000000
571.500305 47181.000000
573.668579 48268.000000
575.835327 47101.000000
578.000610 47195.000000
580.164490 47342.000000
582.327087 47829.000000
584.488159 47480.000000
586.647827 47971.000000
588.806152 47671.000000
590.962952 47427.000000
593.118408 46930.000000
595.272461 47759.000000
597.425171 47355.000000
599.576355 46318.000000
601.726196 46726.000000
603.874695 46896.000000
606.021606 47489.000000
608.167297 46949.000000
610.311584 47089.000000
612.454407 46456.000000
614.595764 47337.000000
616.735901 47065.000000
618.874512 45845.000000
621.011841 47770.000000
623.147705 46940.000000
625.282166 46642.000000
627.415161 46334.000000
629.546997 46843.000000
631.677368 46951.000000
633.806335 46776.000000
635.933838 47004.000000
638.060059 47317.000000
640.184753 45985.000000
642.308228 47157.000000
644.430359 46704.000000
646.551025 46567.000000
648.670349 47006.000000
650.788269 47869.000000
652.904846 47903.000000
655.020020 47076.000000
657.133850 47053.000000
659.246216 47772.000000
661.357361 47395.000000
663.467102 48206.000000
665.575378 47460.000000
667.682495 47258.000000
669.788147 46681.000000
671.892334 47691.000000
673.995300 47764.000000
676.096863 46523.000000
678.197083 48123.000000
680.295898 46766.000000
682.393372 47162.000000
684.489563 46448.000000
686.584290 47222.000000
688.677795 46462.000000
690.769958 46849.000000
692.860596 45517.000000
694.950012 46851.000000
697.038147 46979.000000
699.124817 47464.000000
701.210266 46785.000000
703.294189 48266.000000
705.376892 47561.000000
707.458313 47487.000000
709.538269 45927.000000
711.617004 47175.000000
713.694275 47928.000000
715.770264 46963.000000
717.844971 47369.000000
719.918396 46386.000000
721.990295 47130.000000
724.061035 46096.000000
726.130432 47618.000000
728.198425 46957.000000
730.265076 46997.000000
732.330505 46336.000000
734.394592 47709.000000
736.457336 47269.000000
738.518738 46918.000000
740.578857 46803.000000
742.637573 47424.000000
744.695068 46793.000000
746.751282 46846.000000
748.806091 46723.000000
750.859619 47083.000000
752.911743 45993.000000
754.962646 47661.000000
757.012329 46732.000000
759.060547 47038.000000
761.107544 47258.000000
763.153259 46353.000000
765.197571 48142.000000
767.240601 47681.000000
769.282410 38388.000000
771.322876 46232.000000
773.361938 47091.000000
775.399841 47408.000000
777.436401 47486.000000
779.471741 48100.000000
781.505737 47635.000000
783.538330 46570.000000
785.569763 47931.000000
787.599792 41864.000000
789.628540 47360.000000
791.656128 47090.000000
793.682373 47048.000000
795.707214 47599.000000
797.730957 47940.000000
799.753296 47037.000000
801.774414 47516.000000
803.794189 46661.000000
805.812683 48538.000000
807.829956 46684.000000
809.845825 46579.000000
811.860535 47644.000000
813.873901 47055.000000
815.886047 47165.000000
817.896973 47303.000000
819.906555 46811.000000
821.914917 48125.000000
823.921875 47706.000000
825.927612 47361.000000
827.932129 47683.000000
829.935364 47750.000000
831.937317 46966.000000
833.937988 47337.000000
835.937439 47493.000000
837.935547 47010.000000
839.932556 46415.000000
841.928162 47197.000000
843.922607 47414.000000
845.915710 47158.000000
847.907593 46573.000000
849.898132 47807.000000
851.887390 46586.000000
853.875610 47332.000000
855.862427 47707.000000
857.848022 46962.000000
859.832336 46127.000000
861.815552 47093.000000
863.797363 46973.000000
865.777954 47538.000000
867.757263 45652.000000
869.735413 46306.000000
871.712219 47239.000000
873.687744 47154.000000
875.662231 47139.000000
877.635254 47280.000000
879.607239 47864.000000
881.577881 46929.000000
883.547363 47249.000000
885.515503 47809.000000
887.482483 48173.000000
889.448120 47244.000000
891.412598 47506.000000
893.375854 47359.000000
895.337891 46778.000000
897.298645 47481.000000
899.258179 46964.000000
901.216431 46676.000000
903.173584 47069.000000
905.129578 47351.000000
907.084167 46418.000000
909.037537 46812.000000
910.989746 46908.000000
912.940735 46853.000000
914.890442 46154.000000
916.838989 46988.000000
918.786316 47115.000000
920.732361 47179.000000
922.677124 47266.000000
924.620850 46932.000000
926.563416 47275.000000
928.504700 47638.000000
930.444641 46817.000000
932.383484 47516.000000
934.321045 47779.000000
936.257385 47270.000000
938.192566 47432.000000
940.126465 47155.000000
942.059265 47367.000000
943.990845 46446.000000
945.921265 47984.000000
947.850464 46783.000000
949.778320 46174.000000
951.705139 46627.000000
953.630676 47332.000000
955.554932 47852.000000
957.478088 47261.000000
959.400085 46452.000000
961.320801 45981.000000
963.240356 46769.000000
965.158752 47992.000000
967.076111 46858.000000
968.992004 46784.000000
970.906799 47146.000000
972.820374 47250.000000
974.732788 46853.000000
976.643982 46732.000000
978.554016 47751.000000
980.462769 46987.000000
982.370483 47029.000000
984.276978 46831.000000
986.182251 47523.000000
988.086426 46426.000000
989.989380 47014.000000
991.891113 46293.000000
993.791687 46594.000000
995.691101 46523.000000
997.589294 47901.000000
999.486328 46579.000000
1001.382141 46671.000000
1003.276794 45517.000000
1005.170349 47618.000000
1007.062622 45901.000000
1008.953979 47022.000000
1010.843994 47723.000000
1012.732788 46395.000000
1014.620422 46672.000000
1016.506897 46165.000000
1018.392212 46351.000000
1020.276367 47150.000000
1022.159302 47202.000000
1024.041260 46949.000000
1025.921875 47911.000000
1027.801392 47227.000000
1029.679932 47016.000000
1031.557129 47648.000000
1033.432983 46902.000000
1035.307861 47202.000000
1037.181763 46526.000000
1039.054199 46045.000000
1040.925659 46372.000000
1042.795776 47547.000000
1044.664917 47628.000000
1046.532837 47325.000000
1048.399658 46038.000000
1050.265381 46389.000000
1052.129883 46675.000000
1053.993286 46697.000000
1055.855347 46661.000000
1057.716431 47224.000000
1059.576416 46578.000000
1061.435059 46463.000000
1063.292603 47345.000000
1065.149048 46385.000000
1067.004395 47079.000000
1068.858521 47193.000000
1070.711792 46878.000000
1072.563599 46762.000000
1074.414429 46886.000000
1076.264038 46918.000000
1078.112427 47366.000000
1079.959961 45052.000000
1081.806152 47432.000000
1083.651123 46872.000000
1085.495239 47623.000000
1087.338013 47496.000000
1089.179565 46463.000000
1091.020386 47499.000000
1092.859619 47229.000000
1094.698120 46895.000000
1096.535278 46940.000000
1098.371216 46138.000000
1100.206177 46366.000000
1102.039917 47503.000000
1103.872681 47254.000000
1105.704102 46720.000000
1107.534668 45688.000000
1109.363892 46439.000000
1111.192139 46409.000000
1113.019165 45755.000000
1114.845215 47512.000000
1116.670044 46577.000000
1118.493774 45687.000000
1120.316284 46770.000000
1122.137695 47013.000000
1123.958252 46975.000000
1125.777344 46322.000000
1127.595581 45815.000000
1129.412476 46071.000000
1131.228516 46201.000000
1133.043335 46395.000000
1134.857056 47296.000000
1136.669678 47106.000000
1138.481079 47318.000000
1140.291504 46755.000000
1142.100830 46118.000000
1143.908813 45932.000000
1145.716064 46961.000000
1147.521851 46951.000000
1149.326782 47502.000000
1151.130615 47405.000000
1152.933228 46819.000000
1154.734985 46721.000000
1156.535278 46722.000000
1158.334595 46688.000000
1160.132935 46927.000000
1161.929932 47353.000000
1163.726196 46811.000000
1165.521118 46735.000000
1167.314941 46460.000000
1169.107910 44978.000000
1170.899536 46985.000000
1172.690186 46199.000000
1174.479858 46687.000000
1176.268066 46876.000000
1178.055420 45208.000000
1179.841675 45831.000000
1181.626831 46930.000000
1183.410889 46630.000000
1185.193848 45028.000000
1186.975830 46752.000000
1188.756592 46722.000000
1190.536377 46241.000000
1192.315063 45633.000000
1194.092773 45820.000000
1195.869263 45332.000000
1197.644653 45960.000000
1199.418945 45997.000000
1201.192139 45826.000000
1202.964478 46040.000000
1204.735474 45760.000000
1206.505615 46801.000000
1208.274536 46289.000000
1210.042358 46081.000000
1211.809326 46621.000000
1213.574951 46557.000000
1215.339600 45494.000000
1217.103149 45882.000000
1218.865601 46462.000000
1220.627197 45606.000000
1222.387573 46558.000000
1224.146851 46085.000000
1225.905273 46388.000000
1227.662476 45260.000000
1229.418579 45917.000000
1231.173584 46944.000000
1232.927734 46406.000000
1234.680542 46628.000000
1236.432373 46401.000000
1238.183350 46466.000000
1239.932983 47520.000000
1241.681763 45479.000000
1243.429199 45999.000000
1245.175903 45786.000000
1246.921387 45933.000000
1248.666016 45953.000000
1250.409302 45633.000000
1252.151611 45674.000000
1253.892822 47048.000000
1255.633179 47266.000000
1257.372437 46637.000000
1259.110474 45734.000000
1260.847656 45224.000000
1262.583618 46231.000000
1264.318604 45920.000000
1266.052612 45110.000000
1267.785645 46384.000000
1269.517456 46180.000000
1271.248291 45914.000000
1272.977905 45131.000000
1274.706665 46508.000000
1276.434326 46672.000000
1278.160889 46871.000000
1279.886597 46807.000000
1281.610962 45862.000000
1283.334473 47095.000000
1285.057007 45408.000000
1286.778564 45683.000000
1288.498901 45911.000000
1290.218262 45629.000000
1291.936523 44986.000000
1293.653809 45824.000000
1295.370117 46469.000000
1297.085205 45758.000000
1298.799316 46086.000000
1300.512451 46492.000000
1302.224731 45704.000000
1303.935791 43802.000000
1305.645874 46883.000000
1307.354858 45536.000000
1309.062622 45492.000000
1310.769775 45061.000000
1312.475464 46264.000000
1314.180420 45198.000000
1315.884399 45948.000000
1317.587158 46116.000000
1319.288940 45554.000000
1320.989868 46049.000000
1322.689453 42913.000000
1324.388184 44650.500000
1326.086182 46388.000000
1327.782837 45393.000000
1329.478394 44589.000000
1331.173096 44789.000000
1332.866577 45956.000000
1334.559204 46247.000000
1336.250977 44323.000000
1337.941406 45381.000000
1339.631104 45065.000000
1341.319702 45525.000000
1343.007202 44021.000000
1344.693726 46027.000000
1346.379150 44905.000000
1348.063599 45750.000000
1349.747192 44393.000000
1351.429565 45369.000000
1353.110962 45871.000000
1354.791504 45257.000000
1356.470825 45093.000000
1358.149536 45869.000000
1359.826904 45199.000000
1361.503174 45987.000000
1363.178467 46154.000000
1364.853027 45206.000000
1366.526367 45261.000000
1368.198730 44982.000000
1369.870117 46611.000000
1371.540527 44956.000000
1373.209839 45539.000000
1374.878174 45991.000000
1376.545654 45647.000000
1378.212036 45102.000000
1379.877441 45416.000000
1381.541870 45682.000000
1383.205078 45569.000000
1384.867676 45787.000000
1386.528931 45057.000000
1388.189331 44820.000000
1389.848633 45017.000000
1391.506958 44882.000000
1393.164551 44489.000000
1394.820923 44778.000000
1396.476440 44253.000000
1398.130737 44926.000000
1399.784180 45419.000000
1401.436523 45030.000000
1403.088135 44619.000000
1404.738525 43907.000000
1406.387817 44752.000000
1408.036377 43426.000000
1409.683838 42989.000000
1411.330322 44679.000000
1412.975952 44530.000000
1414.620605 44768.000000
1416.264038 43736.000000
1417.906616 43473.000000
1419.548096 43858.000000
1421.188721 44192.000000
1422.828369 44239.000000
1424.466919 44535.000000
1426.104614 43969.000000
1427.741211 44212.000000
1429.376831 44503.000000
1431.011719 44130.000000
1432.645508 44614.000000
1434.278198 44426.000000
1435.909912 44840.000000
1437.540771 44419.000000
1439.170532 44476.000000
1440.799194 42729.000000
1442.427246 44553.000000
1444.054199 43969.000000
1445.679932 44354.000000
1447.305054 44445.000000
1448.929077 44119.000000
1450.552124 44523.000000
1452.174194 44606.000000
1453.795166 43221.000000
1455.415161 44269.000000
1457.034424 43734.000000
1458.652344 44806.000000
1460.269653 44870.000000
1461.885986 44934.000000
1463.501099 43139.000000
1465.115356 43864.000000
1466.728760 45057.000000
1468.341064 44633.000000
1469.952515 43895.000000
1471.563110 43793.000000
1473.172485 44135.000000
1474.780884 44005.000000
1476.388428 43623.000000
1477.994995 43122.000000
1479.600830 44355.000000
1481.205444 43338.000000
1482.809204 44029.000000
1484.411743 42854.000000
1486.013672 43916.000000
1487.614380 43858.000000
1489.214355 43725.000000
1490.813232 43123.000000
1492.411255 42976.000000
1494.008179 42776.000000
1495.604248 43124.000000
1497.199341 43446.000000
1498.793457 43934.000000
1500.386841 42729.000000
1501.979126 43712.000000
1503.570190 43011.000000
1505.160767 42433.000000
1506.750000 42621.000000
1508.338623 42838.000000
1509.926147 42340.000000
1511.512573 41998.000000
1513.098267 42569.000000
1514.682861 41979.000000
1516.266602 42143.000000
1517.849243 42245.000000
1519.431152 41704.000000
1521.011963 41481.000000
1522.592041 41902.000000
1524.170898 41518.000000
1525.748901 41181.000000
1527.326172 41196.000000
1528.902222 41683.000000
1530.477539 41268.000000
1532.051758 40832.000000
1533.625244 41651.000000
1535.197510 40976.000000
1536.769043 40542.000000
1538.339600 40343.000000
1539.909302 40381.000000
1541.477783 41118.000000
1543.045532 39888.000000
1544.612427 40840.000000
1546.178101 39571.000000
1547.743042 40450.000000
1549.306885 41144.000000
1550.870117 38735.000000
1552.432007 39819.000000
1553.993286 40113.000000
1555.553467 40348.000000
1557.112915 40236.000000
1558.671265 40153.000000
1560.228882 39777.000000
1561.785400 39030.000000
1563.340698 40231.000000
1564.895386 39644.000000
1566.449341 40222.000000
1568.002319 39602.000000
1569.553955 40252.000000
1571.104858 40010.000000
1572.655029 39715.000000
1574.204224 39600.000000
1575.752075 40164.000000
1577.299438 40324.000000
1578.845825 40159.000000
1580.391357 40802.000000
1581.935913 39108.000000
1583.479248 39535.000000
1585.021973 39167.000000
1586.563843 39222.000000
1588.104614 38873.000000
1589.644409 39680.000000
1591.183472 38757.000000
1592.721436 39454.000000
1594.258911 39192.000000
1595.795044 39375.000000
1597.330078 38533.000000
1598.864624 38981.000000
1600.398193 39017.000000
1601.930908 38916.000000
1603.462036 38797.000000
1604.992920 38783.000000
1606.522949 39290.000000
1608.051758 38839.000000
1609.579468 38795.000000
1611.106567 38933.000000
1612.632935 39085.000000
1614.158325 38629.000000
1615.682861 39061.000000
1617.206055 39050.000000
1618.728516 39145.000000
1620.250244 38153.000000
1621.771118 37729.000000
1623.290527 37984.000000
1624.809448 38239.000000
1626.327637 37894.000000
1627.844971 38078.000000
1629.361206 37430.000000
1630.876099 36712.000000
1632.390503 36914.000000
1633.904175 37757.000000
1635.416748 36609.000000
1636.928101 37487.000000
1638.439087 36776.000000
1639.948975 37035.000000
1641.458008 36998.000000
1642.965698 37507.000000
1644.473022 36901.000000
1645.979492 35861.000000
1647.484985 36686.000000
1648.989624 36008.000000
1650.492798 36594.000000
1651.995361 36069.000000
1653.497559 36105.000000
1654.998413 35728.000000
1656.498169 34744.000000
1657.997070 36068.000000
1659.495605 35599.000000
1660.992920 35874.000000
1662.489502 36175.000000
1663.984497 35619.000000
1665.479248 35820.000000
1666.973145 36913.000000
1668.466064 36635.000000
1669.957642 36000.500000
1671.448730 35366.000000
1672.939209 34388.000000
1674.428589 34485.000000
1675.916504 33566.000000
1677.404175 33577.000000
1678.890869 34095.000000
1680.376709 34567.000000
1681.861694 33722.000000
1683.345215 33496.000000
1684.828491 33363.000000
1686.310913 33578.000000
1687.792236 33358.000000
1689.272095 33260.000000
1690.751709 33793.000000
1692.230591 32942.000000
1693.708496 33368.000000
1695.185425 33289.000000
1696.661133 33575.000000
1698.136475 33298.000000
1699.610596 33076.000000
1701.084106 33832.000000
1702.556152 33830.000000
1704.027954 32655.000000
1705.498779 33111.000000
1706.968750 32452.000000
1708.437378 34147.000000
1709.905518 33493.000000
1711.372925 33075.000000
1712.839233 33843.000000
1714.304932 33732.000000
1715.768921 33454.000000
1717.232788 33750.000000
1718.695801 32890.000000
1720.157837 33378.000000
1721.618652 32947.000000
1723.078857 33964.000000
1724.538330 33196.000000
1725.996948 33269.000000
1727.454590 33417.000000
1728.910889 33162.000000
1730.366943 33391.000000
1731.822021 33012.000000
1733.276123 33367.000000
1734.729004 32507.000000
1736.181641 33224.000000
1737.633179 32239.000000
1739.083984 33015.000000
1740.533813 32325.000000
1741.982300 33002.000000
1743.430420 31237.000000
1744.877686 32130.000000
1746.324219 31765.000000
1747.769165 31534.000000
1749.213867 31913.000000
1750.657715 32105.000000
1752.100708 32520.000000
1753.542236 31405.000000
1754.983521 31501.000000
1756.423950 30238.000000
1757.863403 31314.000000
1759.301880 32097.000000
1760.739380 31402.000000
1762.176392 29935.000000
1763.612427 31512.000000
1765.047607 30264.000000
1766.481323 31090.000000
1767.914917 30752.000000
1769.347534 30319.000000
1770.779297 30999.000000
1772.210205 30572.000000
1773.639893 29920.000000
1775.068848 29752.000000
1776.497314 29331.000000
1777.924805 28714.000000
1779.350952 28965.000000
1780.776855 29761.000000
1782.201660 28725.000000
1783.625854 29939.000000
1785.048584 28768.000000
1786.470825 28830.000000
1787.892334 28409.000000
1789.313110 29237.000000
1790.732910 28785.000000
1792.151367 28641.000000
1793.569336 27939.000000
1794.986694 29158.000000
1796.403198 28681.000000
1797.818237 28294.000000
1799.232910 28918.000000
1800.646973 28281.000000
1802.059814 28928.000000
1803.472046 27950.000000
1804.882935 27820.000000
1806.293335 27051.000000
1807.703003 28078.000000
1809.111694 28412.000000
1810.519287 28943.000000
1811.926392 28065.000000
1813.332642 28254.000000
1814.737915 27912.000000
1816.142090 28564.000000
1817.545898 28499.000000
1818.948730 28345.000000
1820.350708 28500.000000
1821.752075 28639.000000
1823.151978 28220.000000
1824.551270 28157.000000
1825.950073 28058.000000
1827.348022 27149.000000
1828.744629 28734.000000
1830.140625 27736.000000
1831.535889 28506.000000
1832.930542 26392.000000
1834.324219 28414.000000
1835.716553 27385.000000
1837.108398 27700.000000
1838.499634 28032.000000
1839.889893 26927.000000
1841.278931 27777.000000
1842.667603 27590.000000
1844.055298 27669.000000
1845.442261 27860.000000
1846.827881 26733.000000
1848.213257 27691.000000
1849.597778 27012.000000
1850.981567 27073.000000
1852.364258 26712.000000
1853.745728 27449.000000
1855.126709 26349.000000
1856.507202 26495.000000
1857.886719 26901.000000
1859.264771 26736.000000
1860.642700 26753.000000
1862.019653 25066.000000
1863.395874 26278.000000
1864.771240 25983.000000
1866.145142 26088.000000
1867.518921 26078.000000
1868.891846 25665.000000
1870.263672 25805.000000
1871.634521 24926.000000
1873.005005 25751.000000
1874.374390 25384.000000
1875.743286 25271.000000
1877.110596 24527.000000
1878.477783 25107.000000
1879.843994 25189.000000
1881.209473 24888.000000
1882.574219 24502.000000
1883.937378 24725.000000
1885.300415 24375.000000
1886.662598 24606.000000
1888.023926 24308.000000
1889.383911 24668.000000
1890.743530 24603.000000
1892.102539 24609.000000
1893.460571 24320.000000
1894.817749 23808.000000
1896.173706 24549.000000
1897.529419 23470.000000
1898.884155 24297.000000
1900.238037 24305.000000
1901.590820 24200.000000
1902.943115 24202.000000
1904.294678 24480.000000
1905.645386 24046.000000
1906.994873 24351.000000
1908.343872 23896.000000
1909.692017 24317.000000
1911.039551 24128.000000
1912.386353 24113.000000
1913.731567 23926.000000
1915.076538 24248.000000
1916.420776 24645.000000
1917.764160 24089.000000
1919.106201 24549.000000
1920.447998 24197.000000
1921.788940 23849.000000
1923.129150 24251.000000
1924.468384 24170.000000
1925.806641 24206.000000
1927.144287 24233.000000
1928.481201 23982.000000
1929.817261 23765.000000
1931.152100 24345.000000
1932.486572 23789.000000
1933.820313 23198.000000
1935.153198 23645.000000
1936.484619 23685.000000
1937.816162 23586.000000
1939.146362 23155.000000
1940.476074 23476.000000
1941.804932 23482.000000
1943.132568 23322.000000
1944.459717 23552.000000
1945.786133 23451.000000
1947.111816 23232.000000
1948.436157 23440.000000
1949.760254 23176.000000
1951.083496 23139.000000
1952.406006 22953.000000
1953.727417 23235.000000
1955.047852 22484.000000
1956.367676 22864.000000
1957.687134 22901.000000
1959.005615 22346.000000
1960.322754 22535.000000
1961.639526 22433.000000
1962.955566 22163.000000
1964.270874 22350.000000
1965.584717 22456.000000
1966.898315 22359.000000
1968.211182 22135.000000
1969.523193 22253.000000
1970.834595 22003.000000
1972.144653 21864.000000
1973.454224 21671.000000
1974.763062 21389.000000
1976.071289 21434.000000
1977.378174 21269.000000
1978.684448 21168.000000
1979.990356 21598.000000
1981.295044 21465.000000
1982.599243 21416.000000
1983.902222 21431.000000
1985.204834 21124.000000
1986.506470 21183.000000
1987.807495 20717.000000
1989.106934 20688.000000
1990.406494 20550.000000
1991.704956 20611.000000
1993.002930 20557.000000
1994.299316 20591.000000
1995.595703 20360.000000
1996.891113 20471.000000
1998.185791 20063.000000
1999.479614 20083.000000
2000.772217 19894.000000
2002.064331 19928.000000
2003.355957 19638.000000
2004.646851 19782.000000
2005.936157 20037.000000
2007.225220 19753.000000
2008.513550 19784.000000
2009.801147 19648.000000
2011.087891 19855.000000
2012.373535 19470.000000
2013.658813 19605.000000
2014.943115 19571.000000
2016.226807 19613.000000
2017.509155 19357.000000
2018.791138 19532.000000
2020.072632 19278.000000
2021.353149 19391.000000
2022.632935 19302.000000
2023.911621 19207.000000
2025.189575 19256.000000
2026.467041 19277.000000
2027.743896 19343.000000
2029.019043 19417.000000
2030.294312 19406.000000
2031.568604 19508.000000
2032.841919 19409.000000
2034.114380 19490.000000
2035.386475 19650.000000
2036.657471 19349.000000
2037.928223 19345.000000
2039.197632 19497.000000
2040.465942 19563.000000
2041.734253 19441.000000
2043.001587 19462.000000
2044.268188 19293.000000
2045.533569 19302.000000
2046.798340 19029.000000
2048.062744 19354.000000
2049.326172 19089.000000
2050.589111 19145.000000
2051.850098 19008.000000
2053.111572 18786.000000
2054.371826 18767.000000
2055.631348 18679.000000
2056.890137 18594.000000
2058.147949 18488.000000
2059.405273 18696.000000
2060.661865 18661.000000
2061.916992 18458.000000
2063.172119 18524.000000
2064.426270 18568.000000
2065.679688 18392.000000
2066.932373 18230.000000
2068.183838 18385.000000
2069.435059 18277.000000
2070.685547 18385.000000
2071.935303 18420.000000
2073.183594 18464.000000
2074.431885 17883.000000
2075.679199 17871.000000
2076.925781 17874.000000
2078.171631 17880.000000
2079.416260 17867.000000
2080.660400 17869.000000
2081.904053 17627.000000
2083.146729 17627.000000
2084.388184 17455.000000
2085.629395 17470.000000
2086.870117 17322.000000
2088.109863 17447.000000
2089.348389 17202.000000
2090.586426 17162.000000
2091.823730 17232.000000
2093.060791 17152.000000
2094.296387 17042.000000
2095.531250 17148.000000
2096.765869 17276.000000
2097.999512 17184.000000
2099.232178 16931.000000
2100.464111 16823.000000
2101.695557 16881.000000
2102.926025 16777.000000
2104.155762 16819.000000
2105.385254 16618.000000
2106.612793 16634.000000
2107.840576 16483.000000
2109.067627 16250.000000
2110.293701 16365.000000
2111.518311 16176.000000
2112.743164 16071.000000
2113.966797 15942.000000
2115.189941 16093.000000
2116.411865 16051.000000
2117.633545 16060.000000
2118.854248 16058.000000
2120.074219 16277.000000
2121.293701 16230.000000
2122.511719 16310.000000
2123.729736 16075.000000
2124.946777 16160.000000
2126.163330 16158.000000
2127.378174 16301.000000
2128.593262 16132.000000
2129.807373 16105.000000
2131.020752 16016.000000
2132.233398 15843.000000
2133.444580 15930.000000
2134.656006 15861.000000
2135.866211 15945.000000
2137.075928 16040.000000
2138.284180 16102.000000
2139.492432 16061.000000
2140.699951 15799.000000
2141.906250 15394.000000
2143.111816 15700.000000
2144.317139 15733.000000
2145.521484 15777.000000
2146.725098 15641.000000
2147.928223 15739.000000
2149.129883 15719.000000
2150.331299 15662.000000
2151.531982 15597.000000
2152.731934 15691.000000
2153.930664 15519.000000
2155.129150 15523.000000
2156.327148 15593.000000
2157.524170 15294.000000
2158.720459 15241.000000
2159.915527 15190.000000
2161.110352 15030.000000
2162.304443 14862.000000
2163.497559 14904.000000
2164.689697 14741.000000
2165.881592 14911.000000
2167.072754 14608.000000
2168.262939 14319.000000
2169.452393 14432.000000
2170.641357 14173.000000
2171.829346 14083.000000
2173.017090 14004.000000
2174.203369 13962.000000
2175.388916 13868.000000
2176.574219 13761.000000
2177.759033 13775.000000
2178.942627 13665.000000
2180.125488 13709.000000
2181.307373 13708.000000
2182.489014 13730.000000
2183.670166 13518.000000
2184.850098 13489.000000
2186.029053 13539.000000
2187.207520 13516.000000
2188.385742 13548.000000
2189.562744 13383.000000
2190.738770 13442.000000
2191.914551 13574.000000
2193.089844 13571.000000
2194.263672 13397.000000
2195.437012 13601.000000
2196.610107 13585.000000
2197.781982 13632.000000
2198.953369 13547.000000
2200.124268 13614.000000
2201.293457 13545.000000
2202.462646 13503.000000
2203.631348 13480.000000
2204.799072 13459.000000
2205.965820 13624.000000
2207.131836 13503.000000
2208.297363 13414.000000
2209.462646 13447.000000
2210.626465 13353.000000
2211.789795 13544.000000
2212.951904 13297.000000
2214.114258 13456.000000
2215.275391 13359.000000
2216.435547 13329.000000
2217.595215 13104.000000
2218.754639 13190.000000
2219.912842 13065.000000
2221.070068 13074.000000
2222.227051 13107.000000
2223.383301 13076.000000
2224.538818 12947.000000
2225.693604 12958.000000
2226.847412 12908.000000
2228.000244 12818.000000
2229.153564 12804.000000
2230.304932 12731.000000
2231.456055 12711.000000
2232.606445 12756.000000
2233.756348 12512.000000
2234.905273 12605.000000
2236.053711 12617.000000
2237.200684 12710.000000
2238.347900 12452.000000
2239.493896 12188.000000
2240.639648 12138.000000
2241.783691 12019.000000
2242.927979 12052.000000
2244.071289 11981.000000
2245.213867 11976.000000
2246.355469 11968.000000
2247.496826 11841.000000
2248.637207 11723.000000
2249.776855 11658.000000
2250.916016 11536.000000
2252.053955 11527.000000
2253.191895 11557.000000
2254.328857 11470.000000
2255.465088 11357.000000
2256.600342 11381.000000
2257.734863 11350.000000
2258.869141 11362.000000
2260.002930 11780.000000
2261.135254 11854.000000
2262.267090 11506.000000
2263.398438 11267.000000
2264.528809 11025.000000
2265.658936 10980.000000
2266.787842 10925.000000
2267.916260 10925.000000
2269.044189 10914.000000
2270.171143 10862.000000
2271.297363 10885.000000
2272.422607 10831.000000
2273.547852 10938.000000
2274.672363 10825.000000
2275.795654 11008.000000
2276.918213 10883.000000
2278.040283 10871.000000
2279.161865 10812.000000
2280.282715 10758.000000
2281.402344 10768.000000
2282.521484 10706.000000
2283.640381 10489.000000
2284.758545 10519.000000
2285.875732 10440.000000
2286.991943 10451.000000
2288.107910 10441.000000
2289.223145 10498.000000
2290.337646 10493.000000
2291.450928 10740.000000
2292.564209 10707.000000
2293.676758 10677.000000
2294.788574 10499.000000
2295.899658 10586.000000
2297.009521 10743.000000
2298.118896 10593.000000
2299.228027 10687.000000
2300.336182 10754.000000
2301.443359 10701.000000
2302.550293 10754.000000
2303.656494 10758.000000
2304.762207 10562.000000
2305.866455 10573.000000
2306.970459 10534.000000
2308.073975 10640.000000
2309.177002 10471.000000
2310.278809 10492.000000
2311.379883 10399.000000
2312.480469 10332.000000
2313.580566 10412.000000
2314.679932 10374.000000
2315.777832 10185.000000
2316.876221 10310.000000
2317.973145 10197.000000
2319.069824 10255.000000
2320.166016 10065.000000
2321.260498 10142.000000
2322.354980 10044.000000
2323.448730 9971.000000
2324.542236 9883.000000
2325.634033 9997.000000
2326.725830 10064.000000
2327.816895 9963.000000
2328.907227 10010.000000
2329.996582 9930.000000
2331.085938 9913.000000
2332.174072 9868.000000
2333.261719 9775.000000
2334.349121 9687.000000
2335.434814 9680.000000
2336.520264 9514.000000
2337.605469 9537.000000
2338.689697 9543.000000
2339.772949 9486.000000
2340.855957 9425.000000
2341.937988 9299.000000
2343.019775 9429.000000
2344.100830 9271.000000
2345.180664 9236.000000
2346.260010 9302.000000
2347.338867 9118.000000
2348.417236 9166.000000
2349.494141 9138.000000
2350.570801 9121.000000
2351.647217 8937.000000
2352.722656 9079.000000
2353.797119 8961.000000
2354.871338 8908.000000
2355.944824 8835.000000
2357.017822 8739.000000
2358.089600 8847.000000
2359.161133 8881.000000
2360.231689 8624.000000
2361.302002 8598.000000
2362.371338 8613.000000
2363.439697 8622.000000
2364.507813 8685.000000
2365.575195 8460.000000
2366.642090 8680.000000
2367.708252 8482.000000
2368.773193 8409.000000
2369.838135 8433.000000
2370.902344 8239.000000
2371.965820 8315.000000
2373.028076 8427.000000
2374.090332 8373.000000
2375.151611 8305.000000
2376.212646 8317.000000
2377.272461 8270.000000
2378.331543 8214.000000
2379.390625 8194.000000
2380.448730 8377.000000
2381.506104 8218.000000
2382.562500 8141.000000
2383.618652 8100.000000
2384.674316 8121.000000
2385.729248 8146.000000
2386.782715 8208.000000
2387.836426 8069.000000
2388.889160 8005.000000
2389.941406 8034.000000
2390.992920 8148.000000
2392.043457 8155.000000
2393.093750 8062.000000
2394.143066 8126.000000
2395.192383 8080.000000
2396.240234 8079.000000
2397.287598 7971.000000
2398.334717 8041.000000
2399.380859 7948.000000
2400.426270 8084.000000
2401.470947 7970.000000
2402.515625 7845.000000
2403.558838 7862.000000
2404.602051 7876.000000
2405.643799 8039.000000
2406.685791 7919.000000
2407.727051 7926.000000
2408.767334 7964.000000
2409.806885 7825.000000
2410.845459 8027.000000
2411.884277 7990.000000
2412.921875 7827.000000
2413.959229 7812.000000
2414.995361 7751.000000
2416.031250 7905.000000
2417.066406 7772.000000
2418.101074 7922.000000
2419.134277 7807.000000
2420.167725 7746.000000
2421.200195 7978.000000
2422.232422 7752.000000
2423.263184 7733.000000
2424.293945 7727.000000
2425.324219 7556.000000
2426.353271 7707.000000
2427.382324 7587.000000
2428.409668 7637.000000
2429.437500 7621.000000
2430.464111 7495.000000
2431.490479 7454.000000
2432.515381 7394.000000
2433.540527 7417.000000
2434.564697 7314.000000
2435.588623 7267.000000
2436.611328 7332.000000
2437.633301 7316.000000
2438.655029 7254.000000
2439.676025 7300.000000
2440.696533 7169.000000
2441.715820 7081.000000
2442.735107 6984.000000
2443.753418 7049.000000
2444.771484 6796.000000
2445.788086 6890.000000
2446.804688 7047.000000
2447.820557 6976.000000
2448.836426 6841.000000
2449.850830 6892.000000
2450.864502 6948.000000
2451.877686 6766.000000
2452.890625 6799.000000
2453.902832 6847.000000
2454.914063 6767.000000
2455.925049 6844.000000
2456.935303 6881.000000
2457.945068 6789.000000
2458.953857 6717.000000
2459.961914 6673.000000
2460.969971 6668.000000
2461.976807 6559.000000
2462.983398 6479.000000
2463.988770 6458.000000
2464.993896 6347.000000
2465.998779 6544.000000
2467.002441 6539.000000
2468.005859 6517.000000
2469.008301 6339.000000
2470.010498 6657.000000
2471.012207 6461.000000
2472.012939 6294.000000
2473.012695 6495.000000
2474.012451 6410.000000
2475.011230 6402.000000
2476.009521 6233.000000
2477.006836 6224.000000
2478.003906 6287.000000
2479.000977 6400.000000
2479.996582 6305.000000
2480.992188 6211.000000
2481.986084 6335.000000
2482.979980 6286.000000
2483.973389 6260.000000
2484.966309 6194.000000
2485.958252 6238.000000
2486.949463 6221.000000
2487.940430 6241.000000
2488.930908 6116.000000
2489.920410 6324.000000
2490.909180 6375.000000
2491.897949 6267.000000
2492.885742 6215.000000
2493.872314 6236.000000
2494.858887 6096.000000
2495.844971 6242.000000
2496.830322 6154.000000
2497.814697 6245.000000
2498.798828 6184.000000
2499.782959 6276.000000
2500.765625 6188.000000
2501.747803 6148.000000
2502.729492 6111.000000
2503.710449 6076.000000
2504.690918 6249.000000
2505.671143 6060.000000
2506.649902 6057.000000
2507.628418 6017.000000
2508.606445 6068.000000
2509.583984 5879.000000
2510.560547 6003.000000
2511.536865 6087.000000
2512.512451 5978.000000
2513.487549 5927.000000
2514.462158 5933.000000
2515.435547 5849.000000
2516.408691 5802.000000
2517.381592 5940.000000
2518.353516 5761.000000
2519.324707 5786.000000
2520.295410 5774.000000
2521.265869 5853.000000
2522.235596 5783.000000
2523.204346 5630.000000
2524.172363 5745.000000
2525.140381 5679.000000
2526.107422 5574.000000
2527.074219 5718.000000
2528.039795 5705.000000
2529.005371 5531.000000
2529.970215 5602.000000
2530.934570 5632.000000
2531.897705 5616.000000
2532.861084 5562.000000
2533.823486 5551.000000
2534.785645 5629.000000
2535.746582 5599.000000
2536.706787 5533.000000
2537.667236 5612.000000
2538.626709 5574.000000
2539.585449 5614.000000
2540.543213 5398.000000
2541.501221 5306.000000
2542.458496 5197.000000
2543.414795 5292.000000
2544.370850 5284.000000
2545.325684 5204.000000
2546.280762 5247.000000
2547.235107 5162.000000
2548.188721 5101.000000
2549.141357 5136.000000
2550.093750 5156.000000
2551.045654 5159.000000
2551.996826 5129.000000
2552.947266 5027.000000
2553.897217 5029.000000
2554.846924 5141.000000
2555.795898 5145.000000
2556.744385 5081.000000
2557.691650 5082.000000
2558.638916 5110.000000
2559.585449 5046.000000
2560.531494 5047.000000
2561.476563 5066.000000
2562.421387 5000.000000
2563.365723 4879.000000
2564.309570 4928.000000
2565.252930 4862.000000
2566.194824 4864.000000
2567.136963 4836.000000
2568.078369 4802.000000
2569.019043 4756.000000
2569.958984 4843.000000
2570.898926 4880.000000
2571.837891 4879.000000
2572.776611 4779.000000
2573.714355 4828.000000
2574.651855 4786.000000
2575.588623 4780.000000
2576.524658 4857.000000
2577.460205 4793.000000
2578.395020 4807.000000
2579.329834 4820.000000
2580.263672 4764.000000
2581.197021 4865.000000
2582.129639 4658.000000
2583.062012 4706.000000
2583.993652 4624.000000
2584.924805 4736.000000
2585.855469 4762.000000
2586.784912 4709.000000
2587.714355 4648.000000
2588.643311 4788.000000
2589.572021 4723.000000
2590.499023 4796.000000
2591.426270 4702.000000
2592.353027 4677.000000
2593.279053 4649.000000
2594.204834 4718.000000
2595.129395 4656.000000
2596.053711 4752.000000
2596.977539 4638.000000
2597.900879 4762.000000
2598.823242 4648.000000
2599.745361 4547.000000
2600.666992 4559.000000
2601.587891 4503.000000
2602.508057 4615.000000
2603.427979 4535.000000
2604.347412 4574.000000
2605.266602 4663.000000
2606.184814 4517.000000
2607.101807 4506.000000
2608.019043 4357.000000
2608.936035 4463.000000
2609.852051 4429.000000
2610.766846 4395.000000
2611.682129 4337.000000
2612.596680 4414.000000
2613.510254 4437.000000
2614.423828 4423.000000
2615.336182 4359.000000
2616.248535 4382.000000
2617.159912 4291.000000
2618.071045 4437.000000
2618.981445 4366.000000
2619.891602 4269.000000
2620.801025 4395.000000
2621.709961 4250.000000
2622.617920 4226.000000
2623.526123 4260.000000
2624.433350 4321.000000
2625.340088 4197.000000
2626.246094 4171.000000
2627.151855 4275.000000
2628.056885 4240.000000
2628.961670 4146.000000
2629.865723 4119.000000
2630.768799 4127.000000
2631.671875 4101.000000
2632.573975 4116.000000
2633.476074 4060.000000
2634.377930 3994.000000
2635.278076 4070.000000
2636.178467 4081.000000
2637.078125 4083.000000
2637.977539 4015.000000
2638.875488 4049.000000
2639.773926 3920.000000
2640.671875 3986.000000
2641.569092 4023.000000
2642.465088 3997.000000
2643.361084 3945.000000
2644.256836 3993.000000
2645.151855 3895.000000
2646.046631 4005.000000
2646.939941 3914.000000
2647.833252 3910.000000
2648.726318 3694.000000
2649.619141 3787.000000
2650.510254 3754.000000
2651.401611 3916.000000
2652.292480 3740.000000
2653.182617 3799.000000
2654.072510 3669.000000
2654.961182 3752.000000
2655.850098 3631.000000
2656.738525 3721.000000
2657.625977 3722.000000
2658.512451 3634.000000
2659.399414 3632.000000
2660.285645 3605.000000
2661.171387 3599.000000
2662.055908 3696.000000
2662.940430 3663.000000
2663.824707 3648.000000
2664.708252 3555.000000
2665.591309 3558.000000
2666.473633 3557.000000
2667.355469 3642.000000
2668.236572 3523.000000
2669.117920 3725.000000
2669.997803 3684.000000
2670.877930 3717.000000
2671.757324 3668.000000
2672.636719 3490.000000
2673.515381 3545.000000
2674.392334 3544.000000
2675.270020 3577.000000
2676.146973 3400.000000
2677.023193 3644.000000
2677.898926 3574.000000
2678.773926 3593.000000
2679.649170 3458.000000
2680.523438 3592.000000
2681.397217 3531.000000
2682.270264 3447.000000
2683.143066 3391.000000
2684.015625 3501.000000
2684.887451 3592.000000
2685.758545 3579.000000
2686.629395 3406.000000
2687.499756 3374.000000
2688.369873 3286.000000
2689.238281 3416.000000
2690.107422 3549.000000
2690.975830 3411.000000
2691.843994 3340.000000
2692.711426 3436.000000
2693.577637 3393.000000
2694.444336 3398.000000
2695.310059 3365.000000
2696.175781 3323.000000
2697.040039 3323.000000
2697.905029 3373.000000
2698.768555 3227.000000
2699.632324 3205.000000
2700.494629 3210.000000
2701.357422 3193.000000
2702.219238 3361.000000
2703.080566 3295.000000
2703.941895 3274.000000
2704.802002 3288.000000
2705.662109 3250.000000
2706.521729 3098.000000
2707.381104 3173.000000
2708.238770 3196.000000
2709.096680 3224.000000
2709.955078 3167.000000
2710.812256 3124.000000
2711.668701 3037.000000
2712.524658 3104.000000
2713.380615 3156.000000
2714.235840 2985.000000
2715.090332 3125.000000
2715.944336 3174.000000
2716.798340 3076.000000
2717.651367 2920.000000
2718.504639 2967.000000
2719.356201 3173.000000
2720.208252 2993.000000
2721.060059 2968.000000
2721.910645 2917.000000
2722.761230 3058.000000
2723.611328 2887.000000
2724.460693 2946.000000
2725.310059 2936.000000
2726.158203 2969.000000
2727.005859 2920.000000
2727.854004 2978.000000
2728.700928 2880.000000
2729.548340 2920.000000
2730.394287 2806.000000
2731.239502 2831.000000
2732.085205 2896.000000
2732.929932 2857.000000
2733.774658 2875.000000
2734.618164 2848.000000
2735.461914 2878.000000
2736.304932 2816.000000
2737.147461 2774.000000
2737.989014 2838.000000
2738.831055 2760.000000
2739.672119 2847.000000
2740.512939 2765.000000
2741.353516 2817.000000
2742.192871 2837.000000
2743.032227 2732.000000
2743.871582 2869.000000
2744.709717 2794.000000
2745.547363 2950.000000
2746.385010 2763.000000
2747.222168 2775.000000
2748.059082 2810.000000
2748.895508 2783.000000
2749.730713 2827.000000
2750.566162 2874.000000
2751.401123 2691.000000
2752.235352 2784.000000
2753.069336 2882.000000
2753.902832 2802.000000
2754.736328 2715.000000
2755.568848 2710.000000
2756.400879 2788.000000
2757.232422 2713.000000
2758.063965 2728.000000
2758.894531 2630.000000
2759.725342 2621.000000
2760.554932 2679.000000
2761.384521 2683.000000
2762.213867 2728.000000
2763.042480 2632.000000
2763.870605 2567.000000
2764.698242 2589.000000
2765.525879 2662.000000
2766.353027 2613.000000
2767.179443 2664.000000
2768.005371 2615.000000
2768.830811 2587.000000
2769.656006 2593.000000
2770.481201 2526.000000
2771.305176 2601.000000
2772.129150 2582.000000
2772.953125 2534.000000
2773.775879 2541.000000
2774.598877 2588.000000
2775.420654 2483.000000
2776.242432 2553.000000
2777.064209 2484.000000
2777.885010 2410.000000
2778.705078 2449.000000
2779.525391 2434.000000
2780.345215 2359.000000
2781.165039 2320.000000
2781.982910 2495.000000
2782.802002 2551.000000
2783.619873 2452.000000
2784.437500 2478.000000
2785.254639 2388.000000
2786.071289 2498.000000
2786.887695 2273.000000
2787.703613 2400.000000
2788.519287 2295.000000
2789.333984 2348.000000
2790.149170 2321.000000
2790.963623 2319.000000
2791.777588 2243.000000
2792.591309 2279.000000
2793.403809 2267.000000
2794.216553 2258.000000
2795.028809 2343.000000
2795.840576 2326.000000
2796.651611 2379.000000
2797.463379 2269.000000
2798.273926 2196.000000
2799.084473 2374.000000
2799.893555 2293.000000
2800.703369 2381.000000
2801.512451 2298.000000
2802.321289 2220.000000
2803.129639 2176.000000
2803.937012 2274.000000
2804.744873 2166.000000
2805.552002 2260.000000
2806.358887 2128.000000
2807.164551 2383.000000
2807.970703 2280.000000
2808.776123 2155.000000
2809.581543 2213.000000
2810.386230 2237.000000
2811.189941 2286.000000
2811.994141 2176.000000
2812.797852 2198.000000
2813.601318 2127.000000
2814.403320 2242.000000
2815.206055 2157.000000
2816.008057 2111.000000
2816.809814 2123.000000
2817.611084 2170.000000
2818.411865 2125.000000
2819.212158 2249.000000
2820.012695 2217.000000
2820.812256 2086.000000
2821.611328 2133.000000
2822.410400 2175.000000
2823.209229 2114.000000
2824.007568 2065.000000
2824.804932 2109.000000
2825.602539 2114.000000
2826.399414 2121.000000
2827.196533 2068.000000
2827.992920 2126.000000
2828.788574 2114.000000
2829.584229 2071.000000
2830.379639 1967.000000
2831.174561 2000.000000
2831.968750 1961.000000
2832.762939 2057.000000
2833.556885 2009.000000
2834.350342 2045.000000
2835.143066 2064.000000
2835.935547 1982.000000
2836.728027 2002.000000
2837.520264 2018.000000
2838.312012 2015.000000
2839.102783 1983.000000
2839.893555 2021.000000
2840.684570 1991.000000
2841.474609 1980.000000
2842.264160 2006.000000
2843.053955 1993.000000
2843.842773 1995.000000
2844.631592 1915.000000
2845.420410 1959.000000
2846.208252 1792.000000
2846.995605 1917.000000
2847.783203 1909.000000
2848.570313 1898.000000
2849.356689 1914.000000
2850.143066 2044.000000
2850.929199 1866.000000
2851.714844 1743.000000
2852.499512 1863.000000
2853.284668 1963.000000
2854.069580 1752.000000
2854.853760 1839.000000
2855.637939 1921.000000
2856.420898 1838.000000
2857.204102 1863.000000
2857.987061 1812.000000
2858.769531 1791.000000
2859.551758 1866.000000
2860.333496 1837.000000
2861.114990 1893.000000
2861.896729 1824.000000
2862.677734 1802.000000
2863.458008 1796.000000
2864.238037 1835.000000
2865.018066 1803.000000
2865.797852 1876.000000
2866.576660 1848.000000
2867.355713 1812.000000
2868.134277 1838.000000
2868.912598 1858.000000
2869.690430 1728.000000
2870.468018 1792.000000
2871.245361 1799.000000
2872.022461 1819.000000
2872.799072 1841.000000
2873.575195 1841.000000
2874.351318 1836.000000
2875.126953 1762.000000
2875.902344 1869.000000
2876.677246 1931.000000
2877.451904 1778.000000
2878.226563 1948.000000
2879.000977 1825.000000
2879.774658 1787.000000
2880.547607 1747.000000
2881.321289 1737.000000
2882.093994 1783.000000
2882.866699 1733.000000
2883.638672 1646.000000
2884.410400 1782.000000
2885.182617 1685.000000
2885.953613 1790.000000
2886.724121 1650.000000
2887.495117 1701.000000
2888.266113 1704.000000
2889.036377 1578.000000
2889.805664 1667.000000
2890.575195 1771.000000
2891.344727 1705.000000
2892.113770 1652.000000
2892.882324 1660.000000
2893.650879 1685.000000
2894.418457 1754.000000
2895.186523 1715.000000
2895.954102 1708.000000
2896.721680 1676.000000
2897.488037 1609.000000
2898.255371 1603.000000
2899.021484 1627.000000
2899.787842 1564.000000
2900.552734 1600.000000
2901.318115 1502.000000
2902.083984 1623.000000
2902.848389 1542.000000
2903.612793 1576.000000
2904.377441 1476.000000
2905.141113 1620.000000
2905.905518 1610.000000
2906.669189 1555.000000
2907.432129 1396.000000
2908.194824 1532.000000
2908.958008 1540.000000
2909.720703 1455.000000
2910.482178 1525.000000
2911.244141 1525.000000
spectrumdark 2048
-96.986732 6198.000000
-94.359863 6198.000000
-91.734871 6033.000000
-89.111771 6407.000000
-86.490540 5825.000000
-83.871208 6262.000000
-81.253738 6077.000000
-78.638145 6462.000000
-76.024429 6243.000000
-73.412590 5999.000000
-70.802612 6080.000000
-68.194519 5970.000000
-65.588272 6028.000000
-62.983902 5991.000000
-60.381393 6127.000000
-57.780739 5616.000000
-55.181946 6208.000000
-52.585011 6873.000000
-49.989929 6523.000000
-47.396702 6610.000000
-44.805325 6324.000000
-42.215794 6753.000000
-39.628105 5923.000000
-37.042267 6090.000000
-34.458271 6512.000000
-31.876112 5745.000000
-29.295799 6307.000000
-26.717314 5754.000000
-24.140671 6145.000000
-21.565853 6249.000000
-18.992876 6507.000000
-16.421719 6459.000000
-13.852394 6764.000000
-11.284896 7751.000000
-8.719216 6315.000000
-6.155363 6463.000000
-3.593322 6002.000000
-1.033106 5892.000000
1.525302 6259.000000
4.081889 6986.000000
6.636671 6675.000000
9.189636 5960.000000
11.740801 6732.000000
14.290153 6487.000000
16.837708 6773.000000
19.383451 6031.000000
21.927402 5773.000000
24.469549 6681.000000
27.009899 6774.000000
29.548464 6846.000000
32.085232 6215.000000
34.620197 5822.000000
37.153385 7215.000000
39.684792 6253.000000
42.214405 7148.000000
44.742222 6491.000000
47.268280 7937.000000
49.792549 5695.000000
52.315048 6259.000000
54.835751 6757.000000
57.354698 6351.000000
59.871872 6454.000000
62.387268 6682.000000
64.900887 5595.000000
67.412750 5751.000000
69.922867 6518.000000
72.431190 6604.000000
74.937759 5912.000000
77.442581 6406.000000
79.945648 6454.000000
82.446938 6324.000000
84.946487 6112.000000
87.444283 6368.000000
89.940346 5797.000000
92.434631 7237.000000
94.927177 5784.000000
97.418007 6944.000000
99.907066 7177.000000
102.394379 6358.000000
104.879967 6243.000000
107.363815 6417.000000
109.845917 5864.000000
112.326294 6743.000000
114.804947 6309.000000
117.281876 6574.000000
119.757050 7235.000000
122.230515 6824.000000
124.702248 5907.000000
127.172272 6739.000000
129.640549 6312.000000
132.107147 6258.000000
134.571991 5708.000000
137.035141 6251.000000
139.496552 7279.000000
141.956268 6957.000000
144.414261 6420.000000
146.870560 6028.000000
149.325150 5814.000000
151.778015 6898.000000
154.229202 6322.000000
156.678696 6597.000000
159.126465 6081.000000
161.572525 6668.000000
164.016907 8776.000000
166.459610 6465.000000
168.900620 6730.000000
171.339920 6255.000000
173.777512 7237.000000
176.213470 6584.000000
178.647690 6986.000000
181.080231 7153.000000
183.511124 6695.000000
185.940292 7142.000000
188.367813 6721.000000
190.793655 6356.000000
193.217819 6687.000000
195.640320 7166.000000
198.061127 7344.000000
200.480270 6467.000000
202.897751 5992.000000
205.313538 7619.000000
207.727676 7092.000000
210.140182 6401.000000
212.551010 6022.000000
214.960159 6313.000000
217.367676 7383.000000
219.773483 6228.000000
222.177704 6506.000000
224.580215 6684.000000
226.981110 6954.000000
229.380356 6407.000000
231.777939 6804.000000
234.173859 7252.000000
236.568161 6516.000000
238.960800 6153.000000
241.351822 6822.000000
243.741180 6508.000000
246.128922 6392.000000
248.515015 6992.000000
250.899475 6171.000000
253.282288 7908.000000
255.663528 6629.000000
258.043060 6664.000000
260.421021 6472.000000
262.797302 7614.000000
265.172028 7584.000000
267.545105 7835.000000
269.916534 6188.000000
272.286316 6449.000000
274.654541 5905.000000
277.021118 6352.000000
279.386108 6466.000000
281.749481 6028.000000
284.111206 6251.000000
286.471344 7123.000000
288.829865 5968.000000
291.186798 6584.000000
293.542114 6364.000000
295.895844 6011.000000
298.247925 5994.000000
300.598450 6397.000000
302.947388 6372.000000
305.294678 6785.000000
307.640442 6430.000000
309.984528 6520.000000
312.327087 7454.000000
314.668030 7548.000000
317.007355 7231.000000
319.345123 7033.000000
321.681335 8073.000000
324.015900 6316.000000
326.348907 6533.000000
328.680359 5934.000000
331.010223 6634.000000
333.338501 6379.000000
335.665161 7297.000000
337.990326 6351.000000
340.313873 6248.000000
342.635864 5969.000000
344.956299 7527.000000
347.275116 7727.000000
349.592377 5922.000000
351.908112 5860.000000
354.222260 6903.000000
356.534821 6363.000000
358.845825 6198.000000
361.155304 7100.000000
363.463257 6361.000000
365.769592 5659.000000
368.074341 6495.000000
370.377625 6428.000000
372.679291 6328.000000
374.979462 6407.000000
377.278076 6270.000000
379.575134 5690.000000
381.870636 6096.000000
384.164612 5888.000000
386.457001 5203.000000
388.747894 5573.000000
391.037262 6272.000000
393.325043 6221.000000
395.611298 6477.000000
397.896057 7007.000000
400.179199 6047.000000
402.460907 6429.000000
404.741089 6115.000000
407.019684 7186.000000
409.296753 6422.000000
411.572296 6767.000000
413.846313 6490.000000
416.118896 6459.000000
418.389862 6292.000000
420.659332 6376.000000
422.927307 7151.000000
425.193726 7304.000000
427.458649 6359.000000
429.722107 6376.000000
431.983978 6508.000000
434.244385 6022.000000
436.503235 6745.000000
438.760620 6131.000000
441.016510 5705.000000
443.270905 5793.000000
445.523773 5477.000000
447.775085 6946.000000
450.024994 6131.000000
452.273315 6247.000000
454.520203 5686.000000
456.765625 6523.000000
459.009491 6553.000000
461.251862 6510.000000
463.492737 5662.000000
465.732208 6732.000000
467.970093 5470.000000
470.206543 5987.000000
472.441467 6104.000000
474.674927 7229.000000
476.906952 6800.000000
479.137451 5620.000000
481.366455 6470.000000
483.593994 6352.000000
485.820038 5919.000000
488.044647 6509.000000
490.267792 5941.000000
492.489471 6477.000000
494.709595 6665.000000
496.928314 5739.000000
499.145538 6267.000000
501.361389 5587.000000
503.575623 6178.000000
505.788544 6463.000000
507.999878 6415.000000
510.209778 6895.000000
512.418213 6487.000000
514.625305 6565.000000
516.830811 6470.000000
519.034912 6630.000000
521.237488 6238.000000
523.438660 6507.000000
525.638489 6722.000000
527.836792 6965.000000
530.033569 5313.000000
532.229004 5861.000000
534.422913 5550.000000
536.615479 7500.000000
538.806519 6710.000000
540.996155 6062.000000
543.184387 6918.000000
545.371094 7216.000000
547.556335 6796.000000
549.740295 6228.000000
551.922668 6448.000000
554.103699 6188.000000
556.283203 6084.000000
558.461426 5893.000000
560.638123 6032.000000
562.813416 6400.000000
564.987305 6421.000000
567.159729 5900.000000
569.330750 6126.000000
571.500305 6348.000000
573.668579 5273.000000
575.835327 6455.000000
578.000610 6340.000000
580.164490 6196.000000
582.327087 5733.000000
584.488159 6086.000000
586.647827 5590.000000
588.806152 5860.000000
590.962952 6117.000000
593.118408 6643.000000
595.272461 5801.000000
597.425171 6156.000000
599.576355 7196.000000
601.726196 6818.000000
603.874695 6635.000000
606.021606 6055.000000
608.167297 6581.000000
610.311584 6424.000000
612.454407 7093.000000
614.595764 6186.000000
616.735901 6435.000000
618.874512 7715.000000
621.011841 5749.000000
623.147705 6574.000000
625.282166 6868.000000
627.415161 7187.000000
629.546997 6658.000000
631.677368 6595.000000
633.806335 6788.000000
635.933838 6500.000000
638.060059 6218.000000
640.184753 7501.000000
642.308228 6391.000000
644.430359 6812.000000
646.551025 6909.000000
648.670349 6505.000000
650.788269 5675.000000
652.904846 5606.000000
655.020020 6452.000000
657.133850 6487.000000
659.246216 5786.000000
661.357361 6146.000000
663.467102 5356.000000
665.575378 6072.000000
667.682495 6307.000000
669.788147 6876.000000
671.892334 5864.000000
673.995300 5805.000000
676.096863 7009.000000
678.197083 5387.000000
680.295898 6765.000000
682.393372 6324.000000
684.489563 7047.000000
686.584290 6302.000000
688.677795 7019.000000
690.769958 6646.000000
692.860596 7964.000000
694.950012 6615.000000
697.038147 6497.000000
699.124817 6010.000000
701.210266 6741.000000
703.294189 5217.000000
705.376892 5943.000000
707.458313 5978.000000
709.538269 7549.000000
711.617004 6282.000000
713.694275 5559.000000
715.770264 6554.000000
717.844971 6117.000000
719.918396 7039.000000
721.990295 6341.000000
724.061035 7370.000000
726.130432 5857.000000
728.198425 6515.000000
730.265076 6418.000000
732.330505 7131.000000
734.394592 5760.000000
736.457336 6198.000000
738.518738 6542.000000
740.578857 6664.000000
742.637573 6043.000000
744.695068 6653.000000
746.751282 6576.000000
748.806091 6745.000000
750.859619 6384.000000
752.911743 7478.000000
754.962646 5783.000000
757.012329 6676.000000
759.060547 6439.000000
761.107544 6173.000000
763.153259 7093.000000
765.197571 5335.000000
767.240601 5768.000000
769.282410 15075.000000
771.322876 7219.000000
773.361938 6382.000000
775.399841 6090.000000
777.436401 6005.000000
779.471741 5378.000000
781.505737 5803.000000
783.538330 6921.000000
785.569763 5533.000000
787.599792 11610.000000
789.628540 6080.000000
791.656128 6390.000000
793.682373 6386.000000
795.707214 5842.000000
797.730957 5537.000000
799.753296 6408.000000
801.774414 5913.000000
803.794189 6748.000000
805.812683 4904.000000
807.829956 6746.000000
809.845825 6816.000000
811.860535 5822.000000
813.873901 6388.000000
815.886047 6252.000000
817.896973 6125.000000
819.906555 6620.000000
821.914917 5340.000000
823.921875 5736.000000
825.927612 6097.000000
827.932129 5730.000000
829.935364 5653.000000
831.937317 6489.000000
833.937988 6104.000000
835.937439 5915.000000
837.935547 6404.000000
839.932556 6995.000000
841.928162 6230.000000
843.922607 6021.000000
845.915710 6214.000000
847.907593 6820.000000
849.898132 5614.000000
851.887390 6780.000000
853.875610 6055.000000
855.862427 5701.000000
857.848022 6417.000000
859.832336 7276.000000
861.815552 6300.000000
863.797363 6418.000000
865.777954 5867.000000
867.757263 7742.000000
869.735413 7057.000000
871.712219 6140.000000
873.687744 6221.000000
875.662231 6223.000000
877.635254 6065.000000
879.607239 5483.000000
881.577881 6405.000000
883.547363 6126.000000
885.515503 5587.000000
887.482483 5214.000000
889.448120 6134.000000
891.412598 5818.000000
893.375854 6020.000000
895.337891 6563.000000
897.298645 5833.000000
899.258179 6413.000000
901.216431 6680.000000
903.173584 6313.000000
905.129578 5987.000000
907.084167 6894.000000
909.037537 6478.000000
910.989746 6436.000000
912.940735 6463.000000
914.890442 7146.000000
916.838989 6317.000000
918.786316 6173.000000
920.732361 6137.000000
922.677124 6047.000000
924.620850 6345.000000
926.563416 6003.000000
928.504700 5631.000000
930.444641 6451.000000
932.383484 5738.000000
934.321045 5531.000000
936.257385 5974.000000
938.192566 5855.000000
940.126465 6142.000000
942.059265 5885.000000
943.990845 6799.000000
945.921265 5224.000000
947.850464 6443.000000
949.778320 7068.000000
951.705139 6642.000000
953.630676 5947.000000
955.554932 5381.000000
957.478088 6019.000000
959.400085 6784.000000
961.320801 7313.000000
963.240356 6466.000000
965.158752 5282.000000
967.076111 6383.000000
968.992004 6468.000000
970.906799 6134.000000
972.820374 5981.000000
974.732788 6388.000000
976.643982 6506.000000
978.554016 5513.000000
980.462769 6253.000000
982.370483 6194.000000
984.276978 6412.000000
986.182251 5725.000000
988.086426 6815.000000
989.989380 6210.000000
991.891113 6909.000000
993.791687 6576.000000
995.691101 6650.000000
997.589294 5246.000000
999.486328 6621.000000
1001.382141 6530.000000
1003.276794 7656.000000
1005.170349 5537.000000
1007.062622 7285.000000
1008.953979 6130.000000
1010.843994 5392.000000
1012.732788 6656.000000
1014.620422 6422.000000
1016.506897 6995.000000
1018.392212 6749.000000
1020.276367 5952.000000
1022.159302 5912.000000
1024.041260 6216.000000
1025.921875 5238.000000
1027.801392 5906.000000
1029.679932 6117.000000
1031.557129 5485.000000
1033.432983 6208.000000
1035.307861 5925.000000
1037.181763 6580.000000
1039.054199 7070.000000
1040.925659 6746.000000
1042.795776 5549.000000
1044.664917 5527.000000
1046.532837 5800.000000
1048.399658 7072.000000
1050.265381 6732.000000
1052.129883 6446.000000
1053.993286 6442.000000
1055.855347 6457.000000
1057.716431 5913.000000
1059.576416 6549.000000
1061.435059 6644.000000
1063.292603 5749.000000
1065.149048 6695.000000
1067.004395 6003.000000
1068.858521 5898.000000
1070.711792 6244.000000
1072.563599 6358.000000
1074.414429 6207.000000
1076.264038 6170.000000
1078.112427 5736.000000
1079.959961 8004.000000
1081.806152 5620.000000
1083.651123 6163.000000
1085.495239 5421.000000
1087.338013 5521.000000
1089.179565 6549.000000
1091.020386 5509.000000
1092.859619 5790.000000
1094.698120 6062.000000
1096.535278 6038.000000
1098.371216 6863.000000
1100.206177 6611.000000
1102.039917 5476.000000
1103.872681 5717.000000
1105.704102 6233.000000
1107.534668 7267.000000
1109.363892 6499.000000
1111.192139 6497.000000
1113.019165 7143.000000
1114.845215 5406.000000
1116.670044 6362.000000
1118.493774 7242.000000
1120.316284 6146.000000
1122.137695 5895.000000
1123.958252 5925.000000
1125.777344 6625.000000
1127.595581 7128.000000
1129.412476 6841.000000
1131.228516 6735.000000
1133.043335 6502.000000
1134.857056 5643.000000
1136.669678 5821.000000
1138.481079 5599.000000
1140.291504 6166.000000
1142.100830 6792.000000
1143.908813 6983.000000
1145.716064 5942.000000
1147.521851 5951.000000
1149.326782 5357.000000
1151.130615 5444.000000
1152.933228 6071.000000
1154.734985 6121.000000
1156.535278 6110.000000
1158.334595 6127.000000
1160.132935 5860.000000
1161.929932 5459.000000
1163.726196 5970.000000
1165.521118 6097.000000
1167.314941 6351.000000
1169.107910 7792.000000
1170.899536 5763.000000
1172.690186 6528.000000
1174.479858 6010.000000
1176.268066 5847.000000
1178.055420 7533.000000
1179.841675 6866.000000
1181.626831 5757.000000
1183.410889 6045.000000
1185.193848 7647.000000
1186.975830 5870.000000
1188.756592 5901.000000
1190.536377 6382.000000
1192.315063 6930.000000
1194.092773 6719.000000
1195.869263 7217.000000
1197.644653 6586.000000
1199.418945 6489.000000
1201.192139 6688.000000
1202.964478 6438.000000
1204.735474 6710.000000
1206.505615 5680.000000
1208.274536 6155.000000
1210.042358 6348.000000
1211.809326 5832.000000
1213.574951 5900.000000
1215.339600 6992.000000
1217.103149 6571.000000
1218.865601 5997.000000
1220.627197 6820.000000
1222.387573 5925.000000
1224.146851 6356.000000
1225.905273 6074.000000
1227.662476 7199.000000
1229.418579 6540.000000
1231.173584 5515.000000
1232.927734 6061.000000
1234.680542 5837.000000
1236.432373 6026.000000
1238.183350 6029.000000
1239.932983 4931.000000
1241.681763 6999.000000
1243.429199 6487.000000
1245.175903 6684.000000
1246.921387 6490.000000
1248.666016 6514.000000
1250.409302 6795.000000
1252.151611 6702.000000
1253.892822 5369.000000
1255.633179 5096.000000
1257.372437 5709.000000
1259.110474 6598.000000
1260.847656 7160.000000
1262.583618 6103.000000
1264.318604 6445.000000
1266.052612 7278.000000
1267.785645 6016.000000
1269.517456 6220.000000
1271.248291 6482.000000
1272.977905 7279.000000
1274.706665 5892.000000
1276.434326 5696.000000
1278.160889 5525.000000
1279.886597 5569.000000
1281.610962 6478.000000
1283.334473 5241.000000
1285.057007 6921.000000
1286.778564 6618.000000
1288.498901 6370.000000
1290.218262 6672.000000
1291.936523 7287.000000
1293.653809 6462.000000
1295.370117 5765.000000
1297.085205 6445.000000
1298.799316 6165.000000
1300.512451 5747.000000
1302.224731 6488.000000
1303.935791 8350.000000
1305.645874 5287.000000
1307.354858 6614.000000
1309.062622 6655.000000
1310.769775 7044.000000
1312.475464 5809.000000
1314.180420 6894.000000
1315.884399 6124.000000
1317.587158 5998.000000
1319.288940 6573.000000
1320.989868 6078.000000
1322.689453 9188.000000
1324.388184 7398.000000
1326.086182 5608.000000
1327.782837 6498.000000
1329.478394 7133.000000
1331.173096 6905.000000
1332.866577 5733.000000
1334.559204 5437.000000
1336.250977 7328.000000
1337.941406 6295.000000
1339.631104 6639.000000
1341.319702 6158.000000
1343.007202 7663.000000
1344.693726 5708.000000
1346.379150 6807.000000
1348.063599 5931.000000
1349.747192 7297.000000
1351.429565 6399.000000
1353.110962 5936.000000
1354.791504 6535.000000
1356.470825 6738.000000
1358.149536 5983.000000
1359.826904 6650.000000
1361.503174 5824.000000
1363.178467 5606.000000
1364.853027 6581.000000
1366.526367 6523.000000
1368.198730 6809.000000
1369.870117 5156.000000
1371.540527 6793.000000
1373.209839 6171.000000
1374.878174 5718.000000
1376.545654 5979.000000
1378.212036 6532.000000
1379.877441 6210.000000
1381.541870 5919.000000
1383.205078 5941.000000
1384.867676 5710.000000
1386.528931 6396.000000
1388.189331 6605.000000
1389.848633 6390.000000
1391.506958 6522.000000
1393.164551 6857.000000
1394.820923 6561.000000
1396.476440 7062.000000
1398.130737 6384.000000
1399.784180 5845.000000
1401.436523 6139.000000
1403.088135 6503.000000
1404.738525 7180.000000
1406.387817 6285.000000
1408.036377 7539.000000
1409.683838 7926.000000
1411.330322 6210.000000
1412.975952 6281.000000
1414.620605 6050.000000
1416.264038 7035.000000
1417.906616 7241.000000
1419.548096 6825.000000
1421.188721 6518.000000
1422.828369 6441.000000
1424.466919 6087.000000
1426.104614 6631.000000
1427.741211 6354.000000
1429.376831 6057.000000
1431.011719 6426.000000
1432.645508 5903.000000
1434.278198 6139.000000
1435.909912 5708.000000
1437.540771 6150.000000
1439.170532 6100.000000
1440.799194 7814.000000
1442.427246 6034.000000
1444.054199 6640.000000
1445.679932 6197.000000
1447.305054 6156.000000
1448.929077 6492.000000
1450.552124 6076.000000
1452.174194 5993.000000
1453.795166 7382.000000
1455.415161 6317.000000
1457.034424 6853.000000
1458.652344 5720.000000
1460.269653 5648.000000
1461.885986 5576.000000
1463.501099 7258.000000
1465.115356 6447.000000
1466.728760 5180.000000
1468.341064 5591.000000
1469.952515 6309.000000
1471.563110 6385.000000
1473.172485 5979.000000
1474.780884 5969.000000
1476.388428 6302.000000
1477.994995 6726.000000
1479.600830 5414.000000
1481.205444 6355.000000
1482.809204 5551.000000
1484.411743 6637.000000
1486.013672 5529.000000
1487.614380 5492.000000
1489.214355 5682.000000
1490.813232 6294.000000
1492.411255 6490.000000
1494.008179 6679.000000
1495.604248 6328.000000
1497.199341 6012.000000
1498.793457 5516.000000
1500.386841 6592.000000
1501.979126 5583.000000
1503.570190 6233.000000
1505.160767 6720.000000
1506.750000 6452.000000
1508.338623 6185.000000
1509.926147 6582.000000
1511.512573 6858.000000
1513.098267 6165.000000
1514.682861 6672.000000
1516.266602 6383.000000
1517.849243 6216.000000
1519.431152 6629.000000
1521.011963 6703.000000
1522.592041 6088.000000
1524.170898 6231.000000
1525.748901 6413.000000
1527.326172 6291.000000
1528.902222 5670.000000
1530.477539 5944.000000
1532.051758 6306.000000
1533.625244 5418.000000
1535.197510 6015.000000
1536.769043 6397.000000
1538.339600 6485.000000
1539.909302 6368.000000
1541.477783 5513.000000
1543.045532 6651.000000
1544.612427 5627.000000
1546.178101 6814.000000
1547.743042 5889.000000
1549.306885 5082.000000
1550.870117 7487.000000
1552.432007 6411.000000
1553.993286 5993.000000
1555.553467 5755.000000
1557.112915 5804.000000
1558.671265 5939.000000
1560.228882 6343.000000
1561.785400 7091.000000
1563.340698 5855.000000
1564.895386 6345.000000
1566.449341 5739.000000
1568.002319 6386.000000
1569.553955 5702.000000
1571.104858 5918.000000
1572.655029 6283.000000
1574.204224 6350.000000
1575.752075 5768.000000
1577.299438 5561.000000
1578.845825 5713.000000
1580.391357 5098.000000
1581.935913 6765.000000
1583.479248 6365.000000
1585.021973 6611.000000
1586.563843 6463.000000
1588.104614 6728.000000
1589.644409 5871.000000
1591.183472 6719.000000
1592.721436 5958.000000
1594.258911 6151.000000
1595.795044 5948.000000
1597.330078 6758.000000
1598.864624 6275.000000
1600.398193 6120.000000
1601.930908 6190.000000
1603.462036 6345.000000
1604.992920 6284.000000
1606.522949 5779.000000
1608.051758 6144.000000
1609.579468 6137.000000
1611.106567 6043.000000
1612.632935 5833.000000
1614.158325 6250.000000
1615.682861 5797.000000
1617.206055 5787.000000
1618.728516 5655.000000
1620.250244 6643.000000
1621.771118 7033.000000
1623.290527 6658.000000
1624.809448 6283.000000
1626.327637 6122.000000
1627.844971 5839.000000
1629.361206 6447.000000
1630.876099 7111.000000
1632.390503 6815.000000
1633.904175 5828.000000
1635.416748 6858.000000
1636.928101 6015.000000
1638.439087 6547.000000
1639.948975 6203.000000
1641.458008 6185.000000
1642.965698 5592.000000
1644.473022 6123.000000
1645.979492 7134.000000
1647.484985 6330.000000
1648.989624 6815.000000
1650.492798 6140.000000
1651.995361 6571.000000
1653.497559 6429.000000
1654.998413 6700.000000
1656.498169 7595.000000
1657.997070 6181.000000
1659.495605 6526.000000
1660.992920 6251.000000
1662.489502 5933.000000
1663.984497 6507.000000
1665.479248 6359.000000
1666.973145 5321.000000
1668.466064 5747.000000
1669.957642 6136.500000
1671.448730 6526.000000
1672.939209 6150.000000
1674.428589 5991.000000
1675.916504 6950.000000
1677.404175 6846.000000
1678.890869 6129.000000
1680.376709 5425.000000
1681.861694 6102.000000
1683.345215 6208.000000
1684.828491 6252.000000
1686.310913 5962.000000
1687.792236 6231.000000
1689.272095 6232.000000
1690.751709 5624.000000
1692.230591 6548.000000
1693.708496 6060.000000
1695.185425 6138.000000
1696.661133 5753.000000
1698.136475 6060.000000
1699.610596 6340.000000
1701.084106 5521.000000
1702.556152 5616.000000
1704.027954 6990.000000
1705.498779 6485.000000
1706.968750 7108.000000
1708.437378 5183.000000
1709.905518 5844.000000
1711.372925 6360.000000
1712.839233 5562.000000
1714.304932 5753.000000
1715.768921 6210.000000
1717.232788 5980.000000
1718.695801 6920.000000
1720.157837 6321.000000
1721.618652 6651.000000
1723.078857 5525.000000
1724.538330 6345.000000
1725.996948 6256.000000
1727.454590 6042.000000
1728.910889 6294.000000
1730.366943 6079.000000
1731.822021 6459.000000
1733.276123 6072.000000
1734.729004 6896.000000
1736.181641 6020.000000
1737.633179 6926.000000
1739.083984 6007.000000
1740.533813 6645.000000
1741.982300 5912.000000
1743.430420 7664.000000
1744.877686 6593.000000
1746.324219 6695.000000
1747.769165 6751.000000
1749.213867 6188.000000
1750.657715 5897.000000
1752.100708 5454.000000
1753.542236 6587.000000
1754.983521 6394.000000
1756.423950 7588.000000
1757.863403 6283.000000
1759.301880 5280.000000
1760.739380 6042.000000
1762.176392 7656.000000
1763.612427 5917.000000
1765.047607 7111.000000
1766.481323 6212.000000
1767.914917 6453.000000
1769.347534 6704.000000
1770.779297 5791.000000
1772.210205 5954.000000
1773.639893 6341.000000
1775.068848 6175.000000
1776.497314 6292.000000
1777.924805 6726.000000
1779.350952 6296.000000
1780.776855 5638.000000
1782.201660 6910.000000
1783.625854 5604.000000
1785.048584 6717.000000
1786.470825 6636.000000
1787.892334 6937.000000
1789.313110 5909.000000
1790.732910 6153.000000
1792.151367 6214.000000
1793.569336 6897.000000
1794.986694 5534.000000
1796.403198 6047.000000
1797.818237 6514.000000
1799.232910 5868.000000
1800.646973 6583.000000
1802.059814 5985.000000
1803.472046 6950.000000
1804.882935 7116.000000
1806.293335 7757.000000
1807.703003 6523.000000
1809.111694 5990.000000
1810.519287 5409.000000
1811.926392 6444.000000
1813.332642 6355.000000
1814.737915 6734.000000
1816.142090 6009.000000
1817.545898 5998.000000
1818.948730 6221.000000
1820.350708 6015.000000
1821.752075 5857.000000
1823.151978 6371.000000
1824.551270 6501.000000
1825.950073 6583.000000
1827.348022 7478.000000
1828.744629 5791.000000
1830.140625 6754.000000
1831.535889 6002.000000
1832.930542 8178.000000
1834.324219 6061.000000
1835.716553 6838.000000
1837.108398 6472.000000
1838.499634 6000.000000
1839.889893 7101.000000
1841.278931 6102.000000
1842.667603 6144.000000
1844.055298 6032.000000
1845.442261 5832.000000
1846.827881 6963.000000
1848.213257 5860.000000
1849.597778 6417.000000
1850.981567 6301.000000
1852.364258 6421.000000
1853.745728 5387.000000
1855.126709 6549.000000
1856.507202 6371.000000
1857.886719 5783.000000
1859.264771 6027.000000
1860.642700 6155.000000
1862.019653 7922.000000
1863.395874 6139.000000
1864.771240 6078.000000
1866.145142 5683.000000
1867.518921 5750.000000
1868.891846 6244.000000
1870.263672 5974.000000
1871.634521 6949.000000
1873.005005 5483.000000
1874.374390 6088.000000
1875.743286 6184.000000
1877.110596 7180.000000
1878.477783 6123.000000
1879.843994 6019.000000
1881.209473 6824.000000
1882.574219 7448.000000
1883.937378 6789.000000
1885.300415 6982.000000
1886.662598 6350.000000
1888.023926 6529.000000
1889.383911 5672.000000
1890.743530 5826.000000
1892.102539 6117.000000
1893.460571 6660.000000
1894.817749 7302.000000
1896.173706 5992.000000
1897.529419 7600.000000
1898.884155 5839.000000
1900.238037 5580.000000
1901.590820 5913.000000
1902.943115 6016.000000
1904.294678 5901.000000
1905.645386 6987.000000
1906.994873 6536.000000
1908.343872 6750.000000
1909.692017 5892.000000
1911.039551 6207.000000
1912.386353 6366.000000
1913.731567 6836.000000
1915.076538 6092.000000
1916.420776 5505.000000
1917.764160 6526.000000
1919.106201 6033.000000
1920.447998 6644.000000
1921.788940 7040.000000
1923.129150 6258.000000
1924.468384 6381.000000
1925.806641 6450.000000
1927.144287 6565.000000
1928.481201 6960.000000
1929.817261 6797.000000
1931.152100 5630.000000
1932.486572 6764.000000
1933.820313 7322.000000
1935.153198 6256.000000
1936.484619 5763.000000
1937.816162 6372.000000
1939.146362 6736.000000
1940.476074 5816.000000
1941.804932 6117.000000
1943.132568 5915.000000
1944.459717 5008.000000
1945.786133 5940.000000
1947.111816 6564.000000
1948.436157 5811.000000
1949.760254 6678.000000
1951.083496 6357.000000
1952.406006 6469.000000
1953.727417 5777.000000
1955.047852 7510.000000
1956.367676 6056.000000
1957.687134 5623.000000
1959.005615 6875.000000
1960.322754 5994.000000
1961.639526 5832.000000
1962.955566 6673.000000
1964.270874 6607.000000
1965.584717 6327.000000
1966.898315 5724.000000
1968.211182 6248.000000
1969.523193 6027.000000
1970.834595 6139.000000
1972.144653 6327.000000
1973.454224 5896.000000
1974.763062 6209.000000
1976.071289 6655.000000
1977.378174 6183.000000
1978.684448 7226.000000
1979.990356 5516.000000
1981.295044 6471.000000
1982.599243 5967.000000
1983.902222 5774.000000
1985.204834 7653.000000
1986.506470 6149.000000
1987.807495 6871.000000
1989.106934 6126.000000
1990.406494 6657.000000
1991.704956 5351.000000
1993.002930 6031.000000
1994.299316 6158.000000
1995.595703 5829.000000
1996.891113 5559.000000
1998.185791 6546.000000
1999.479614 5698.000000
2000.772217 6556.000000
2002.064331 5802.000000
2003.355957 7198.000000
2004.646851 6468.000000
2005.936157 6205.000000
2007.225220 6784.000000
2008.513550 5984.000000
2009.801147 6085.000000
2011.087891 6633.000000
2012.373535 5679.000000
2013.658813 6393.000000
2014.943115 6017.000000
2016.226807 5638.000000
2017.509155 6159.000000
2018.791138 6527.000000
2020.072632 6858.000000
2021.353149 5910.000000
2022.632935 6145.000000
2023.911621 6782.000000
2025.189575 5882.000000
2026.467041 5872.000000
2027.743896 6320.000000
2029.019043 5866.000000
2030.294312 6641.000000
2031.568604 6293.000000
2032.841919 6005.000000
2034.114380 6012.000000
2035.386475 6136.000000
2036.657471 7030.000000
2037.928223 6642.000000
2039.197632 6035.000000
2040.465942 6773.000000
2041.734253 6624.000000
2043.001587 5945.000000
2044.268188 6033.000000
2045.533569 5746.000000
2046.798340 5935.000000
2048.062744 5456.000000
2049.326172 5910.000000
2050.589111 6451.000000
2051.850098 6161.000000
2053.111572 6123.000000
2054.371826 5897.000000
2055.631348 6688.000000
2056.890137 6334.000000
2058.147949 6906.000000
2059.405273 5927.000000
2060.661865 6051.000000
2061.916992 6536.000000
2063.172119 5649.000000
2064.426270 5617.000000
2065.679688 5703.000000
2066.932373 6898.000000
2068.183838 6272.000000
2069.435059 6398.000000
2070.685547 5674.000000
2071.935303 5458.000000
2073.183594 6201.000000
2074.431885 6580.000000
2075.679199 7396.000000
2076.925781 5688.000000
2078.171631 6080.000000
2079.416260 7035.000000
2080.660400 7609.000000
2081.904053 5504.000000
2083.146729 6025.000000
2084.388184 6929.000000
2085.629395 5982.000000
2086.870117 6370.000000
2088.109863 6756.000000
2089.348389 7051.000000
2090.586426 6194.000000
2091.823730 5784.000000
2093.060791 6668.000000
2094.296387 6136.000000
2095.531250 6214.000000
2096.765869 6080.000000
2097.999512 5661.000000
2099.232178 6137.000000
2100.464111 7037.000000
2101.695557 6380.000000
2102.926025 6772.000000
2104.155762 6055.000000
2105.385254 5979.000000
2106.612793 6051.000000
2107.840576 6032.000000
2109.067627 6404.000000
2110.293701 5487.000000
2111.518311 6438.000000
2112.743164 6935.000000
2113.966797 7053.000000
2115.189941 6284.000000
2116.411865 7574.000000
2117.633545 6044.000000
2118.854248 6831.000000
2120.074219 6050.000000
2121.293701 6165.000000
2122.511719 6688.000000
2123.729736 7073.000000
2124.946777 5782.000000
2126.163330 5825.000000
2127.378174 6550.000000
2128.593262 6396.000000
2129.807373 7019.000000
2131.020752 5664.000000
2132.233398 6159.000000
2133.444580 5848.000000
2134.656006 6632.000000
2135.866211 6663.000000
2137.075928 5908.000000
2138.284180 6203.000000
2139.492432 5648.000000
2140.699951 5904.000000
2141.906250 7754.000000
2143.111816 5900.000000
2144.317139 5646.000000
2145.521484 5549.000000
2146.725098 6313.000000
2147.928223 6201.000000
2149.129883 6473.000000
2150.331299 5396.000000
2151.531982 6279.000000
2152.731934 6110.000000
2153.930664 6042.000000
2155.129150 6946.000000
2156.327148 6160.000000
2157.524170 6007.000000
2158.720459 5237.000000
2159.915527 5292.000000
2161.110352 6172.000000
2162.304443 5605.000000
2163.497559 6123.000000
2164.689697 7007.000000
2165.881592 5917.000000
2167.072754 6360.000000
2168.262939 6335.000000
2169.452393 6466.000000
2170.641357 6915.000000
2171.829346 6390.000000
2173.017090 5725.000000
2174.203369 5962.000000
2175.388916 6548.000000
2176.574219 6099.000000
2177.759033 5840.000000
2178.942627 6442.000000
2180.125488 7536.000000
2181.307373 6304.000000
2182.489014 6011.000000
2183.670166 6633.000000
2184.850098 5797.000000
2186.029053 5608.000000
2187.207520 6357.000000
2188.385742 6867.000000
2189.562744 7283.000000
2190.738770 6774.000000
2191.914551 6077.000000
2193.089844 5607.000000
2194.263672 6766.000000
2195.437012 6219.000000
2196.610107 6156.000000
2197.781982 6542.000000
2198.953369 7170.000000
2200.124268 6324.000000
2201.293457 6943.000000
2202.462646 7608.000000
2203.631348 6325.000000
2204.799072 6016.000000
2205.965820 5656.000000
2207.131836 7166.000000
2208.297363 6757.000000
2209.462646 6019.000000
2210.626465 6737.000000
2211.789795 5505.000000
2212.951904 6257.000000
2214.114258 6203.000000
2215.275391 6642.000000
2216.435547 6635.000000
2217.595215 6343.000000
2218.754639 6590.000000
2219.912842 6410.000000
2221.070068 6349.000000
2222.227051 6850.000000
2223.383301 6583.000000
2224.538818 6829.000000
2225.693604 6277.000000
2226.847412 6410.000000
2228.000244 6092.000000
2229.153564 6906.000000
2230.304932 6286.000000
2231.456055 6223.000000
2232.606445 6492.000000
2233.756348 7693.000000
2234.905273 6384.000000
2236.053711 5181.000000
2237.200684 6623.000000
2238.347900 7040.000000
2239.493896 6143.000000
2240.639648 7269.000000
2241.783691 7334.000000
2242.927979 6803.000000
2244.071289 6200.000000
2245.213867 5966.000000
2246.355469 5699.000000
2247.496826 5809.000000
2248.637207 6479.000000
2249.776855 6453.000000
2250.916016 5868.000000
2252.053955 5887.000000
2253.191895 6251.000000
2254.328857 5382.000000
2255.465088 6358.000000
2256.600342 6176.000000
2257.734863 7315.000000
2258.869141 6407.000000
2260.002930 5428.000000
2261.135254 6212.000000
2262.267090 6837.000000
2263.398438 6339.000000
2264.528809 6598.000000
2265.658936 8109.000000
2266.787842 6756.000000
2267.916260 6058.000000
2269.044189 5571.000000
2270.171143 6149.000000
2271.297363 5966.000000
2272.422607 6792.000000
2273.547852 6564.000000
2274.672363 6470.000000
2275.795654 5914.000000
2276.918213 6364.000000
2278.040283 6184.000000
2279.161865 7393.000000
2280.282715 6448.000000
2281.402344 6452.000000
2282.521484 7124.000000
2283.640381 7721.000000
2284.758545 7235.000000
2285.875732 5948.000000
2286.991943 6465.000000
2288.107910 7112.000000
2289.223145 6915.000000
2290.337646 7471.000000
2291.450928 5868.000000
2292.564209 6358.000000
2293.676758 6097.000000
2294.788574 5483.000000
2295.899658 6795.000000
2297.009521 6429.000000
2298.118896 6273.000000
2299.228027 6710.000000
2300.336182 6366.000000
2301.443359 6806.000000
2302.550293 5879.000000
2303.656494 6355.000000
2304.762207 6669.000000
2305.866455 6628.000000
2306.970459 5457.000000
2308.073975 5774.000000
2309.177002 6571.000000
2310.278809 7502.000000
2311.379883 7376.000000
2312.480469 6591.000000
2313.580566 5493.000000
2314.679932 6398.000000
2315.777832 6600.000000
2316.876221 7053.000000
2317.973145 8182.000000
2319.069824 6875.000000
2320.166016 5856.000000
2321.260498 6852.000000
2322.354980 7579.000000
2323.448730 5884.000000
2324.542236 6090.000000
2325.634033 6469.000000
2326.725830 7021.000000
2327.816895 6131.000000
2328.907227 6268.000000
2329.996582 6953.000000
2331.085938 6055.000000
2332.174072 6394.000000
2333.261719 6998.000000
2334.349121 6561.000000
2335.434814 6659.000000
2336.520264 7774.000000
2337.605469 6368.000000
2338.689697 6716.000000
2339.772949 5902.000000
2340.855957 6418.000000
2341.937988 7101.000000
2343.019775 5941.000000
2344.100830 7508.000000
2345.180664 6740.000000
2346.260010 5749.000000
2347.338867 6815.000000
2348.417236 6531.000000
2349.494141 6285.000000
2350.570801 6968.000000
2351.647217 6098.000000
2352.722656 6419.000000
2353.797119 5942.000000
2354.871338 6378.000000
2355.944824 6800.000000
2357.017822 6300.000000
2358.089600 7090.000000
2359.161133 6309.000000
2360.231689 6793.000000
2361.302002 7552.000000
2362.371338 7593.000000
2363.439697 6844.000000
2364.507813 6759.000000
2365.575195 7158.000000
2366.642090 7157.000000
2367.708252 6094.000000
2368.773193 6952.000000
2369.838135 6995.000000
2370.902344 6437.000000
2371.965820 7015.000000
2373.028076 5817.000000
2374.090332 6297.000000
2375.151611 6391.000000
2376.212646 5931.000000
2377.272461 6366.000000
2378.331543 7962.000000
2379.390625 6539.000000
2380.448730 7575.000000
2381.506104 6947.000000
2382.562500 8116.000000
2383.618652 7852.000000
2384.674316 6314.000000
2385.729248 7054.000000
2386.782715 6722.000000
2387.836426 6557.000000
2388.889160 6356.000000
2389.941406 6841.000000
2390.992920 6193.000000
2392.043457 6685.000000
2393.093750 6547.000000
2394.143066 6352.000000
2395.192383 6274.000000
2396.240234 6879.000000
2397.287598 7038.000000
2398.334717 6334.000000
2399.380859 6709.000000
2400.426270 6244.000000
2401.470947 6778.000000
2402.515625 7693.000000
2403.558838 7513.000000
2404.602051 6579.000000
2405.643799 5933.000000
2406.685791 6793.000000
2407.727051 7135.000000
2408.767334 6118.000000
2409.806885 6470.000000
2410.845459 6358.000000
2411.884277 6075.000000
2412.921875 6551.000000
2413.959229 6932.000000
2414.995361 7380.000000
2416.031250 6213.000000
2417.066406 6318.000000
2418.101074 6854.000000
2419.134277 7249.000000
2420.167725 6481.000000
2421.200195 6639.000000
2422.232422 6829.000000
2423.263184 7108.000000
2424.293945 6474.000000
2425.324219 6903.000000
2426.353271 6851.000000
2427.382324 6667.000000
2428.409668 7397.000000
2429.437500 6721.000000
2430.464111 7275.000000
2431.490479 6971.000000
2432.515381 7687.000000
2433.540527 6591.000000
2434.564697 7170.000000
2435.588623 6742.000000
2436.611328 5826.000000
2437.633301 6362.000000
2438.655029 6642.000000
2439.676025 6641.000000
2440.696533 6025.000000
2441.715820 6556.000000
2442.735107 6604.000000
2443.753418 8420.000000
2444.771484 6362.000000
2445.788086 6482.000000
2446.804688 6544.000000
2447.820557 6048.000000
2448.836426 7089.000000
2449.850830 6873.000000
2450.864502 5592.000000
2451.877686 7317.000000
2452.890625 5981.000000
2453.902832 7218.000000
2454.914063 6747.000000
2455.925049 7769.000000
2456.935303 6406.000000
2457.945068 7619.000000
2458.953857 5929.000000
2459.961914 5999.000000
2460.969971 6298.000000
2461.976807 7396.000000
2462.983398 5474.000000
2463.988770 7463.000000
2464.993896 7002.000000
2465.998779 5868.000000
2467.002441 6496.000000
2468.005859 6365.000000
2469.008301 7707.000000
2470.010498 7349.000000
2471.012207 6852.000000
2472.012939 6624.000000
2473.012695 6966.000000
2474.012451 6782.000000
2475.011230 5682.000000
2476.009521 6597.000000
2477.006836 7124.000000
2478.003906 6076.000000
2479.000977 6956.000000
2479.996582 5840.000000
2480.992188 7138.000000
2481.986084 6717.000000
2482.979980 8088.000000
2483.973389 6812.000000
2484.966309 6773.000000
2485.958252 7529.000000
2486.949463 7223.000000
2487.940430 6820.000000
2488.930908 5873.000000
2489.920410 6518.000000
2490.909180 6571.000000
2491.897949 5654.000000
2492.885742 6884.000000
2493.872314 6567.000000
2494.858887 8120.000000
2495.844971 6759.000000
2496.830322 7184.000000
2497.814697 8257.000000
2498.798828 6090.000000
2499.782959 6853.000000
2500.765625 5767.000000
2501.747803 7013.000000
2502.729492 6890.000000
2503.710449 7276.000000
2504.690918 6422.000000
2505.671143 5743.000000
2506.649902 6378.000000
2507.628418 7577.000000
2508.606445 6712.000000
2509.583984 7136.000000
2510.560547 6095.000000
2511.536865 5936.000000
2512.512451 6471.000000
2513.487549 6309.000000
2514.462158 6501.000000
2515.435547 7663.000000
2516.408691 6836.000000
2517.381592 6918.000000
2518.353516 6235.000000
2519.324707 6839.000000
2520.295410 7002.000000
2521.265869 7796.000000
2522.235596 8077.000000
2523.204346 6139.000000
2524.172363 6130.000000
2525.140381 7681.000000
2526.107422 6365.000000
2527.074219 5527.000000
2528.039795 7250.000000
2529.005371 7048.000000
2529.970215 7779.000000
2530.934570 6315.000000
2531.897705 6270.000000
2532.861084 5872.000000
2533.823486 6020.000000
2534.785645 6610.000000
2535.746582 6399.000000
2536.706787 6152.000000
2537.667236 6100.000000
2538.626709 6765.000000
2539.585449 6804.000000
2540.543213 6763.000000
2541.501221 6288.000000
2542.458496 6840.000000
2543.414795 6099.000000
2544.370850 7125.000000
2545.325684 6255.000000
2546.280762 7729.000000
2547.235107 7049.000000
2548.188721 6534.000000
2549.141357 7215.000000
2550.093750 6763.000000
2551.045654 7006.000000
2551.996826 6398.000000
2552.947266 7852.000000
2553.897217 7166.000000
2554.846924 7366.000000
2555.795898 6637.000000
2556.744385 6273.000000
2557.691650 7173.000000
2558.638916 6280.000000
2559.585449 6513.000000
2560.531494 6770.000000
2561.476563 7443.000000
2562.421387 6687.000000
2563.365723 7225.000000
2564.309570 6807.000000
2565.252930 6680.000000
2566.194824 6598.000000
2567.136963 6619.000000
2568.078369 6234.000000
2569.019043 7218.000000
2569.958984 7333.000000
2570.898926 5716.000000
2571.837891 6207.000000
2572.776611 7549.000000
2573.714355 7216.000000
2574.651855 5506.000000
2575.588623 7000.000000
2576.524658 6775.000000
2577.460205 7555.000000
2578.395020 6397.000000
2579.329834 5985.000000
2580.263672 7133.000000
2581.197021 7103.000000
2582.129639 5946.000000
2583.062012 6983.000000
2583.993652 5486.000000
2584.924805 7070.000000
2585.855469 6943.000000
2586.784912 6920.000000
2587.714355 7266.000000
2588.643311 6516.000000
2589.572021 7649.000000
2590.499023 7286.000000
2591.426270 5913.000000
2592.353027 6796.000000
2593.279053 6288.000000
2594.204834 5610.000000
2595.129395 7692.000000
2596.053711 7606.000000
2596.977539 5341.000000
2597.900879 7381.000000
2598.823242 6269.000000
2599.745361 6897.000000
2600.666992 8349.000000
2601.587891 6455.000000
2602.508057 5991.000000
2603.427979 6459.000000
2604.347412 6439.000000
2605.266602 6370.000000
2606.184814 5839.000000
2607.101807 5982.000000
2608.019043 7303.000000
2608.936035 5871.000000
2609.852051 7553.000000
2610.766846 6682.000000
2611.682129 6712.000000
2612.596680 6555.000000
2613.510254 6503.000000
2614.423828 6446.000000
2615.336182 7680.000000
2616.248535 7060.000000
2617.159912 6835.000000
2618.071045 5723.000000
2618.981445 7281.000000
2619.891602 6717.000000
2620.801025 6161.000000
2621.709961 6695.000000
2622.617920 6271.000000
2623.526123 6955.000000
2624.433350 6615.000000
2625.340088 7051.000000
2626.246094 6027.000000
2627.151855 6559.000000
2628.056885 6474.000000
2628.961670 7839.000000
2629.865723 6518.000000
2630.768799 6434.000000
2631.671875 6427.000000
2632.573975 5600.000000
2633.476074 6767.000000
2634.377930 7052.000000
2635.278076 6808.000000
2636.178467 6419.000000
2637.078125 6421.000000
2637.977539 6019.000000
2638.875488 6924.000000
2639.773926 6829.000000
2640.671875 6399.000000
2641.569092 6138.000000
2642.465088 6151.000000
2643.361084 6781.000000
2644.256836 6114.000000
2645.151855 6459.000000
2646.046631 6597.000000
2646.939941 7274.000000
2647.833252 6279.000000
2648.726318 6801.000000
2649.619141 6430.000000
2650.510254 7526.000000
2651.401611 6393.000000
2652.292480 7623.000000
2653.182617 7283.000000
2654.072510 6653.000000
2654.961182 7244.000000
2655.850098 6655.000000
2656.738525 6642.000000
2657.625977 7351.000000
2658.512451 6451.000000
2659.399414 7160.000000
2660.285645 6863.000000
2661.171387 6864.000000
2662.055908 6526.000000
2662.940430 6359.000000
2663.824707 6225.000000
2664.708252 7134.000000
2665.591309 7873.000000
2666.473633 7356.000000
2667.355469 6190.000000
2668.236572 6703.000000
2669.117920 6061.000000
2669.997803 6582.000000
2670.877930 7405.000000
2671.757324 7200.000000
2672.636719 6435.000000
2673.515381 6159.000000
2674.392334 6428.000000
2675.270020 6783.000000
2676.146973 6429.000000
2677.023193 8107.000000
2677.898926 7251.000000
2678.773926 6256.000000
2679.649170 7755.000000
2680.523438 6991.000000
2681.397217 7375.000000
2682.270264 7007.000000
2683.143066 6252.000000
2684.015625 6134.000000
2684.887451 6947.000000
2685.758545 6578.000000
2686.629395 6939.000000
2687.499756 7189.000000
2688.369873 6737.000000
2689.238281 6310.000000
2690.107422 7329.000000
2690.975830 7139.000000
2691.843994 6715.000000
2692.711426 6931.000000
2693.577637 5912.000000
2694.444336 7159.000000
2695.310059 7415.000000
2696.175781 7207.000000
2697.040039 7895.000000
2697.905029 6613.000000
2698.768555 7283.000000
2699.632324 5883.000000
2700.494629 7502.000000
2701.357422 6839.000000
2702.219238 5907.000000
2703.080566 6894.000000
2703.941895 6767.000000
2704.802002 7400.000000
2705.662109 7355.000000
2706.521729 6647.000000
2707.381104 6921.000000
2708.238770 7143.000000
2709.096680 6865.000000
2709.955078 7351.000000
2710.812256 6754.000000
2711.668701 6031.000000
2712.524658 6883.000000
2713.380615 6094.000000
2714.235840 7031.000000
2715.090332 6100.000000
2715.944336 6766.000000
2716.798340 7279.000000
2717.651367 6296.000000
2718.504639 6646.000000
2719.356201 7697.000000
2720.208252 6812.000000
2721.060059 6346.000000
2721.910645 6576.000000
2722.761230 6388.000000
2723.611328 7198.000000
2724.460693 7081.000000
2725.310059 7064.000000
2726.158203 6713.000000
2727.005859 6565.000000
2727.854004 7072.000000
2728.700928 6847.000000
2729.548340 5525.000000
2730.394287 7558.000000
2731.239502 7019.000000
2732.085205 6456.000000
2732.929932 7146.000000
2733.774658 7391.000000
2734.618164 6945.000000
2735.461914 7802.000000
2736.304932 7208.000000
2737.147461 6060.000000
2737.989014 6230.000000
2738.831055 6831.000000
2739.672119 6909.000000
2740.512939 5892.000000
2741.353516 5912.000000
2742.192871 7768.000000
2743.032227 6871.000000
2743.871582 6879.000000
2744.709717 6753.000000
2745.547363 7841.000000
2746.385010 6364.000000
2747.222168 7167.000000
2748.059082 6247.000000
2748.895508 6043.000000
2749.730713 6647.000000
2750.566162 6313.000000
2751.401123 6402.000000
2752.235352 6247.000000
2753.069336 6878.000000
2753.902832 6827.000000
2754.736328 8031.000000
2755.568848 6852.000000
2756.400879 7266.000000
2757.232422 6840.000000
2758.063965 7167.000000
2758.894531 7283.000000
2759.725342 7268.000000
2760.554932 7321.000000
2761.384521 6760.000000
2762.213867 7295.000000
2763.042480 6902.000000
2763.870605 6800.000000
2764.698242 7047.000000
2765.525879 6668.000000
2766.353027 7954.000000
2767.179443 5784.000000
2768.005371 7548.000000
2768.830811 6870.000000
2769.656006 7812.000000
2770.481201 7072.000000
2771.305176 6820.000000
2772.129150 6537.000000
2772.953125 7752.000000
2773.775879 6661.000000
2774.598877 6981.000000
2775.420654 6932.000000
2776.242432 6994.000000
2777.064209 6516.000000
2777.885010 8019.000000
2778.705078 6594.000000
2779.525391 7024.000000
2780.345215 7316.000000
2781.165039 6508.000000
2781.982910 5963.000000
2782.802002 8008.000000
2783.619873 6517.000000
2784.437500 6772.000000
2785.254639 7192.000000
2786.071289 7238.000000
2786.887695 7229.000000
2787.703613 6299.000000
2788.519287 6053.000000
2789.333984 6424.000000
2790.149170 7048.000000
2790.963623 7170.000000
2791.777588 6639.000000
2792.591309 7498.000000
2793.403809 8757.000000
2794.216553 7041.000000
2795.028809 7440.000000
2795.840576 7230.000000
2796.651611 7344.000000
2797.463379 6555.000000
2798.273926 7266.000000
2799.084473 6977.000000
2799.893555 7416.000000
2800.703369 8149.000000
2801.512451 7786.000000
2802.321289 6760.000000
2803.129639 7274.000000
2803.937012 6212.000000
2804.744873 6499.000000
2805.552002 6737.000000
2806.358887 7069.000000
2807.164551 7021.000000
2807.970703 6661.000000
2808.776123 6551.000000
2809.581543 7310.000000
2810.386230 6214.000000
2811.189941 7590.000000
2811.994141 7486.000000
2812.797852 6283.000000
2813.601318 6124.000000
2814.403320 6564.000000
2815.206055 7360.000000
2816.008057 7893.000000
2816.809814 6179.000000
2817.611084 6544.000000
2818.411865 7300.000000
2819.212158 6521.000000
2820.012695 6695.000000
2820.812256 8162.000000
2821.611328 7172.000000
2822.410400 6652.000000
2823.209229 6851.000000
2824.007568 6419.000000
2824.804932 7052.000000
2825.602539 7385.000000
2826.399414 6697.000000
2827.196533 7462.000000
2827.992920 8127.000000
2828.788574 7037.000000
2829.584229 7391.000000
2830.379639 7698.000000
2831.174561 7460.000000
2831.968750 6702.000000
2832.762939 6894.000000
2833.556885 5679.000000
2834.350342 6869.000000
2835.143066 7177.000000
2835.935547 8181.000000
2836.728027 7653.000000
2837.520264 7522.000000
2838.312012 6470.000000
2839.102783 6827.000000
2839.893555 8954.000000
2840.684570 7439.000000
2841.474609 6272.000000
2842.264160 7649.000000
2843.053955 7183.000000
2843.842773 7368.000000
2844.631592 7834.000000
2845.420410 7725.000000
2846.208252 7606.000000
2846.995605 7227.000000
2847.783203 7581.000000
2848.570313 7356.000000
2849.356689 6671.000000
2850.143066 7436.000000
2850.929199 7247.000000
2851.714844 7578.000000
2852.499512 7205.000000
2853.284668 6911.000000
2854.069580 7552.000000
2854.853760 7151.000000
2855.637939 6953.000000
2856.420898 8250.000000
2857.204102 6830.000000
2857.987061 6780.000000
2858.769531 7778.000000
2859.551758 6263.000000
2860.333496 6692.000000
2861.114990 7589.000000
2861.896729 7533.000000
2862.677734 7656.000000
2863.458008 6590.000000
2864.238037 6816.000000
2865.018066 8234.000000
2865.797852 7523.000000
2866.576660 8156.000000
2867.355713 7660.000000
2868.134277 6832.000000
2868.912598 6992.000000
2869.690430 7279.000000
2870.468018 6980.000000
2871.245361 7525.000000
2872.022461 6993.000000
2872.799072 6416.000000
2873.575195 7494.000000
2874.351318 7169.000000
2875.126953 8370.000000
2875.902344 7195.000000
2876.677246 6628.000000
2877.451904 8125.000000
2878.226563 6538.000000
2879.000977 7880.000000
2879.774658 6778.000000
2880.547607 7276.000000
2881.321289 6762.000000
2882.093994 7605.000000
2882.866699 7889.000000
2883.638672 8313.000000
2884.410400 6212.000000
2885.182617 6845.000000
2885.953613 6942.000000
2886.724121 6155.000000
2887.495117 8386.000000
2888.266113 7393.000000
2889.036377 7983.000000
2889.805664 7653.000000
2890.575195 6935.000000
2891.344727 7213.000000
2892.113770 7410.000000
2892.882324 7906.000000
2893.650879 7727.000000
2894.418457 6923.000000
2895.186523 6626.000000
2895.954102 7444.000000
2896.721680 8305.000000
2897.488037 7431.000000
2898.255371 6563.000000
2899.021484 7192.000000
2899.787842 7004.000000
2900.552734 8294.000000
2901.318115 7010.000000
2902.083984 6506.000000
2902.848389 7784.000000
2903.612793 7993.000000
2904.377441 8488.000000
2905.141113 6637.000000
2905.905518 8461.000000
2906.669189 6741.000000
2907.432129 8483.000000
2908.194824 6553.000000
2908.958008 9079.000000
2909.720703 6995.000000
2910.482178 6839.000000
2911.244141 6839.000000
