scanname Analyse112
timestamp 2017-02-10 22:57:13
ccdbias 954.852051
ccdgain 3.473401
sigmaread 8.960639
laserwavenum -0.508785
wavenumcorrection 0.014179
scancount 1
totalexposurems 10000
singleexposurems 10000
measurementstate Unknown
scanmode Manual
snr 146.216248 2.234442 1.753796
replacelist 2
671 27314.000000 9184.000000
948 15254.000000 7466.000000
peaks 11
278.104767 0.391098 0.000000 0.623451 0.000060
293.626343 0.393433 0.000000 0.256339 0.000015
301.440887 0.395420 0.000000 0.363108 0.000024
388.278748 0.402247 0.000000 0.741893 0.000108
759.718018 0.383069 0.000000 2.705575 0.000363
781.584778 0.381166 0.000000 2.118509 0.000300
806.866699 0.372144 0.000000 0.336933 0.000034
877.880859 0.361994 0.000000 0.197799 0.000043
1315.342773 0.318693 0.000000 11.709429 0.002414
1334.730713 0.315184 0.000000 8.184966 0.001269
1448.570679 0.282467 0.000000 1.157393 0.000195
finalresult GLS_NoMatch 0
spectrum 2048
-97.092667 44800.000000
-94.465797 44800.000000
-91.840805 45525.000000
-89.217705 45609.000000
-86.596474 46485.000000
-83.977142 46331.000000
-81.359673 46620.000000
-78.744080 46390.000000
-76.130363 46702.000000
-73.518524 47126.000000
-70.908546 46947.000000
-68.300453 47079.000000
-65.694206 47181.000000
-63.089840 47160.000000
-60.487331 47073.000000
-57.886677 47550.000000
-55.287884 46901.000000
-52.690948 46274.000000
-50.095867 46737.000000
-47.502640 46698.000000
-44.911263 46912.000000
-42.321732 46481.000000
-39.734043 47204.000000
-37.148205 47110.000000
-34.564209 46628.000000
-31.982050 47359.000000
-29.401737 46754.000000
-26.823252 47317.000000
-24.246609 46888.000000
-21.671791 46695.000000
-19.098814 46434.000000
-16.527657 46436.000000
-13.958333 46079.000000
-11.390835 45124.000000
-8.825155 46442.000000
-6.261301 46224.000000
-3.699261 46593.000000
-1.139045 46663.000000
1.419363 46084.000000
3.975950 45276.000000
6.530733 45035.000000
9.083697 45219.000000
11.634862 43694.000000
14.184214 42940.000000
16.731770 41649.000000
19.277514 41274.000000
21.821465 40295.000000
24.363611 37909.000000
26.903961 36076.000000
29.442526 32531.000000
31.979294 29084.000000
34.514259 24202.000000
37.047447 14166.000000
39.578854 7788.000000
42.108467 7281.000000
44.636284 7708.000000
47.162342 6836.000000
49.686611 5584.000000
52.209110 4640.000000
54.729813 4174.000000
57.248760 4332.000000
59.765934 5007.000000
62.281330 6835.000000
64.794952 8448.000000
67.306816 8243.000000
69.816933 5656.000000
72.325256 3703.000000
74.831825 3123.000000
77.336647 2556.000000
79.839714 2102.000000
82.341003 1929.000000
84.840553 1757.000000
87.338348 1799.000000
89.834412 1733.000000
92.328697 1964.000000
94.821243 2137.000000
97.312073 2179.000000
99.801132 2290.000000
102.288445 2001.000000
104.774033 1536.000000
107.257881 1194.000000
109.739983 1167.000000
112.220360 1072.000000
114.699013 1074.000000
117.175941 1087.000000
119.651115 1036.000000
122.124580 997.000000
124.596313 972.000000
127.066338 964.000000
129.534607 990.000000
132.001205 1300.000000
134.466049 1305.000000
136.929199 1377.000000
139.390610 1596.000000
141.850327 1955.000000
144.308319 2328.000000
146.764618 2803.000000
149.219208 3526.000000
151.672073 4017.000000
154.123260 4913.000000
156.572754 5873.000000
159.020523 6994.000000
161.466583 8105.000000
163.910965 9102.000000
166.353668 10318.000000
168.794678 11069.000000
171.233978 11715.000000
173.671570 12218.000000
176.107529 12583.000000
178.541748 12712.000000
180.974289 12758.000000
183.405182 12986.000000
185.834351 13108.000000
188.261871 13058.000000
190.687714 13252.000000
193.111877 13432.000000
195.534378 13445.000000
197.955185 13649.000000
200.374329 13940.000000
202.791809 14356.000000
205.207596 14841.000000
207.621735 15473.000000
210.034241 16386.000000
212.445068 17264.000000
214.854218 18388.000000
217.261734 19475.000000
219.667542 20906.000000
222.071762 22137.000000
224.474274 23283.000000
226.875168 23916.000000
229.274414 24734.000000
231.671997 24756.000000
234.067917 24486.000000
236.462219 25031.000000
238.854858 25724.000000
241.245880 25180.000000
243.635239 25445.000000
246.022980 25820.000000
248.409073 25350.000000
250.793533 26201.000000
253.176346 24744.000000
255.557587 25853.000000
257.937103 25744.000000
260.315063 26012.000000
262.691345 25183.000000
265.066071 25193.000000
267.439148 24627.000000
269.810577 25817.000000
272.180359 25545.000000
274.548584 26047.000000
276.915161 25746.000000
279.280151 25319.000000
281.643524 25910.000000
284.005249 25849.000000
286.365387 25065.000000
288.723907 25928.000000
291.080841 25501.000000
293.436157 25571.000000
295.789886 25861.000000
298.141968 25937.000000
300.492493 25731.000000
302.841431 25650.000000
305.188721 25381.000000
307.534485 25703.000000
309.878571 25753.000000
312.221130 25101.000000
314.562073 24928.000000
316.901398 25229.000000
319.239166 25271.000000
321.575378 24085.000000
323.909943 25390.000000
326.242950 24980.000000
328.574402 25354.000000
330.904266 24897.000000
333.232544 25175.000000
335.559204 24532.000000
337.884369 25028.000000
340.207916 25189.000000
342.529907 25451.000000
344.850342 24367.000000
347.169159 24095.000000
349.486420 25088.000000
351.802155 25206.000000
354.116302 24426.000000
356.428864 24987.000000
358.739868 25143.000000
361.049347 24388.000000
363.357300 24756.000000
365.663635 25248.000000
367.968384 24747.000000
370.271667 24799.000000
372.573334 25000.000000
374.873505 24884.000000
377.172119 24832.000000
379.469177 25243.000000
381.764679 24918.000000
384.058655 25184.000000
386.351044 25799.000000
388.641937 25819.000000
390.931305 25639.000000
393.219086 25741.000000
395.505341 25697.000000
397.790100 25326.000000
400.073242 26146.000000
402.354950 25774.000000
404.635132 26017.000000
406.913727 25010.000000
409.190796 25712.000000
411.466339 25267.000000
413.740356 25339.000000
416.012939 25441.000000
418.283905 25433.000000
420.553375 25529.000000
422.821350 24993.000000
425.087769 24682.000000
427.352692 25234.000000
429.616150 25095.000000
431.878021 24874.000000
434.138428 25174.000000
436.397278 24712.000000
438.654663 24832.000000
440.910553 25010.000000
443.164948 24743.000000
445.417816 25153.000000
447.669128 24197.000000
449.919037 24500.000000
452.167358 24228.000000
454.414246 24699.000000
456.659668 24166.000000
458.903534 24238.000000
461.145905 23992.000000
463.386780 24520.000000
465.626251 23854.000000
467.864136 24561.000000
470.100586 24415.000000
472.335510 24341.000000
474.568970 23568.000000
476.800995 23812.000000
479.031494 24218.000000
481.260498 23798.000000
483.488037 24010.000000
485.714081 24063.000000
487.938690 23692.000000
490.161835 24192.000000
492.383514 23955.000000
494.603638 23764.000000
496.822357 24498.000000
499.039581 24032.000000
501.255432 24569.000000
503.469666 24281.000000
505.682587 24216.000000
507.893921 24377.000000
510.103821 23988.000000
512.312317 24258.000000
514.519409 24263.000000
516.724915 24244.000000
518.929016 24034.000000
521.131592 24311.000000
523.332764 24229.000000
525.532593 23973.000000
527.730896 23672.000000
529.927673 24317.000000
532.123108 24111.000000
534.317017 24494.000000
536.509583 23331.000000
538.700623 23739.000000
540.890259 24165.000000
543.078491 23765.000000
545.265198 23457.000000
547.450439 23386.000000
549.634399 23293.000000
551.816772 23041.000000
553.997803 22962.000000
556.177307 22842.000000
558.355530 22952.000000
560.532227 22834.000000
562.707520 22649.000000
564.881409 22564.000000
567.053833 22488.000000
569.224854 22684.000000
571.394409 22356.000000
573.562683 22842.000000
575.729431 22581.000000
577.894714 22747.000000
580.058594 22741.000000
582.221191 22827.000000
584.382263 22664.000000
586.541931 22882.000000
588.700256 22897.000000
590.857056 23125.000000
593.012512 22825.000000
595.166565 22968.000000
597.319275 23232.000000
599.470459 22794.000000
601.620300 23042.000000
603.768799 22829.000000
605.915710 23157.000000
608.061401 23056.000000
610.205688 23193.000000
612.348511 22869.000000
614.489868 23286.000000
616.630005 23154.000000
618.768616 22547.000000
620.905945 23386.000000
623.041809 22886.000000
625.176270 22777.000000
627.309265 22504.000000
629.441101 22667.000000
631.571472 22488.000000
633.700439 22399.000000
635.827942 22366.000000
637.954163 22464.000000
640.078857 21977.000000
642.202332 22121.000000
644.324463 21989.000000
646.445129 21720.000000
648.564453 21785.000000
650.682373 21853.000000
652.798950 21894.000000
654.914124 21571.000000
657.027954 21372.000000
659.140320 21397.000000
661.251465 21455.000000
663.361206 21477.000000
665.469482 21514.000000
667.576599 21439.000000
669.682251 21265.000000
671.786438 21399.000000
673.889404 21701.000000
675.990967 21207.000000
678.091187 21634.000000
680.190002 21527.000000
682.287476 21790.000000
684.383667 21710.000000
686.478394 21758.000000
688.571899 21604.000000
690.664063 21554.000000
692.754700 21361.000000
694.844116 21925.000000
696.932251 21925.000000
699.018921 22117.000000
701.104370 21716.000000
703.188293 22098.000000
705.270996 21801.000000
707.352417 22019.000000
709.432373 21086.000000
711.511108 20740.000000
713.588379 20724.000000
715.664368 20697.000000
717.739075 20810.000000
719.812500 20635.000000
721.884399 21456.000000
723.955139 20899.000000
726.024536 20826.000000
728.092529 20571.000000
730.159180 20505.000000
732.224609 20241.000000
734.288696 20451.000000
736.351440 20417.000000
738.412842 20221.000000
740.472961 20155.000000
742.531677 20397.000000
744.589172 20130.000000
746.645386 20018.000000
748.700195 19930.000000
750.753723 20177.000000
752.805847 19838.000000
754.856750 19912.000000
756.906433 19764.000000
758.954651 19809.000000
761.001648 19806.000000
763.047363 19500.000000
765.091675 19929.000000
767.134705 22073.000000
769.176514 16458.000000
771.216980 19752.000000
773.256042 19569.000000
775.293945 19891.000000
777.330505 19822.000000
779.365845 19948.000000
781.399841 20044.000000
783.432434 19793.000000
785.463867 21285.000000
787.493896 18447.000000
789.522644 20072.000000
791.550232 20264.000000
793.576477 20034.000000
795.601318 20142.000000
797.625061 20482.000000
799.647400 20384.000000
801.668518 20393.000000
803.688293 20392.000000
805.706787 20716.000000
807.724060 20557.000000
809.739929 20251.000000
811.754639 20526.000000
813.768005 20297.000000
815.780151 20044.000000
817.791077 19907.000000
819.800659 19801.000000
821.809021 19540.000000
823.815979 19146.000000
825.821716 19392.000000
827.826233 19278.000000
829.829468 19238.000000
831.831421 18948.000000
833.832092 18953.000000
835.831543 19013.000000
837.829651 19019.000000
839.826660 18873.000000
841.822266 18959.000000
843.816711 18837.000000
845.809814 18669.000000
847.801697 18415.000000
849.792236 18443.000000
851.781494 18154.000000
853.769714 18293.000000
855.756531 18173.000000
857.742126 18253.000000
859.726440 18058.000000
861.709656 18027.000000
863.691467 18114.000000
865.672058 18042.000000
867.651367 17874.000000
869.629517 17829.000000
871.606323 18202.000000
873.581848 18284.000000
875.556335 18415.000000
877.529358 18636.000000
879.501343 18786.000000
881.471985 18731.000000
883.441467 18917.000000
885.409607 18971.000000
887.376587 18756.000000
889.342224 18668.000000
891.306702 18674.000000
893.269958 18585.000000
895.231995 18525.000000
897.192749 18363.000000
899.152283 18500.000000
901.110535 18265.000000
903.067688 18174.000000
905.023682 18327.000000
906.978271 18298.000000
908.931641 18328.000000
910.883850 18198.000000
912.834839 18148.000000
914.784546 17814.000000
916.733093 17780.000000
918.680420 17789.000000
920.626465 17588.000000
922.571228 17224.000000
924.514954 17084.000000
926.457520 17052.000000
928.398804 16818.000000
930.338745 16661.000000
932.277588 16537.000000
934.215149 16495.000000
936.151489 16313.000000
938.086670 16317.000000
940.020569 16503.000000
941.953369 16434.000000
943.884949 16414.000000
945.815369 16470.000000
947.744568 16518.000000
949.672424 16641.000000
951.599243 16504.000000
953.524780 16489.000000
955.449036 16773.000000
957.372192 16696.000000
959.294189 16705.000000
961.214905 16717.000000
963.134460 16838.000000
965.052856 16873.000000
966.970215 17092.000000
968.886108 17050.000000
970.800903 17015.000000
972.714478 16916.000000
974.626892 16902.000000
976.538086 17027.000000
978.448120 16939.000000
980.356873 17019.000000
982.264587 16896.000000
984.171082 16900.000000
986.076355 17094.000000
987.980530 16799.000000
989.883484 16702.000000
991.785217 16684.000000
993.685791 16967.000000
995.585205 16660.000000
997.483398 16651.000000
999.380432 16353.000000
1001.276245 15925.000000
1003.170898 15718.000000
1005.064453 15707.000000
1006.956726 15466.000000
1008.848083 15519.000000
1010.738098 15393.000000
1012.626892 15317.000000
1014.514526 15163.000000
1016.401001 15171.000000
1018.286316 15250.000000
1020.170471 15213.000000
1022.053406 15161.000000
1023.935303 15209.000000
1025.815918 15082.000000
1027.695435 15108.000000
1029.573975 15161.000000
1031.451172 15166.000000
1033.327026 15042.000000
1035.201904 15068.000000
1037.075806 15072.000000
1038.948242 15190.000000
1040.819702 15045.000000
1042.689819 15184.000000
1044.558960 15109.000000
1046.426880 15148.000000
1048.293701 14907.000000
1050.159424 15243.000000
1052.023926 15199.000000
1053.887329 15383.000000
1055.749390 15352.000000
1057.610474 15386.000000
1059.470459 15398.000000
1061.329102 15315.000000
1063.186646 15373.000000
1065.043091 15408.000000
1066.898438 15492.000000
1068.752563 15484.000000
1070.605835 15329.000000
1072.457642 15366.000000
1074.308472 15448.000000
1076.158081 15476.000000
1078.006470 15436.000000
1079.854004 15122.000000
1081.700195 15308.000000
1083.545166 15024.000000
1085.389282 15200.000000
1087.232056 15211.000000
1089.073608 15064.000000
1090.914429 15017.000000
1092.753662 14595.000000
1094.592163 14915.000000
1096.429321 14738.000000
1098.265259 14616.000000
1100.100220 14486.000000
1101.933960 14134.000000
1103.766724 13970.000000
1105.598145 14012.000000
1107.428711 14349.000000
1109.257935 14043.000000
1111.086182 13596.000000
1112.913208 13571.000000
1114.739258 13775.000000
1116.564087 13675.000000
1118.387817 13643.000000
1120.210327 13553.000000
1122.031738 13635.000000
1123.852295 13575.000000
1125.671387 13491.000000
1127.489624 13629.000000
1129.306519 13549.000000
1131.122559 13651.000000
1132.937378 13814.000000
1134.751099 13873.000000
1136.563721 13834.000000
1138.375122 13973.000000
1140.185547 14110.000000
1141.994873 14112.000000
1143.802856 14073.000000
1145.610107 14188.000000
1147.415894 14362.000000
1149.220825 14183.000000
1151.024658 14136.000000
1152.827271 14243.000000
1154.629028 14116.000000
1156.429321 14040.000000
1158.228638 14090.000000
1160.026978 13975.000000
1161.823975 14049.000000
1163.620239 13899.000000
1165.415161 13704.000000
1167.208984 13668.000000
1169.001953 13458.000000
1170.793579 13697.000000
1172.584229 13167.000000
1174.373901 13189.000000
1176.162109 13176.000000
1177.949463 13113.000000
1179.735718 13138.000000
1181.520874 13318.000000
1183.304932 13070.000000
1185.087891 13136.000000
1186.869873 13174.000000
1188.650635 13165.000000
1190.430420 12984.000000
1192.209106 12984.000000
1193.986816 13020.000000
1195.763306 12832.000000
1197.538696 12681.000000
1199.312988 12408.000000
1201.086182 12324.000000
1202.858521 12233.000000
1204.629517 12361.000000
1206.399658 12331.000000
1208.168579 12136.000000
1209.936401 12255.000000
1211.703369 12189.000000
1213.468994 12170.000000
1215.233643 12222.000000
1216.997192 12200.000000
1218.759644 12159.000000
1220.521240 11950.000000
1222.281616 12135.000000
1224.040894 12003.000000
1225.799316 11896.000000
1227.556519 11979.000000
1229.312622 12237.000000
1231.067627 12214.000000
1232.821777 12198.000000
1234.574585 12181.000000
1236.326416 12330.000000
1238.077393 12294.000000
1239.827026 12505.000000
1241.575806 12375.000000
1243.323242 12534.000000
1245.069946 12411.000000
1246.815430 12548.000000
1248.560059 12479.000000
1250.303345 12394.000000
1252.045654 12308.000000
1253.786865 12482.000000
1255.527222 12221.000000
1257.266479 11854.000000
1259.004517 11680.000000
1260.741699 11387.000000
1262.477661 11397.000000
1264.212646 11690.000000
1265.946655 11804.000000
1267.679688 12172.000000
1269.411499 12198.000000
1271.142334 12111.000000
1272.871948 12235.000000
1274.600708 12372.000000
1276.328369 12293.000000
1278.054932 12352.000000
1279.780640 12370.000000
1281.505005 12073.000000
1283.228516 12119.000000
1284.951050 12031.000000
1286.672607 12107.000000
1288.392944 12156.000000
1290.112305 11985.000000
1291.830566 12102.000000
1293.547852 11858.000000
1295.264160 12053.000000
1296.979248 12144.000000
1298.693359 11937.000000
1300.406494 11727.000000
1302.118774 11776.000000
1303.829834 11550.000000
1305.539917 11544.000000
1307.248901 11554.000000
1308.956665 11426.000000
1310.663818 11188.000000
1312.369507 11228.000000
1314.074463 11265.000000
1315.778442 11279.000000
1317.481201 11576.000000
1319.182983 11616.000000
1320.883911 11697.000000
1322.583496 7557.000000
1324.282227 3417.000000
1325.980225 10908.000000
1327.676880 10763.000000
1329.372437 10798.000000
1331.067139 10880.000000
1332.760620 10734.000000
1334.453247 10752.000000
1336.145020 10534.000000
1337.835449 10523.000000
1339.525146 10488.000000
1341.213745 10539.000000
1342.901245 10444.000000
1344.587769 10408.000000
1346.273193 10477.000000
1347.957642 10404.000000
1349.641235 10398.000000
1351.323608 10551.000000
1353.005005 10820.000000
1354.685547 10762.000000
1356.364868 10876.000000
1358.043579 11005.000000
1359.720947 11118.000000
1361.397217 11164.000000
1363.072510 11200.000000
1364.747070 11132.000000
1366.420410 11083.000000
1368.092773 11112.000000
1369.764160 11101.000000
1371.434570 11121.000000
1373.103882 11040.000000
1374.772217 10787.000000
1376.439697 10931.000000
1378.106079 10890.000000
1379.771484 10814.000000
1381.435913 10773.000000
1383.099121 10593.000000
1384.761719 10638.000000
1386.422974 10565.000000
1388.083374 10512.000000
1389.742676 10370.000000
1391.401001 10389.000000
1393.058594 10215.000000
1394.714966 10374.000000
1396.370483 10527.000000
1398.024780 10445.000000
1399.678223 10533.000000
1401.330566 10461.000000
1402.982178 10591.000000
1404.632568 10309.000000
1406.281860 10191.000000
1407.930420 9806.000000
1409.577881 9815.000000
1411.224365 9646.000000
1412.869995 9577.000000
1414.514648 9475.000000
1416.158081 9465.000000
1417.800659 9498.000000
1419.442139 9493.000000
1421.082764 9465.000000
1422.722412 9507.000000
1424.360962 9430.000000
1425.998657 9401.000000
1427.635254 9458.000000
1429.270874 9294.000000
1430.905762 9179.000000
1432.539551 9295.000000
1434.172241 9351.000000
1435.803955 9147.000000
1437.434814 9216.000000
1439.064575 9322.000000
1440.693237 9226.000000
1442.321289 9237.000000
1443.948242 9261.000000
1445.573975 9167.000000
1447.199097 9076.000000
1448.823120 9357.000000
1450.446167 9294.000000
1452.068237 9354.000000
1453.689209 9638.000000
1455.309204 9431.000000
1456.928467 9569.000000
1458.546387 9680.000000
1460.163696 7636.000000
1461.780029 9252.000000
1463.395142 9273.000000
1465.009399 9246.000000
1466.622803 9373.000000
1468.235107 9511.000000
1469.846558 9412.000000
1471.457153 9282.000000
1473.066528 9312.000000
1474.674927 9373.000000
1476.282471 9377.000000
1477.889038 9512.000000
1479.494873 9427.000000
1481.099487 9451.000000
1482.703247 9225.000000
1484.305786 9050.000000
1485.907715 8744.000000
1487.508423 8767.000000
1489.108398 8583.000000
1490.707275 8418.000000
1492.305298 8547.000000
1493.902222 8471.000000
1495.498291 8755.000000
1497.093384 9182.000000
1498.687500 9217.000000
1500.280884 9069.000000
1501.873169 9094.000000
1503.464233 8958.000000
1505.054810 8955.000000
1506.644043 8847.000000
1508.232666 8779.000000
1509.820190 8617.000000
1511.406616 8625.000000
1512.992310 8607.000000
1514.576904 8566.000000
1516.160645 8666.000000
1517.743286 8535.000000
1519.325195 8679.000000
1520.906006 8559.000000
1522.486084 8416.000000
1524.064941 8361.000000
1525.642944 8147.000000
1527.220215 8213.000000
1528.796265 8238.000000
1530.371582 8119.000000
1531.945801 8114.000000
1533.519287 8153.000000
1535.091553 7958.000000
1536.663086 8156.000000
1538.233643 8102.000000
1539.803345 7945.000000
1541.371826 8010.000000
1542.939575 8024.000000
1544.506470 8060.000000
1546.072144 7909.000000
1547.637085 7867.000000
1549.200928 7779.000000
1550.764160 7988.000000
1552.326050 7904.000000
1553.887329 7847.000000
1555.447510 7878.000000
1557.006958 7847.000000
1558.565308 7720.000000
1560.122925 7851.000000
1561.679443 7793.000000
1563.234741 7713.000000
1564.789429 7754.000000
1566.343384 7688.000000
1567.896362 7831.000000
1569.447998 7655.000000
1570.998901 7742.000000
1572.549072 7776.000000
1574.098267 7767.000000
1575.646118 7726.000000
1577.193481 7642.000000
1578.739868 7792.000000
1580.285400 7748.000000
1581.829956 7690.000000
1583.373291 7608.000000
1584.916016 7713.000000
1586.457886 7689.000000
1587.998657 7619.000000
1589.538452 7769.000000
1591.077515 7669.000000
1592.615479 7622.000000
1594.152954 7517.000000
1595.689087 7690.000000
1597.224121 7666.000000
1598.758667 7362.000000
1600.292236 7559.000000
1601.824951 7601.000000
1603.356079 7504.000000
1604.886963 7559.000000
1606.416992 7696.000000
1607.945801 7405.000000
1609.473511 7497.000000
1611.000610 7496.000000
1612.526978 7470.000000
1614.052368 7435.000000
1615.576904 7378.000000
1617.100098 7442.000000
1618.622559 7423.000000
1620.144287 7532.000000
1621.665161 7330.000000
1623.184570 7116.000000
1624.703491 7433.000000
1626.221680 7395.000000
1627.739014 7303.000000
1629.255249 7380.000000
1630.770142 7251.000000
1632.284546 7294.000000
1633.798218 7234.000000
1635.310791 6975.000000
1636.822144 7112.000000
1638.333130 7189.000000
1639.843018 7060.000000
1641.352051 7068.000000
1642.859741 7070.000000
1644.367065 7020.000000
1645.873535 6875.000000
1647.379028 6939.000000
1648.883667 6920.000000
1650.386841 6853.000000
1651.889404 6916.000000
1653.391602 6846.000000
1654.892456 6785.000000
1656.392212 6683.000000
1657.891113 6678.000000
1659.389648 6705.000000
1660.886963 6601.000000
1662.383545 6595.000000
1663.878540 6526.000000
1665.373291 6488.000000
1666.867188 6467.000000
1668.360107 6637.000000
1669.851685 5762.000000
1671.342773 6397.000000
1672.833252 6412.000000
1674.322632 6346.000000
1675.810547 6258.000000
1677.298218 6436.000000
1678.784912 6430.000000
1680.270752 6372.000000
1681.755737 6280.000000
1683.239258 6221.000000
1684.722534 6297.000000
1686.204956 6152.000000
1687.686279 6184.000000
1689.166138 6125.000000
1690.645752 6210.000000
1692.124634 6197.000000
1693.602539 6160.000000
1695.079468 6020.000000
1696.555176 6206.000000
1698.030518 6131.000000
1699.504639 6083.000000
1700.978149 6008.000000
1702.450195 6081.000000
1703.921997 6120.000000
1705.392822 5995.000000
1706.862793 5997.000000
1708.331421 6157.000000
1709.799561 6185.000000
1711.266968 6065.000000
1712.733276 6133.000000
1714.198975 6113.000000
1715.662964 6135.000000
1717.126831 6115.000000
1718.589844 6177.000000
1720.051880 6146.000000
1721.512695 6102.000000
1722.972900 6089.000000
1724.432373 6162.000000
1725.890991 6139.000000
1727.348633 6171.000000
1728.804932 6091.000000
1730.260986 6105.000000
1731.716064 6163.000000
1733.170166 6119.000000
1734.623047 6038.000000
1736.075684 6126.000000
1737.527222 5929.000000
1738.978027 5927.000000
1740.427856 5966.000000
1741.876343 5972.000000
1743.324463 5888.000000
1744.771729 5885.000000
1746.218262 5835.000000
1747.663208 5779.000000
1749.107910 5808.000000
1750.551758 5836.000000
1751.994751 5802.000000
1753.436279 5719.000000
1754.877563 5727.000000
1756.317993 5722.000000
1757.757446 5717.000000
1759.195923 5720.000000
1760.633423 5662.000000
1762.070435 5586.000000
1763.506470 5549.000000
1764.941650 5615.000000
1766.375366 5551.000000
1767.808960 5632.000000
1769.241577 5564.000000
1770.673340 5565.000000
1772.104248 5622.000000
1773.533936 5493.000000
1774.962891 5380.000000
1776.391357 5316.000000
1777.818848 5203.000000
1779.244995 4928.000000
1780.670898 5315.000000
1782.095703 5256.000000
1783.519897 5175.000000
1784.942627 5151.000000
1786.364868 5220.000000
1787.786377 5175.000000
1789.207153 5104.000000
1790.626953 5077.000000
1792.045410 5077.000000
1793.463379 5021.000000
1794.880737 5167.000000
1796.297241 5061.000000
1797.712280 5031.000000
1799.126953 5146.000000
1800.541016 5006.000000
1801.953857 5058.000000
1803.366089 5126.000000
1804.776978 4926.000000
1806.187378 4837.000000
1807.597046 4856.000000
1809.005737 4911.000000
1810.413330 4967.000000
1811.820435 4940.000000
1813.226685 5002.000000
1814.631958 4903.000000
1816.036133 5003.000000
1817.439941 4978.000000
1818.842773 5128.000000
1820.244751 5052.000000
1821.646118 5018.000000
1823.046021 4931.000000
1824.445313 5072.000000
1825.844116 4975.000000
1827.242065 5016.000000
1828.638672 4841.000000
1830.034668 5010.000000
1831.429932 4931.000000
1832.824585 4782.000000
1834.218262 4896.000000
1835.610596 4985.000000
1837.002441 4924.000000
1838.393677 4978.000000
1839.783936 4899.000000
1841.172974 4839.000000
1842.561646 4898.000000
1843.949341 4864.000000
1845.336304 4892.000000
1846.721924 4878.000000
1848.107300 4702.000000
1849.491821 4751.000000
1850.875610 4719.000000
1852.258301 4608.000000
1853.639771 4711.000000
1855.020752 4599.000000
1856.401245 4734.000000
1857.780762 4594.000000
1859.158813 4595.000000
1860.536743 4817.000000
1861.913696 4558.000000
1863.289917 4576.000000
1864.665283 4553.000000
1866.039185 4461.000000
1867.412964 4534.000000
1868.785889 4447.000000
1870.157715 4336.000000
1871.528564 4402.000000
1872.899048 4373.000000
1874.268433 4371.000000
1875.637329 4265.000000
1877.004639 4289.000000
1878.371826 4343.000000
1879.738037 4325.000000
1881.103516 4309.000000
1882.468262 4247.000000
1883.831421 4342.000000
1885.194458 4290.000000
1886.556641 4299.000000
1887.917969 4281.000000
1889.277954 4157.000000
1890.637573 4129.000000
1891.996582 4257.000000
1893.354614 4150.000000
1894.711792 4162.000000
1896.067749 4135.000000
1897.423462 4050.000000
1898.778198 4201.000000
1900.132080 4224.000000
1901.484863 4136.000000
1902.837158 4146.000000
1904.188721 4068.000000
1905.539429 4154.000000
1906.888916 4063.000000
1908.237915 4057.000000
1909.586060 4211.000000
1910.933594 4096.000000
1912.280396 4124.000000
1913.625610 4150.000000
1914.970581 4131.000000
1916.314819 4121.000000
1917.658203 4160.000000
1919.000244 4165.000000
1920.342041 4136.000000
1921.682983 4065.000000
1923.023193 4238.000000
1924.362427 4031.000000
1925.700684 4218.000000
1927.038330 4072.000000
1928.375244 4043.000000
1929.711304 4023.000000
1931.046143 4098.000000
1932.380615 4052.000000
1933.714355 4033.000000
1935.047241 3990.000000
1936.378662 3978.000000
1937.710205 4035.000000
1939.040405 3972.000000
1940.370117 3887.000000
1941.698975 4052.000000
1943.026611 3939.000000
1944.353760 3945.000000
1945.680176 4012.000000
1947.005859 3969.000000
1948.330200 4004.000000
1949.654297 3837.000000
1950.977539 3845.000000
1952.300049 3863.000000
1953.621460 3867.000000
1954.941895 3836.000000
1956.261719 3847.000000
1957.581177 3806.000000
1958.899658 3846.000000
1960.216797 3753.000000
1961.533569 3763.000000
1962.849609 3727.000000
1964.164917 3699.000000
1965.478760 3757.000000
1966.792358 3774.000000
1968.105225 3801.000000
1969.417236 3713.000000
1970.728638 3653.000000
1972.038696 3541.000000
1973.348267 3580.000000
1974.657104 3483.000000
1975.965332 3574.000000
1977.272217 3651.000000
1978.578491 3579.000000
1979.884399 3559.000000
1981.189087 3613.000000
1982.493286 3556.000000
1983.796265 3582.000000
1985.098877 3454.000000
1986.400513 3509.000000
1987.701538 3502.000000
1989.000977 3377.000000
1990.300537 3425.000000
1991.598999 3376.000000
1992.896973 3358.000000
1994.193359 3352.000000
1995.489746 3277.000000
1996.785156 3287.000000
1998.079834 3211.000000
1999.373657 3211.000000
2000.666260 3280.000000
2001.958374 3242.000000
2003.250000 3230.000000
2004.540894 3207.000000
2005.830200 3294.000000
2007.119263 3241.000000
2008.407593 3193.000000
2009.695190 3079.000000
2010.981934 3166.000000
2012.267578 3216.000000
2013.552856 3178.000000
2014.837158 3222.000000
2016.120850 3138.000000
2017.403198 3088.000000
2018.685181 3113.000000
2019.966675 3168.000000
2021.247192 3077.000000
2022.526978 3084.000000
2023.805664 3116.000000
2025.083618 3169.000000
2026.361084 3132.000000
2027.637939 3133.000000
2028.913086 3136.000000
2030.188354 3181.000000
2031.462646 3182.000000
2032.735962 3204.000000
2034.008423 3159.000000
2035.280518 3268.000000
2036.551514 3207.000000
2037.822266 3123.000000
2039.091675 3209.000000
2040.359985 3126.000000
2041.628296 3056.000000
2042.895630 3147.000000
2044.162231 3090.000000
2045.427612 3014.000000
2046.692383 3171.000000
2047.956909 3004.000000
2049.220215 3114.000000
2050.483154 3132.000000
2051.744141 3060.000000
2053.005615 3015.000000
2054.265869 3052.000000
2055.525391 2952.000000
2056.784180 2972.000000
2058.041992 2952.000000
2059.299316 2939.000000
2060.555908 2896.000000
2061.811035 2965.000000
2063.066162 2945.000000
2064.320313 2936.000000
2065.573730 2958.000000
2066.826416 2861.000000
2068.077881 2895.000000
2069.329102 2905.000000
2070.579590 2840.000000
2071.829346 2961.000000
2073.077637 2521.000000
2074.325928 2895.000000
2075.573242 2813.000000
2076.819824 2823.000000
2078.065674 2874.000000
2079.310303 2685.000000
2080.554443 2797.000000
2081.798096 2786.000000
2083.040771 2783.000000
2084.282227 2708.000000
2085.523438 2714.000000
2086.764160 2701.000000
2088.003906 2656.000000
2089.242432 2794.000000
2090.480469 2756.000000
2091.717773 2668.000000
2092.954834 2705.000000
2094.190430 2603.000000
2095.425293 2616.000000
2096.659912 2667.000000
2097.893555 2644.000000
2099.126221 2679.000000
2100.358154 2562.000000
2101.589600 2564.000000
2102.820068 2622.000000
2104.049805 2587.000000
2105.279297 2585.000000
2106.506836 2615.000000
2107.734619 2544.000000
2108.961670 2605.000000
2110.187744 2526.000000
2111.412354 2517.000000
2112.637207 2407.000000
2113.860840 2393.000000
2115.083984 2423.000000
2116.305908 2511.000000
2117.527588 2534.000000
2118.748291 2499.000000
2119.968262 2459.000000
2121.187744 2534.000000
2122.405762 2511.000000
2123.623779 2576.000000
2124.840820 2517.000000
2126.057373 2519.000000
2127.272217 2469.000000
2128.487305 2559.000000
2129.701416 2488.000000
2130.914795 2463.000000
2132.127441 2445.000000
2133.338623 2470.000000
2134.550049 2470.000000
2135.760254 2520.000000
2136.969971 2449.000000
2138.178223 2554.000000
2139.386475 2497.000000
2140.593994 2411.000000
2141.800293 2401.000000
2143.005859 2534.000000
2144.211182 2452.000000
2145.415527 2398.000000
2146.619141 2461.000000
2147.822266 2406.000000
2149.023926 2437.000000
2150.225342 2364.000000
2151.426025 2316.000000
2152.625977 2350.000000
2153.824707 2356.000000
2155.023193 2485.000000
2156.221191 2361.000000
2157.418213 2397.000000
2158.614502 2348.000000
2159.809570 2261.000000
2161.004395 2266.000000
2162.198486 2279.000000
2163.391602 2251.000000
2164.583740 2124.000000
2165.775635 2207.000000
2166.966797 2256.000000
2168.156982 2114.000000
2169.346436 2254.000000
2170.535400 2073.000000
2171.723389 2135.000000
2172.911133 2160.000000
2174.097412 2127.000000
2175.282959 2161.000000
2176.468262 2069.000000
2177.653076 1869.000000
2178.836670 2072.000000
2180.019531 2071.000000
2181.201416 2097.000000
2182.383057 2050.000000
2183.564209 1899.000000
2184.744141 2016.000000
2185.923096 2031.000000
2187.101563 1978.000000
2188.279785 2012.000000
2189.456787 2022.000000
2190.632813 1996.000000
2191.808594 2005.000000
2192.983887 2065.000000
2194.157715 2072.000000
2195.331055 2056.000000
2196.504150 2027.000000
2197.676025 1966.000000
2198.847412 2110.000000
2200.018311 2140.000000
2201.187500 2059.000000
2202.356689 1898.000000
2203.525391 2005.000000
2204.693115 1968.000000
2205.859863 2037.000000
2207.025879 1918.000000
2208.191406 2024.000000
2209.356689 2030.000000
2210.520508 2005.000000
2211.683838 1974.000000
2212.845947 1873.000000
2214.008301 1973.000000
2215.169434 1935.000000
2216.329590 1939.000000
2217.489258 1959.000000
2218.648682 1965.000000
2219.806885 1951.000000
2220.964111 1826.000000
2222.121094 1882.000000
2223.277344 1925.000000
2224.432861 1866.000000
2225.587646 1879.000000
2226.741455 1897.000000
2227.894287 2000.000000
2229.047607 1933.000000
2230.198975 1852.000000
2231.350098 1834.000000
2232.500488 1814.000000
2233.650391 1856.000000
2234.799316 1865.000000
2235.947754 1888.000000
2237.094727 1760.000000
2238.241943 1743.000000
2239.387939 1789.000000
2240.533691 1778.000000
2241.677734 1776.000000
2242.822021 1764.000000
2243.965332 1737.000000
2245.107910 1677.000000
2246.249512 1707.000000
2247.390869 1612.000000
2248.531250 1704.000000
2249.670898 1601.000000
2250.810059 1650.000000
2251.947998 1771.000000
2253.085938 1657.000000
2254.222900 1627.000000
2255.359131 1590.000000
2256.494385 1625.000000
2257.628906 1482.000000
2258.763184 1606.000000
2259.896973 1665.000000
2261.029297 1640.000000
2262.161133 1682.000000
2263.292480 1504.000000
2264.422852 1492.000000
2265.552979 1566.000000
2266.681885 1511.000000
2267.810303 1571.000000
2268.938232 1532.000000
2270.065186 1497.000000
2271.191406 1535.000000
2272.316650 1553.000000
2273.441895 1618.000000
2274.566406 1592.000000
2275.689697 1429.000000
2276.812256 1526.000000
2277.934326 1573.000000
2279.055908 1585.000000
2280.176758 1481.000000
2281.296387 1470.000000
2282.415527 1572.000000
2283.534424 1503.000000
2284.652588 1437.000000
2285.769775 1462.000000
2286.885986 1491.000000
2288.001953 1508.000000
2289.117188 1474.000000
2290.231689 1451.000000
2291.344971 1508.000000
2292.458252 1510.000000
2293.570801 1493.000000
2294.682617 1415.000000
2295.793701 1547.000000
2296.903564 1553.000000
2298.012939 1456.000000
2299.122070 1342.000000
2300.230225 1374.000000
2301.337402 1446.000000
2302.444336 1490.000000
2303.550537 1485.000000
2304.656250 1488.000000
2305.760498 1453.000000
2306.864502 1460.000000
2307.968018 1429.000000
2309.071045 1557.000000
2310.172852 1544.000000
2311.273926 1330.000000
2312.374512 1460.000000
2313.474609 1378.000000
2314.573975 1425.000000
2315.671875 1456.000000
2316.770264 1380.000000
2317.867188 1444.000000
2318.963867 1428.000000
2320.060059 1386.000000
2321.154541 1355.000000
2322.249023 1427.000000
2323.342773 1367.000000
2324.436279 1384.000000
2325.528076 1437.000000
2326.619873 1403.000000
2327.710938 1418.000000
2328.801270 1499.000000
2329.890625 1475.000000
2330.979980 1431.000000
2332.068115 1471.000000
2333.155762 1436.000000
2334.243164 1431.000000
2335.328857 1390.000000
2336.414307 1359.000000
2337.499512 1301.000000
2338.583740 1280.000000
2339.666992 1259.000000
2340.750000 1267.000000
2341.832031 1353.000000
2342.913818 1271.000000
2343.994873 1223.000000
2345.074707 1295.000000
2346.154053 1239.000000
2347.232910 1187.000000
2348.311279 1130.000000
2349.388184 1254.000000
2350.464844 1266.000000
2351.541260 1166.000000
2352.616699 1249.000000
2353.691162 1291.000000
2354.765381 1188.000000
2355.838867 1172.000000
2356.911865 1244.000000
2357.983643 1175.000000
2359.055176 1097.000000
2360.125732 1148.000000
2361.196045 1204.000000
2362.265381 1151.000000
2363.333740 1105.000000
2364.401855 1093.000000
2365.469238 1107.000000
2366.536133 1144.000000
2367.602295 1142.000000
2368.667236 1202.000000
2369.732178 1117.000000
2370.796387 1173.000000
2371.859863 997.000000
2372.922119 1136.000000
2373.984375 1164.000000
2375.045654 1161.000000
2376.106689 1090.000000
2377.166504 1030.000000
2378.225586 1051.000000
2379.284668 1175.000000
2380.342773 1153.000000
2381.400146 1083.000000
2382.456543 1225.000000
2383.512695 1065.000000
2384.568359 1102.000000
2385.623291 1046.000000
2386.676758 1159.000000
2387.730469 962.000000
2388.783203 1115.000000
2389.835449 1012.000000
2390.886963 1097.000000
2391.937500 1078.000000
2392.987793 1204.000000
2394.037109 1087.000000
2395.086426 1048.000000
2396.134277 1049.000000
2397.181641 1084.000000
2398.228760 1139.000000
2399.274902 1083.000000
2400.320313 1068.000000
2401.364990 1010.000000
2402.409668 965.000000
2403.452881 1114.000000
2404.496094 1093.000000
2405.537842 1056.000000
2406.579834 967.000000
2407.621094 1038.000000
2408.661377 1099.000000
2409.700928 1110.000000
2410.739502 1096.000000
2411.778320 1051.000000
2412.815918 1133.000000
2413.853271 1094.000000
2414.889404 1104.000000
2415.925293 1063.000000
2416.960449 1063.000000
2417.995117 1002.000000
2419.028320 1047.000000
2420.061768 972.000000
2421.094238 1110.000000
2422.126465 930.000000
2423.157227 960.000000
2424.187988 993.000000
2425.218262 961.000000
2426.247314 1088.000000
2427.276367 883.000000
2428.303711 1036.000000
2429.331543 1034.000000
2430.358154 978.000000
2431.384521 1028.000000
2432.409424 943.000000
2433.434570 1036.000000
2434.458740 917.000000
2435.482666 957.000000
2436.505371 1000.000000
2437.527344 1014.000000
2438.549072 932.000000
2439.570068 954.000000
2440.590576 902.000000
2441.609863 939.000000
2442.629150 871.000000
2443.647461 976.000000
2444.665527 900.000000
2445.682129 915.000000
2446.698730 898.000000
2447.714600 882.000000
2448.730469 929.000000
2449.744873 873.000000
2450.758545 951.000000
2451.771729 811.000000
2452.784668 888.000000
2453.796875 895.000000
2454.808105 915.000000
2455.819092 830.000000
2456.829346 925.000000
2457.839111 904.000000
2458.847900 910.000000
2459.855957 858.000000
2460.864014 897.000000
2461.870850 890.000000
2462.877441 896.000000
2463.882813 785.000000
2464.887939 780.000000
2465.892822 910.000000
2466.896484 812.000000
2467.899902 845.000000
2468.902344 798.000000
2469.904541 840.000000
2470.906250 792.000000
2471.906982 880.000000
2472.906738 942.000000
2473.906494 883.000000
2474.905273 851.000000
2475.903564 815.000000
2476.900879 732.000000
2477.897949 845.000000
2478.895020 862.000000
2479.890625 835.000000
2480.886230 821.000000
2481.880127 809.000000
2482.874023 775.000000
2483.867432 833.000000
2484.860352 749.000000
2485.852295 818.000000
2486.843506 799.000000
2487.834473 803.000000
2488.824951 819.000000
2489.814453 733.000000
2490.803223 811.000000
2491.791992 793.000000
2492.779785 758.000000
2493.766357 821.000000
2494.752930 715.000000
2495.739014 866.000000
2496.724365 775.000000
2497.708740 707.000000
2498.692871 749.000000
2499.677002 742.000000
2500.659668 844.000000
2501.641846 745.000000
2502.623535 765.000000
2503.604492 802.000000
2504.584961 808.000000
2505.565186 768.000000
2506.543945 761.000000
2507.522461 789.000000
2508.500488 789.000000
2509.478027 692.000000
2510.454590 755.000000
2511.430908 714.000000
2512.406494 699.000000
2513.381592 690.000000
2514.356201 759.000000
2515.329590 742.000000
2516.302734 861.000000
2517.275635 787.000000
2518.247559 725.000000
2519.218750 682.000000
2520.189453 801.000000
2521.159912 650.000000
2522.129639 693.000000
2523.098389 658.000000
2524.066406 748.000000
2525.034424 725.000000
2526.001465 685.000000
2526.968262 703.000000
2527.933838 641.000000
2528.899414 763.000000
2529.864258 663.000000
2530.828613 794.000000
2531.791748 682.000000
2532.755127 746.000000
2533.717529 742.000000
2534.679688 637.000000
2535.640625 684.000000
2536.600830 663.000000
2537.561279 625.000000
2538.520752 755.000000
2539.479492 703.000000
2540.437256 688.000000
2541.395264 702.000000
2542.352539 750.000000
2543.308838 638.000000
2544.264893 701.000000
2545.219727 656.000000
2546.174805 675.000000
2547.129150 549.000000
2548.082764 128.000000
2549.035400 682.000000
2549.987793 656.000000
2550.939697 665.000000
2551.890869 599.000000
2552.841309 667.000000
2553.791260 612.000000
2554.740967 639.000000
2555.689941 621.000000
2556.638428 642.000000
2557.585693 603.000000
2558.532959 620.000000
2559.479492 566.000000
2560.425537 598.000000
2561.370605 701.000000
2562.315430 603.000000
2563.259766 631.000000
2564.203613 509.000000
2565.146973 639.000000
2566.088867 645.000000
2567.031006 667.000000
2567.972412 578.000000
2568.913086 593.000000
2569.853027 646.000000
2570.792969 555.000000
2571.731934 619.000000
2572.670654 548.000000
2573.608398 527.000000
2574.545898 596.000000
2575.482666 573.000000
2576.418701 498.000000
2577.354248 672.000000
2578.289063 594.000000
2579.223877 593.000000
2580.157715 562.000000
2581.091064 585.000000
2582.023682 589.000000
2582.956055 648.000000
2583.887695 657.000000
2584.818848 604.000000
2585.749512 511.000000
2586.678955 558.000000
2587.608398 665.000000
2588.537354 638.000000
2589.466064 575.000000
2590.393066 578.000000
2591.320313 636.000000
2592.247070 646.000000
2593.173096 628.000000
2594.098877 549.000000
2595.023438 593.000000
2595.947754 620.000000
2596.871582 616.000000
2597.794922 611.000000
2598.717285 577.000000
2599.639404 610.000000
2600.561035 579.000000
2601.481934 607.000000
2602.402100 543.000000
2603.322021 531.000000
2604.241455 500.000000
2605.160645 530.000000
2606.078857 619.000000
2606.995850 599.000000
2607.913086 558.000000
2608.830078 504.000000
2609.746094 505.000000
2610.660889 567.000000
2611.576172 542.000000
2612.490723 528.000000
2613.404297 545.000000
2614.317871 590.000000
2615.230225 530.000000
2616.142578 491.000000
2617.053955 491.000000
2617.965088 577.000000
2618.875488 531.000000
2619.785645 565.000000
2620.695068 550.000000
2621.604004 482.000000
2622.511963 543.000000
2623.420166 505.000000
2624.327393 509.000000
2625.234131 560.000000
2626.140137 476.000000
2627.045898 447.000000
2627.950928 482.000000
2628.855713 489.000000
2629.759766 456.000000
2630.662842 428.000000
2631.565918 513.000000
2632.468018 573.000000
2633.370117 431.000000
2634.271973 509.000000
2635.172119 591.000000
2636.072510 594.000000
2636.972168 463.000000
2637.871582 483.000000
2638.769531 393.000000
2639.667969 606.000000
2640.565918 484.000000
2641.463135 546.000000
2642.359131 465.000000
2643.255127 438.000000
2644.150879 464.000000
2645.045898 412.000000
2645.940674 597.000000
2646.833984 421.000000
2647.727295 456.000000
2648.620361 419.000000
2649.513184 484.000000
2650.404297 490.000000
2651.295654 486.000000
2652.186523 440.000000
2653.076660 386.000000
2653.966553 511.000000
2654.855225 463.000000
2655.744141 419.000000
2656.632568 516.000000
2657.520020 528.000000
2658.406494 513.000000
2659.293457 449.000000
2660.179688 519.000000
2661.065430 428.000000
2661.949951 489.000000
2662.834473 369.000000
2663.718750 430.000000
2664.602295 418.000000
2665.485352 361.000000
2666.367676 402.000000
2667.249512 438.000000
2668.130615 344.000000
2669.011963 435.000000
2669.891846 470.000000
2670.771973 455.000000
2671.651367 473.000000
2672.530762 584.000000
2673.409424 457.000000
2674.286377 499.000000
2675.164063 526.000000
2676.041016 374.000000
2676.917236 388.000000
2677.792969 439.000000
2678.667969 426.000000
2679.543213 396.000000
2680.417480 460.000000
2681.291260 413.000000
2682.164307 427.000000
2683.037109 436.000000
2683.909668 444.000000
2684.781494 392.000000
2685.652588 394.000000
2686.523438 414.000000
2687.393799 487.000000
2688.263916 496.000000
2689.132324 416.000000
2690.001465 351.000000
2690.869873 341.000000
2691.738037 414.000000
2692.605469 328.000000
2693.471680 408.000000
2694.338379 438.000000
2695.204102 301.000000
2696.069824 395.000000
2696.934082 364.000000
2697.799072 387.000000
2698.662598 387.000000
2699.526367 381.000000
2700.388672 435.000000
2701.251465 335.000000
2702.113281 391.000000
2702.974609 338.000000
2703.835938 314.000000
2704.696045 393.000000
2705.556152 294.000000
2706.415771 346.000000
2707.275146 401.000000
2708.132813 448.000000
2708.990723 369.000000
2709.849121 399.000000
2710.706299 352.000000
2711.562744 374.000000
2712.418701 396.000000
2713.274658 414.000000
2714.129883 374.000000
2714.984375 380.000000
2715.838379 376.000000
2716.692383 271.000000
2717.545410 369.000000
2718.398682 380.000000
2719.250244 428.000000
2720.102295 372.000000
2720.954102 355.000000
2721.804688 355.000000
2722.655273 313.000000
2723.505371 304.000000
2724.354736 249.000000
2725.204102 381.000000
2726.052246 417.000000
2726.899902 363.000000
2727.748047 331.000000
2728.594971 342.000000
2729.442383 313.000000
2730.288330 398.000000
2731.133545 319.000000
2731.979248 349.000000
2732.823975 376.000000
2733.668701 301.000000
2734.512207 323.000000
2735.355957 286.000000
2736.198975 431.000000
2737.041504 403.000000
2737.883057 301.000000
2738.725098 282.000000
2739.566162 277.000000
2740.406982 321.000000
2741.247559 262.000000
2742.086914 294.000000
2742.926270 372.000000
2743.765625 277.000000
2744.603760 390.000000
2745.441406 383.000000
2746.279053 240.000000
2747.116211 255.000000
2747.953125 286.000000
2748.789551 355.000000
2749.624756 395.000000
2750.460205 361.000000
2751.295166 325.000000
2752.129395 352.000000
2752.963379 394.000000
2753.796875 297.000000
2754.630371 297.000000
2755.462891 255.000000
2756.294922 395.000000
2757.126465 248.000000
2757.958008 366.000000
2758.788574 254.000000
2759.619385 262.000000
2760.448975 409.000000
2761.278564 287.000000
2762.107910 384.000000
2762.936523 347.000000
2763.764648 405.000000
2764.592285 145.000000
2765.419922 225.000000
2766.247070 396.000000
2767.073486 349.000000
2767.899414 282.000000
2768.724854 350.000000
2769.550049 286.000000
2770.375244 221.000000
2771.199219 395.000000
2772.023193 283.000000
2772.847168 209.000000
2773.669922 347.000000
2774.492920 410.000000
2775.314697 274.000000
2776.136475 262.000000
2776.958252 253.000000
2777.779053 270.000000
2778.599121 192.000000
2779.419434 259.000000
2780.239258 188.000000
2781.059082 309.000000
2781.876953 280.000000
2782.696045 300.000000
2783.513916 318.000000
2784.331543 329.000000
2785.148682 307.000000
2785.965332 291.000000
2786.781738 247.000000
2787.597656 240.000000
2788.413330 177.000000
2789.228027 221.000000
2790.043213 294.000000
2790.857666 254.000000
2791.671631 208.000000
2792.485352 199.000000
2793.297852 253.000000
2794.110596 225.000000
2794.922852 257.000000
2795.734619 181.000000
2796.545654 225.000000
2797.357422 218.000000
2798.167969 211.000000
2798.978516 221.000000
2799.787598 275.000000
2800.597412 229.000000
2801.406494 304.000000
2802.215332 179.000000
2803.023682 127.000000
2803.831055 210.000000
2804.638916 326.000000
2805.446045 304.000000
2806.252930 221.000000
2807.058594 253.000000
2807.864746 276.000000
2808.670166 236.000000
2809.475586 168.000000
2810.280273 366.000000
2811.083984 194.000000
2811.888184 224.000000
2812.691895 197.000000
2813.495361 217.000000
2814.297363 271.000000
2815.100098 140.000000
2815.902100 344.000000
2816.703857 242.000000
2817.505127 234.000000
2818.305908 227.000000
2819.106201 247.000000
2819.906738 127.000000
2820.706299 148.000000
2821.505371 267.000000
2822.304443 258.000000
2823.103271 145.000000
2823.901611 321.000000
2824.698975 248.000000
2825.496582 245.000000
2826.293457 292.000000
2827.090576 283.000000
2827.886963 247.000000
2828.682617 148.000000
2829.478271 223.000000
2830.273682 173.000000
2831.068604 198.000000
2831.862793 205.000000
2832.656982 284.000000
2833.450928 201.000000
2834.244385 278.000000
2835.037109 148.000000
2835.829590 141.000000
2836.622070 200.000000
2837.414307 182.000000
2838.206055 216.000000
2838.996826 303.000000
2839.787598 119.000000
2840.578613 232.000000
2841.368652 264.000000
2842.158203 167.000000
2842.947998 261.000000
2843.736816 205.000000
2844.525635 121.000000
2845.314453 300.000000
2846.102295 177.000000
2846.889648 202.000000
2847.677246 199.000000
2848.464355 237.000000
2849.250732 153.000000
2850.037109 226.000000
2850.823242 241.000000
2851.608887 210.000000
2852.393555 286.000000
2853.178711 194.000000
2853.963623 184.000000
2854.747803 126.000000
2855.531982 189.000000
2856.314941 308.000000
2857.098145 144.000000
2857.881104 191.000000
2858.663574 125.000000
2859.445801 165.000000
2860.227539 207.000000
2861.009033 145.000000
2861.790771 302.000000
2862.571777 210.000000
2863.352051 98.000000
2864.132080 167.000000
2864.912109 186.000000
2865.691895 189.000000
2866.470703 157.000000
2867.249756 233.000000
2868.028320 214.000000
2868.806641 340.000000
2869.584473 279.000000
2870.362061 233.000000
2871.139404 290.000000
2871.916504 277.000000
2872.693115 237.000000
2873.469238 302.000000
2874.245361 243.000000
2875.020996 208.000000
2875.796387 106.000000
2876.571289 173.000000
2877.345947 203.000000
2878.120605 145.000000
2878.895020 292.000000
2879.668701 196.000000
2880.441650 250.000000
2881.215332 206.000000
2881.988037 186.000000
2882.760742 240.000000
2883.532715 145.000000
2884.304443 264.000000
2885.076660 325.000000
2885.847656 212.000000
2886.618164 153.000000
2887.389160 177.000000
2888.160156 284.000000
2888.930420 198.000000
2889.699707 148.000000
2890.469238 278.000000
2891.238770 171.000000
2892.007813 217.000000
2892.776367 272.000000
2893.544922 200.000000
2894.312500 233.000000
2895.080566 310.000000
2895.848145 161.000000
2896.615723 232.000000
2897.382080 195.000000
2898.149414 197.000000
2898.915527 232.000000
2899.681885 143.000000
2900.446777 131.000000
2901.212158 182.000000
2901.978027 243.000000
2902.742432 200.000000
2903.506836 142.000000
2904.271484 154.000000
2905.035156 172.000000
2905.799561 185.000000
2906.563232 183.000000
2907.326172 244.000000
2908.088867 231.000000
2908.852051 195.000000
2909.614746 142.000000
2910.376221 90.000000
2911.138184 90.000000
spectrumdark 2048
-97.092667 6213.000000
-94.465797 6213.000000
-91.840805 6062.000000
-89.217705 6432.000000
-86.596474 5831.000000
-83.977142 6242.000000
-81.359673 6087.000000
-78.744080 6436.000000
-76.130363 6228.000000
-73.518524 5882.000000
-70.908546 6124.000000
-68.300453 6023.000000
-65.694206 5924.000000
-63.089840 5996.000000
-60.487331 6088.000000
-57.886677 5624.000000
-55.287884 6307.000000
-52.690948 6876.000000
-50.095867 6444.000000
-47.502640 6465.000000
-44.911263 6236.000000
-42.321732 6663.000000
-39.734043 5949.000000
-37.148205 6045.000000
-34.564209 6483.000000
-31.982050 5753.000000
-29.401737 6323.000000
-26.823252 5750.000000
-24.246609 6174.000000
-21.671791 6255.000000
-19.098814 6535.000000
-16.527657 6518.000000
-13.958333 6816.000000
-11.390835 7744.000000
-8.825155 6367.000000
-6.261301 6483.000000
-3.699261 6032.000000
-1.139045 5828.000000
1.419363 6232.000000
3.975950 6855.000000
6.530733 6743.000000
9.083697 6008.000000
11.634862 6712.000000
14.184214 6472.000000
16.731770 6642.000000
19.277514 6031.000000
21.821465 5680.000000
24.363611 6700.000000
26.903961 6753.000000
29.442526 6840.000000
31.979294 6202.000000
34.514259 5797.000000
37.047447 7269.000000
39.578854 6307.000000
42.108467 7097.000000
44.636284 6481.000000
47.162342 7854.000000
49.686611 5650.000000
52.209110 6214.000000
54.729813 6746.000000
57.248760 6326.000000
59.765934 6393.000000
62.281330 6597.000000
64.794952 5601.000000
67.306816 5729.000000
69.816933 6585.000000
72.325256 6514.000000
74.831825 5874.000000
77.336647 6386.000000
79.839714 6415.000000
82.341003 6306.000000
84.840553 6141.000000
87.338348 6340.000000
89.834412 5756.000000
92.328697 7234.000000
94.821243 5829.000000
97.312073 6954.000000
99.801132 7208.000000
102.288445 6353.000000
104.774033 6156.000000
107.257881 6394.000000
109.739983 5772.000000
112.220360 6573.000000
114.699013 6271.000000
117.175941 6425.000000
119.651115 7236.000000
122.124580 6857.000000
124.596313 5895.000000
127.066338 6762.000000
129.534607 6319.000000
132.001205 6245.000000
134.466049 5679.000000
136.929199 6250.000000
139.390610 7336.000000
141.850327 6835.000000
144.308319 6435.000000
146.764618 5942.000000
149.219208 5788.000000
151.672073 6816.000000
154.123260 6371.000000
156.572754 6538.000000
159.020523 6109.000000
161.466583 6564.000000
163.910965 8708.000000
166.353668 6438.000000
168.794678 6733.000000
171.233978 6219.000000
173.671570 7228.000000
176.107529 6641.000000
178.541748 6985.000000
180.974289 7107.000000
183.405182 6659.000000
185.834351 6777.000000
188.261871 6750.000000
190.687714 6367.000000
193.111877 6651.000000
195.534378 7162.000000
197.955185 7366.000000
200.374329 6488.000000
202.791809 6038.000000
205.207596 7602.000000
207.621735 7069.000000
210.034241 6325.000000
212.445068 6117.000000
214.854218 6261.000000
217.261734 7424.000000
219.667542 6147.000000
222.071762 6530.000000
224.474274 6703.000000
226.875168 6894.000000
229.274414 6432.000000
231.671997 6831.000000
234.067917 7265.000000
236.462219 6502.000000
238.854858 5833.000000
241.245880 6805.000000
243.635239 6614.000000
246.022980 6295.000000
248.409073 6968.000000
250.793533 6106.000000
253.176346 7855.000000
255.557587 6633.000000
257.937103 6651.000000
260.315063 6472.000000
262.691345 7500.000000
265.066071 7510.000000
267.439148 7890.000000
269.810577 6254.000000
272.180359 6416.000000
274.548584 5868.000000
276.915161 6265.000000
279.280151 6796.000000
281.643524 6025.000000
284.005249 6217.000000
286.365387 7073.000000
288.723907 6054.000000
291.080841 6493.000000
293.436157 6411.000000
295.789886 5979.000000
298.141968 5939.000000
300.492493 6325.000000
302.841431 6406.000000
305.188721 6807.000000
307.534485 6442.000000
309.878571 6507.000000
312.221130 7387.000000
314.562073 7536.000000
316.901398 7103.000000
319.239166 6940.000000
321.575378 8143.000000
323.909943 6258.000000
326.242950 6497.000000
328.574402 6026.000000
330.904266 6661.000000
333.232544 6394.000000
335.559204 7196.000000
337.884369 6386.000000
340.207916 6212.000000
342.529907 6074.000000
344.850342 7520.000000
347.169159 7717.000000
349.486420 6028.000000
351.802155 5848.000000
354.116302 7013.000000
356.428864 6312.000000
358.739868 6174.000000
361.049347 7072.000000
363.357300 6412.000000
365.663635 5699.000000
367.968384 6404.000000
370.271667 6456.000000
372.573334 6268.000000
374.873505 6352.000000
377.172119 6295.000000
379.469177 5744.000000
381.764679 6097.000000
384.058655 5837.000000
386.351044 5209.000000
388.641937 5595.000000
390.931305 6212.000000
393.219086 6318.000000
395.505341 6506.000000
397.790100 6967.000000
400.073242 6011.000000
402.354950 6441.000000
404.635132 6169.000000
406.913727 7292.000000
409.190796 6402.000000
411.466339 6759.000000
413.740356 6519.000000
416.012939 6399.000000
418.283905 6380.000000
420.553375 6440.000000
422.821350 7083.000000
425.087769 7243.000000
427.352692 6299.000000
429.616150 6264.000000
431.878021 6476.000000
434.138428 6007.000000
436.397278 6547.000000
438.654663 6110.000000
440.910553 5625.000000
443.164948 5797.000000
445.417816 5454.000000
447.669128 6846.000000
449.919037 6112.000000
452.167358 6263.000000
454.414246 5630.000000
456.659668 6460.000000
458.903534 6469.000000
461.145905 6748.000000
463.386780 5647.000000
465.626251 6700.000000
467.864136 5420.000000
470.100586 5891.000000
472.335510 6092.000000
474.568970 7339.000000
476.800995 6704.000000
479.031494 5764.000000
481.260498 6451.000000
483.488037 6288.000000
485.714081 5963.000000
487.938690 6592.000000
490.161835 5884.000000
492.383514 6443.000000
494.603638 6717.000000
496.822357 5626.000000
499.039581 6301.000000
501.255432 5536.000000
503.469666 6187.000000
505.682587 6462.000000
507.893921 6360.000000
510.103821 6906.000000
512.312317 6549.000000
514.519409 6554.000000
516.724915 6433.000000
518.929016 6601.000000
521.131592 6277.000000
523.332764 6514.000000
525.532593 6693.000000
527.730896 6918.000000
529.927673 5310.000000
532.123108 5854.000000
534.317017 5537.000000
536.509583 7526.000000
538.700623 6661.000000
540.890259 6001.000000
543.078491 6849.000000
545.265198 7170.000000
547.450439 6817.000000
549.634399 6291.000000
551.816772 6435.000000
553.997803 6211.000000
556.177307 6024.000000
558.355530 5879.000000
560.532227 5990.000000
562.707520 6371.000000
564.881409 6410.000000
567.053833 5948.000000
569.224854 6022.000000
571.394409 6344.000000
573.562683 5318.000000
575.729431 6384.000000
577.894714 6245.000000
580.058594 6132.000000
582.221191 5753.000000
584.382263 6096.000000
586.541931 5605.000000
588.700256 5843.000000
590.857056 6145.000000
593.012512 6547.000000
595.166565 5853.000000
597.319275 6227.000000
599.470459 7242.000000
601.620300 6779.000000
603.768799 6767.000000
605.915710 6082.000000
608.061401 6503.000000
610.205688 6408.000000
612.348511 7010.000000
614.489868 6166.000000
616.630005 6476.000000
618.768616 7575.000000
620.905945 5761.000000
623.041809 6617.000000
625.176270 6916.000000
627.309265 7156.000000
629.441101 6634.000000
631.571472 6542.000000
633.700439 6771.000000
635.827942 6484.000000
637.954163 6237.000000
640.078857 7265.000000
642.202332 6428.000000
644.324463 6747.000000
646.445129 6801.000000
648.564453 6518.000000
650.682373 5703.000000
652.798950 5636.000000
654.914124 6490.000000
657.027954 6459.000000
659.140320 5849.000000
661.251465 6118.000000
663.361206 5408.000000
665.469482 5968.000000
667.576599 6295.000000
669.682251 6799.000000
671.786438 5684.000000
673.889404 5657.000000
675.990967 7025.000000
678.091187 5319.000000
680.190002 6726.000000
682.287476 6284.000000
684.383667 6950.000000
686.478394 6238.000000
688.571899 6971.000000
690.664063 6708.000000
692.754700 7936.000000
694.844116 6636.000000
696.932251 6480.000000
699.018921 6010.000000
701.104370 6685.000000
703.188293 5124.000000
705.270996 5949.000000
707.352417 5880.000000
709.432373 7588.000000
711.511108 6195.000000
713.588379 5537.000000
715.664368 6587.000000
717.739075 6080.000000
719.812500 6917.000000
721.884399 6315.000000
723.955139 7367.000000
726.024536 5771.000000
728.092529 6473.000000
730.159180 6343.000000
732.224609 7078.000000
734.288696 5766.000000
736.351440 6166.000000
738.412842 6551.000000
740.472961 6598.000000
742.531677 5989.000000
744.589172 6708.000000
746.645386 6441.000000
748.700195 6650.000000
750.753723 6349.000000
752.805847 7439.000000
754.856750 5765.000000
756.906433 6639.000000
758.954651 6396.000000
761.001648 6186.000000
763.047363 7019.000000
765.091675 5342.000000
767.134705 5758.000000
769.176514 15068.000000
771.216980 6992.000000
773.256042 6438.000000
775.293945 6092.000000
777.330505 6020.000000
779.365845 5356.000000
781.399841 5768.000000
783.432434 6941.000000
785.463867 5477.000000
787.493896 12017.000000
789.522644 6017.000000
791.550232 6312.000000
793.576477 6363.000000
795.601318 5842.000000
797.625061 5450.000000
799.647400 6274.000000
801.668518 5876.000000
803.688293 6710.000000
805.706787 4884.000000
807.724060 6640.000000
809.739929 6837.000000
811.754639 5693.000000
813.768005 6448.000000
815.780151 6224.000000
817.791077 6144.000000
819.800659 6475.000000
821.809021 5335.000000
823.815979 5757.000000
825.821716 6044.000000
827.826233 5704.000000
829.829468 5638.000000
831.831421 6455.000000
833.832092 6122.000000
835.831543 5912.000000
837.829651 6285.000000
839.826660 6988.000000
841.822266 6183.000000
843.816711 5961.000000
845.809814 6221.000000
847.801697 6878.000000
849.792236 5528.000000
851.781494 6818.000000
853.769714 5987.000000
855.756531 5687.000000
857.742126 6401.000000
859.726440 7317.000000
861.709656 6313.000000
863.691467 6334.000000
865.672058 5882.000000
867.651367 7710.000000
869.629517 7138.000000
871.606323 6250.000000
873.581848 5852.000000
875.556335 6165.000000
877.529358 6073.000000
879.501343 5397.000000
881.471985 6421.000000
883.441467 6104.000000
885.409607 5554.000000
887.376587 5191.000000
889.342224 6159.000000
891.306702 5854.000000
893.269958 6029.000000
895.231995 6473.000000
897.192749 5863.000000
899.152283 6338.000000
901.110535 6684.000000
903.067688 6331.000000
905.023682 6102.000000
906.978271 6854.000000
908.931641 6477.000000
910.883850 6408.000000
912.834839 6379.000000
914.784546 7068.000000
916.733093 6309.000000
918.680420 6170.000000
920.626465 6109.000000
922.571228 6094.000000
924.514954 6288.000000
926.457520 5947.000000
928.398804 5532.000000
930.338745 6382.000000
932.277588 5752.000000
934.215149 5485.000000
936.151489 5958.000000
938.086670 5804.000000
940.020569 6076.000000
941.953369 5860.000000
943.884949 6782.000000
945.815369 5196.000000
947.744568 6393.000000
949.672424 6953.000000
951.599243 6684.000000
953.524780 5984.000000
955.449036 5340.000000
957.372192 5974.000000
959.294189 6763.000000
961.214905 7268.000000
963.134460 6469.000000
965.052856 5365.000000
966.970215 6389.000000
968.886108 6443.000000
970.800903 6148.000000
972.714478 5938.000000
974.626892 6399.000000
976.538086 6459.000000
978.448120 5515.000000
980.356873 6248.000000
982.264587 6125.000000
984.171082 6398.000000
986.076355 5635.000000
987.980530 6738.000000
989.883484 6149.000000
991.785217 6814.000000
993.685791 6433.000000
995.585205 6575.000000
997.483398 5192.000000
999.380432 6646.000000
1001.276245 6592.000000
1003.170898 7675.000000
1005.064453 5551.000000
1006.956726 7160.000000
1008.848083 6068.000000
1010.738098 5349.000000
1012.626892 6606.000000
1014.514526 6318.000000
1016.401001 6909.000000
1018.286316 6689.000000
1020.170471 5963.000000
1022.053406 5893.000000
1023.935303 6225.000000
1025.815918 5171.000000
1027.695435 5826.000000
1029.573975 6079.000000
1031.451172 5438.000000
1033.327026 6142.000000
1035.201904 5886.000000
1037.075806 6552.000000
1038.948242 6935.000000
1040.819702 6720.000000
1042.689819 5528.000000
1044.558960 5476.000000
1046.426880 5777.000000
1048.293701 7095.000000
1050.159424 6708.000000
1052.023926 6441.000000
1053.887329 6472.000000
1055.749390 6491.000000
1057.610474 5895.000000
1059.470459 6537.000000
1061.329102 6670.000000
1063.186646 5817.000000
1065.043091 6695.000000
1066.898438 5926.000000
1068.752563 5847.000000
1070.605835 6289.000000
1072.457642 6330.000000
1074.308472 6126.000000
1076.158081 6165.000000
1078.006470 5779.000000
1079.854004 7891.000000
1081.700195 5564.000000
1083.545166 6276.000000
1085.389282 5439.000000
1087.232056 5583.000000
1089.073608 6583.000000
1090.914429 5460.000000
1092.753662 5781.000000
1094.592163 6039.000000
1096.429321 6023.000000
1098.265259 6799.000000
1100.100220 6608.000000
1101.933960 5423.000000
1103.766724 5547.000000
1105.598145 6254.000000
1107.428711 7234.000000
1109.257935 6557.000000
1111.086182 6462.000000
1112.913208 7099.000000
1114.739258 5369.000000
1116.564087 6324.000000
1118.387817 7078.000000
1120.210327 6108.000000
1122.031738 5862.000000
1123.852295 5894.000000
1125.671387 6600.000000
1127.489624 7129.000000
1129.306519 6873.000000
1131.122559 6660.000000
1132.937378 6449.000000
1134.751099 5653.000000
1136.563721 5827.000000
1138.375122 5663.000000
1140.185547 6169.000000
1141.994873 6751.000000
1143.802856 6943.000000
1145.610107 5998.000000
1147.415894 5959.000000
1149.220825 5375.000000
1151.024658 5415.000000
1152.827271 6118.000000
1154.629028 6161.000000
1156.429321 6066.000000
1158.228638 6058.000000
1160.026978 5903.000000
1161.823975 5525.000000
1163.620239 5919.000000
1165.415161 6120.000000
1167.208984 6396.000000
1169.001953 7666.000000
1170.793579 5575.000000
1172.584229 6546.000000
1174.373901 6044.000000
1176.162109 5880.000000
1177.949463 7484.000000
1179.735718 6902.000000
1181.520874 5732.000000
1183.304932 6008.000000
1185.087891 7636.000000
1186.869873 5884.000000
1188.650635 5860.000000
1190.430420 6369.000000
1192.209106 6964.000000
1193.986816 6632.000000
1195.763306 7169.000000
1197.538696 6577.000000
1199.312988 6502.000000
1201.086182 6688.000000
1202.858521 6552.000000
1204.629517 6686.000000
1206.399658 5730.000000
1208.168579 6120.000000
1209.936401 6341.000000
1211.703369 5809.000000
1213.468994 5905.000000
1215.233643 6933.000000
1216.997192 6540.000000
1218.759644 5942.000000
1220.521240 6694.000000
1222.281616 5879.000000
1224.040894 6343.000000
1225.799316 6025.000000
1227.556519 7104.000000
1229.312622 6412.000000
1231.067627 5518.000000
1232.821777 6011.000000
1234.574585 5878.000000
1236.326416 6001.000000
1238.077393 5968.000000
1239.827026 4912.000000
1241.575806 6975.000000
1243.323242 6433.000000
1245.069946 6599.000000
1246.815430 6476.000000
1248.560059 6384.000000
1250.303345 6790.000000
1252.045654 6651.000000
1253.786865 5374.000000
1255.527222 5068.000000
1257.266479 5777.000000
1259.004517 6568.000000
1260.741699 7123.000000
1262.477661 6160.000000
1264.212646 6389.000000
1265.946655 7243.000000
1267.679688 5964.000000
1269.411499 6203.000000
1271.142334 6480.000000
1272.871948 7215.000000
1274.600708 5922.000000
1276.328369 5684.000000
1278.054932 5546.000000
1279.780640 5488.000000
1281.505005 6479.000000
1283.228516 5249.000000
1284.951050 6880.000000
1286.672607 6513.000000
1288.392944 6157.000000
1290.112305 6659.000000
1291.830566 7194.000000
1293.547852 6448.000000
1295.264160 5747.000000
1296.979248 6327.000000
1298.693359 6163.000000
1300.406494 5813.000000
1302.118774 6388.000000
1303.829834 8255.000000
1305.539917 5550.000000
1307.248901 6290.000000
1308.956665 6627.000000
1310.663818 7049.000000
1312.369507 5818.000000
1314.074463 6880.000000
1315.778442 6153.000000
1317.481201 5991.000000
1319.182983 6591.000000
1320.883911 5984.000000
1322.583496 18415.500000
1324.282227 30847.000000
1325.980225 5558.000000
1327.676880 6515.000000
1329.372437 7133.000000
1331.067139 6844.000000
1332.760620 5739.000000
1334.453247 5392.000000
1336.145020 7251.000000
1337.835449 6275.000000
1339.525146 6600.000000
1341.213745 6075.000000
1342.901245 7597.000000
1344.587769 5643.000000
1346.273193 6731.000000
1347.957642 5980.000000
1349.641235 7266.000000
1351.323608 6391.000000
1353.005005 5902.000000
1354.685547 6603.000000
1356.364868 6688.000000
1358.043579 5840.000000
1359.720947 6483.000000
1361.397217 5708.000000
1363.072510 5575.000000
1364.747070 6560.000000
1366.420410 6392.000000
1368.092773 6722.000000
1369.764160 5120.000000
1371.434570 6626.000000
1373.103882 6141.000000
1374.772217 5748.000000
1376.439697 5833.000000
1378.106079 6465.000000
1379.771484 6072.000000
1381.435913 5830.000000
1383.099121 5913.000000
1384.761719 5670.000000
1386.422974 6358.000000
1388.083374 6573.000000
1389.742676 6449.000000
1391.401001 6479.000000
1393.058594 6877.000000
1394.714966 6504.000000
1396.370483 6927.000000
1398.024780 6274.000000
1399.678223 5839.000000
1401.330566 6131.000000
1402.982178 6425.000000
1404.632568 7123.000000
1406.281860 6220.000000
1407.930420 7538.000000
1409.577881 7834.000000
1411.224365 6167.000000
1412.869995 6251.000000
1414.514648 6004.000000
1416.158081 7032.000000
1417.800659 7125.000000
1419.442139 6870.000000
1421.082764 6403.000000
1422.722412 6416.000000
1424.360962 6060.000000
1425.998657 6582.000000
1427.635254 6305.000000
1429.270874 5962.000000
1430.905762 6352.000000
1432.539551 5865.000000
1434.172241 6096.000000
1435.803955 5707.000000
1437.434814 6145.000000
1439.064575 5989.000000
1440.693237 7763.000000
1442.321289 6025.000000
1443.948242 6075.000000
1445.573975 6175.000000
1447.199097 6190.000000
1448.823120 6502.000000
1450.446167 5998.000000
1452.068237 6018.000000
1453.689209 7246.000000
1455.309204 6297.000000
1456.928467 6821.000000
1458.546387 5644.000000
1460.163696 18820.000000
1461.780029 5597.000000
1463.395142 7263.000000
1465.009399 6259.000000
1466.622803 5176.000000
1468.235107 5541.000000
1469.846558 6194.000000
1471.457153 6339.000000
1473.066528 5943.000000
1474.674927 6005.000000
1476.282471 6179.000000
1477.889038 6657.000000
1479.494873 5283.000000
1481.099487 6247.000000
1482.703247 5551.000000
1484.305786 6767.000000
1485.907715 5563.000000
1487.508423 5462.000000
1489.108398 5594.000000
1490.707275 6306.000000
1492.305298 6511.000000
1493.902222 6635.000000
1495.498291 6360.000000
1497.093384 5981.000000
1498.687500 5432.000000
1500.280884 6575.000000
1501.873169 5491.000000
1503.464233 5908.000000
1505.054810 6735.000000
1506.644043 6412.000000
1508.232666 6138.000000
1509.820190 6554.000000
1511.406616 6824.000000
1512.992310 6198.000000
1514.576904 6600.000000
1516.160645 6196.000000
1517.743286 6236.000000
1519.325195 6524.000000
1520.906006 6692.000000
1522.486084 6072.000000
1524.064941 6164.000000
1525.642944 6416.000000
1527.220215 6225.000000
1528.796265 5653.000000
1530.371582 5909.000000
1531.945801 6293.000000
1533.519287 5461.000000
1535.091553 5970.000000
1536.663086 6395.000000
1538.233643 6414.000000
1539.803345 6314.000000
1541.371826 5371.000000
1542.939575 6561.000000
1544.506470 5566.000000
1546.072144 6808.000000
1547.637085 5964.000000
1549.200928 5127.000000
1550.764160 7447.000000
1552.326050 6293.000000
1553.887329 5972.000000
1555.447510 5680.000000
1557.006958 5774.000000
1558.565308 6023.000000
1560.122925 6223.000000
1561.679443 6965.000000
1563.234741 5836.000000
1564.789429 6396.000000
1566.343384 5643.000000
1567.896362 6086.000000
1569.447998 5650.000000
1570.998901 5909.000000
1572.549072 6176.000000
1574.098267 6291.000000
1575.646118 5785.000000
1577.193481 5533.000000
1578.739868 5726.000000
1580.285400 5061.000000
1581.829956 6683.000000
1583.373291 6355.000000
1584.916016 6574.000000
1586.457886 6460.000000
1587.998657 6691.000000
1589.538452 5854.000000
1591.077515 6726.000000
1592.615479 5944.000000
1594.152954 6137.000000
1595.689087 5859.000000
1597.224121 6696.000000
1598.758667 6273.000000
1600.292236 5957.000000
1601.824951 5835.000000
1603.356079 6286.000000
1604.886963 6369.000000
1606.416992 5678.000000
1607.945801 6091.000000
1609.473511 6191.000000
1611.000610 6021.000000
1612.526978 5835.000000
1614.052368 6301.000000
1615.576904 5875.000000
1617.100098 5742.000000
1618.622559 5603.000000
1620.144287 6519.000000
1621.665161 6990.000000
1623.184570 15562.000000
1624.703491 6096.000000
1626.221680 6030.000000
1627.739014 5891.000000
1629.255249 6353.000000
1630.770142 6933.000000
1632.284546 6633.000000
1633.798218 5689.000000
1635.310791 6822.000000
1636.822144 5955.000000
1638.333130 6403.000000
1639.843018 6314.000000
1641.352051 6170.000000
1642.859741 5557.000000
1644.367065 6135.000000
1645.873535 7122.000000
1647.379028 6241.000000
1648.883667 6801.000000
1650.386841 6146.000000
1651.889404 6535.000000
1653.391602 6321.000000
1654.892456 6611.000000
1656.392212 7519.000000
1657.891113 5965.000000
1659.389648 6462.000000
1660.886963 6254.000000
1662.383545 5918.000000
1663.878540 6551.000000
1665.373291 6338.000000
1666.867188 5168.000000
1668.360107 5637.000000
1669.851685 20424.000000
1671.342773 6438.000000
1672.833252 6104.000000
1674.322632 5972.000000
1675.810547 6950.000000
1677.298218 6813.000000
1678.784912 6013.000000
1680.270752 5356.000000
1681.755737 6037.000000
1683.239258 6100.000000
1684.722534 6146.000000
1686.204956 5887.000000
1687.686279 6217.000000
1689.166138 6202.000000
1690.645752 5501.000000
1692.124634 6557.000000
1693.602539 5974.000000
1695.079468 6187.000000
1696.555176 5736.000000
1698.030518 5963.000000
1699.504639 6302.000000
1700.978149 5536.000000
1702.450195 5614.000000
1703.921997 6825.000000
1705.392822 6414.000000
1706.862793 7129.000000
1708.331421 5156.000000
1709.799561 5789.000000
1711.266968 6382.000000
1712.733276 5489.000000
1714.198975 5759.000000
1715.662964 6132.000000
1717.126831 5994.000000
1718.589844 6965.000000
1720.051880 6403.000000
1721.512695 6563.000000
1722.972900 5505.000000
1724.432373 5677.000000
1725.890991 6162.000000
1727.348633 5907.000000
1728.804932 6255.000000
1730.260986 6047.000000
1731.716064 6355.000000
1733.170166 5936.000000
1734.623047 6839.000000
1736.075684 5930.000000
1737.527222 6835.000000
1738.978027 5994.000000
1740.427856 6588.000000
1741.876343 5958.000000
1743.324463 7332.000000
1744.771729 6523.000000
1746.218262 6612.000000
1747.663208 6705.000000
1749.107910 6185.000000
1750.551758 5852.000000
1751.994751 5494.000000
1753.436279 6564.000000
1754.877563 6354.000000
1756.317993 6305.000000
1757.757446 6256.000000
1759.195923 5264.000000
1760.633423 6004.000000
1762.070435 7569.000000
1763.506470 5848.000000
1764.941650 7088.000000
1766.375366 6153.000000
1767.808960 6460.000000
1769.241577 6635.000000
1770.673340 5877.000000
1772.104248 5733.000000
1773.533936 6383.000000
1774.962891 6132.000000
1776.391357 6286.000000
1777.818848 6654.000000
1779.244995 6231.000000
1780.670898 5522.000000
1782.095703 6849.000000
1783.519897 5597.000000
1784.942627 6652.000000
1786.364868 6498.000000
1787.786377 6852.000000
1789.207153 5939.000000
1790.626953 6139.000000
1792.045410 6169.000000
1793.463379 6844.000000
1794.880737 5484.000000
1796.297241 5978.000000
1797.712280 6546.000000
1799.126953 5783.000000
1800.541016 6609.000000
1801.953857 6000.000000
1803.366089 6876.000000
1804.776978 7085.000000
1806.187378 7826.000000
1807.597046 6514.000000
1809.005737 5965.000000
1810.413330 5401.000000
1811.820435 6479.000000
1813.226685 6344.000000
1814.631958 6729.000000
1816.036133 5974.000000
1817.439941 6014.000000
1818.842773 6195.000000
1820.244751 6037.000000
1821.646118 5835.000000
1823.046021 6364.000000
1824.445313 6337.000000
1825.844116 6523.000000
1827.242065 7346.000000
1828.638672 5794.000000
1830.034668 6704.000000
1831.429932 5883.000000
1832.824585 8183.000000
1834.218262 6016.000000
1835.610596 6773.000000
1837.002441 6404.000000
1838.393677 5847.000000
1839.783936 7115.000000
1841.172974 6017.000000
1842.561646 6062.000000
1843.949341 5957.000000
1845.336304 5799.000000
1846.721924 6842.000000
1848.107300 5866.000000
1849.491821 6341.000000
1850.875610 6299.000000
1852.258301 6419.000000
1853.639771 5381.000000
1855.020752 6529.000000
1856.401245 6355.000000
1857.780762 5766.000000
1859.158813 5991.000000
1860.536743 6163.000000
1861.913696 7819.000000
1863.289917 6086.000000
1864.665283 6072.000000
1866.039185 5639.000000
1867.412964 5678.000000
1868.785889 6195.000000
1870.157715 5953.000000
1871.528564 6929.000000
1872.899048 5435.000000
1874.268433 6033.000000
1875.637329 6111.000000
1877.004639 7110.000000
1878.371826 5983.000000
1879.738037 6015.000000
1881.103516 6731.000000
1882.468262 7418.000000
1883.831421 6705.000000
1885.194458 6859.000000
1886.556641 6282.000000
1887.917969 6435.000000
1889.277954 5637.000000
1890.637573 5786.000000
1891.996582 6094.000000
1893.354614 6657.000000
1894.711792 7250.000000
1896.067749 5930.000000
1897.423462 7632.000000
1898.778198 5797.000000
1900.132080 5486.000000
1901.484863 5889.000000
1902.837158 5909.000000
1904.188721 5952.000000
1905.539429 6787.000000
1906.888916 6585.000000
1908.237915 6734.000000
1909.586060 5739.000000
1910.933594 6140.000000
1912.280396 6294.000000
1913.625610 6795.000000
1914.970581 6044.000000
1916.314819 5467.000000
1917.658203 6505.000000
1919.000244 5960.000000
1920.342041 6666.000000
1921.682983 6973.000000
1923.023193 6094.000000
1924.362427 6299.000000
1925.700684 6216.000000
1927.038330 6484.000000
1928.375244 7042.000000
1929.711304 6733.000000
1931.046143 5603.000000
1932.380615 6696.000000
1933.714355 7228.000000
1935.047241 6269.000000
1936.378662 5702.000000
1937.710205 6319.000000
1939.040405 6613.000000
1940.370117 5804.000000
1941.698975 6034.000000
1943.026611 5805.000000
1944.353760 5003.000000
1945.680176 5791.000000
1947.005859 6493.000000
1948.330200 5760.000000
1949.654297 6679.000000
1950.977539 6343.000000
1952.300049 6463.000000
1953.621460 5826.000000
1954.941895 7429.000000
1956.261719 6026.000000
1957.581177 5530.000000
1958.899658 6786.000000
1960.216797 5909.000000
1961.533569 5827.000000
1962.849609 6600.000000
1964.164917 6621.000000
1965.478760 6228.000000
1966.792358 5635.000000
1968.105225 6223.000000
1969.417236 5977.000000
1970.728638 6039.000000
1972.038696 6341.000000
1973.348267 5806.000000
1974.657104 6194.000000
1975.965332 6587.000000
1977.272217 6078.000000
1978.578491 7154.000000
1979.884399 5549.000000
1981.189087 6361.000000
1982.493286 5894.000000
1983.796265 5693.000000
1985.098877 7541.000000
1986.400513 6091.000000
1987.701538 6807.000000
1989.000977 6076.000000
1990.300537 6582.000000
1991.598999 5230.000000
1992.896973 6042.000000
1994.193359 6122.000000
1995.489746 5817.000000
1996.785156 5564.000000
1998.079834 6505.000000
1999.373657 5773.000000
2000.666260 6536.000000
2001.958374 5707.000000
2003.250000 7153.000000
2004.540894 6442.000000
2005.830200 6158.000000
2007.119263 6776.000000
2008.407593 5982.000000
2009.695190 6035.000000
2010.981934 6801.000000
2012.267578 5636.000000
2013.552856 6325.000000
2014.837158 5932.000000
2016.120850 5598.000000
2017.403198 6031.000000
2018.685181 6480.000000
2019.966675 6734.000000
2021.247192 5880.000000
2022.526978 6109.000000
2023.805664 6795.000000
2025.083618 5805.000000
2026.361084 5864.000000
2027.637939 6301.000000
2028.913086 5746.000000
2030.188354 6558.000000
2031.462646 6067.000000
2032.735962 5873.000000
2034.008423 5898.000000
2035.280518 6037.000000
2036.551514 6892.000000
2037.822266 6603.000000
2039.091675 5986.000000
2040.359985 6761.000000
2041.628296 6619.000000
2042.895630 5932.000000
2044.162231 6010.000000
2045.427612 5681.000000
2046.692383 5679.000000
2047.956909 5447.000000
2049.220215 5841.000000
2050.483154 6332.000000
2051.744141 6114.000000
2053.005615 6094.000000
2054.265869 5830.000000
2055.525391 6454.000000
2056.784180 6268.000000
2058.041992 6841.000000
2059.299316 6148.000000
2060.555908 6001.000000
2061.811035 6488.000000
2063.066162 5660.000000
2064.320313 5607.000000
2065.573730 5609.000000
2066.826416 6826.000000
2068.077881 6260.000000
2069.329102 6277.000000
2070.579590 5655.000000
2071.829346 5382.000000
2073.077637 6465.000000
2074.325928 6520.000000
2075.573242 7427.000000
2076.819824 5523.000000
2078.065674 5988.000000
2079.310303 7027.000000
2080.554443 7573.000000
2081.798096 5499.000000
2083.040771 5970.000000
2084.282227 6964.000000
2085.523438 5946.000000
2086.764160 6331.000000
2088.003906 6759.000000
2089.242432 7040.000000
2090.480469 6132.000000
2091.717773 5813.000000
2092.954834 6599.000000
2094.190430 6075.000000
2095.425293 6277.000000
2096.659912 6069.000000
2097.893555 5630.000000
2099.126221 6046.000000
2100.358154 6923.000000
2101.589600 6450.000000
2102.820068 6715.000000
2104.049805 6021.000000
2105.279297 5993.000000
2106.506836 5939.000000
2107.734619 5989.000000
2108.961670 6246.000000
2110.187744 5475.000000
2111.412354 6347.000000
2112.637207 6978.000000
2113.860840 7086.000000
2115.083984 6244.000000
2116.305908 7491.000000
2117.527588 5986.000000
2118.748291 6800.000000
2119.968262 6028.000000
2121.187744 6093.000000
2122.405762 6614.000000
2123.623779 7012.000000
2124.840820 5781.000000
2126.057373 5772.000000
2127.272217 6590.000000
2128.487305 6368.000000
2129.701416 6785.000000
2130.914795 5674.000000
2132.127441 6101.000000
2133.338623 5853.000000
2134.550049 6472.000000
2135.760254 6811.000000
2136.969971 5905.000000
2138.178223 6114.000000
2139.386475 5634.000000
2140.593994 5905.000000
2141.800293 7422.000000
2143.005859 5855.000000
2144.211182 5664.000000
2145.415527 5541.000000
2146.619141 6291.000000
2147.822266 6205.000000
2149.023926 6494.000000
2150.225342 5324.000000
2151.426025 6255.000000
2152.625977 6051.000000
2153.824707 5947.000000
2155.023193 6873.000000
2156.221191 6164.000000
2157.418213 5990.000000
2158.614502 5138.000000
2159.809570 5334.000000
2161.004395 6115.000000
2162.198486 5584.000000
2163.391602 6004.000000
2164.583740 6948.000000
2165.775635 5856.000000
2166.966797 6270.000000
2168.156982 6309.000000
2169.346436 6461.000000
2170.535400 6852.000000
2171.723389 6016.000000
2172.911133 5729.000000
2174.097412 5907.000000
2175.282959 6510.000000
2176.468262 6013.000000
2177.653076 5973.000000
2178.836670 6323.000000
2180.019531 7474.000000
2181.201416 6265.000000
2182.383057 6099.000000
2183.564209 6590.000000
2184.744141 5719.000000
2185.923096 5552.000000
2187.101563 6335.000000
2188.279785 6878.000000
2189.456787 7173.000000
2190.632813 6699.000000
2191.808594 6109.000000
2192.983887 5606.000000
2194.157715 6636.000000
2195.331055 6114.000000
2196.504150 6159.000000
2197.676025 6418.000000
2198.847412 7056.000000
2200.018311 6244.000000
2201.187500 6861.000000
2202.356689 7558.000000
2203.525391 6268.000000
2204.693115 5896.000000
2205.859863 5644.000000
2207.025879 7122.000000
2208.191406 6708.000000
2209.356689 6009.000000
2210.520508 6792.000000
2211.683838 5440.000000
2212.845947 6196.000000
2214.008301 6176.000000
2215.169434 6655.000000
2216.329590 6656.000000
2217.489258 6249.000000
2218.648682 6577.000000
2219.806885 6344.000000
2220.964111 6351.000000
2222.121094 6840.000000
2223.277344 6535.000000
2224.432861 6758.000000
2225.587646 6308.000000
2226.741455 6402.000000
2227.894287 5993.000000
2229.047607 6839.000000
2230.198975 6208.000000
2231.350098 6120.000000
2232.500488 6528.000000
2233.650391 7627.000000
2234.799316 6259.000000
2235.947754 5173.000000
2237.094727 6824.000000
2238.241943 7041.000000
2239.387939 6086.000000
2240.533691 7227.000000
2241.677734 7278.000000
2242.822021 6741.000000
2243.965332 6175.000000
2245.107910 6009.000000
2246.249512 5747.000000
2247.390869 5901.000000
2248.531250 6386.000000
2249.670898 6435.000000
2250.810059 5806.000000
2251.947998 5798.000000
2253.085938 6174.000000
2254.222900 5297.000000
2255.359131 6359.000000
2256.494385 6148.000000
2257.628906 7341.000000
2258.763184 6368.000000
2259.896973 5391.000000
2261.029297 6166.000000
2262.161133 6764.000000
2263.292480 6287.000000
2264.422852 6480.000000
2265.552979 8071.000000
2266.681885 6721.000000
2267.810303 6045.000000
2268.938232 5531.000000
2270.065186 6140.000000
2271.191406 6003.000000
2272.316650 6719.000000
2273.441895 6486.000000
2274.566406 6427.000000
2275.689697 6033.000000
2276.812256 6339.000000
2277.934326 5899.000000
2279.055908 7336.000000
2280.176758 6434.000000
2281.296387 6458.000000
2282.415527 7066.000000
2283.534424 7598.000000
2284.652588 7273.000000
2285.769775 5856.000000
2286.885986 6413.000000
2288.001953 6981.000000
2289.117188 6857.000000
2290.231689 7394.000000
2291.344971 5793.000000
2292.458252 6306.000000
2293.570801 6010.000000
2294.682617 5431.000000
2295.793701 6728.000000
2296.903564 6374.000000
2298.012939 6164.000000
2299.122070 6744.000000
2300.230225 6386.000000
2301.337402 6749.000000
2302.444336 5888.000000
2303.550537 6244.000000
2304.656250 6565.000000
2305.760498 6556.000000
2306.864502 5431.000000
2307.968018 5760.000000
2309.071045 6477.000000
2310.172852 7386.000000
2311.273926 7369.000000
2312.374512 6587.000000
2313.474609 5561.000000
2314.573975 6415.000000
2315.671875 6569.000000
2316.770264 7019.000000
2317.867188 8178.000000
2318.963867 6911.000000
2320.060059 5794.000000
2321.154541 6883.000000
2322.249023 7539.000000
2323.342773 5797.000000
2324.436279 6018.000000
2325.528076 6448.000000
2326.619873 6950.000000
2327.710938 6115.000000
2328.801270 6230.000000
2329.890625 6845.000000
2330.979980 6028.000000
2332.068115 6320.000000
2333.155762 6826.000000
2334.243164 6504.000000
2335.328857 6639.000000
2336.414307 7692.000000
2337.499512 6277.000000
2338.583740 6713.000000
2339.666992 5948.000000
2340.750000 6443.000000
2341.832031 7093.000000
2342.913818 5986.000000
2343.994873 7435.000000
2345.074707 6620.000000
2346.154053 5726.000000
2347.232910 6854.000000
2348.311279 6636.000000
2349.388184 6286.000000
2350.464844 7000.000000
2351.541260 6065.000000
2352.616699 6433.000000
2353.691162 5905.000000
2354.765381 6313.000000
2355.838867 6748.000000
2356.911865 6223.000000
2357.983643 7030.000000
2359.055176 6307.000000
2360.125732 6854.000000
2361.196045 7457.000000
2362.265381 7515.000000
2363.333740 6849.000000
2364.401855 6751.000000
2365.469238 7073.000000
2366.536133 7106.000000
2367.602295 6047.000000
2368.667236 6795.000000
2369.732178 7003.000000
2370.796387 6291.000000
2371.859863 6924.000000
2372.922119 5730.000000
2373.984375 6346.000000
2375.045654 6319.000000
2376.106689 5947.000000
2377.166504 6285.000000
2378.225586 7877.000000
2379.284668 6429.000000
2380.342773 7567.000000
2381.400146 6891.000000
2382.456543 7922.000000
2383.512695 7767.000000
2384.568359 6170.000000
2385.623291 7042.000000
2386.676758 6746.000000
2387.730469 6668.000000
2388.783203 6290.000000
2389.835449 6780.000000
2390.886963 6096.000000
2391.937500 6628.000000
2392.987793 6445.000000
2394.037109 6220.000000
2395.086426 6224.000000
2396.134277 6885.000000
2397.181641 6928.000000
2398.228760 6291.000000
2399.274902 6628.000000
2400.320313 6121.000000
2401.364990 6811.000000
2402.409668 7696.000000
2403.452881 7451.000000
2404.496094 6553.000000
2405.537842 5774.000000
2406.579834 6691.000000
2407.621094 7101.000000
2408.661377 6071.000000
2409.700928 6351.000000
2410.739502 6328.000000
2411.778320 6070.000000
2412.815918 6486.000000
2413.853271 6859.000000
2414.889404 7335.000000
2415.925293 6213.000000
2416.960449 6248.000000
2417.995117 6668.000000
2419.028320 7167.000000
2420.061768 6555.000000
2421.094238 6643.000000
2422.126465 6869.000000
2423.157227 7060.000000
2424.187988 6335.000000
2425.218262 6866.000000
2426.247314 6814.000000
2427.276367 6723.000000
2428.303711 6893.000000
2429.331543 6702.000000
2430.358154 7245.000000
2431.384521 6936.000000
2432.409424 7694.000000
2433.434570 6551.000000
2434.458740 7132.000000
2435.482666 6662.000000
2436.505371 5848.000000
2437.527344 6317.000000
2438.549072 6599.000000
2439.570068 6684.000000
2440.590576 6021.000000
2441.609863 6465.000000
2442.629150 6599.000000
2443.647461 8390.000000
2444.665527 6221.000000
2445.682129 6495.000000
2446.698730 6558.000000
2447.714600 5995.000000
2448.730469 6988.000000
2449.744873 6842.000000
2450.758545 5530.000000
2451.771729 7257.000000
2452.784668 5978.000000
2453.796875 7124.000000
2454.808105 6668.000000
2455.819092 7688.000000
2456.829346 6399.000000
2457.839111 7561.000000
2458.847900 5896.000000
2459.855957 5920.000000
2460.864014 6328.000000
2461.870850 7355.000000
2462.877441 5422.000000
2463.882813 7656.000000
2464.887939 6884.000000
2465.892822 5812.000000
2466.896484 6574.000000
2467.899902 6344.000000
2468.902344 7637.000000
2469.904541 7356.000000
2470.906250 6844.000000
2471.906982 6552.000000
2472.906738 6852.000000
2473.906494 6759.000000
2474.905273 5657.000000
2475.903564 6581.000000
2476.900879 7009.000000
2477.897949 6076.000000
2478.895020 6882.000000
2479.890625 5842.000000
2480.886230 7119.000000
2481.880127 6658.000000
2482.874023 8108.000000
2483.867432 6872.000000
2484.860352 6849.000000
2485.852295 7507.000000
2486.843506 7208.000000
2487.834473 6712.000000
2488.824951 5884.000000
2489.814453 6611.000000
2490.803223 6559.000000
2491.791992 5625.000000
2492.779785 6828.000000
2493.766357 6553.000000
2494.752930 8042.000000
2495.739014 6691.000000
2496.724365 7050.000000
2497.708740 8453.000000
2498.692871 6087.000000
2499.677002 6896.000000
2500.659668 5755.000000
2501.641846 6997.000000
2502.623535 6867.000000
2503.604492 7214.000000
2504.584961 6504.000000
2505.565186 5759.000000
2506.543945 6339.000000
2507.522461 7559.000000
2508.500488 6748.000000
2509.478027 7117.000000
2510.454590 6107.000000
2511.430908 5987.000000
2512.406494 6426.000000
2513.381592 6252.000000
2514.356201 6447.000000
2515.329590 7550.000000
2516.302734 6758.000000
2517.275635 6804.000000
2518.247559 6124.000000
2519.218750 6879.000000
2520.189453 6876.000000
2521.159912 7781.000000
2522.129639 8033.000000
2523.098389 6128.000000
2524.066406 6094.000000
2525.034424 7741.000000
2526.001465 6310.000000
2526.968262 5570.000000
2527.933838 7332.000000
2528.899414 6925.000000
2529.864258 7770.000000
2530.828613 6296.000000
2531.791748 6341.000000
2532.755127 5861.000000
2533.717529 5962.000000
2534.679688 6737.000000
2535.640625 6393.000000
2536.600830 6143.000000
2537.561279 6178.000000
2538.520752 6761.000000
2539.479492 6846.000000
2540.437256 6679.000000
2541.395264 6198.000000
2542.352539 6757.000000
2543.308838 6131.000000
2544.264893 7105.000000
2545.219727 6219.000000
2546.174805 7693.000000
2547.129150 7066.000000
2548.082764 6970.000000
2549.035400 7187.000000
2549.987793 6747.000000
2550.939697 6947.000000
2551.890869 6468.000000
2552.841309 7757.000000
2553.791260 7302.000000
2554.740967 7367.000000
2555.689941 6591.000000
2556.638428 6248.000000
2557.585693 7118.000000
2558.532959 6281.000000
2559.479492 6534.000000
2560.425537 6738.000000
2561.370605 7400.000000
2562.315430 6732.000000
2563.259766 7115.000000
2564.203613 6900.000000
2565.146973 6645.000000
2566.088867 6593.000000
2567.031006 6516.000000
2567.972412 6183.000000
2568.913086 7181.000000
2569.853027 7226.000000
2570.792969 5706.000000
2571.731934 6160.000000
2572.670654 7538.000000
2573.608398 7238.000000
2574.545898 5484.000000
2575.482666 6965.000000
2576.418701 6844.000000
2577.354248 7453.000000
2578.289063 6401.000000
2579.223877 5928.000000
2580.157715 7098.000000
2581.091064 7256.000000
2582.023682 5846.000000
2582.956055 6895.000000
2583.887695 5389.000000
2584.818848 7017.000000
2585.749512 7028.000000
2586.678955 6953.000000
2587.608398 7182.000000
2588.537354 6418.000000
2589.466064 7451.000000
2590.393066 7409.000000
2591.320313 5906.000000
2592.247070 6745.000000
2593.173096 6260.000000
2594.098877 5655.000000
2595.023438 7642.000000
2595.947754 7529.000000
2596.871582 5362.000000
2597.794922 7225.000000
2598.717285 6235.000000
2599.639404 6857.000000
2600.561035 8283.000000
2601.481934 6413.000000
2602.402100 5930.000000
2603.322021 6378.000000
2604.241455 6438.000000
2605.160645 6451.000000
2606.078857 5806.000000
2606.995850 5964.000000
2607.913086 7293.000000
2608.830078 5953.000000
2609.746094 7590.000000
2610.660889 6676.000000
2611.576172 6612.000000
2612.490723 6542.000000
2613.404297 6574.000000
2614.317871 6113.000000
2615.230225 7604.000000
2616.142578 7069.000000
2617.053955 6781.000000
2617.965088 5657.000000
2618.875488 7207.000000
2619.785645 6624.000000
2620.695068 6139.000000
2621.604004 6635.000000
2622.511963 6226.000000
2623.420166 6855.000000
2624.327393 6601.000000
2625.234131 6987.000000
2626.140137 6010.000000
2627.045898 6624.000000
2627.950928 6575.000000
2628.855713 7843.000000
2629.759766 6499.000000
2630.662842 6473.000000
2631.565918 6405.000000
2632.468018 5594.000000
2633.370117 6754.000000
2634.271973 6954.000000
2635.172119 6703.000000
2636.072510 6435.000000
2636.972168 6416.000000
2637.871582 6024.000000
2638.769531 6925.000000
2639.667969 6706.000000
2640.565918 6318.000000
2641.463135 6053.000000
2642.359131 6165.000000
2643.255127 6954.000000
2644.150879 6065.000000
2645.045898 6512.000000
2645.940674 6578.000000
2646.833984 7103.000000
2647.727295 6292.000000
2648.620361 6751.000000
2649.513184 6420.000000
2650.404297 7452.000000
2651.295654 6403.000000
2652.186523 7580.000000
2653.076660 7358.000000
2653.966553 6569.000000
2654.855225 7293.000000
2655.744141 6619.000000
2656.632568 6584.000000
2657.520020 7245.000000
2658.406494 6443.000000
2659.293457 7111.000000
2660.179688 6826.000000
2661.065430 6897.000000
2661.949951 6490.000000
2662.834473 6439.000000
2663.718750 6191.000000
2664.602295 7144.000000
2665.485352 7802.000000
2666.367676 7289.000000
2667.249512 6195.000000
2668.130615 6631.000000
2669.011963 6045.000000
2669.891846 6524.000000
2670.771973 7363.000000
2671.651367 7214.000000
2672.530762 6159.000000
2673.409424 6147.000000
2674.286377 6381.000000
2675.164063 6726.000000
2676.041016 6337.000000
2676.917236 8179.000000
2677.792969 7182.000000
2678.667969 6246.000000
2679.543213 7717.000000
2680.417480 6982.000000
2681.291260 7326.000000
2682.164307 7000.000000
2683.037109 6236.000000
2683.909668 6103.000000
2684.781494 6972.000000
2685.652588 6572.000000
2686.523438 6892.000000
2687.393799 7097.000000
2688.263916 6690.000000
2689.132324 6308.000000
2690.001465 7425.000000
2690.869873 7128.000000
2691.738037 6695.000000
2692.605469 6961.000000
2693.471680 5857.000000
2694.338379 7119.000000
2695.204102 7441.000000
2696.069824 7147.000000
2696.934082 7886.000000
2697.799072 6595.000000
2698.662598 7287.000000
2699.526367 5847.000000
2700.388672 7414.000000
2701.251465 6841.000000
2702.113281 5922.000000
2702.974609 6923.000000
2703.835938 6742.000000
2704.696045 7469.000000
2705.556152 7315.000000
2706.415771 6605.000000
2707.275146 6834.000000
2708.132813 7148.000000
2708.990723 6847.000000
2709.849121 7295.000000
2710.706299 6779.000000
2711.562744 6001.000000
2712.418701 6828.000000
2713.274658 6091.000000
2714.129883 6943.000000
2714.984375 6110.000000
2715.838379 6795.000000
2716.692383 7309.000000
2717.545410 6266.000000
2718.398682 6462.000000
2719.250244 7701.000000
2720.102295 6766.000000
2720.954102 6262.000000
2721.804688 6504.000000
2722.655273 6468.000000
2723.505371 7135.000000
2724.354736 7052.000000
2725.204102 6945.000000
2726.052246 6589.000000
2726.899902 6540.000000
2727.748047 7043.000000
2728.594971 6876.000000
2729.442383 5583.000000
2730.288330 7459.000000
2731.133545 7000.000000
2731.979248 6431.000000
2732.823975 6957.000000
2733.668701 7355.000000
2734.512207 6895.000000
2735.355957 7893.000000
2736.198975 7098.000000
2737.041504 6035.000000
2737.883057 6291.000000
2738.725098 6819.000000
2739.566162 6938.000000
2740.406982 5841.000000
2741.247559 5950.000000
2742.086914 7723.000000
2742.926270 6826.000000
2743.765625 6941.000000
2744.603760 6791.000000
2745.441406 7809.000000
2746.279053 6411.000000
2747.116211 7245.000000
2747.953125 6190.000000
2748.789551 6003.000000
2749.624756 6602.000000
2750.460205 6294.000000
2751.295166 6303.000000
2752.129395 6241.000000
2752.963379 6838.000000
2753.796875 6821.000000
2754.630371 7989.000000
2755.462891 6850.000000
2756.294922 7315.000000
2757.126465 6856.000000
2757.958008 7102.000000
2758.788574 7279.000000
2759.619385 7220.000000
2760.448975 7211.000000
2761.278564 6697.000000
2762.107910 7237.000000
2762.936523 6811.000000
2763.764648 6756.000000
2764.592285 6883.000000
2765.419922 6715.000000
2766.247070 7870.000000
2767.073486 5827.000000
2767.899414 7525.000000
2768.724854 6851.000000
2769.550049 7771.000000
2770.375244 7148.000000
2771.199219 6750.000000
2772.023193 6519.000000
2772.847168 7670.000000
2773.669922 6367.000000
2774.492920 6853.000000
2775.314697 6972.000000
2776.136475 6946.000000
2776.958252 6529.000000
2777.779053 7975.000000
2778.599121 6579.000000
2779.419434 6981.000000
2780.239258 7360.000000
2781.059082 6423.000000
2781.876953 5951.000000
2782.696045 8042.000000
2783.513916 6499.000000
2784.331543 6720.000000
2785.148682 7150.000000
2785.965332 7235.000000
2786.781738 7225.000000
2787.597656 6282.000000
2788.413330 6013.000000
2789.228027 6449.000000
2790.043213 7006.000000
2790.857666 7178.000000
2791.671631 6632.000000
2792.485352 7450.000000
2793.297852 8759.000000
2794.110596 7020.000000
2794.922852 7424.000000
2795.734619 7268.000000
2796.545654 7405.000000
2797.357422 6558.000000
2798.167969 7224.000000
2798.978516 7029.000000
2799.787598 7396.000000
2800.597412 8175.000000
2801.406494 7769.000000
2802.215332 6684.000000
2803.023682 7270.000000
2803.831055 6209.000000
2804.638916 6403.000000
2805.446045 6883.000000
2806.252930 6873.000000
2807.058594 7229.000000
2807.864746 6626.000000
2808.670166 6479.000000
2809.475586 7335.000000
2810.280273 6191.000000
2811.083984 7682.000000
2811.888184 7512.000000
2812.691895 6354.000000
2813.495361 6118.000000
2814.297363 6263.000000
2815.100098 7397.000000
2815.902100 7769.000000
2816.703857 6157.000000
2817.505127 6536.000000
2818.305908 7274.000000
2819.106201 6535.000000
2819.906738 6763.000000
2820.706299 8042.000000
2821.505371 7177.000000
2822.304443 6472.000000
2823.103271 7031.000000
2823.901611 6347.000000
2824.698975 6996.000000
2825.496582 7363.000000
2826.293457 6685.000000
2827.090576 7306.000000
2827.886963 7994.000000
2828.682617 7077.000000
2829.478271 7322.000000
2830.273682 7614.000000
2831.068604 7460.000000
2831.862793 6641.000000
2832.656982 6819.000000
2833.450928 5757.000000
2834.244385 6873.000000
2835.037109 7189.000000
2835.829590 8215.000000
2836.622070 7675.000000
2837.414307 7518.000000
2838.206055 6450.000000
2838.996826 6775.000000
2839.787598 8862.000000
2840.578613 7475.000000
2841.368652 6237.000000
2842.158203 7673.000000
2842.947998 7147.000000
2843.736816 7361.000000
2844.525635 7862.000000
2845.314453 7695.000000
2846.102295 7555.000000
2846.889648 7247.000000
2847.677246 7442.000000
2848.464355 7337.000000
2849.250732 6706.000000
2850.037109 7451.000000
2850.823242 7202.000000
2851.608887 7528.000000
2852.393555 7127.000000
2853.178711 6932.000000
2853.963623 7506.000000
2854.747803 7153.000000
2855.531982 6968.000000
2856.314941 8226.000000
2857.098145 6860.000000
2857.881104 6793.000000
2858.663574 7794.000000
2859.445801 6293.000000
2860.227539 6613.000000
2861.009033 7628.000000
2861.790771 7475.000000
2862.571777 7657.000000
2863.352051 6650.000000
2864.132080 6778.000000
2864.912109 8221.000000
2865.691895 7534.000000
2866.470703 8090.000000
2867.249756 7668.000000
2868.028320 6756.000000
2868.806641 6983.000000
2869.584473 7196.000000
2870.362061 6985.000000
2871.139404 7428.000000
2871.916504 6952.000000
2872.693115 6442.000000
2873.469238 7449.000000
2874.245361 7222.000000
2875.020996 8257.000000
2875.796387 7236.000000
2876.571289 6625.000000
2877.345947 8035.000000
2878.120605 6641.000000
2878.895020 7783.000000
2879.668701 6813.000000
2880.441650 7134.000000
2881.215332 6787.000000
2881.988037 7667.000000
2882.760742 7807.000000
2883.532715 8242.000000
2884.304443 6221.000000
2885.076660 6734.000000
2885.847656 6883.000000
2886.618164 6206.000000
2887.389160 8297.000000
2888.160156 7331.000000
2888.930420 7985.000000
2889.699707 7655.000000
2890.469238 6916.000000
2891.238770 7234.000000
2892.007813 7350.000000
2892.776367 7830.000000
2893.544922 7911.000000
2894.312500 6988.000000
2895.080566 6533.000000
2895.848145 7429.000000
2896.615723 8344.000000
2897.382080 7367.000000
2898.149414 6529.000000
2898.915527 7258.000000
2899.681885 7006.000000
2900.446777 8317.000000
2901.212158 6986.000000
2901.978027 6482.000000
2902.742432 7696.000000
2903.506836 7736.000000
2904.271484 8451.000000
2905.035156 6684.000000
2905.799561 8465.000000
2906.563232 6693.000000
2907.326172 8348.000000
2908.088867 6511.000000
2908.852051 8945.000000
2909.614746 7011.000000
2910.376221 6834.000000
2911.138184 6834.000000
