scanname Analyse125
timestamp 2017-02-10 23:17:29
ccdbias 953.925293
ccdgain 3.473401
sigmaread 8.960639
laserwavenum -0.589239
wavenumcorrection -0.066275
scancount 1
totalexposurems 10000
singleexposurems 10000
measurementstate Unknown
scanmode Manual
snr 285.606842 9.515964 8.089970
replacelist 6
672 48151.000000 31204.000000
673 47729.000000 5592.000000
754 42467.000000 16345.000000
858 36588.000000 15570.000000
889 35105.000000 20442.000000
948 32992.000000 19339.000000
peaks 60
278.340668 0.715236 0.000000 1.291120 0.000172
285.195374 0.715511 0.000000 0.743397 0.000058
294.778442 0.717879 0.000000 0.544927 0.000026
303.389374 0.719590 0.000000 0.234977 0.000025
329.876251 0.736851 0.000000 0.965124 0.000153
336.053986 0.741827 0.000000 1.045792 0.000109
341.820129 0.739707 0.000000 0.800081 0.000035
349.311829 0.742964 0.000000 0.656460 0.000024
360.743591 0.746304 0.000000 0.666617 0.000060
386.095673 0.746341 0.000000 1.371563 0.000299
457.814575 0.760064 0.000000 0.279601 0.000042
486.952881 0.773347 0.000000 0.544567 0.000059
534.863953 0.776853 0.000000 0.558102 0.000137
559.495178 0.817704 0.000000 1.438700 0.000244
571.939819 0.824833 0.000000 0.527607 0.000143
580.352966 0.817891 0.000000 0.634752 0.000072
661.455688 0.851775 0.000000 1.185089 0.000240
673.358337 0.846999 0.000000 1.570422 0.000292
680.270447 0.848346 0.000000 0.251563 0.000038
715.835510 0.866809 0.000000 5.773154 0.001202
725.055969 0.848320 0.000000 1.202072 0.000052
741.818481 0.870868 0.000000 1.130864 0.000121
757.181641 0.896120 0.000000 6.062658 0.000692
779.273315 0.897756 0.000000 8.491193 0.001320
833.114929 0.898055 0.000000 0.939008 0.000164
853.411255 0.926168 0.000000 1.119272 0.000287
868.893677 0.921811 0.000000 0.790051 0.000158
937.449158 0.992392 0.000000 0.878971 0.000442
954.354004 0.971423 0.000000 3.614538 0.001087
1013.606750 1.006463 0.000000 2.015528 0.000769
1019.799744 1.007911 0.000000 1.037205 0.000156
1026.941895 1.018838 0.000000 0.601085 0.000252
1044.222046 1.016134 0.000000 3.989759 0.001304
1104.065674 1.027063 0.000000 2.388300 0.000644
1119.453125 1.062885 0.000000 2.238982 0.000445
1134.608521 1.042166 0.000000 1.982186 0.000861
1150.083252 1.023847 0.000000 2.505494 0.000997
1174.416626 1.044361 0.000000 1.272101 0.000444
1182.337402 1.045811 0.000000 0.720226 0.000109
1210.805664 1.103167 0.000000 0.709942 0.000228
1222.490723 1.115036 0.000000 1.491293 0.000549
1232.625000 1.098772 0.000000 1.317240 0.000343
1259.963623 1.120666 0.000000 2.466655 0.001187
1278.376953 1.062960 0.000000 0.360454 0.000455
1313.818726 1.094168 0.000000 2.115362 0.000764
1334.783691 1.127395 0.000000 11.303500 0.003435
1348.745850 1.099022 0.000000 0.637822 0.000631
1385.860962 1.039153 0.000000 0.490276 0.000222
1415.784790 1.037768 0.000000 1.332216 0.000619
1425.451172 1.036551 0.000000 0.380355 0.000078
1449.009888 1.069440 0.000000 1.574348 0.000505
1458.982300 1.084768 0.000000 4.556529 0.002384
1490.574463 1.051203 0.000000 2.376866 0.001491
1531.882568 0.999710 0.000000 0.697355 0.000484
1557.995972 1.002216 0.000000 1.247869 0.000704
1578.626465 0.999767 0.000000 1.246578 0.001091
1619.895752 0.988029 0.000000 1.131255 0.000473
1668.227905 1.023969 0.000000 7.736541 0.004865
1754.762207 0.941831 0.000000 4.348577 0.003240
2123.916260 0.666542 0.000000 0.134625 0.000109
finalresult GLS_NoMatch 0
spectrum 2048
-97.012215 45118.000000
-94.385345 45118.000000
-91.760353 45649.000000
-89.137253 45667.000000
-86.516022 46599.000000
-83.896690 46342.000000
-81.279221 46620.000000
-78.663628 46325.000000
-76.049911 46721.000000
-73.438072 46990.000000
-70.828094 46817.000000
-68.220001 47069.000000
-65.613754 47063.000000
-63.009384 47094.000000
-60.406876 46956.000000
-57.806221 47505.000000
-55.207428 46901.000000
-52.610493 46293.000000
-50.015411 46639.000000
-47.422184 46603.000000
-44.830807 46891.000000
-42.241276 46346.000000
-39.653587 47190.000000
-37.067749 46990.000000
-34.483753 46633.000000
-31.901596 47281.000000
-29.321283 46736.000000
-26.742798 47332.000000
-24.166155 46832.000000
-21.591337 46775.000000
-19.018360 46490.000000
-16.447203 46408.000000
-13.877879 46088.000000
-11.310381 45029.000000
-8.744701 46526.000000
-6.180848 46135.000000
-3.618807 46616.000000
-1.058591 46635.000000
1.499817 46125.000000
4.056404 45188.000000
6.611186 45166.000000
9.164151 45180.000000
11.715316 43813.000000
14.264668 42993.000000
16.812223 41839.000000
19.357967 41272.000000
21.901918 39579.000000
24.444065 36715.000000
26.984415 34766.000000
29.522980 32074.000000
32.059750 28408.000000
34.594715 18362.000000
37.127903 11670.000000
39.659309 7584.000000
42.188923 7187.000000
44.716740 7440.000000
47.242798 6564.000000
49.767067 5621.000000
52.289566 4707.000000
54.810268 4438.000000
57.329216 4588.000000
59.846390 5363.000000
62.361786 6597.000000
64.875404 8491.000000
67.387268 8131.000000
69.897385 5615.000000
72.405708 3715.000000
74.912277 3058.000000
77.417099 2566.000000
79.920166 2098.000000
82.421455 2002.000000
84.921005 1957.000000
87.418800 1823.000000
89.914864 2040.000000
92.409149 2335.000000
94.901695 2629.000000
97.392525 2706.000000
99.881584 2489.000000
102.368896 1913.000000
104.854485 1623.000000
107.338333 1595.000000
109.820435 1567.000000
112.300812 1518.000000
114.779465 1462.000000
117.256393 1517.000000
119.731567 1434.000000
122.205032 1567.000000
124.676765 1676.000000
127.146790 15879.000000
129.615051 28974.000000
132.081650 35255.000000
134.546494 38006.000000
137.009644 39920.000000
139.471054 41357.000000
141.930771 42952.000000
144.388763 44190.000000
146.845062 45224.000000
149.299652 45847.000000
151.752518 45258.000000
154.203705 45963.000000
156.653198 45948.000000
159.100967 46548.000000
161.547028 46174.000000
163.991409 44143.000000
166.434113 46569.000000
168.875122 46149.000000
171.314423 46740.000000
173.752014 45731.000000
176.187973 46357.000000
178.622192 46073.000000
181.054733 45887.000000
183.485626 46376.000000
185.914795 46233.000000
188.342316 46338.000000
190.768158 46738.000000
193.192322 46470.000000
195.614822 46020.000000
198.035629 45782.000000
200.454773 46643.000000
202.872253 47136.000000
205.288040 45596.000000
207.702179 46063.000000
210.114685 46783.000000
212.525513 47078.000000
214.934662 46984.000000
217.342178 45757.000000
219.747986 47034.000000
222.152206 46642.000000
224.554718 46488.000000
226.955612 46295.000000
229.354858 46739.000000
231.752441 46336.000000
234.148361 45956.000000
236.542664 46648.000000
238.935303 47331.000000
241.326324 46419.000000
243.715683 46676.000000
246.103424 46828.000000
248.489517 46235.000000
250.873978 47114.000000
253.256790 45362.000000
255.638031 46539.000000
258.017578 46508.000000
260.395538 46703.000000
262.771820 45639.000000
265.146545 45604.000000
267.519623 45362.000000
269.891052 47012.000000
272.260834 46722.000000
274.629059 47274.000000
276.995636 46801.000000
279.360626 46380.000000
281.723999 47076.000000
284.085724 46835.000000
286.445862 46081.000000
288.804382 47217.000000
291.161316 46665.000000
293.516632 46737.000000
295.870361 47167.000000
298.222443 47154.000000
300.572968 46934.000000
302.921906 46807.000000
305.269196 46466.000000
307.614960 46861.000000
309.959045 46649.000000
312.301605 45816.000000
314.642548 45662.000000
316.981873 45983.000000
319.319641 46235.000000
321.655853 45141.000000
323.990417 46879.000000
326.323425 46735.000000
328.654877 47229.000000
330.984741 46587.000000
333.313019 46767.000000
335.639679 45902.000000
337.964844 46849.000000
340.288391 47021.000000
342.610382 47127.000000
344.930817 45666.000000
347.249634 45488.000000
349.566895 47086.000000
351.882629 47357.000000
354.196777 46215.000000
356.509338 46820.000000
358.820343 46823.000000
361.129822 46052.000000
363.437775 46790.000000
365.744110 47518.000000
368.048859 46769.000000
370.352142 46698.000000
372.653809 46888.000000
374.953979 46836.000000
377.252594 46887.000000
379.549652 47449.000000
381.845154 47073.000000
384.139130 47304.000000
386.431519 47944.000000
388.722412 47506.000000
391.011780 46951.000000
393.299561 46894.000000
395.585815 46619.000000
397.870575 46200.000000
400.153717 47115.000000
402.435425 46719.000000
404.715607 47072.000000
406.994202 45941.000000
409.271271 46684.000000
411.546814 46453.000000
413.820831 46693.000000
416.093414 46869.000000
418.364380 46965.000000
420.633850 46681.000000
422.901825 45991.000000
425.168243 45866.000000
427.433167 46853.000000
429.696625 46931.000000
431.958496 46674.000000
434.218903 47178.000000
436.477753 46564.000000
438.735138 47055.000000
440.991028 47466.000000
443.245422 47308.000000
445.498291 47697.000000
447.749603 46237.000000
449.999512 47126.000000
452.247833 46972.000000
454.494720 47483.000000
456.740143 46661.000000
458.984009 46633.000000
461.226379 46281.000000
463.467255 47448.000000
465.706726 46419.000000
467.944611 47646.000000
470.181061 47237.000000
472.415985 47078.000000
474.649445 45737.000000
476.881470 46474.000000
479.111969 47457.000000
481.340973 46661.000000
483.568512 46761.000000
485.794556 47270.000000
488.019165 46555.000000
490.242310 47235.000000
492.463989 46658.000000
494.684113 46490.000000
496.902832 47421.000000
499.120056 46914.000000
501.335907 47529.000000
503.550140 46948.000000
505.763062 46684.000000
507.974396 46707.000000
510.184296 46219.000000
512.392761 46597.000000
514.599854 46540.000000
516.805359 46700.000000
519.009460 46549.000000
521.212036 46957.000000
523.413208 46606.000000
525.613037 46432.000000
527.811340 46155.000000
530.008118 47751.000000
532.203552 47202.000000
534.397461 47596.000000
536.590027 45508.000000
538.781067 46345.000000
540.970703 46982.000000
543.158936 46217.000000
545.345642 45868.000000
547.530884 46244.000000
549.714844 46841.000000
551.897217 46703.000000
554.078247 47006.000000
556.257751 47056.000000
558.435974 47187.000000
560.612671 47126.000000
562.787964 46723.000000
564.961853 46604.000000
567.134277 47175.000000
569.305298 47017.000000
571.474854 46784.000000
573.643127 47834.000000
575.809875 46720.000000
577.975159 46874.000000
580.139038 47014.000000
582.301636 47403.000000
584.462708 46979.000000
586.622375 47412.000000
588.780701 47289.000000
590.937500 46877.000000
593.092957 46515.000000
595.247009 47321.000000
597.399719 46900.000000
599.550903 45817.000000
601.700745 46261.000000
603.849243 46489.000000
605.996155 46962.000000
608.141846 46539.000000
610.286133 46573.000000
612.428955 46141.000000
614.570313 46885.000000
616.710449 46604.000000
618.849060 45525.000000
620.986389 47330.000000
623.122253 46419.000000
625.256714 46107.000000
627.389709 45876.000000
629.521545 46407.000000
631.651917 46467.000000
633.780884 46258.000000
635.908386 46546.000000
638.034607 46808.000000
640.159302 45726.000000
642.282776 46621.000000
644.404907 46265.000000
646.525574 46195.000000
648.644897 46416.000000
650.762817 47261.000000
652.879395 47382.000000
654.994568 46573.000000
657.108398 46470.000000
659.220764 47192.000000
661.331909 46966.000000
663.441650 47657.000000
665.549927 47021.000000
667.657043 46675.000000
669.762695 46191.000000
671.866882 47364.000000
673.969849 47285.000000
676.071411 46010.000000
678.171631 47703.000000
680.270447 46209.000000
682.367920 46723.000000
684.464111 45914.000000
686.558838 46731.000000
688.652344 46015.000000
690.744507 46446.000000
692.835144 45075.000000
694.924561 46416.000000
697.012695 46485.000000
699.099365 46934.000000
701.184814 46304.000000
703.268738 47858.000000
705.351440 47024.000000
707.432861 47087.000000
709.512817 45352.000000
711.591553 46640.000000
713.668823 47425.000000
715.744812 46445.000000
717.819519 46911.000000
719.892944 46068.000000
721.964844 46632.000000
724.035583 45511.000000
726.104980 47167.000000
728.172974 46458.000000
730.239624 46672.000000
732.305054 45892.000000
734.369141 47169.000000
736.431885 46774.000000
738.493286 46397.000000
740.553406 46352.000000
742.612122 46892.000000
744.669617 46190.000000
746.725830 46480.000000
748.780640 46217.000000
750.834167 46452.000000
752.886292 45384.000000
754.937195 47205.000000
756.986877 46204.000000
759.035095 46553.000000
761.082092 46705.000000
763.127808 45804.000000
765.172119 47586.000000
767.215149 47140.000000
769.256958 37873.000000
771.297424 45682.000000
773.336487 46500.000000
775.374390 46776.000000
777.410950 46849.000000
779.446289 47522.000000
781.480286 47124.000000
783.512878 45915.000000
785.544312 47397.000000
787.574341 41314.000000
789.603088 46852.000000
791.630676 46523.000000
793.656921 46582.000000
795.681763 47054.000000
797.705505 47331.000000
799.727844 46563.000000
801.748962 47018.000000
803.768738 46245.000000
805.787231 48004.000000
807.804504 46182.000000
809.820374 46002.000000
811.835083 47135.000000
813.848450 46398.000000
815.860596 46596.000000
817.871521 46827.000000
819.881104 46333.000000
821.889465 47566.000000
823.896423 47145.000000
825.902161 46779.000000
827.906677 47023.000000
829.909912 47101.000000
831.911865 46261.000000
833.912537 46654.000000
835.911987 46870.000000
837.910095 46475.000000
839.907104 45794.000000
841.902710 46523.000000
843.897156 46693.000000
845.890259 46576.000000
847.882141 45918.000000
849.872681 47124.000000
851.861938 45906.000000
853.850159 46709.000000
855.836975 47132.000000
857.822571 46320.000000
859.806885 45505.000000
861.790100 46411.000000
863.771912 46286.000000
865.752502 46949.000000
867.731812 44964.000000
869.709961 45711.000000
871.686768 46591.000000
873.662292 46845.000000
875.636780 46522.000000
877.609802 46652.000000
879.581787 47338.000000
881.552429 46329.000000
883.521912 46606.000000
885.490051 47064.000000
887.457031 47520.000000
889.422668 46552.000000
891.387146 46879.000000
893.350403 46699.000000
895.312439 46232.000000
897.273193 46959.000000
899.232727 46189.000000
901.190979 45978.000000
903.148132 46330.000000
905.104126 46593.000000
907.058716 45678.000000
909.012085 46183.000000
910.964294 46240.000000
912.915283 46212.000000
914.864990 45502.000000
916.813538 46260.000000
918.760864 46347.000000
920.706909 46421.000000
922.651672 46423.000000
924.595398 46283.000000
926.537964 46529.000000
928.479248 46883.000000
930.419189 45978.000000
932.358032 46761.000000
934.295593 47011.000000
936.231934 46514.000000
938.167114 46655.000000
940.101013 46348.000000
942.033813 46555.000000
943.965393 45663.000000
945.895813 47239.000000
947.825012 45962.000000
949.752869 45403.000000
951.679688 45881.000000
953.605225 46475.000000
955.529480 47093.000000
957.452637 46532.000000
959.374634 45745.000000
961.295349 45173.000000
963.214905 45974.000000
965.133301 47135.000000
967.050659 46080.000000
968.966553 46057.000000
970.881348 46334.000000
972.794922 46473.000000
974.707336 46038.000000
976.618530 45939.000000
978.528564 46883.000000
980.437317 46177.000000
982.345032 46202.000000
984.251526 45983.000000
986.156799 46642.000000
988.060974 45522.000000
989.963928 46134.000000
991.865662 45509.000000
993.766235 45711.000000
995.665649 45644.000000
997.563843 46980.000000
999.460876 45492.000000
1001.356689 45729.000000
1003.251343 44459.000000
1005.144897 46584.000000
1007.037170 44948.000000
1008.928528 46044.000000
1010.818542 46658.000000
1012.707336 45499.000000
1014.594971 45760.000000
1016.481445 45149.000000
1018.366760 45335.000000
1020.250916 46121.000000
1022.133850 46173.000000
1024.015747 45848.000000
1025.896362 46854.000000
1027.775879 46178.000000
1029.654419 45918.000000
1031.531616 46669.000000
1033.407471 45892.000000
1035.282349 46172.000000
1037.156250 45473.000000
1039.028687 45155.000000
1040.900146 45347.000000
1042.770264 46571.000000
1044.639404 46525.000000
1046.507324 46329.000000
1048.374146 45070.000000
1050.239868 45382.000000
1052.104370 45649.000000
1053.967773 45626.000000
1055.829834 45626.000000
1057.690918 46169.000000
1059.550903 45485.000000
1061.409546 45402.000000
1063.267090 46200.000000
1065.123535 45364.000000
1066.978882 46061.000000
1068.833008 46237.000000
1070.686279 45732.000000
1072.538086 45683.000000
1074.388916 45805.000000
1076.238525 45818.000000
1078.086914 46118.000000
1079.934448 43903.000000
1081.780640 46294.000000
1083.625610 45687.000000
1085.469727 46508.000000
1087.312500 46241.000000
1089.154053 45310.000000
1090.994873 46305.000000
1092.834106 45970.000000
1094.672607 45672.000000
1096.509766 45639.000000
1098.345703 44809.000000
1100.180664 45030.000000
1102.014404 46203.000000
1103.847168 46092.000000
1105.678589 45397.000000
1107.509155 44211.000000
1109.338379 44928.000000
1111.166626 45055.000000
1112.993652 44316.000000
1114.819702 45969.000000
1116.644531 45101.000000
1118.468262 44301.000000
1120.290771 45330.000000
1122.112183 45519.000000
1123.932739 45555.000000
1125.751831 44827.000000
1127.570068 44369.000000
1129.386963 44688.000000
1131.203003 44879.000000
1133.017822 44986.000000
1134.831543 45942.000000
1136.644165 45642.000000
1138.455566 45864.000000
1140.265991 45346.000000
1142.075317 44785.000000
1143.883301 44529.000000
1145.690552 45504.000000
1147.496338 45508.000000
1149.301270 45993.000000
1151.105103 46007.000000
1152.907715 45193.000000
1154.709473 45189.000000
1156.509766 45448.000000
1158.309082 45119.000000
1160.107422 45362.000000
1161.904419 45773.000000
1163.700684 45282.000000
1165.495605 45048.000000
1167.289429 44762.000000
1169.082397 43349.000000
1170.874023 45207.000000
1172.664673 44411.000000
1174.454346 44921.000000
1176.242554 45092.000000
1178.029907 43807.000000
1179.816162 43961.000000
1181.601318 45034.000000
1183.385376 44811.000000
1185.168335 43063.000000
1186.950317 44787.000000
1188.731079 44734.000000
1190.510864 44305.000000
1192.289551 43621.000000
1194.067261 43963.000000
1195.843750 43278.000000
1197.619141 43912.000000
1199.393433 43894.000000
1201.166626 43694.000000
1202.938965 43807.000000
1204.709961 43604.000000
1206.480103 44543.000000
1208.249023 44117.000000
1210.016846 43960.000000
1211.783813 44365.000000
1213.549438 44296.000000
1215.314087 43285.000000
1217.077637 43710.000000
1218.840088 44313.000000
1220.601685 43545.000000
1222.362061 44261.000000
1224.121338 43890.000000
1225.879761 44155.000000
1227.636963 43154.000000
1229.393066 43755.000000
1231.148071 44646.000000
1232.902222 44280.000000
1234.655029 44322.000000
1236.406860 44265.000000
1238.157837 44263.000000
1239.907471 45252.000000
1241.656250 43245.000000
1243.403687 43689.000000
1245.150391 43534.000000
1246.895874 43578.000000
1248.640503 43691.000000
1250.383789 43209.000000
1252.126099 43227.000000
1253.867310 44445.000000
1255.607666 44708.000000
1257.346924 43863.000000
1259.084961 43158.000000
1260.822144 42610.000000
1262.558105 43630.000000
1264.293091 43357.000000
1266.027100 42595.000000
1267.760132 43900.000000
1269.491943 43568.000000
1271.222778 43341.000000
1272.952393 42485.000000
1274.681152 43718.000000
1276.408813 43905.000000
1278.135376 43991.000000
1279.861084 43907.000000
1281.585449 42986.000000
1283.308960 44167.000000
1285.031494 42354.000000
1286.753052 42703.000000
1288.473389 43021.000000
1290.192749 42424.000000
1291.911011 41818.000000
1293.628296 42628.000000
1295.344604 43167.000000
1297.059692 42469.000000
1298.773804 42716.000000
1300.486938 42972.000000
1302.199219 42193.000000
1303.910278 40318.000000
1305.620361 42966.000000
1307.329346 42112.000000
1309.037109 41901.000000
1310.744263 41438.000000
1312.449951 42672.000000
1314.154907 41524.000000
1315.858887 42225.000000
1317.561646 42398.000000
1319.263428 41849.000000
1320.964355 42296.000000
1322.663940 38463.000000
1324.362671 40300.000000
1326.060669 28378.000000
1327.757324 39809.000000
1329.452881 39060.000000
1331.147583 39298.000000
1332.841064 40285.000000
1334.533691 40622.000000
1336.225464 38850.000000
1337.915894 39784.000000
1339.605591 39465.000000
1341.294189 39886.000000
1342.981689 38464.000000
1344.668213 40508.000000
1346.353638 39352.000000
1348.038086 40234.000000
1349.721680 39028.000000
1351.404053 39955.000000
1353.085449 40404.000000
1354.765991 39888.000000
1356.445313 39687.000000
1358.124023 40565.000000
1359.801392 39818.000000
1361.477661 40472.000000
1363.152954 40611.000000
1364.827515 39513.000000
1366.500854 39537.000000
1368.173218 39140.000000
1369.844604 40548.000000
1371.515015 38997.000000
1373.184326 39334.000000
1374.852661 39705.000000
1376.520142 39337.000000
1378.186523 38704.000000
1379.851929 38923.000000
1381.516357 39052.000000
1383.179565 38818.000000
1384.842163 38969.000000
1386.503418 38168.000000
1388.163818 37962.000000
1389.823120 38013.000000
1391.481445 37804.000000
1393.139038 37435.000000
1394.795410 37729.000000
1396.450928 37044.000000
1398.105225 37630.000000
1399.758667 38008.000000
1401.411011 37610.000000
1403.062622 37186.000000
1404.713013 36303.000000
1406.362305 36969.000000
1408.010864 35443.000000
1409.658325 34869.000000
1411.304810 36373.000000
1412.950439 36042.000000
1414.595093 36255.000000
1416.238525 35186.000000
1417.881104 34987.000000
1419.522583 35129.000000
1421.163208 35299.000000
1422.802856 35223.000000
1424.441406 35603.000000
1426.079102 34886.000000
1427.715698 35099.000000
1429.351318 35351.000000
1430.986206 34927.000000
1432.619995 35283.000000
1434.252686 35104.000000
1435.884399 35598.000000
1437.515259 35093.000000
1439.145020 35466.000000
1440.773682 33758.000000
1442.401733 35597.000000
1444.028687 35420.000000
1445.654419 35537.000000
1447.279541 35604.000000
1448.903564 35505.000000
1450.526611 36030.000000
1452.148682 36093.000000
1453.769653 34879.000000
1455.389648 36055.000000
1457.008911 35417.000000
1458.626831 36788.000000
1460.244141 36671.000000
1461.860474 36554.000000
1463.475586 34091.000000
1465.089844 35097.000000
1466.703247 36156.000000
1468.315552 35796.000000
1469.927002 35264.000000
1471.537598 35211.000000
1473.146973 35439.000000
1474.755371 35316.000000
1476.362915 35097.000000
1477.969482 34412.000000
1479.575317 35510.000000
1481.179932 34155.000000
1482.783691 34499.000000
1484.386230 32818.000000
1485.988159 33768.000000
1487.588867 33691.000000
1489.188843 33637.000000
1490.787720 33218.000000
1492.385742 33320.000000
1493.982666 33400.000000
1495.578735 34037.000000
1497.173828 34559.000000
1498.767944 34976.000000
1500.361328 33907.000000
1501.953613 34833.000000
1503.544678 34161.000000
1505.135254 33342.000000
1506.724487 33449.000000
1508.313110 33565.000000
1509.900635 32970.000000
1511.487061 32634.000000
1513.072754 33036.000000
1514.657349 32522.000000
1516.241089 32811.000000
1517.823730 32572.000000
1519.405640 32196.000000
1520.986450 31924.000000
1522.566528 32111.000000
1524.145386 31602.000000
1525.723389 31236.000000
1527.300659 31132.000000
1528.876709 31577.000000
1530.452026 31238.000000
1532.026245 30760.000000
1533.599731 31487.000000
1535.171997 31105.000000
1536.743530 30589.000000
1538.314087 30485.000000
1539.883789 30444.000000
1541.452271 31182.000000
1543.020020 30006.000000
1544.586914 30950.000000
1546.152588 29669.000000
1547.717529 30409.000000
1549.281372 31168.000000
1550.844604 29019.000000
1552.406494 30103.000000
1553.967773 30166.000000
1555.527954 30398.000000
1557.087402 30267.000000
1558.645752 30302.000000
1560.203369 29910.000000
1561.759888 29200.000000
1563.315186 30272.000000
1564.869873 29666.000000
1566.423828 30356.000000
1567.976807 29655.000000
1569.528442 30300.000000
1571.079346 30148.000000
1572.629517 29868.000000
1574.178711 29831.000000
1575.726563 30259.000000
1577.273926 30465.000000
1578.820313 30297.000000
1580.365845 31099.000000
1581.910400 29789.000000
1583.453735 30041.000000
1584.996460 29754.000000
1586.538330 29794.000000
1588.079102 29457.000000
1589.618896 30217.000000
1591.157959 29215.000000
1592.695923 29959.000000
1594.233398 29589.000000
1595.769531 29858.000000
1597.304565 28993.000000
1598.839111 29313.000000
1600.372681 29478.000000
1601.905396 29575.000000
1603.436523 29327.000000
1604.967407 29170.000000
1606.497437 29710.000000
1608.026245 29169.000000
1609.553955 29290.000000
1611.081055 29478.000000
1612.607422 29552.000000
1614.132813 29257.000000
1615.657349 29705.000000
1617.180542 29887.000000
1618.703003 30268.000000
1620.224731 29636.000000
1621.745605 29562.000000
1623.265015 29666.000000
1624.783936 29770.000000
1626.302124 28619.000000
1627.819458 28665.000000
1629.335693 28279.000000
1630.850586 27532.000000
1632.364990 27668.000000
1633.878662 28403.000000
1635.391235 27353.000000
1636.902588 28149.000000
1638.413574 27511.000000
1639.923462 27620.000000
1641.432495 27598.000000
1642.940186 28019.000000
1644.447510 27442.000000
1645.953979 26547.000000
1647.459473 27273.000000
1648.964111 26560.000000
1650.467285 27125.000000
1651.969849 26680.000000
1653.472046 26863.000000
1654.972900 26422.000000
1656.472656 25396.000000
1657.971558 26551.000000
1659.470093 25988.000000
1660.967407 26218.000000
1662.463989 26451.000000
1663.958984 26211.000000
1665.453735 26687.000000
1666.947632 28168.000000
1668.440552 28543.000000
1669.932129 27161.000000
1671.423218 25779.000000
1672.913696 25146.000000
1674.403076 25316.000000
1675.890991 24742.000000
1677.378662 24614.000000
1678.865356 25130.000000
1680.351196 25483.000000
1681.836182 24716.000000
1683.319702 24443.000000
1684.802979 24416.000000
1686.285400 24560.000000
1687.766724 24426.000000
1689.246582 24320.000000
1690.726196 24707.000000
1692.205078 24080.000000
1693.682983 24648.000000
1695.159912 24348.000000
1696.635620 24648.000000
1698.110962 24050.000000
1699.585083 24007.000000
1701.058594 24395.000000
1702.530640 24633.000000
1704.002441 24047.000000
1705.473267 24364.000000
1706.943237 23722.000000
1708.411865 24798.000000
1709.880005 24514.000000
1711.347412 24190.000000
1712.813721 24596.000000
1714.279419 24540.000000
1715.743408 24284.000000
1717.207275 24579.000000
1718.670288 23972.000000
1720.132324 24323.000000
1721.593140 24017.000000
1723.053345 24452.000000
1724.512817 24493.000000
1725.971436 24203.000000
1727.429077 24323.000000
1728.885376 24137.000000
1730.341431 24347.000000
1731.796509 24011.000000
1733.250610 24305.000000
1734.703491 23825.000000
1736.156128 24302.000000
1737.607666 23574.000000
1739.058472 23862.000000
1740.508301 23495.000000
1741.956787 23902.000000
1743.404907 23088.000000
1744.852173 23419.000000
1746.298706 23236.000000
1747.743652 23070.000000
1749.188354 23251.000000
1750.632202 23388.000000
1752.075195 23902.000000
1753.516724 24068.000000
1754.958008 25460.000000
1756.398438 24206.500000
1757.837891 22953.000000
1759.276367 22896.000000
1760.713867 22848.000000
1762.150879 21952.000000
1763.586914 22529.000000
1765.022095 22261.000000
1766.455811 22505.000000
1767.889404 22828.000000
1769.322021 22456.000000
1770.753784 22886.000000
1772.184692 22798.000000
1773.614380 22326.000000
1775.043335 21736.000000
1776.471802 21485.000000
1777.899292 20608.000000
1779.325439 19728.000000
1780.751343 21256.000000
1782.176147 20988.000000
1783.600342 21254.000000
1785.023071 21045.000000
1786.445313 20948.000000
1787.866821 20940.000000
1789.287598 20973.000000
1790.707397 20748.000000
1792.125854 20779.000000
1793.543823 20412.000000
1794.961182 20580.000000
1796.377686 20555.000000
1797.792725 20588.000000
1799.207397 20463.000000
1800.621460 20264.000000
1802.034302 20543.000000
1803.446533 20341.000000
1804.857422 20108.000000
1806.267822 20067.000000
1807.677490 20035.000000
1809.086182 20142.000000
1810.493774 20251.000000
1811.900879 20236.000000
1813.307129 20314.000000
1814.712402 20449.000000
1816.116577 20476.000000
1817.520386 20522.000000
1818.923218 20385.000000
1820.325195 20257.000000
1821.726563 20326.000000
1823.126465 20395.000000
1824.525757 20332.000000
1825.924561 20362.000000
1827.322510 19934.000000
1828.719116 20204.000000
1830.115112 20046.000000
1831.510376 20083.000000
1832.905029 19740.000000
1834.298706 20083.000000
1835.691040 20077.000000
1837.082886 19985.000000
1838.474121 20114.000000
1839.864380 19843.000000
1841.253418 19758.000000
1842.642090 19881.000000
1844.029785 19727.000000
1845.416748 19817.000000
1846.802368 19463.000000
1848.187744 19539.000000
1849.572266 19370.000000
1850.956055 19531.000000
1852.338745 19343.000000
1853.720215 19117.000000
1855.101196 18886.000000
1856.481689 18777.000000
1857.861206 18822.000000
1859.239258 18778.000000
1860.617188 18887.000000
1861.994141 18372.000000
1863.370361 18482.000000
1864.745728 18519.000000
1866.119629 18361.000000
1867.493408 18346.000000
1868.866333 18056.000000
1870.238159 18044.000000
1871.609009 18001.000000
1872.979492 17918.000000
1874.348877 17763.000000
1875.717773 17699.000000
1877.085083 17627.000000
1878.452271 17694.000000
1879.818481 17640.000000
1881.183960 17538.000000
1882.548706 17407.000000
1883.911865 17454.000000
1885.274902 17279.000000
1886.637085 17480.000000
1887.998413 17295.000000
1889.358398 17181.000000
1890.718018 17137.000000
1892.077026 17193.000000
1893.435059 16959.000000
1894.792236 16914.000000
1896.148193 17127.000000
1897.503906 16937.000000
1898.858643 16997.000000
1900.212524 17046.000000
1901.565308 17129.000000
1902.917603 17033.000000
1904.269165 17098.000000
1905.619873 17098.000000
1906.969360 17183.000000
1908.318359 17085.000000
1909.666504 17095.000000
1911.014038 16968.000000
1912.360840 16765.000000
1913.706055 17065.000000
1915.051025 17090.000000
1916.395264 17202.000000
1917.738647 17059.000000
1919.080688 17167.000000
1920.422485 17074.000000
1921.763428 16932.000000
1923.103638 17132.000000
1924.442871 17203.000000
1925.781128 16961.000000
1927.118774 16909.000000
1928.455688 16941.000000
1929.791748 17076.000000
1931.126587 16946.000000
1932.461060 16794.000000
1933.794800 16682.000000
1935.127686 16713.000000
1936.459106 16709.000000
1937.790649 16532.000000
1939.120850 16417.000000
1940.450562 16432.000000
1941.779419 16427.000000
1943.107056 16486.000000
1944.434204 16384.000000
1945.760620 16310.000000
1947.086304 16463.000000
1948.410645 16334.000000
1949.734741 16420.000000
1951.057983 16160.000000
1952.380493 16213.000000
1953.701904 16090.000000
1955.022339 16020.000000
1956.342163 15987.000000
1957.661621 16005.000000
1958.980103 15885.000000
1960.297241 15828.000000
1961.614014 15604.000000
1962.930054 15627.000000
1964.245361 15674.000000
1965.559204 15638.000000
1966.872803 15651.000000
1968.185669 15599.000000
1969.497681 15465.000000
1970.809082 15373.000000
1972.119141 15168.000000
1973.428711 15283.000000
1974.737549 14958.000000
1976.045776 14986.000000
1977.352661 14745.000000
1978.658936 14760.000000
1979.964844 14779.000000
1981.269531 14927.000000
1982.573730 14868.000000
1983.876709 14915.000000
1985.179321 14644.000000
1986.480957 14602.000000
1987.781982 14459.000000
1989.081421 14281.000000
1990.380981 14215.000000
1991.679443 14160.000000
1992.977417 14007.000000
1994.273804 14139.000000
1995.570190 14013.000000
1996.865601 13953.000000
1998.160278 13779.000000
1999.454102 13926.000000
2000.746704 13758.000000
2002.038818 13670.000000
2003.330444 13655.000000
2004.621338 13698.000000
2005.910645 13593.000000
2007.199707 13649.000000
2008.488037 13624.000000
2009.775635 13606.000000
2011.062378 13605.000000
2012.348022 13451.000000
2013.633301 13435.000000
2014.917603 13509.000000
2016.201294 13512.000000
2017.483643 13321.000000
2018.765625 13287.000000
2020.047119 13407.000000
2021.327637 13410.000000
2022.607422 13296.000000
2023.886108 13149.000000
2025.164063 13347.000000
2026.441528 13331.000000
2027.718384 13208.000000
2028.993530 13400.000000
2030.268799 13470.000000
2031.543091 13630.000000
2032.816406 13506.000000
2034.088867 13664.000000
2035.360962 13533.000000
2036.631958 13456.000000
2037.902710 13283.000000
2039.172119 13476.000000
2040.440430 13396.000000
2041.708740 13415.000000
2042.976074 13417.000000
2044.242676 13291.000000
2045.508057 13304.000000
2046.772827 13036.000000
2048.037354 13279.000000
2049.300537 13421.000000
2050.563477 13107.000000
2051.824463 13060.000000
2053.085938 12829.000000
2054.346191 12803.000000
2055.605713 12765.000000
2056.864502 12678.000000
2058.122314 12620.000000
2059.379639 12689.000000
2060.636230 12602.000000
2061.891357 12682.000000
2063.146484 12559.000000
2064.400635 12836.000000
2065.654053 12658.000000
2066.906738 12460.000000
2068.158203 12508.000000
2069.409424 12481.000000
2070.659912 12512.000000
2071.909668 12652.000000
2073.157959 12404.000000
2074.406250 12355.000000
2075.653564 12195.000000
2076.900146 12308.000000
2078.145996 12143.000000
2079.390625 12072.000000
2080.634766 12023.000000
2081.878418 12122.000000
2083.121094 11916.000000
2084.362549 11770.000000
2085.603760 11827.000000
2086.844482 11921.000000
2088.084229 11756.000000
2089.322754 11747.000000
2090.560791 11728.000000
2091.798096 11694.000000
2093.035156 11531.000000
2094.270752 11547.000000
2095.505615 11582.000000
2096.740234 11569.000000
2097.973877 11689.000000
2099.206543 11586.000000
2100.438477 11490.000000
2101.669922 11247.000000
2102.900391 11482.000000
2104.130127 11334.000000
2105.359619 11324.000000
2106.587158 11275.000000
2107.814941 11034.000000
2109.041992 10887.000000
2110.268066 10979.000000
2111.492676 11015.000000
2112.717529 10727.000000
2113.941162 10739.000000
2115.164307 10913.000000
2116.386230 10898.000000
2117.607910 10902.000000
2118.828613 11121.000000
2120.048584 11103.000000
2121.268066 11082.000000
2122.486084 11097.000000
2123.704102 11048.000000
2124.921143 11117.000000
2126.137695 11093.000000
2127.352539 11121.000000
2128.567627 11062.000000
2129.781738 11145.000000
2130.995117 10977.000000
2132.207764 10683.000000
2133.418945 10957.000000
2134.630371 10943.000000
2135.840576 10683.000000
2137.050293 10738.000000
2138.258545 10879.000000
2139.466797 10946.000000
2140.674316 10713.000000
2141.880615 10574.000000
2143.086182 10759.000000
2144.291504 10602.000000
2145.495850 10617.000000
2146.699463 10595.000000
2147.902588 10564.000000
2149.104248 10546.000000
2150.305664 10728.000000
2151.506348 10542.000000
2152.706299 10637.000000
2153.905029 10600.000000
2155.103516 10499.000000
2156.301514 10496.000000
2157.498535 10193.000000
2158.694824 10199.000000
2159.889893 10353.000000
2161.084717 10146.000000
2162.278809 9972.000000
2163.471924 9902.000000
2164.664063 9895.000000
2165.855957 9967.000000
2167.047119 9744.000000
2168.237305 9688.000000
2169.426758 9747.000000
2170.615723 9519.000000
2171.803711 9434.000000
2172.991455 9576.000000
2174.177734 9325.000000
2175.363281 9161.000000
2176.548584 9291.000000
2177.733398 9233.000000
2178.916992 9257.000000
2180.099854 9263.000000
2181.281738 9151.000000
2182.463379 9134.000000
2183.644531 9091.000000
2184.824463 9166.000000
2186.003418 9070.000000
2187.181885 9070.000000
2188.360107 8999.000000
2189.537109 9069.000000
2190.713135 8960.000000
2191.888916 9155.000000
2193.064209 9249.000000
2194.238037 9033.000000
2195.411377 9086.000000
2196.584473 9039.000000
2197.756348 9177.000000
2198.927734 9111.000000
2200.098633 9158.000000
2201.267822 9097.000000
2202.437012 9107.000000
2203.605713 9009.000000
2204.773438 9118.000000
2205.940186 8992.000000
2207.106201 8998.000000
2208.271729 8853.000000
2209.437012 8999.000000
2210.600830 8895.000000
2211.764160 8997.000000
2212.926270 8912.000000
2214.088623 8939.000000
2215.249756 8905.000000
2216.409912 8958.000000
2217.569580 8850.000000
2218.729004 8924.000000
2219.887207 8798.000000
2221.044434 8707.000000
2222.201416 8745.000000
2223.357666 8753.000000
2224.513184 8607.000000
2225.667969 8596.000000
2226.821777 8550.000000
2227.974609 8570.000000
2229.127930 8538.000000
2230.279297 8597.000000
2231.430420 8423.000000
2232.580811 8487.000000
2233.730713 8345.000000
2234.879639 8419.000000
2236.028076 8379.000000
2237.175049 8274.000000
2238.322266 8234.000000
2239.468262 8118.000000
2240.614014 8173.000000
2241.758057 7966.000000
2242.902344 7927.000000
2244.045654 7872.000000
2245.188232 7868.000000
2246.329834 7779.000000
2247.471191 7812.000000
2248.611572 7786.000000
2249.751221 7756.000000
2250.890381 7609.000000
2252.028320 7515.000000
2253.166260 7483.000000
2254.303223 7571.000000
2255.439453 7499.000000
2256.574707 7499.000000
2257.709229 7665.000000
2258.843506 7574.000000
2259.977295 7618.000000
2261.109619 7770.000000
2262.241455 7527.000000
2263.372803 7443.000000
2264.503174 7349.000000
2265.633301 7295.000000
2266.762207 7211.000000
2267.890625 7029.000000
2269.018555 7070.000000
2270.145508 7163.000000
2271.271729 7130.000000
2272.396973 7218.000000
2273.522217 7113.000000
2274.646729 7273.000000
2275.770020 7206.000000
2276.892578 7235.000000
2278.014648 7221.000000
2279.136230 7035.000000
2280.257080 7030.000000
2281.376709 7184.000000
2282.495850 6998.000000
2283.614746 6811.000000
2284.732910 6897.000000
2285.850098 6961.000000
2286.966309 6981.000000
2288.082275 6921.000000
2289.197510 7019.000000
2290.312012 6986.000000
2291.425293 7026.000000
2292.538574 7102.000000
2293.651123 7077.000000
2294.762939 7005.000000
2295.874023 7019.000000
2296.983887 7051.000000
2298.093262 7076.000000
2299.202393 7021.000000
2300.310547 7101.000000
2301.417725 7075.000000
2302.524658 7062.000000
2303.630859 7007.000000
2304.736572 7026.000000
2305.840820 6957.000000
2306.944824 6918.000000
2308.048340 6936.000000
2309.151367 6859.000000
2310.253174 6892.000000
2311.354248 6895.000000
2312.454834 6892.000000
2313.554932 6813.000000
2314.654297 6878.000000
2315.752197 6743.000000
2316.850586 6754.000000
2317.947510 6672.000000
2319.044189 6557.000000
2320.140381 6704.000000
2321.234863 6553.000000
2322.329346 6620.000000
2323.423096 6571.000000
2324.516602 6498.000000
2325.608398 6452.000000
2326.700195 6514.000000
2327.791260 6439.000000
2328.881592 6473.000000
2329.970947 6568.000000
2331.060303 6480.000000
2332.148438 6445.000000
2333.236084 6395.000000
2334.323486 6506.000000
2335.409180 6313.000000
2336.494629 6316.000000
2337.579834 6266.000000
2338.664063 6114.000000
2339.747314 6204.000000
2340.830322 6077.000000
2341.912354 6052.000000
2342.994141 6233.000000
2344.075195 6087.000000
2345.155029 6024.000000
2346.234375 6026.000000
2347.313232 5887.000000
2348.391602 5925.000000
2349.468506 5994.000000
2350.545166 5932.000000
2351.621582 5835.000000
2352.697021 5898.000000
2353.771484 5902.000000
2354.845703 5900.000000
2355.919189 5807.000000
2356.992188 5654.000000
2358.063965 5624.000000
2359.135498 5728.000000
2360.206055 5539.000000
2361.276367 5706.000000
2362.345703 5627.000000
2363.414063 5623.000000
2364.482178 5548.000000
2365.549561 5497.000000
2366.616455 5477.000000
2367.682617 5597.000000
2368.747559 5393.000000
2369.812500 5436.000000
2370.876709 5398.000000
2371.940186 5385.000000
2373.002441 5394.000000
2374.064697 5389.000000
2375.125977 5444.000000
2376.187012 5216.000000
2377.246826 5405.000000
2378.305908 5379.000000
2379.364990 5354.000000
2380.423096 5391.000000
2381.480469 5359.000000
2382.536865 5317.000000
2383.593018 5303.000000
2384.648682 5187.000000
2385.703613 5327.000000
2386.757080 5290.000000
2387.810791 5179.000000
2388.863525 5230.000000
2389.915771 5275.000000
2390.967285 5279.000000
2392.017822 5293.000000
2393.068115 5334.000000
2394.117432 5232.000000
2395.166748 5310.000000
2396.214600 5214.000000
2397.261963 5222.000000
2398.309082 5233.000000
2399.355225 5216.000000
2400.400635 5117.000000
2401.445313 5117.000000
2402.489990 5156.000000
2403.533203 5134.000000
2404.576416 5052.000000
2405.618164 5226.000000
2406.660156 5095.000000
2407.701416 5097.000000
2408.741699 5197.000000
2409.781250 5184.000000
2410.819824 5132.000000
2411.858643 5042.000000
2412.896240 5154.000000
2413.933594 5193.000000
2414.969727 5116.000000
2416.005615 5131.000000
2417.040771 4952.000000
2418.075439 5067.000000
2419.108643 5025.000000
2420.142090 4984.000000
2421.174561 4995.000000
2422.206787 5019.000000
2423.237549 4978.000000
2424.268311 4930.000000
2425.298584 5053.000000
2426.327637 4937.000000
2427.356689 4811.000000
2428.384033 4879.000000
2429.411865 4877.000000
2430.438477 4813.000000
2431.464844 4719.000000
2432.489746 4762.000000
2433.514893 4742.000000
2434.539063 4874.000000
2435.562988 4698.000000
2436.585693 4718.000000
2437.607666 4696.000000
2438.629395 4564.000000
2439.650391 4567.000000
2440.670898 4568.000000
2441.690186 4513.000000
2442.709473 4529.000000
2443.727783 4429.000000
2444.745850 4446.000000
2445.762451 4629.000000
2446.779053 4446.000000
2447.794922 4359.000000
2448.810791 4329.000000
2449.825195 4436.000000
2450.838867 4354.000000
2451.852051 4376.000000
2452.864990 4415.000000
2453.877197 4297.000000
2454.888428 4277.000000
2455.899414 4332.000000
2456.909668 4316.000000
2457.919434 4179.000000
2458.928223 4186.000000
2459.936279 4222.000000
2460.944336 4261.000000
2461.951172 4212.000000
2462.957764 4166.000000
2463.963135 4091.000000
2464.968262 4107.000000
2465.973145 4074.000000
2466.976807 4012.000000
2467.980225 4092.000000
2468.982666 4151.000000
2469.984863 4178.000000
2470.986572 4223.000000
2471.987305 4121.000000
2472.987061 4013.000000
2473.986816 4046.000000
2474.985596 4117.000000
2475.983887 4115.000000
2476.981201 4022.000000
2477.978271 4046.000000
2478.975342 4024.000000
2479.970947 4027.000000
2480.966553 3954.000000
2481.960449 4048.000000
2482.954346 4056.000000
2483.947754 3936.000000
2484.940674 3982.000000
2485.932617 3993.000000
2486.923828 4008.000000
2487.914795 3972.000000
2488.905273 4076.000000
2489.894775 3917.000000
2490.883545 4042.000000
2491.872314 4076.000000
2492.860107 4095.000000
2493.846680 4009.000000
2494.833252 3994.000000
2495.819336 4000.000000
2496.804688 4040.000000
2497.789063 4039.000000
2498.773193 3942.000000
2499.757324 3909.000000
2500.739990 3960.000000
2501.722168 3868.000000
2502.703857 3927.000000
2503.684814 3948.000000
2504.665283 4015.000000
2505.645508 4023.000000
2506.624268 3972.000000
2507.602783 3831.000000
2508.580811 3853.000000
2509.558350 3822.000000
2510.534912 3962.000000
2511.511230 3835.000000
2512.486816 3798.000000
2513.461914 3806.000000
2514.436523 3900.000000
2515.409912 3876.000000
2516.383057 3778.000000
2517.355957 3849.000000
2518.327881 3617.000000
2519.299072 3736.000000
2520.269775 3613.000000
2521.240234 3677.000000
2522.209961 3585.000000
2523.178711 3623.000000
2524.146729 3604.000000
2525.114746 3721.000000
2526.081787 3599.000000
2527.048584 3563.000000
2528.014160 3631.000000
2528.979736 3708.000000
2529.944580 3506.000000
2530.908936 3553.000000
2531.872070 3487.000000
2532.835449 3477.000000
2533.797852 3523.000000
2534.760010 3581.000000
2535.720947 3486.000000
2536.681152 3613.000000
2537.641602 3461.000000
2538.601074 3430.000000
2539.559814 3533.000000
2540.517578 3525.000000
2541.475586 3393.000000
2542.432861 3426.000000
2543.389160 3359.000000
2544.345215 3394.000000
2545.300049 3377.000000
2546.255127 3258.000000
2547.209473 3403.000000
2548.163086 3545.000000
2549.115723 3279.000000
2550.068115 3234.000000
2551.020020 3244.000000
2551.971191 3206.000000
2552.921631 3058.000000
2553.871582 3318.000000
2554.821289 3261.000000
2555.770264 3303.000000
2556.718750 3211.000000
2557.666016 3144.000000
2558.613281 3176.000000
2559.559814 3233.000000
2560.505859 3067.000000
2561.450928 3115.000000
2562.395752 3065.000000
2563.340088 3144.000000
2564.283936 3022.000000
2565.227295 3114.000000
2566.169189 2954.000000
2567.111328 2937.000000
2568.052734 3116.000000
2568.993408 3015.000000
2569.933350 3051.000000
2570.873291 3035.000000
2571.812256 3086.000000
2572.750977 3044.000000
2573.688721 3055.000000
2574.626221 3094.000000
2575.562988 3046.000000
2576.499023 3047.000000
2577.434570 3092.000000
2578.369385 3161.000000
2579.304199 3108.000000
2580.238037 3017.000000
2581.171387 2755.000000
2582.104004 3060.000000
2583.036377 3074.000000
2583.968018 3084.000000
2584.899170 2877.000000
2585.829834 2929.000000
2586.759277 3052.000000
2587.688721 3027.000000
2588.617676 2989.000000
2589.546387 2994.000000
2590.473389 3042.000000
2591.400635 2925.000000
2592.327393 3015.000000
2593.253418 2853.000000
2594.179199 3000.000000
2595.103760 2937.000000
2596.028076 3005.000000
2596.951904 2973.000000
2597.875244 2921.000000
2598.797607 2893.000000
2599.719727 2966.000000
2600.641357 2951.000000
2601.562256 2866.000000
2602.482422 2894.000000
2603.402344 2918.000000
2604.321777 2871.000000
2605.240967 2922.000000
2606.159180 2840.000000
2607.076172 2887.000000
2607.993408 2761.000000
2608.910400 2903.000000
2609.826416 2705.000000
2610.741211 2800.000000
2611.656494 2698.000000
2612.571045 2769.000000
2613.484619 2722.000000
2614.398193 2699.000000
2615.310547 2716.000000
2616.222900 2757.000000
2617.134277 2633.000000
2618.045410 2747.000000
2618.955811 2678.000000
2619.865967 2680.000000
2620.775391 2754.000000
2621.684326 2661.000000
2622.592285 2778.000000
2623.500488 2777.000000
2624.407715 2725.000000
2625.314453 2648.000000
2626.220459 2667.000000
2627.126221 2636.000000
2628.031250 2710.000000
2628.936035 2681.000000
2629.840088 2637.000000
2630.743164 2521.000000
2631.646240 2592.000000
2632.548340 2596.000000
2633.450439 2611.000000
2634.352295 2518.000000
2635.252441 2569.000000
2636.152832 2479.000000
2637.052490 2579.000000
2637.951904 2455.000000
2638.849854 2468.000000
2639.748291 2506.000000
2640.646240 2450.000000
2641.543457 2414.000000
2642.439453 2406.000000
2643.335449 2552.000000
2644.231201 2371.000000
2645.126221 2436.000000
2646.020996 2491.000000
2646.914307 2348.000000
2647.807617 2352.000000
2648.700684 2398.000000
2649.593506 2412.000000
2650.484619 2478.000000
2651.375977 2389.000000
2652.266846 2301.000000
2653.156982 2353.000000
2654.046875 2291.000000
2654.935547 2253.000000
2655.824463 2270.000000
2656.712891 2243.000000
2657.600342 2310.000000
2658.486816 2245.000000
2659.373779 2346.000000
2660.260010 2251.000000
2661.145752 2239.000000
2662.030273 2296.000000
2662.914795 2291.000000
2663.799072 2345.000000
2664.682617 2178.000000
2665.565674 2417.000000
2666.447998 2256.000000
2667.329834 2294.000000
2668.210938 2246.000000
2669.092285 2328.000000
2669.972168 2386.000000
2670.852295 2252.000000
2671.731689 2324.000000
2672.611084 2256.000000
2673.489746 2311.000000
2674.366699 2269.000000
2675.244385 2349.000000
2676.121338 2232.000000
2676.997559 2184.000000
2677.873291 2303.000000
2678.748291 2299.000000
2679.623535 2242.000000
2680.497803 2180.000000
2681.371582 2099.000000
2682.244629 2179.000000
2683.117432 2209.000000
2683.989990 2133.000000
2684.861816 2208.000000
2685.732910 2194.000000
2686.603760 2065.000000
2687.474121 2141.000000
2688.344238 2074.000000
2689.212646 2153.000000
2690.081787 2027.000000
2690.950195 2110.000000
2691.818359 2029.000000
2692.685791 2065.000000
2693.552002 2042.000000
2694.418701 2105.000000
2695.284424 2060.000000
2696.150146 1995.000000
2697.014404 2002.000000
2697.879395 2256.000000
2698.742920 2039.000000
2699.606689 2027.000000
2700.468994 2001.000000
2701.331787 2047.000000
2702.193604 2021.000000
2703.054932 1974.000000
2703.916260 2050.000000
2704.776367 1994.000000
2705.636475 1971.000000
2706.496094 2018.000000
2707.355469 2000.000000
2708.213135 1928.000000
2709.071045 2005.000000
2709.929443 1918.000000
2710.786621 2003.000000
2711.643066 1912.000000
2712.499023 1944.000000
2713.354980 1850.000000
2714.210205 1831.000000
2715.064697 1878.000000
2715.918701 1883.000000
2716.772705 1929.000000
2717.625732 1881.000000
2718.479004 1819.000000
2719.330566 1863.000000
2720.182617 1782.000000
2721.034424 1882.000000
2721.885010 1890.000000
2722.735596 1849.000000
2723.585693 1865.000000
2724.435059 1836.000000
2725.284424 1885.000000
2726.132568 1797.000000
2726.980225 1883.000000
2727.828369 1785.000000
2728.675293 1817.000000
2729.522705 1857.000000
2730.368652 1770.000000
2731.213867 1719.000000
2732.059570 1802.000000
2732.904297 1826.000000
2733.749023 1759.000000
2734.592529 1720.000000
2735.436279 1769.000000
2736.279297 1657.000000
2737.121826 1791.000000
2737.963379 1750.000000
2738.805420 1768.000000
2739.646484 1774.000000
2740.487305 1803.000000
2741.327881 1858.000000
2742.167236 1684.000000
2743.006592 1693.000000
2743.845947 1735.000000
2744.684082 1753.000000
2745.521729 1661.000000
2746.359375 1728.000000
2747.196533 1770.000000
2748.033447 1718.000000
2748.869873 1691.000000
2749.705078 1697.000000
2750.540527 1631.000000
2751.375488 1663.000000
2752.209717 1728.000000
2753.043701 1617.000000
2753.877197 1673.000000
2754.710693 1605.000000
2755.543213 1705.000000
2756.375244 1700.000000
2757.206787 1598.000000
2758.038330 1634.000000
2758.868896 1622.000000
2759.699707 1614.000000
2760.529297 1636.000000
2761.358887 1675.000000
2762.188232 1648.000000
2763.016846 1588.000000
2763.844971 1596.000000
2764.672607 1781.000000
2765.500244 1627.000000
2766.327393 1599.000000
2767.153809 1627.000000
2767.979736 1571.000000
2768.805176 1609.000000
2769.630371 1638.000000
2770.455566 1550.000000
2771.279541 1514.000000
2772.103516 1663.000000
2772.927490 1574.000000
2773.750244 1571.000000
2774.573242 1404.000000
2775.395020 1517.000000
2776.216797 1514.000000
2777.038574 1624.000000
2777.859375 1553.000000
2778.679443 1528.000000
2779.499756 1526.000000
2780.319580 1389.000000
2781.139404 1408.000000
2781.957275 1513.000000
2782.776367 1459.000000
2783.594238 1540.000000
2784.411865 1559.000000
2785.229004 1484.000000
2786.045654 1507.000000
2786.862061 1490.000000
2787.677979 1481.000000
2788.493652 1378.000000
2789.308350 1477.000000
2790.123535 1373.000000
2790.937988 1364.000000
2791.751953 1463.000000
2792.565674 1408.000000
2793.378174 1334.000000
2794.190918 1442.000000
2795.003174 1380.000000
2795.814941 1435.000000
2796.625977 1504.000000
2797.437744 1344.000000
2798.248291 1476.000000
2799.058838 1344.000000
2799.867920 1406.000000
2800.677734 1427.000000
2801.486816 1356.000000
2802.295654 1377.000000
2803.104004 1364.000000
2803.911377 1444.000000
2804.719238 1298.000000
2805.526367 1292.000000
2806.333252 1343.000000
2807.138916 1544.000000
2807.945068 1351.000000
2808.750488 1303.000000
2809.555908 1319.000000
2810.360596 1386.000000
2811.164307 1253.000000
2811.968506 1314.000000
2812.772217 1422.000000
2813.575684 1315.000000
2814.377686 1352.000000
2815.180420 1342.000000
2815.982422 1220.000000
2816.784180 1340.000000
2817.585449 1286.000000
2818.386230 1328.000000
2819.186523 1296.000000
2819.987061 1268.000000
2820.786621 1305.000000
2821.585693 1140.000000
2822.384766 1371.000000
2823.183594 1365.000000
2823.981934 1260.000000
2824.779297 1237.000000
2825.576904 1327.000000
2826.373779 1355.000000
2827.170898 1243.000000
2827.967285 1336.000000
2828.762939 1270.000000
2829.558594 1174.000000
2830.354004 1214.000000
2831.148926 1281.000000
2831.943115 1264.000000
2832.737305 1284.000000
2833.531250 1268.000000
2834.324707 1228.000000
2835.117432 1194.000000
2835.909912 1220.000000
2836.702393 1076.000000
2837.494629 1308.000000
2838.286377 1276.000000
2839.077148 1248.000000
2839.867920 1252.000000
2840.658936 1265.000000
2841.448975 1284.000000
2842.238525 1197.000000
2843.028320 1268.000000
2843.817139 1200.000000
2844.605957 1298.000000
2845.394775 1203.000000
2846.182617 1265.000000
2846.969971 1183.000000
2847.757568 1207.000000
2848.544678 1213.000000
2849.331055 1147.000000
2850.117432 1177.000000
2850.903564 1154.000000
2851.689209 1087.000000
2852.473877 1131.000000
2853.259033 1182.000000
2854.043945 1131.000000
2854.828125 1157.000000
2855.612305 1230.000000
2856.395264 1101.000000
2857.178467 1201.000000
2857.961426 1138.000000
2858.743896 1059.000000
2859.526123 1171.000000
2860.307861 965.000000
2861.089355 1117.000000
2861.871094 1152.000000
2862.652100 1165.000000
2863.432373 1119.000000
2864.212402 1138.000000
2864.992432 1118.000000
2865.772217 1112.000000
2866.551025 1073.000000
2867.330078 1193.000000
2868.108643 1063.000000
2868.886963 1196.000000
2869.664795 1116.000000
2870.442383 1151.000000
2871.219727 1165.000000
2871.996826 1123.000000
2872.773438 1177.000000
2873.549561 1176.000000
2874.325684 1246.000000
2875.101318 1097.000000
2875.876709 1223.000000
2876.651611 1171.000000
2877.426270 1197.000000
2878.200928 1224.000000
2878.975342 1054.000000
2879.749023 1114.000000
2880.521973 1169.000000
2881.295654 1138.000000
2882.068359 1173.000000
2882.841064 1008.000000
2883.613037 1040.000000
2884.384766 1047.000000
2885.156982 1012.000000
2885.927979 1109.000000
2886.698486 1144.000000
2887.469482 991.000000
2888.240479 1051.000000
2889.010742 988.000000
2889.780029 1090.000000
2890.549561 1048.000000
2891.319092 1077.000000
2892.088135 1105.000000
2892.856689 1084.000000
2893.625244 1083.000000
2894.392822 980.000000
2895.160889 971.000000
2895.928467 962.000000
2896.696045 1049.000000
2897.462402 1039.000000
2898.229736 1048.000000
2898.995850 1025.000000
2899.762207 948.000000
2900.527100 930.000000
2901.292480 990.000000
2902.058350 872.000000
2902.822754 902.000000
2903.587158 1027.000000
2904.351807 1028.000000
2905.115479 1043.000000
2905.879883 933.000000
2906.643555 971.000000
2907.406494 890.000000
2908.169189 1039.000000
2908.932373 919.000000
2909.695068 934.000000
2910.456543 930.000000
2911.218506 930.000000
spectrumdark 2048
-97.012215 6155.000000
-94.385345 6155.000000
-91.760353 6081.000000
-89.137253 6456.000000
-86.516022 5818.000000
-83.896690 6284.000000
-81.279221 6071.000000
-78.663628 6435.000000
-76.049911 6161.000000
-73.438072 5929.000000
-70.828094 6152.000000
-68.220001 5954.000000
-65.613754 5986.000000
-63.009384 6011.000000
-60.406876 6143.000000
-57.806221 5605.000000
-55.207428 6233.000000
-52.610493 6845.000000
-50.015411 6487.000000
-47.422184 6547.000000
-44.830807 6226.000000
-42.241276 6727.000000
-39.653587 5882.000000
-37.067749 6115.000000
-34.483753 6447.000000
-31.901596 5773.000000
-29.321283 6291.000000
-26.742798 5709.000000
-24.166155 6210.000000
-21.591337 6230.000000
-19.018360 6498.000000
-16.447203 6534.000000
-13.877879 6822.000000
-11.310381 7776.000000
-8.744701 6260.000000
-6.180848 6549.000000
-3.618807 5973.000000
-1.058591 5861.000000
1.499817 6217.000000
4.056404 6937.000000
6.611186 6595.000000
9.164151 6055.000000
11.715316 6683.000000
14.264668 6523.000000
16.812223 6603.000000
19.357967 5998.000000
21.901918 5723.000000
24.444065 6830.000000
26.984415 6826.000000
29.522980 6867.000000
32.059750 6228.000000
34.594715 5810.000000
37.127903 7261.000000
39.659309 6353.000000
42.188923 7107.000000
44.716740 6484.000000
47.242798 7916.000000
49.767067 5646.000000
52.289566 6251.000000
54.810268 6695.000000
57.329216 6348.000000
59.846390 6473.000000
62.361786 6601.000000
64.875404 5634.000000
67.387268 5731.000000
69.897385 6509.000000
72.405708 6526.000000
74.912277 5987.000000
77.417099 6357.000000
79.920166 6446.000000
82.421455 6270.000000
84.921005 6153.000000
87.418800 6359.000000
89.914864 5743.000000
92.409149 7245.000000
94.901695 5792.000000
97.392525 6954.000000
99.881584 7183.000000
102.368896 6394.000000
104.854485 6230.000000
107.338333 6376.000000
109.820435 5709.000000
112.300812 6511.000000
114.779465 6256.000000
117.256393 6481.000000
119.731567 7220.000000
122.205032 6794.000000
124.676765 5875.000000
127.146790 6737.000000
129.615051 6270.000000
132.081650 6261.000000
134.546494 5676.000000
137.009644 6230.000000
139.471054 7315.000000
141.930771 6841.000000
144.388763 6359.000000
146.845062 5985.000000
149.299652 5861.000000
151.752518 6831.000000
154.203705 6359.000000
156.653198 6562.000000
159.100967 6082.000000
161.547028 6559.000000
163.991409 8691.000000
166.434113 6347.000000
168.875122 6780.000000
171.314423 6225.000000
173.752014 7247.000000
176.187973 6631.000000
178.622192 6971.000000
181.054733 7168.000000
183.485626 6682.000000
185.914795 6819.000000
188.342316 6738.000000
190.768158 6339.000000
193.192322 6681.000000
195.614822 7117.000000
198.035629 7346.000000
200.454773 6501.000000
202.872253 6023.000000
205.288040 7590.000000
207.702179 7119.000000
210.114685 6401.000000
212.525513 6086.000000
214.934662 6211.000000
217.342178 7412.000000
219.747986 6131.000000
222.152206 6567.000000
224.554718 6672.000000
226.955612 6895.000000
229.354858 6440.000000
231.752441 6862.000000
234.148361 7247.000000
236.542664 6560.000000
238.935303 5874.000000
241.326324 6772.000000
243.715683 6545.000000
246.103424 6406.000000
248.489517 6997.000000
250.873978 6089.000000
253.256790 7828.000000
255.638031 6683.000000
258.017578 6688.000000
260.395538 6474.000000
262.771820 7587.000000
265.146545 7577.000000
267.519623 7846.000000
269.891052 6169.000000
272.260834 6460.000000
274.629059 5906.000000
276.995636 6358.000000
279.360626 6756.000000
281.723999 6070.000000
284.085724 6301.000000
286.445862 7100.000000
288.804382 5945.000000
291.161316 6504.000000
293.516632 6424.000000
295.870361 5978.000000
298.222443 6017.000000
300.572968 6271.000000
302.921906 6360.000000
305.269196 6684.000000
307.614960 6333.000000
309.959045 6530.000000
312.301605 7351.000000
314.642548 7521.000000
316.981873 7189.000000
319.319641 6942.000000
321.655853 8065.000000
323.990417 6303.000000
326.323425 6499.000000
328.654877 5983.000000
330.984741 6576.000000
333.313019 6398.000000
335.639679 7246.000000
337.964844 6331.000000
340.288391 6135.000000
342.610382 6028.000000
344.930817 7552.000000
347.249634 7665.000000
349.566895 6063.000000
351.882629 5835.000000
354.196777 6972.000000
356.509338 6341.000000
358.820343 6335.000000
361.129822 7119.000000
363.437775 6354.000000
365.744110 5633.000000
368.048859 6362.000000
370.352142 6454.000000
372.653809 6287.000000
374.953979 6352.000000
377.252594 6263.000000
379.549652 5725.000000
381.845154 6088.000000
384.139130 5879.000000
386.431519 5229.000000
388.722412 5639.000000
391.011780 6222.000000
393.299561 6292.000000
395.585815 6515.000000
397.870575 6950.000000
400.153717 6055.000000
402.435425 6420.000000
404.715607 6120.000000
406.994202 7211.000000
409.271271 6444.000000
411.546814 6715.000000
413.820831 6489.000000
416.093414 6332.000000
418.364380 6207.000000
420.633850 6484.000000
422.901825 7146.000000
425.168243 7278.000000
427.433167 6289.000000
429.696625 6238.000000
431.958496 6497.000000
434.218903 5985.000000
436.477753 6576.000000
438.735138 6086.000000
440.991028 5677.000000
443.245422 5842.000000
445.498291 5482.000000
447.749603 6924.000000
449.999512 6017.000000
452.247833 6198.000000
454.494720 5633.000000
456.740143 6457.000000
458.984009 6513.000000
461.226379 6838.000000
463.467255 5645.000000
465.706726 6690.000000
467.944611 5454.000000
470.181061 5859.000000
472.415985 6037.000000
474.649445 7414.000000
476.881470 6664.000000
479.111969 5672.000000
481.340973 6435.000000
483.568512 6358.000000
485.794556 5889.000000
488.019165 6585.000000
490.242310 5868.000000
492.463989 6494.000000
494.684113 6660.000000
496.902832 5698.000000
499.120056 6231.000000
501.335907 5605.000000
503.550140 6181.000000
505.763062 6441.000000
507.974396 6440.000000
510.184296 6911.000000
512.392761 6515.000000
514.599854 6558.000000
516.805359 6406.000000
519.009460 6569.000000
521.212036 6179.000000
523.413208 6523.000000
525.613037 6641.000000
527.811340 6913.000000
530.008118 5342.000000
532.203552 5850.000000
534.397461 5490.000000
536.590027 7562.000000
538.781067 6727.000000
540.970703 6056.000000
543.158936 6856.000000
545.345642 7160.000000
547.530884 6805.000000
549.714844 6251.000000
551.897217 6421.000000
554.078247 6085.000000
556.257751 6045.000000
558.435974 5891.000000
560.612671 5975.000000
562.787964 6398.000000
564.961853 6459.000000
567.134277 5923.000000
569.305298 6059.000000
571.474854 6294.000000
573.643127 5237.000000
575.809875 6363.000000
577.975159 6222.000000
580.139038 6051.000000
582.301636 5717.000000
584.462708 6111.000000
586.622375 5650.000000
588.780701 5784.000000
590.937500 6186.000000
593.092957 6590.000000
595.247009 5767.000000
597.399719 6181.000000
599.550903 7285.000000
601.700745 6833.000000
603.849243 6625.000000
605.996155 6075.000000
608.141846 6511.000000
610.286133 6483.000000
612.428955 6939.000000
614.570313 6187.000000
616.710449 6478.000000
618.849060 7563.000000
620.986389 5703.000000
623.122253 6622.000000
625.256714 6906.000000
627.389709 7161.000000
629.521545 6626.000000
631.651917 6579.000000
633.780884 6789.000000
635.908386 6484.000000
638.034607 6211.000000
640.159302 7324.000000
642.282776 6395.000000
644.404907 6786.000000
646.525574 6857.000000
648.644897 6623.000000
650.762817 5776.000000
652.879395 5663.000000
654.994568 6449.000000
657.108398 6526.000000
659.220764 5815.000000
661.331909 6077.000000
663.441650 5378.000000
665.549927 6019.000000
667.657043 6281.000000
669.762695 6827.000000
671.866882 5651.000000
673.969849 5765.000000
676.071411 6982.000000
678.171631 5330.000000
680.270447 6803.000000
682.367920 6263.000000
684.464111 7062.000000
686.558838 6245.000000
688.652344 6932.000000
690.744507 6558.000000
692.835144 7934.000000
694.924561 6600.000000
697.012695 6491.000000
699.099365 6040.000000
701.184814 6664.000000
703.268738 5120.000000
705.351440 5948.000000
707.432861 5878.000000
709.512817 7593.000000
711.591553 6312.000000
713.668823 5560.000000
715.744812 6512.000000
717.819519 6076.000000
719.892944 6882.000000
721.964844 6316.000000
724.035583 7456.000000
726.104980 5804.000000
728.172974 6469.000000
730.239624 6297.000000
732.305054 7064.000000
734.369141 5785.000000
736.431885 6156.000000
738.493286 6538.000000
740.553406 6586.000000
742.612122 6017.000000
744.669617 6703.000000
746.725830 6457.000000
748.780640 6689.000000
750.834167 6428.000000
752.886292 7510.000000
754.937195 5714.000000
756.986877 6691.000000
759.035095 6343.000000
761.082092 6168.000000
763.127808 7080.000000
765.172119 5320.000000
767.215149 5771.000000
769.256958 15043.000000
771.297424 7213.000000
773.336487 6372.000000
775.374390 6096.000000
777.410950 6006.000000
779.446289 5346.000000
781.480286 5750.000000
783.512878 6957.000000
785.544312 5480.000000
787.574341 11569.000000
789.603088 6036.000000
791.630676 6333.000000
793.656921 6315.000000
795.681763 5808.000000
797.705505 5551.000000
799.727844 6321.000000
801.748962 5827.000000
803.768738 6598.000000
805.787231 4892.000000
807.804504 6707.000000
809.820374 6834.000000
811.835083 5751.000000
813.848450 6452.000000
815.860596 6261.000000
817.871521 6007.000000
819.881104 6528.000000
821.889465 5223.000000
823.896423 5680.000000
825.902161 6035.000000
827.906677 5758.000000
829.909912 5665.000000
831.911865 6546.000000
833.912537 6108.000000
835.911987 5942.000000
837.910095 6296.000000
839.907104 6931.000000
841.902710 6208.000000
843.897156 6020.000000
845.890259 6176.000000
847.882141 6836.000000
849.872681 5570.000000
851.861938 6824.000000
853.850159 6033.000000
855.836975 5617.000000
857.822571 6400.000000
859.806885 7228.000000
861.790100 6305.000000
863.771912 6403.000000
865.752502 5798.000000
867.731812 7749.000000
869.709961 7020.000000
871.686768 6150.000000
873.662292 5870.000000
875.636780 6220.000000
877.609802 6067.000000
879.581787 5424.000000
881.552429 6417.000000
883.521912 6124.000000
885.490051 5653.000000
887.457031 5222.000000
889.422668 6148.000000
891.387146 5838.000000
893.350403 6021.000000
895.312439 6479.000000
897.273193 5765.000000
899.232727 6480.000000
901.190979 6688.000000
903.148132 6323.000000
905.104126 6034.000000
907.058716 6931.000000
909.012085 6464.000000
910.964294 6396.000000
912.915283 6335.000000
914.864990 7045.000000
916.813538 6274.000000
918.760864 6156.000000
920.706909 6108.000000
922.651672 6067.000000
924.595398 6211.000000
926.537964 5944.000000
928.479248 5560.000000
930.419189 6485.000000
932.358032 5699.000000
934.295593 5442.000000
936.231934 5948.000000
938.167114 5824.000000
940.101013 6083.000000
942.033813 5910.000000
943.965393 6808.000000
945.895813 5229.000000
947.825012 6489.000000
949.752869 7067.000000
951.679688 6645.000000
953.605225 5984.000000
955.529480 5351.000000
957.452637 5954.000000
959.374634 6707.000000
961.295349 7267.000000
963.214905 6452.000000
965.133301 5330.000000
967.050659 6352.000000
968.966553 6371.000000
970.881348 6126.000000
972.794922 5960.000000
974.707336 6360.000000
976.618530 6441.000000
978.528564 5490.000000
980.437317 6244.000000
982.345032 6156.000000
984.251526 6357.000000
986.156799 5719.000000
988.060974 6804.000000
989.963928 6128.000000
991.865662 6744.000000
993.766235 6574.000000
995.665649 6598.000000
997.563843 5260.000000
999.460876 6652.000000
1001.356689 6453.000000
1003.251343 7696.000000
1005.144897 5513.000000
1007.037170 7133.000000
1008.928528 6032.000000
1010.818542 5390.000000
1012.707336 6592.000000
1014.594971 6291.000000
1016.481445 6902.000000
1018.366760 6697.000000
1020.250916 5940.000000
1022.133850 5865.000000
1024.015747 6203.000000
1025.896362 5185.000000
1027.775879 5878.000000
1029.654419 6116.000000
1031.531616 5375.000000
1033.407471 6182.000000
1035.282349 5923.000000
1037.156250 6604.000000
1039.028687 6925.000000
1040.900146 6702.000000
1042.770264 5513.000000
1044.639404 5530.000000
1046.507324 5765.000000
1048.374146 7003.000000
1050.239868 6725.000000
1052.104370 6443.000000
1053.967773 6469.000000
1055.829834 6446.000000
1057.690918 5898.000000
1059.550903 6558.000000
1061.409546 6622.000000
1063.267090 5827.000000
1065.123535 6668.000000
1066.978882 5933.000000
1068.833008 5781.000000
1070.686279 6244.000000
1072.538086 6291.000000
1074.388916 6148.000000
1076.238525 6143.000000
1078.086914 5783.000000
1079.934448 7969.000000
1081.780640 5619.000000
1083.625610 6208.000000
1085.469727 5387.000000
1087.312500 5578.000000
1089.154053 6494.000000
1090.994873 5470.000000
1092.834106 5768.000000
1094.672607 6046.000000
1096.509766 6044.000000
1098.345703 6848.000000
1100.180664 6580.000000
1102.014404 5389.000000
1103.847168 5461.000000
1105.678589 6109.000000
1107.509155 7296.000000
1109.338379 6573.000000
1111.166626 6378.000000
1112.993652 7122.000000
1114.819702 5439.000000
1116.644531 6333.000000
1118.468262 7138.000000
1120.290771 6064.000000
1122.112183 5901.000000
1123.932739 5862.000000
1125.751831 6598.000000
1127.570068 7089.000000
1129.386963 6773.000000
1131.203003 6614.000000
1133.017822 6468.000000
1134.831543 5544.000000
1136.644165 5863.000000
1138.455566 5631.000000
1140.265991 6181.000000
1142.075317 6708.000000
1143.883301 6952.000000
1145.690552 5942.000000
1147.496338 5906.000000
1149.301270 5390.000000
1151.105103 5356.000000
1152.907715 6145.000000
1154.709473 6104.000000
1156.509766 5829.000000
1158.309082 6148.000000
1160.107422 5852.000000
1161.904419 5415.000000
1163.700684 5865.000000
1165.495605 6087.000000
1167.289429 6317.000000
1169.082397 7696.000000
1170.874023 5782.000000
1172.664673 6519.000000
1174.454346 5990.000000
1176.242554 5775.000000
1178.029907 7024.000000
1179.816162 6861.000000
1181.601318 5759.000000
1183.385376 5964.000000
1185.168335 7679.000000
1186.950317 5904.000000
1188.731079 5907.000000
1190.510864 6318.000000
1192.289551 6953.000000
1194.067261 6622.000000
1195.843750 7161.000000
1197.619141 6555.000000
1199.393433 6513.000000
1201.166626 6659.000000
1202.938965 6492.000000
1204.709961 6686.000000
1206.480103 5687.000000
1208.249023 6142.000000
1210.016846 6310.000000
1211.783813 5861.000000
1213.549438 5909.000000
1215.314087 6959.000000
1217.077637 6485.000000
1218.840088 5884.000000
1220.601685 6679.000000
1222.362061 5890.000000
1224.121338 6326.000000
1225.879761 6079.000000
1227.636963 7085.000000
1229.393066 6446.000000
1231.148071 5584.000000
1232.902222 5949.000000
1234.655029 5895.000000
1236.406860 5978.000000
1238.157837 5932.000000
1239.907471 4933.000000
1241.656250 6950.000000
1243.403687 6478.000000
1245.150391 6637.000000
1246.895874 6493.000000
1248.640503 6335.000000
1250.383789 6737.000000
1252.126099 6676.000000
1253.867310 5358.000000
1255.607666 5059.000000
1257.346924 5858.000000
1259.084961 6542.000000
1260.822144 7101.000000
1262.558105 6117.000000
1264.293091 6434.000000
1266.027100 7208.000000
1267.760132 5940.000000
1269.491943 6210.000000
1271.222778 6390.000000
1272.952393 7237.000000
1274.681152 5917.000000
1276.408813 5660.000000
1278.135376 5509.000000
1279.861084 5552.000000
1281.585449 6419.000000
1283.308960 5183.000000
1285.031494 6949.000000
1286.753052 6582.000000
1288.473389 6153.000000
1290.192749 6687.000000
1291.911011 7258.000000
1293.628296 6391.000000
1295.344604 5740.000000
1297.059692 6343.000000
1298.773804 6075.000000
1300.486938 5745.000000
1302.199219 6462.000000
1303.910278 8285.000000
1305.620361 5567.000000
1307.329346 6323.000000
1309.037109 6562.000000
1310.744263 6980.000000
1312.449951 5726.000000
1314.154907 6839.000000
1315.858887 6142.000000
1317.561646 5964.000000
1319.263428 6520.000000
1320.964355 6048.000000
1322.663940 9779.000000
1324.362671 7685.500000
1326.060669 18840.500000
1327.757324 6477.000000
1329.452881 7125.000000
1331.147583 6830.000000
1332.841064 5717.000000
1334.533691 5372.000000
1336.225464 7154.000000
1337.915894 6286.000000
1339.605591 6572.000000
1341.294189 6182.000000
1342.981689 7588.000000
1344.668213 5601.000000
1346.353638 6744.000000
1348.038086 5944.000000
1349.721680 7209.000000
1351.404053 6361.000000
1353.085449 5935.000000
1354.765991 6488.000000
1356.445313 6705.000000
1358.124023 5806.000000
1359.801392 6475.000000
1361.477661 5818.000000
1363.152954 5557.000000
1364.827515 6599.000000
1366.500854 6493.000000
1368.173218 6774.000000
1369.844604 5217.000000
1371.515015 6659.000000
1373.184326 6207.000000
1374.852661 5715.000000
1376.520142 5956.000000
1378.186523 6430.000000
1379.851929 6098.000000
1381.516357 5815.000000
1383.179565 5979.000000
1384.842163 5693.000000
1386.503418 6381.000000
1388.163818 6568.000000
1389.823120 6390.000000
1391.481445 6503.000000
1393.139038 6810.000000
1394.795410 6434.000000
1396.450928 7008.000000
1398.105225 6280.000000
1399.758667 5815.000000
1401.411011 6116.000000
1403.062622 6429.000000
1404.713013 7141.000000
1406.362305 6252.000000
1408.010864 7483.000000
1409.658325 7864.000000
1411.304810 6146.000000
1412.950439 6203.000000
1414.595093 5976.000000
1416.238525 6998.000000
1417.881104 7132.000000
1419.522583 6849.000000
1421.163208 6539.000000
1422.802856 6484.000000
1424.441406 5973.000000
1426.079102 6609.000000
1427.715698 6306.000000
1429.351318 6002.000000
1430.986206 6328.000000
1432.619995 5890.000000
1434.252686 6107.000000
1435.884399 5661.000000
1437.515259 6281.000000
1439.145020 6064.000000
1440.773682 7877.000000
1442.401733 6010.000000
1444.028687 6182.000000
1445.654419 6143.000000
1447.279541 6185.000000
1448.903564 6418.000000
1450.526611 6024.000000
1452.148682 6032.000000
1453.769653 7374.000000
1455.389648 6295.000000
1457.008911 6905.000000
1458.626831 5661.000000
1460.244141 5597.000000
1461.860474 5533.000000
1463.475586 7234.000000
1465.089844 6239.000000
1466.703247 5175.000000
1468.315552 5623.000000
1469.927002 6198.000000
1471.537598 6292.000000
1473.146973 5946.000000
1474.755371 6026.000000
1476.362915 6202.000000
1477.969482 6684.000000
1479.575317 5281.000000
1481.179932 6328.000000
1482.783691 5581.000000
1484.386230 6920.000000
1485.988159 5520.000000
1487.588867 5463.000000
1489.188843 5625.000000
1490.787720 6263.000000
1492.385742 6508.000000
1493.982666 6660.000000
1495.578735 6343.000000
1497.173828 5966.000000
1498.767944 5462.000000
1500.361328 6533.000000
1501.953613 5484.000000
1503.544678 6007.000000
1505.135254 6757.000000
1506.724487 6408.000000
1508.313110 6111.000000
1509.900635 6544.000000
1511.487061 6775.000000
1513.072754 6222.000000
1514.657349 6609.000000
1516.241089 6198.000000
1517.823730 6305.000000
1519.405640 6583.000000
1520.986450 6629.000000
1522.566528 6023.000000
1524.145386 6236.000000
1525.723389 6382.000000
1527.300659 6299.000000
1528.876709 5678.000000
1530.452026 5862.000000
1532.026245 6328.000000
1533.599731 5505.000000
1535.171997 5890.000000
1536.743530 6381.000000
1538.314087 6416.000000
1539.883789 6336.000000
1541.452271 5430.000000
1543.020020 6588.000000
1544.586914 5570.000000
1546.152588 6793.000000
1547.717529 5980.000000
1549.281372 5137.000000
1550.844604 7433.000000
1552.406494 6285.000000
1553.967773 5987.000000
1555.527954 5668.000000
1557.087402 5767.000000
1558.645752 5787.000000
1560.203369 6246.000000
1561.759888 7027.000000
1563.315186 5840.000000
1564.869873 6323.000000
1566.423828 5655.000000
1567.976807 6361.000000
1569.528442 5706.000000
1571.079346 5856.000000
1572.629517 6231.000000
1574.178711 6275.000000
1575.726563 5766.000000
1577.273926 5528.000000
1578.820313 5752.000000
1580.365845 5063.000000
1581.910400 6575.000000
1583.453735 6389.000000
1584.996460 6597.000000
1586.538330 6416.000000
1588.079102 6655.000000
1589.618896 5807.000000
1591.157959 6690.000000
1592.695923 5847.000000
1594.233398 6092.000000
1595.769531 5858.000000
1597.304565 6647.000000
1598.839111 6233.000000
1600.372681 5946.000000
1601.905396 5852.000000
1603.436523 6213.000000
1604.967407 6390.000000
1606.497437 5726.000000
1608.026245 6172.000000
1609.553955 6117.000000
1611.081055 5978.000000
1612.607422 5924.000000
1614.132813 6272.000000
1615.657349 5829.000000
1617.180542 5735.000000
1618.703003 5584.000000
1620.224731 6585.000000
1621.745605 6881.000000
1623.265015 6505.500000
1624.783936 6130.000000
1626.302124 6033.000000
1627.819458 5974.000000
1629.335693 6347.000000
1630.850586 7005.000000
1632.364990 6705.000000
1633.878662 5762.000000
1635.391235 6741.000000
1636.902588 5863.000000
1638.413574 6411.000000
1639.923462 6210.000000
1641.432495 6093.000000
1642.940186 5554.000000
1644.447510 6111.000000
1645.953979 7082.000000
1647.459473 6272.000000
1648.964111 6826.000000
1650.467285 6133.000000
1651.969849 6519.000000
1653.472046 6264.000000
1654.972900 6657.000000
1656.472656 7556.000000
1657.971558 6010.000000
1659.470093 6539.000000
1660.967407 6209.000000
1662.463989 6019.000000
1663.958984 6521.000000
1665.453735 6280.000000
1666.947632 5179.000000
1668.440552 5587.000000
1669.932129 6028.500000
1671.423218 6470.000000
1672.913696 6073.000000
1674.403076 5966.000000
1675.890991 6894.000000
1677.378662 6924.000000
1678.865356 6020.000000
1680.351196 5367.000000
1681.836182 6128.000000
1683.319702 6193.000000
1684.802979 6096.000000
1686.285400 5853.000000
1687.766724 6163.000000
1689.246582 6148.000000
1690.726196 5322.000000
1692.205078 6549.000000
1693.682983 5687.000000
1695.159912 6035.000000
1696.635620 5733.000000
1698.110962 6285.000000
1699.585083 6307.000000
1701.058594 5411.000000
1702.530640 5594.000000
1704.002441 6839.000000
1705.473267 6375.000000
1706.943237 7111.000000
1708.411865 5074.000000
1709.880005 5821.000000
1711.347412 6466.000000
1712.813721 5475.000000
1714.279419 5714.000000
1715.743408 6145.000000
1717.207275 5907.000000
1718.670288 6913.000000
1720.132324 6359.000000
1721.593140 6568.000000
1723.053345 5471.000000
1724.512817 5627.000000
1725.971436 6163.000000
1727.429077 5950.000000
1728.885376 6277.000000
1730.341431 6003.000000
1731.796509 6446.000000
1733.250610 5967.000000
1734.703491 6817.000000
1736.156128 5882.000000
1737.607666 6819.000000
1739.058472 5968.000000
1740.508301 6538.000000
1741.956787 5899.000000
1743.404907 7316.000000
1744.852173 6451.000000
1746.298706 6637.000000
1747.743652 6709.000000
1749.188354 6147.000000
1750.632202 5800.000000
1752.075195 5431.000000
1753.516724 6475.000000
1754.958008 6322.000000
1756.398438 6303.000000
1757.837891 6284.000000
1759.276367 5402.000000
1760.713867 5935.000000
1762.150879 7528.000000
1763.586914 5827.000000
1765.022095 7097.000000
1766.455811 6192.000000
1767.889404 6378.000000
1769.322021 6637.000000
1770.753784 5738.000000
1772.184692 5711.000000
1773.614380 6337.000000
1775.043335 6157.000000
1776.471802 6286.000000
1777.899292 6661.000000
1779.325439 6306.000000
1780.751343 5574.000000
1782.176147 6867.000000
1783.600342 5568.000000
1785.023071 6582.000000
1786.445313 6564.000000
1787.866821 6856.000000
1789.287598 5930.000000
1790.707397 6125.000000
1792.125854 6108.000000
1793.543823 6781.000000
1794.961182 5460.000000
1796.377686 5988.000000
1797.792725 6486.000000
1799.207397 5808.000000
1800.621460 6630.000000
1802.034302 5957.000000
1803.446533 6945.000000
1804.857422 7128.000000
1806.267822 7736.000000
1807.677490 6565.000000
1809.086182 5994.000000
1810.493774 5378.000000
1811.900879 6448.000000
1813.307129 6396.000000
1814.712402 6651.000000
1816.116577 6033.000000
1817.520386 5928.000000
1818.923218 6196.000000
1820.325195 5988.000000
1821.726563 5911.000000
1823.126465 6311.000000
1824.525757 6377.000000
1825.924561 6501.000000
1827.322510 7452.000000
1828.719116 5687.000000
1830.115112 6734.000000
1831.510376 5903.000000
1832.905029 8070.000000
1834.298706 6065.000000
1835.691040 6790.000000
1837.082886 6444.000000
1838.474121 5863.000000
1839.864380 7101.000000
1841.253418 6023.000000
1842.642090 6029.000000
1844.029785 5928.000000
1845.416748 5818.000000
1846.802368 6914.000000
1848.187744 5863.000000
1849.572266 6402.000000
1850.956055 6308.000000
1852.338745 6356.000000
1853.720215 5393.000000
1855.101196 6539.000000
1856.481689 6336.000000
1857.861206 5737.000000
1859.239258 5953.000000
1860.617188 6202.000000
1861.994141 7914.000000
1863.370361 6125.000000
1864.745728 6047.000000
1866.119629 5678.000000
1867.493408 5656.000000
1868.866333 6177.000000
1870.238159 6031.000000
1871.609009 6891.000000
1872.979492 5493.000000
1874.348877 6029.000000
1875.717773 6095.000000
1877.085083 7083.000000
1878.452271 6042.000000
1879.818481 5978.000000
1881.183960 6750.000000
1882.548706 7482.000000
1883.911865 6775.000000
1885.274902 6889.000000
1886.637085 6281.000000
1887.998413 6445.000000
1889.358398 5653.000000
1890.718018 5766.000000
1892.077026 6103.000000
1893.435059 6631.000000
1894.792236 7263.000000
1896.148193 5882.000000
1897.503906 7565.000000
1898.858643 5811.000000
1900.212524 5539.000000
1901.565308 5906.000000
1902.917603 6021.000000
1904.269165 5947.000000
1905.619873 6830.000000
1906.969360 6531.000000
1908.318359 6653.000000
1909.666504 5806.000000
1911.014038 6115.000000
1912.360840 6288.000000
1913.706055 6759.000000
1915.051025 6090.000000
1916.395264 5425.000000
1917.738647 6519.000000
1919.080688 5924.000000
1920.422485 6707.000000
1921.763428 6969.000000
1923.103638 6126.000000
1924.442871 6238.000000
1925.781128 6281.000000
1927.118774 6478.000000
1928.455688 7046.000000
1929.791748 6652.000000
1931.126587 5556.000000
1932.461060 6614.000000
1933.794800 7268.000000
1935.127686 6237.000000
1936.459106 5684.000000
1937.790649 6308.000000
1939.120850 6544.000000
1940.450562 5768.000000
1941.779419 6070.000000
1943.107056 5821.000000
1944.434204 5032.000000
1945.760620 5821.000000
1947.086304 6465.000000
1948.410645 5817.000000
1949.734741 6575.000000
1951.057983 6313.000000
1952.380493 6394.000000
1953.701904 5799.000000
1955.022339 7395.000000
1956.342163 6027.000000
1957.661621 5574.000000
1958.980103 6753.000000
1960.297241 5902.000000
1961.614014 5843.000000
1962.930054 6574.000000
1964.245361 6589.000000
1965.559204 6294.000000
1966.872803 5721.000000
1968.185669 6151.000000
1969.497681 5969.000000
1970.809082 6058.000000
1972.119141 6276.000000
1973.428711 5742.000000
1974.737549 6123.000000
1976.045776 6546.000000
1977.352661 6077.000000
1978.658936 7201.000000
1979.964844 5564.000000
1981.269531 6363.000000
1982.573730 5901.000000
1983.876709 5658.000000
1985.179321 7550.000000
1986.480957 6121.000000
1987.781982 6702.000000
1989.081421 6070.000000
1990.380981 6580.000000
1991.679443 5324.000000
1992.977417 6055.000000
1994.273804 6104.000000
1995.570190 5801.000000
1996.865601 5625.000000
1998.160278 6517.000000
1999.454102 5671.000000
2000.746704 6509.000000
2002.038818 5719.000000
2003.330444 7106.000000
2004.621338 6458.000000
2005.910645 6230.000000
2007.199707 6746.000000
2008.488037 5943.000000
2009.775635 5984.000000
2011.062378 6636.000000
2012.348022 5648.000000
2013.633301 6356.000000
2014.917603 5990.000000
2016.201294 5569.000000
2017.483643 6037.000000
2018.765625 6504.000000
2020.047119 6740.000000
2021.327637 5864.000000
2022.607422 6011.000000
2023.886108 6755.000000
2025.164063 5812.000000
2026.441528 5888.000000
2027.718384 6273.000000
2028.993530 5762.000000
2030.268799 6566.000000
2031.543091 6029.000000
2032.816406 5892.000000
2034.088867 5838.000000
2035.360962 6120.000000
2036.631958 6837.000000
2037.902710 6599.000000
2039.172119 6001.000000
2040.440430 6681.000000
2041.708740 6580.000000
2042.976074 5890.000000
2044.242676 5958.000000
2045.508057 5651.000000
2046.772827 5711.000000
2048.037354 5372.000000
2049.300537 5801.000000
2050.563477 6368.000000
2051.824463 6179.000000
2053.085938 6098.000000
2054.346191 5848.000000
2055.605713 6431.000000
2056.864502 6297.000000
2058.122314 6947.000000
2059.379639 6121.000000
2060.636230 6016.000000
2061.891357 6454.000000
2063.146484 5671.000000
2064.400635 5623.000000
2065.654053 5635.000000
2066.906738 6816.000000
2068.158203 6205.000000
2069.409424 6271.000000
2070.659912 5666.000000
2071.909668 5423.000000
2073.157959 6068.000000
2074.406250 6507.000000
2075.653564 7482.000000
2076.900146 5604.000000
2078.145996 6031.000000
2079.390625 6973.000000
2080.634766 7586.000000
2081.878418 5476.000000
2083.121094 6041.000000
2084.362549 6927.000000
2085.603760 6023.000000
2086.844482 6301.000000
2088.084229 6725.000000
2089.322754 7051.000000
2090.560791 6187.000000
2091.798096 5766.000000
2093.035156 6610.000000
2094.270752 6127.000000
2095.505615 6202.000000
2096.740234 6082.000000
2097.973877 5596.000000
2099.206543 6104.000000
2100.438477 6850.000000
2101.669922 6441.000000
2102.900391 6728.000000
2104.130127 5985.000000
2105.359619 5985.000000
2106.587158 6005.000000
2107.814941 5982.000000
2109.041992 6273.000000
2110.268066 5479.000000
2111.492676 6363.000000
2112.717529 6982.000000
2113.941162 7049.000000
2115.164307 6171.000000
2116.386230 7502.000000
2117.607910 5971.000000
2118.828613 6761.000000
2120.048584 6022.000000
2121.268066 6067.000000
2122.486084 6580.000000
2123.704102 7075.000000
2124.921143 5699.000000
2126.137695 5769.000000
2127.352539 6550.000000
2128.567627 6292.000000
2129.781738 6686.000000
2130.995117 5655.000000
2132.207764 6142.000000
2133.418945 5785.000000
2134.630371 6421.000000
2135.840576 6828.000000
2137.050293 5951.000000
2138.258545 6180.000000
2139.466797 5646.000000
2140.674316 5891.000000
2141.880615 7652.000000
2143.086182 5859.000000
2144.291504 5693.000000
2145.495850 5548.000000
2146.699463 6294.000000
2147.902588 6205.000000
2149.104248 6570.000000
2150.305664 5303.000000
2151.506348 6273.000000
2152.706299 5989.000000
2153.905029 5911.000000
2155.103516 6961.000000
2156.301514 6139.000000
2157.498535 6050.000000
2158.694824 5178.000000
2159.889893 5282.000000
2161.084717 6142.000000
2162.278809 5583.000000
2163.471924 6072.000000
2164.664063 6868.000000
2165.855957 5916.000000
2167.047119 6360.000000
2168.237305 6327.000000
2169.426758 6525.000000
2170.615723 6840.000000
2171.803711 6016.000000
2172.991455 5713.000000
2174.177734 5914.000000
2175.363281 6587.000000
2176.548584 6008.000000
2177.733398 5860.000000
2178.916992 6354.000000
2180.099854 7412.000000
2181.281738 6354.000000
2182.463379 6108.000000
2183.644531 6588.000000
2184.824463 5680.000000
2186.003418 5580.000000
2187.181885 6277.000000
2188.360107 6873.000000
2189.537109 7189.000000
2190.713135 6652.000000
2191.888916 6037.000000
2193.064209 5594.000000
2194.238037 6623.000000
2195.411377 6178.000000
2196.584473 6125.000000
2197.756348 6455.000000
2198.927734 7072.000000
2200.098633 6322.000000
2201.267822 6876.000000
2202.437012 7554.000000
2203.605713 6299.000000
2204.773438 5836.000000
2205.940186 5689.000000
2207.106201 7112.000000
2208.271729 6697.000000
2209.437012 5970.000000
2210.600830 6689.000000
2211.764160 5426.000000
2212.926270 6225.000000
2214.088623 6210.000000
2215.249756 6645.000000
2216.409912 6631.000000
2217.569580 6292.000000
2218.729004 6531.000000
2219.887207 6348.000000
2221.044434 6286.000000
2222.201416 6742.000000
2223.357666 6492.000000
2224.513184 6755.000000
2225.667969 6284.000000
2226.821777 6408.000000
2227.974609 6044.000000
2229.127930 6905.000000
2230.279297 6127.000000
2231.430420 6121.000000
2232.580811 6453.000000
2233.730713 7660.000000
2234.879639 6275.000000
2236.028076 5266.000000
2237.175049 6802.000000
2238.322266 6974.000000
2239.468262 6088.000000
2240.614014 7107.000000
2241.758057 7272.000000
2242.902344 6725.000000
2244.045654 6133.000000
2245.188232 5968.000000
2246.329834 5750.000000
2247.471191 5829.000000
2248.611572 6379.000000
2249.751221 6407.000000
2250.890381 5800.000000
2252.028320 5868.000000
2253.166260 6163.000000
2254.303223 5315.000000
2255.439453 6335.000000
2256.574707 6116.000000
2257.709229 7225.000000
2258.843506 6371.000000
2259.977295 5506.000000
2261.109619 6135.000000
2262.241455 6816.000000
2263.372803 6254.000000
2264.503174 6454.000000
2265.633301 8013.000000
2266.762207 6687.000000
2267.890625 6133.000000
2269.018555 5589.000000
2270.145508 6124.000000
2271.271729 5943.000000
2272.396973 6723.000000
2273.522217 6531.000000
2274.646729 6398.000000
2275.770020 5897.000000
2276.892578 6271.000000
2278.014648 5994.000000
2279.136230 7386.000000
2280.257080 6384.000000
2281.376709 6450.000000
2282.495850 7194.000000
2283.614746 7664.000000
2284.732910 7201.000000
2285.850098 5868.000000
2286.966309 6392.000000
2288.082275 6972.000000
2289.197510 6896.000000
2290.312012 7351.000000
2291.425293 5801.000000
2292.538574 6289.000000
2293.651123 5977.000000
2294.762939 5393.000000
2295.874023 6779.000000
2296.983887 6439.000000
2298.093262 6130.000000
2299.202393 6723.000000
2300.310547 6311.000000
2301.417725 6806.000000
2302.524658 5878.000000
2303.630859 6249.000000
2304.736572 6582.000000
2305.840820 6447.000000
2306.944824 5408.000000
2308.048340 5717.000000
2309.151367 6534.000000
2310.253174 7365.000000
2311.354248 7338.000000
2312.454834 6544.000000
2313.554932 5490.000000
2314.654297 6305.000000
2315.752197 6559.000000
2316.850586 6949.000000
2317.947510 8153.000000
2319.044189 6957.000000
2320.140381 5763.000000
2321.234863 6839.000000
2322.329346 7543.000000
2323.423096 5811.000000
2324.516602 6063.000000
2325.608398 6406.000000
2326.700195 6871.000000
2327.791260 6187.000000
2328.881592 6303.000000
2329.970947 6834.000000
2331.060303 5997.000000
2332.148438 6318.000000
2333.236084 6838.000000
2334.323486 6474.000000
2335.409180 6660.000000
2336.494629 7731.000000
2337.579834 6244.000000
2338.664063 6685.000000
2339.747314 5944.000000
2340.830322 6497.000000
2341.912354 7043.000000
2342.994141 5948.000000
2344.075195 7395.000000
2345.155029 6561.000000
2346.234375 5734.000000
2347.313232 6783.000000
2348.391602 6501.000000
2349.468506 6294.000000
2350.545166 6931.000000
2351.621582 6045.000000
2352.697021 6403.000000
2353.771484 5915.000000
2354.845703 6281.000000
2355.919189 6735.000000
2356.992188 6238.000000
2358.063965 7019.000000
2359.135498 6242.000000
2360.206055 6755.000000
2361.276367 7530.000000
2362.345703 7521.000000
2363.414063 6819.000000
2364.482178 6753.000000
2365.549561 7071.000000
2366.616455 7136.000000
2367.682617 6039.000000
2368.747559 6859.000000
2369.812500 6999.000000
2370.876709 6299.000000
2371.940186 6957.000000
2373.002441 5678.000000
2374.064697 6295.000000
2375.125977 6291.000000
2376.187012 5963.000000
2377.246826 6223.000000
2378.305908 7901.000000
2379.364990 6419.000000
2380.423096 7543.000000
2381.480469 6939.000000
2382.536865 7991.000000
2383.593018 7794.000000
2384.648682 6283.000000
2385.703613 6982.000000
2386.757080 6770.000000
2387.810791 6514.000000
2388.863525 6268.000000
2389.915771 6734.000000
2390.967285 6092.000000
2392.017822 6616.000000
2393.068115 6469.000000
2394.117432 6232.000000
2395.166748 6208.000000
2396.214600 6877.000000
2397.261963 6952.000000
2398.309082 6322.000000
2399.355225 6632.000000
2400.400635 6224.000000
2401.445313 6742.000000
2402.489990 7700.000000
2403.533203 7432.000000
2404.576416 6564.000000
2405.618164 5704.000000
2406.660156 6756.000000
2407.701416 7096.000000
2408.741699 6056.000000
2409.781250 6401.000000
2410.819824 6368.000000
2411.858643 5957.000000
2412.896240 6544.000000
2413.933594 6829.000000
2414.969727 7322.000000
2416.005615 6197.000000
2417.040771 6294.000000
2418.075439 6621.000000
2419.108643 7243.000000
2420.142090 6429.000000
2421.174561 6654.000000
2422.206787 6773.000000
2423.237549 7054.000000
2424.268311 6419.000000
2425.298584 6770.000000
2426.327637 6849.000000
2427.356689 6682.000000
2428.384033 7341.000000
2429.411865 6686.000000
2430.438477 7265.000000
2431.464844 6930.000000
2432.489746 7705.000000
2433.514893 6546.000000
2434.539063 7017.000000
2435.562988 6687.000000
2436.585693 5837.000000
2437.607666 6307.000000
2438.629395 6632.000000
2439.650391 6715.000000
2440.670898 5958.000000
2441.690186 6498.000000
2442.709473 6582.000000
2443.727783 8412.000000
2444.745850 6282.000000
2445.762451 6428.000000
2446.779053 6561.000000
2447.794922 6052.000000
2448.810791 7029.000000
2449.825195 6761.000000
2450.838867 5597.000000
2451.852051 7195.000000
2452.864990 5992.000000
2453.877197 7223.000000
2454.888428 6702.000000
2455.899414 7654.000000
2456.909668 6386.000000
2457.919434 7596.000000
2458.928223 5991.000000
2459.936279 5992.000000
2460.944336 6260.000000
2461.951172 7353.000000
2462.957764 5440.000000
2463.963135 7387.000000
2464.968262 6953.000000
2465.973145 5893.000000
2466.976807 6526.000000
2467.980225 6368.000000
2468.982666 7578.000000
2469.984863 7375.000000
2470.986572 6855.000000
2471.987305 6588.000000
2472.987061 6964.000000
2473.986816 6733.000000
2474.985596 5674.000000
2475.983887 6534.000000
2476.981201 6969.000000
2477.978271 6089.000000
2478.975342 6890.000000
2479.970947 5812.000000
2480.966553 7092.000000
2481.960449 6683.000000
2482.954346 8075.000000
2483.947754 6844.000000
2484.940674 6708.000000
2485.932617 7420.000000
2486.923828 7258.000000
2487.914795 6743.000000
2488.905273 5800.000000
2489.894775 6564.000000
2490.883545 6457.000000
2491.872314 5633.000000
2492.860107 6679.000000
2493.846680 6500.000000
2494.833252 7997.000000
2495.819336 6699.000000
2496.804688 7031.000000
2497.789063 8322.000000
2498.773193 6073.000000
2499.757324 6918.000000
2500.739990 5767.000000
2501.722168 6971.000000
2502.703857 6840.000000
2503.684814 7282.000000
2504.665283 6468.000000
2505.645508 5659.000000
2506.624268 6294.000000
2507.602783 7560.000000
2508.580811 6748.000000
2509.558350 7077.000000
2510.534912 6023.000000
2511.511230 5937.000000
2512.486816 6377.000000
2513.461914 6216.000000
2514.436523 6402.000000
2515.409912 7455.000000
2516.383057 6790.000000
2517.355957 6802.000000
2518.327881 6160.000000
2519.299072 6820.000000
2520.269775 6762.000000
2521.240234 7676.000000
2522.209961 8077.000000
2523.178711 6104.000000
2524.146729 6129.000000
2525.114746 7701.000000
2526.081787 6284.000000
2527.048584 5522.000000
2528.014160 7236.000000
2528.979736 6975.000000
2529.944580 7778.000000
2530.908936 6401.000000
2531.872070 6316.000000
2532.835449 5909.000000
2533.797852 5959.000000
2534.760010 6636.000000
2535.720947 6379.000000
2536.681152 6105.000000
2537.641602 6115.000000
2538.601074 6822.000000
2539.559814 6809.000000
2540.517578 6654.000000
2541.475586 6279.000000
2542.432861 6766.000000
2543.389160 6085.000000
2544.345215 7010.000000
2545.300049 6169.000000
2546.255127 7715.000000
2547.209473 7045.000000
2548.163086 6607.000000
2549.115723 7233.000000
2550.068115 6734.000000
2551.020020 6974.000000
2551.971191 6398.000000
2552.921631 7790.000000
2553.871582 7271.000000
2554.821289 7332.000000
2555.770264 6597.000000
2556.718750 6229.000000
2557.666016 7128.000000
2558.613281 6286.000000
2559.559814 6481.000000
2560.505859 6770.000000
2561.450928 7418.000000
2562.395752 6736.000000
2563.340088 7156.000000
2564.283936 6819.000000
2565.227295 6620.000000
2566.169189 6641.000000
2567.111328 6617.000000
2568.052734 6157.000000
2568.993408 7151.000000
2569.933350 7281.000000
2570.873291 5719.000000
2571.812256 6163.000000
2572.750977 7487.000000
2573.688721 7194.000000
2574.626221 5462.000000
2575.562988 6954.000000
2576.499023 6775.000000
2577.434570 7502.000000
2578.369385 6401.000000
2579.304199 5925.000000
2580.238037 7076.000000
2581.171387 7214.000000
2582.104004 5860.000000
2583.036377 6910.000000
2583.968018 5407.000000
2584.899170 7093.000000
2585.829834 7013.000000
2586.759277 6864.000000
2587.688721 7201.000000
2588.617676 6482.000000
2589.546387 7474.000000
2590.473389 7203.000000
2591.400635 5896.000000
2592.327393 6726.000000
2593.253418 6317.000000
2594.179199 5604.000000
2595.103760 7630.000000
2596.028076 7549.000000
2596.951904 5397.000000
2597.875244 7247.000000
2598.797607 6280.000000
2599.719727 6829.000000
2600.641357 8298.000000
2601.562256 6410.000000
2602.482422 5983.000000
2603.402344 6337.000000
2604.321777 6395.000000
2605.240967 6380.000000
2606.159180 5852.000000
2607.076172 5979.000000
2607.993408 7362.000000
2608.910400 5846.000000
2609.826416 7556.000000
2610.741211 6596.000000
2611.656494 6635.000000
2612.571045 6529.000000
2613.484619 6548.000000
2614.398193 6172.000000
2615.310547 7540.000000
2616.222900 7042.000000
2617.134277 6815.000000
2618.045410 5653.000000
2618.955811 7236.000000
2619.865967 6661.000000
2620.775391 6125.000000
2621.684326 6655.000000
2622.592285 6195.000000
2623.500488 6772.000000
2624.407715 6578.000000
2625.314453 7055.000000
2626.220459 5966.000000
2627.126221 6594.000000
2628.031250 6496.000000
2628.936035 7785.000000
2629.840088 6466.000000
2630.743164 6385.000000
2631.646240 6428.000000
2632.548340 5649.000000
2633.450439 6714.000000
2634.352295 7020.000000
2635.252441 6651.000000
2636.152832 6429.000000
2637.052490 6383.000000
2637.951904 5996.000000
2638.849854 6876.000000
2639.748291 6631.000000
2640.646240 6330.000000
2641.543457 6163.000000
2642.439453 6201.000000
2643.335449 6872.000000
2644.231201 6143.000000
2645.126221 6437.000000
2646.020996 6635.000000
2646.914307 7106.000000
2647.807617 6309.000000
2648.700684 6758.000000
2649.593506 6443.000000
2650.484619 7422.000000
2651.375977 6412.000000
2652.266846 7614.000000
2653.156982 7272.000000
2654.046875 6567.000000
2654.935547 7308.000000
2655.824463 6673.000000
2656.712891 6672.000000
2657.600342 7336.000000
2658.486816 6467.000000
2659.373779 7088.000000
2660.260010 6891.000000
2661.145752 6864.000000
2662.030273 6528.000000
2662.914795 6414.000000
2663.799072 6160.000000
2664.682617 7126.000000
2665.565674 7725.000000
2666.447998 7280.000000
2667.329834 6232.000000
2668.210938 6669.000000
2669.092285 6045.000000
2669.972168 6534.000000
2670.852295 7368.000000
2671.731689 7157.000000
2672.611084 6215.000000
2673.489746 6115.000000
2674.366699 6448.000000
2675.244385 6708.000000
2676.121338 6375.000000
2676.997559 8175.000000
2677.873291 7110.000000
2678.748291 6224.000000
2679.623535 7764.000000
2680.497803 6998.000000
2681.371582 7355.000000
2682.244629 7004.000000
2683.117432 6225.000000
2683.989990 6124.000000
2684.861816 6881.000000
2685.732910 6530.000000
2686.603760 6885.000000
2687.474121 7103.000000
2688.344238 6781.000000
2689.212646 6266.000000
2690.081787 7429.000000
2690.950195 7047.000000
2691.818359 6691.000000
2692.685791 6946.000000
2693.552002 5933.000000
2694.418701 7119.000000
2695.284424 7318.000000
2696.150146 7242.000000
2697.014404 7868.000000
2697.879395 6482.000000
2698.742920 7238.000000
2699.606689 5849.000000
2700.468994 7389.000000
2701.331787 6785.000000
2702.193604 5912.000000
2703.054932 6969.000000
2703.916260 6642.000000
2704.776367 7434.000000
2705.636475 7314.000000
2706.496094 6556.000000
2707.355469 6851.000000
2708.213135 7096.000000
2709.071045 6844.000000
2709.929443 7289.000000
2710.786621 6669.000000
2711.643066 5946.000000
2712.499023 6833.000000
2713.354980 6109.000000
2714.210205 6923.000000
2715.064697 6143.000000
2715.918701 6849.000000
2716.772705 7294.000000
2717.625732 6238.000000
2718.479004 6470.000000
2719.330566 7719.000000
2720.182617 6779.000000
2721.034424 6248.000000
2721.885010 6437.000000
2722.735596 6457.000000
2723.585693 7095.000000
2724.435059 7039.000000
2725.284424 6956.000000
2726.132568 6662.000000
2726.980225 6510.000000
2727.828369 6999.000000
2728.675293 6854.000000
2729.522705 5569.000000
2730.368652 7476.000000
2731.213867 6984.000000
2732.059570 6399.000000
2732.904297 6905.000000
2733.749023 7318.000000
2734.592529 6877.000000
2735.436279 7781.000000
2736.279297 7146.000000
2737.121826 6083.000000
2737.963379 6264.000000
2738.805420 6779.000000
2739.646484 6866.000000
2740.487305 5816.000000
2741.327881 5835.000000
2742.167236 7809.000000
2743.006592 6842.000000
2743.845947 6949.000000
2744.684082 6785.000000
2745.521729 7802.000000
2746.359375 6362.000000
2747.196533 7136.000000
2748.033447 6151.000000
2748.869873 6006.000000
2749.705078 6693.000000
2750.540527 6337.000000
2751.375488 6353.000000
2752.209717 6234.000000
2753.043701 6913.000000
2753.877197 6843.000000
2754.710693 8023.000000
2755.543213 6815.000000
2756.375244 7265.000000
2757.206787 6822.000000
2758.038330 7139.000000
2758.868896 7282.000000
2759.699707 7226.000000
2760.529297 7254.000000
2761.358887 6641.000000
2762.188232 7250.000000
2763.016846 6884.000000
2763.844971 6796.000000
2764.672607 6892.000000
2765.500244 6662.000000
2766.327393 7965.000000
2767.153809 5809.000000
2767.979736 7533.000000
2768.805176 6865.000000
2769.630371 7792.000000
2770.455566 7107.000000
2771.279541 6827.000000
2772.103516 6482.000000
2772.927490 7642.000000
2773.750244 6349.000000
2774.573242 6990.000000
2775.395020 6926.000000
2776.216797 6977.000000
2777.038574 6468.000000
2777.859375 7915.000000
2778.679443 6549.000000
2779.499756 7017.000000
2780.319580 7310.000000
2781.139404 6496.000000
2781.957275 5903.000000
2782.776367 8003.000000
2783.594238 6479.000000
2784.411865 6752.000000
2785.229004 7148.000000
2786.045654 7274.000000
2786.862061 7166.000000
2787.677979 6274.000000
2788.493652 5972.000000
2789.308350 6436.000000
2790.123535 6949.000000
2790.937988 7232.000000
2791.751953 6552.000000
2792.565674 7416.000000
2793.378174 8797.000000
2794.190918 6962.000000
2795.003174 7437.000000
2795.814941 7180.000000
2796.625977 7344.000000
2797.437744 6590.000000
2798.248291 7168.000000
2799.058838 7034.000000
2799.867920 7396.000000
2800.677734 8305.000000
2801.486816 7833.000000
2802.295654 6708.000000
2803.104004 7209.000000
2803.911377 6189.000000
2804.719238 6563.000000
2805.526367 6770.000000
2806.333252 6848.000000
2807.138916 7042.000000
2807.945068 6655.000000
2808.750488 6499.000000
2809.555908 7329.000000
2810.360596 6209.000000
2811.164307 7636.000000
2811.968506 7482.000000
2812.772217 6370.000000
2813.575684 6106.000000
2814.377686 6283.000000
2815.180420 7316.000000
2815.982422 7833.000000
2816.784180 6136.000000
2817.585449 6561.000000
2818.386230 7242.000000
2819.186523 6541.000000
2819.987061 6750.000000
2820.786621 8020.000000
2821.585693 7251.000000
2822.384766 6421.000000
2823.183594 6962.000000
2823.981934 6393.000000
2824.779297 7025.000000
2825.576904 7035.000000
2826.373779 6666.000000
2827.170898 7380.000000
2827.967285 7915.000000
2828.762939 6998.000000
2829.558594 7414.000000
2830.354004 7557.000000
2831.148926 7417.000000
2831.943115 6691.000000
2832.737305 6840.000000
2833.531250 5756.000000
2834.324707 6891.000000
2835.117432 7163.000000
2835.909912 8182.000000
2836.702393 7780.000000
2837.494629 7437.000000
2838.286377 6391.000000
2839.077148 6806.000000
2839.867920 8796.000000
2840.658936 7460.000000
2841.448975 6258.000000
2842.238525 7650.000000
2843.028320 7193.000000
2843.817139 7372.000000
2844.605957 7776.000000
2845.394775 7649.000000
2846.182617 7613.000000
2846.969971 7187.000000
2847.757568 7561.000000
2848.544678 7292.000000
2849.331055 6658.000000
2850.117432 7415.000000
2850.903564 7202.000000
2851.689209 7578.000000
2852.473877 7240.000000
2853.259033 6885.000000
2854.043945 7458.000000
2854.828125 7108.000000
2855.612305 6832.000000
2856.395264 8253.000000
2857.178467 6762.000000
2857.961426 6736.000000
2858.743896 7836.000000
2859.526123 6229.000000
2860.307861 6787.000000
2861.089355 7585.000000
2861.871094 7392.000000
2862.652100 7605.000000
2863.432373 6642.000000
2864.212402 6687.000000
2864.992432 8183.000000
2865.772217 7492.000000
2866.551025 8123.000000
2867.330078 7601.000000
2868.108643 6851.000000
2868.886963 6882.000000
2869.664795 7241.000000
2870.442383 6954.000000
2871.219727 7471.000000
2871.996826 6974.000000
2872.773438 6440.000000
2873.549561 7430.000000
2874.325684 7173.000000
2875.101318 8287.000000
2875.876709 7160.000000
2876.651611 6592.000000
2877.426270 7920.000000
2878.200928 6651.000000
2878.975342 7886.000000
2879.749023 6776.000000
2880.521973 7161.000000
2881.295654 6721.000000
2882.068359 7586.000000
2882.841064 7872.000000
2883.613037 8193.000000
2884.384766 6286.000000
2885.156982 6783.000000
2885.927979 6849.000000
2886.698486 6104.000000
2887.469482 8367.000000
2888.240479 7372.000000
2889.010742 8014.000000
2889.780029 7626.000000
2890.549561 6976.000000
2891.319092 7271.000000
2892.088135 7369.000000
2892.856689 7885.000000
2893.625244 7909.000000
2894.392822 6969.000000
2895.160889 6638.000000
2895.928467 7498.000000
2896.696045 8318.000000
2897.462402 7358.000000
2898.229736 6511.000000
2898.995850 7221.000000
2899.762207 7004.000000
2900.527100 8313.000000
2901.292480 6948.000000
2902.058350 6479.000000
2902.822754 7739.000000
2903.587158 7689.000000
2904.351807 8335.000000
2905.115479 6601.000000
2905.879883 8474.000000
2906.643555 6679.000000
2907.406494 8402.000000
2908.169189 6479.000000
2908.932373 8914.000000
2909.695068 6997.000000
2910.456543 6823.000000
2911.218506 6823.000000
