scanname Analyse070
timestamp 2017-02-10 21:34:28
ccdbias 890.812012
ccdgain 3.473401
sigmaread 8.960639
laserwavenum -0.942773
wavenumcorrection -0.419809
scancount 1
totalexposurems 10000
singleexposurems 10000
measurementstate Unknown
scanmode Manual
snr 219.889450 5.817550 4.732147
replacelist 2
374 41252.000000 15004.000000
672 36346.000000 30586.000000
peaks 35
277.727356 0.655898 0.000000 1.446673 0.000179
289.198883 0.653062 0.000000 0.391624 0.000022
297.478302 0.652247 0.000000 0.240500 0.000024
334.133484 0.661756 0.000000 0.764274 0.000130
341.574585 0.659721 0.000000 0.493561 0.000026
349.529541 0.661767 0.000000 0.338400 0.000016
387.000122 0.674791 0.000000 1.417228 0.000293
452.509460 0.659337 0.000000 0.580872 0.000023
494.776733 0.660728 0.000000 0.368403 0.000047
532.492737 0.648919 0.000000 0.745817 0.000147
559.260132 0.663407 0.000000 0.977615 0.000177
569.824829 0.668945 0.000000 0.878485 0.000057
576.250244 0.668914 0.000000 0.597318 0.000046
584.677429 0.666676 0.000000 0.746211 0.000104
674.919617 0.656270 0.000000 1.217844 0.000223
716.163574 0.649525 0.000000 4.279610 0.000840
739.542236 0.636353 0.000000 0.944626 0.000070
767.104248 0.658876 0.000000 3.176848 0.000708
804.700073 0.627729 0.000000 2.677509 0.000121
831.138489 0.623439 0.000000 0.441245 0.000066
841.517944 0.623743 0.000000 0.151810 0.000018
875.955383 0.683221 0.000000 2.997461 0.000747
937.762268 0.603489 0.000000 0.866073 0.000107
955.439087 0.601018 0.000000 3.217122 0.000827
1010.579041 0.579933 0.000000 0.553468 0.000127
1031.364990 0.594063 0.000000 0.573272 0.000133
1044.918457 0.608816 0.000000 3.671422 0.001004
1085.537109 0.586853 0.000000 0.754460 0.000111
1150.999268 0.563855 0.000000 0.757667 0.000399
1274.446411 0.535544 0.000000 0.199803 0.000039
1322.703247 0.641779 0.000000 15.038584 0.004724
1382.836548 0.518765 0.000000 0.088109 0.000037
1455.261719 0.581013 0.000000 9.785962 0.003824
1613.325684 0.476634 0.000000 0.430262 0.000152
1661.525635 0.471317 0.000000 1.861016 0.000602
finalresult GLS_NoMatch 0
spectrum 2048
-96.658684 45073.000000
-94.031815 45073.000000
-91.406822 45843.000000
-88.783722 45938.000000
-86.162491 46822.000000
-83.543159 46573.000000
-80.925690 46926.000000
-78.310097 46658.000000
-75.696381 46932.000000
-73.084541 47409.000000
-70.474564 47179.000000
-67.866470 47372.000000
-65.260223 47403.000000
-62.655853 47448.000000
-60.053345 47303.000000
-57.452690 47746.000000
-54.853897 47171.000000
-52.256962 46513.000000
-49.661880 47011.000000
-47.068653 46877.000000
-44.477276 47113.000000
-41.887745 46694.000000
-39.300056 47454.000000
-36.714218 47358.000000
-34.130222 46879.000000
-31.548061 47706.000000
-28.967749 46947.000000
-26.389263 47540.000000
-23.812620 47084.000000
-21.237803 47031.000000
-18.664825 46761.000000
-16.093668 46766.000000
-13.524345 46369.000000
-10.956846 45329.000000
-8.391167 46779.000000
-5.827313 46502.000000
-3.265273 46873.000000
-0.705057 46898.000000
1.853351 46446.000000
4.409938 45374.000000
6.964720 45208.000000
9.517685 45123.000000
12.068850 43383.000000
14.618202 42357.000000
17.165758 40872.000000
19.711502 40776.000000
22.255453 39783.000000
24.797600 37422.000000
27.337950 34630.000000
29.876514 31024.000000
32.413280 25416.000000
34.948246 19927.000000
37.481434 12860.000000
40.012840 7956.000000
42.542454 6940.000000
45.070271 6601.000000
47.596329 6102.000000
50.120598 5401.000000
52.643097 4728.000000
55.163799 4239.000000
57.682747 4459.000000
60.199921 5197.000000
62.715317 6323.000000
65.228935 7339.000000
67.740799 7663.000000
70.250916 5977.000000
72.759239 3874.000000
75.265808 3182.000000
77.770630 2658.000000
80.273697 2186.000000
82.774986 1998.000000
85.274536 1827.000000
87.772331 1780.000000
90.268394 1896.000000
92.762680 2155.000000
95.255226 2424.000000
97.746056 2545.000000
100.235115 2387.000000
102.722427 1896.000000
105.208015 1437.000000
107.691864 1416.000000
110.173965 1238.000000
112.654343 1322.000000
115.132996 1232.000000
117.609924 1277.000000
120.085098 1207.000000
122.558563 1335.000000
125.030296 1360.000000
127.500320 1408.000000
129.968597 1550.000000
132.435196 1875.000000
134.900040 2142.000000
137.363190 2580.000000
139.824600 2999.000000
142.284317 3548.000000
144.742310 4558.000000
147.198608 5732.000000
149.653198 7204.000000
152.106064 8902.000000
154.557251 10843.000000
157.006744 13468.000000
159.454514 16661.000000
161.900574 22416.000000
164.344955 23736.000000
166.787659 27434.000000
169.228668 28192.000000
171.667969 29850.000000
174.105560 29912.000000
176.541519 31324.000000
178.975739 31997.000000
181.408279 32947.000000
183.839172 34511.000000
186.268341 35171.000000
188.695862 36047.000000
191.121704 37143.000000
193.545868 37346.000000
195.968369 37527.000000
198.389175 38039.000000
200.808319 39627.000000
203.225800 40993.000000
205.641586 40309.000000
208.055725 41695.000000
210.468231 42769.000000
212.879059 43381.000000
215.288208 43542.000000
217.695724 42677.000000
220.101532 44186.000000
222.505753 43970.000000
224.908264 43895.000000
227.309158 43776.000000
229.708405 44270.000000
232.105988 43851.000000
234.501907 43392.000000
236.896210 44094.000000
239.288849 44700.000000
241.679871 43763.000000
244.069229 43981.000000
246.456970 44113.000000
248.843063 43400.000000
251.227524 44156.000000
253.610336 42229.000000
255.991577 43347.000000
258.371094 43345.000000
260.749054 43300.000000
263.125336 42212.000000
265.500061 42114.000000
267.873138 41637.000000
270.244568 43247.000000
272.614349 42913.000000
274.982574 43429.000000
277.349152 42904.000000
279.714142 42409.000000
282.077515 43093.000000
284.439240 42881.000000
286.799377 41901.000000
289.157898 42951.000000
291.514832 42370.000000
293.870148 42517.000000
296.223877 42857.000000
298.575958 42874.000000
300.926483 42518.000000
303.275421 42400.000000
305.622711 41973.000000
307.968475 42282.000000
310.312561 42216.000000
312.655121 41276.000000
314.996063 40969.000000
317.335388 41383.000000
319.673157 41532.000000
322.009369 40327.000000
324.343933 42059.000000
326.676941 41655.000000
329.008392 42214.000000
331.338257 41644.000000
333.666534 41834.000000
335.993195 40998.000000
338.318359 41819.000000
340.641907 41811.000000
342.963898 42187.000000
345.284332 40628.000000
347.603149 40452.000000
349.920410 42105.000000
352.236145 42187.000000
354.550293 41101.000000
356.862854 41817.000000
359.173859 41893.000000
361.483337 41109.000000
363.791290 41782.000000
366.097626 42527.000000
368.402374 41767.000000
370.705658 41874.000000
373.007324 42082.000000
375.307495 41964.000000
377.606110 42090.000000
379.903168 42713.000000
382.198669 42415.000000
384.492645 42709.000000
386.785034 43441.000000
389.075928 43001.000000
391.365295 42415.000000
393.653076 42463.000000
395.939331 42246.000000
398.224091 41798.000000
400.507233 42710.000000
402.788940 42294.000000
405.069122 42510.000000
407.347717 41393.000000
409.624786 42167.000000
411.900330 41833.000000
414.174347 41980.000000
416.446930 42048.000000
418.717896 41922.000000
420.987366 41954.000000
423.255341 41097.000000
425.521759 40851.000000
427.786682 41784.000000
430.050140 41503.000000
432.312012 41299.000000
434.572418 41694.000000
436.831268 41046.000000
439.088654 41448.000000
441.344543 41667.000000
443.598938 41403.000000
445.851807 41765.000000
448.103119 40232.000000
450.353027 40972.000000
452.601349 40731.000000
454.848236 41270.000000
457.093658 40354.000000
459.337524 40331.000000
461.579895 39960.000000
463.820770 41009.000000
466.060242 39896.000000
468.298126 41229.000000
470.534576 40733.000000
472.769501 40484.000000
475.002960 39157.000000
477.234985 39797.000000
479.465485 40739.000000
481.694489 39930.000000
483.922028 40129.000000
486.148071 40418.000000
488.372681 39869.000000
490.595825 40503.000000
492.817505 40004.000000
495.037628 39757.000000
497.256348 40752.000000
499.473572 40085.000000
501.689423 40838.000000
503.903656 40264.000000
506.116577 39933.000000
508.327911 39915.000000
510.537811 39486.000000
512.746277 39709.000000
514.953369 39592.000000
517.158875 39734.000000
519.362976 39390.000000
521.565552 39700.000000
523.766724 39177.000000
525.966553 38989.000000
528.164856 38664.000000
530.361633 40176.000000
532.557068 39448.000000
534.750977 39733.000000
536.943542 37678.000000
539.134583 38457.000000
541.324219 38957.000000
543.512451 37939.000000
545.699158 37618.000000
547.884399 37867.000000
550.068359 38318.000000
552.250732 37998.000000
554.431763 38110.000000
556.611267 38228.000000
558.789490 38422.000000
560.966187 38223.000000
563.141479 37833.000000
565.315369 37852.000000
567.487793 38276.000000
569.658813 38217.000000
571.828369 37926.000000
573.996643 39018.000000
576.163391 37821.000000
578.328674 38055.000000
580.492554 38171.000000
582.655151 38587.000000
584.816223 38335.000000
586.975891 38775.000000
589.134216 38630.000000
591.291016 38305.000000
593.446472 37930.000000
595.600525 38655.000000
597.753235 38358.000000
599.904419 37272.000000
602.054260 37750.000000
604.202759 37724.000000
606.349670 38354.000000
608.495361 37708.000000
610.639648 37804.000000
612.782471 37228.000000
614.923828 37985.000000
617.063965 37595.000000
619.202576 36276.000000
621.339905 38127.000000
623.475769 37204.000000
625.610229 36814.000000
627.743225 36413.000000
629.875061 36847.000000
632.005432 36787.000000
634.134399 36420.000000
636.261902 36716.000000
638.388123 36798.000000
640.512817 35689.000000
642.636292 36518.000000
644.758423 35909.000000
646.879089 35703.000000
648.998413 35849.000000
651.116333 36719.000000
653.232910 36551.000000
655.348083 35809.000000
657.461914 35707.000000
659.574280 36377.000000
661.685425 35999.000000
663.795166 36777.000000
665.903442 36197.000000
668.010559 36082.000000
670.116211 35566.000000
672.220398 36543.000000
674.323364 36753.000000
676.424927 35538.000000
678.525146 37315.000000
680.623962 35916.000000
682.721436 36559.000000
684.817627 35846.000000
686.912354 36416.000000
689.005859 35763.000000
691.098022 36172.000000
693.188660 34743.000000
695.278076 35953.000000
697.366211 35933.000000
699.452881 36234.000000
701.538330 35376.000000
703.622253 36834.000000
705.704956 35903.000000
707.786377 35837.000000
709.866333 34057.000000
711.945068 35144.000000
714.022339 35592.000000
716.098328 34634.000000
718.173035 35315.000000
720.246460 34438.000000
722.318359 35112.000000
724.389099 33996.000000
726.458496 35217.000000
728.526489 34366.000000
730.593140 34447.000000
732.658569 33593.000000
734.722656 34689.000000
736.785400 34255.000000
738.846802 33999.000000
740.906921 33790.000000
742.965637 34283.000000
745.023132 33614.000000
747.079346 33727.000000
749.134155 33526.000000
751.187683 33832.000000
753.239807 32723.000000
755.290710 34236.000000
757.340393 33327.000000
759.388611 33680.000000
761.435608 33961.000000
763.481323 33349.000000
765.525635 35148.000000
767.568665 35117.000000
769.610474 34417.500000
771.650940 33718.000000
773.690002 33471.000000
775.727905 33752.000000
777.764465 33909.000000
779.799805 34785.000000
781.833801 34709.000000
783.866394 33870.000000
785.897827 35288.000000
787.927856 29554.000000
789.956604 34559.000000
791.984192 34022.000000
794.010437 33805.000000
796.035278 34427.000000
798.059021 34713.000000
800.081360 34087.000000
802.102478 34627.000000
804.122253 33838.000000
806.140747 35431.000000
808.158020 33822.000000
810.173889 33550.000000
812.188599 34334.000000
814.201965 33337.000000
816.214111 33278.000000
818.225037 33231.000000
820.234619 32447.000000
822.242981 33492.000000
824.249939 33002.000000
826.255676 32661.000000
828.260193 32829.000000
830.263428 32913.000000
832.265381 32044.000000
834.266052 32445.000000
836.265503 32625.000000
838.263611 32230.000000
840.260620 31626.000000
842.256226 32199.000000
844.250671 32203.000000
846.243774 31865.000000
848.235657 31204.000000
850.226196 32372.000000
852.215454 31058.000000
854.203674 31926.000000
856.190491 32191.000000
858.176086 31820.000000
860.160400 31076.000000
862.143616 32177.000000
864.125427 32315.000000
866.106018 33238.000000
868.085327 31740.000000
870.063477 32692.000000
872.040283 33914.000000
874.015808 34486.000000
875.990295 34549.000000
877.963318 34817.000000
879.935303 35263.000000
881.905945 34077.000000
883.875427 33824.000000
885.843567 33766.000000
887.810547 33691.000000
889.776184 32502.000000
891.740662 32541.000000
893.703918 32192.000000
895.665955 31507.000000
897.626709 32003.000000
899.586243 31268.000000
901.544495 30901.000000
903.501648 31119.000000
905.457642 31335.000000
907.412231 30395.000000
909.365601 30699.000000
911.317810 30462.000000
913.268799 30342.000000
915.218506 29331.000000
917.167053 29718.000000
919.114380 29650.000000
921.060425 29443.000000
923.005188 29184.000000
924.948914 28737.000000
926.891479 28772.000000
928.832764 28953.000000
930.772705 27946.000000
932.711548 28576.000000
934.649109 28679.000000
936.585449 28335.000000
938.520630 28474.000000
940.454529 28152.000000
942.387329 28483.000000
944.318909 27719.000000
946.249329 29305.000000
948.178528 28127.000000
950.106384 27708.000000
952.033203 28066.000000
953.958740 28670.000000
955.882996 29189.000000
957.806152 28933.000000
959.728149 28388.000000
961.648865 27949.000000
963.568420 28564.000000
965.486816 29654.000000
967.404175 28613.000000
969.320068 28777.000000
971.234863 29042.000000
973.148438 29228.000000
975.060852 28755.000000
976.972046 28677.000000
978.882080 29466.000000
980.790833 28773.000000
982.698547 28848.000000
984.605042 28467.000000
986.510315 29137.000000
988.414490 28176.000000
990.317444 28682.000000
992.219177 27872.000000
994.119751 28293.000000
996.019165 27803.000000
997.917358 28868.000000
999.814392 27495.000000
1001.710205 27387.000000
1003.604858 26053.000000
1005.498413 27730.000000
1007.390686 26125.000000
1009.282043 26878.000000
1011.172058 27338.000000
1013.060852 26219.000000
1014.948486 26573.000000
1016.834961 25901.000000
1018.720276 26015.000000
1020.604431 26501.000000
1022.487366 26578.000000
1024.369263 26314.000000
1026.249878 27221.000000
1028.129395 26831.000000
1030.007935 26702.000000
1031.885132 27360.000000
1033.760986 26900.000000
1035.635864 27442.000000
1037.509766 26926.000000
1039.382202 26624.000000
1041.253662 26869.000000
1043.123779 27861.000000
1044.992920 27980.000000
1046.860840 27848.000000
1048.727661 26680.000000
1050.593384 27133.000000
1052.457886 27334.000000
1054.321289 27107.000000
1056.183350 27201.000000
1058.044434 27660.000000
1059.904419 27126.000000
1061.763062 27004.000000
1063.620605 27769.000000
1065.477051 26915.000000
1067.332397 27645.000000
1069.186523 27807.000000
1071.039795 27433.000000
1072.891602 27442.000000
1074.742432 27662.000000
1076.592041 27657.000000
1078.440430 28126.000000
1080.287964 25994.000000
1082.134155 28117.000000
1083.979126 27252.000000
1085.823242 27878.000000
1087.666016 27708.000000
1089.507568 26669.000000
1091.348389 27414.000000
1093.187622 26856.000000
1095.026123 26659.000000
1096.863281 26587.000000
1098.699219 25650.000000
1100.534180 25420.000000
1102.367920 25572.000000
1104.200684 25618.000000
1106.032104 25430.000000
1107.862671 24764.000000
1109.691895 24863.000000
1111.520142 24515.000000
1113.347168 23835.000000
1115.173218 24764.000000
1116.998047 24444.000000
1118.821777 23855.000000
1120.644287 24294.000000
1122.465698 24423.000000
1124.286255 24601.000000
1126.105347 24380.000000
1127.923584 24106.000000
1129.740479 24237.000000
1131.556519 24294.000000
1133.371338 24298.000000
1135.185059 24760.000000
1136.997681 24788.000000
1138.809082 25086.000000
1140.619507 25171.000000
1142.428833 24857.000000
1144.236816 24584.000000
1146.044067 25239.000000
1147.849854 25043.000000
1149.654785 25178.000000
1151.458618 25411.000000
1153.261230 25021.000000
1155.062988 25107.000000
1156.863281 24922.000000
1158.662598 24864.000000
1160.460938 24699.000000
1162.257935 24730.000000
1164.054199 24413.000000
1165.849121 24339.000000
1167.642944 24257.000000
1169.435913 23106.000000
1171.227539 23917.000000
1173.018188 23347.000000
1174.807861 23345.000000
1176.596069 23721.000000
1178.383423 22921.000000
1180.169678 23141.000000
1181.954834 23403.000000
1183.738892 23457.000000
1185.521851 22594.000000
1187.303833 23230.000000
1189.084595 23079.000000
1190.864380 23077.000000
1192.643066 22773.000000
1194.420776 22763.000000
1196.197266 22228.000000
1197.972656 22098.000000
1199.746948 22042.000000
1201.520142 21878.000000
1203.292480 21958.000000
1205.063477 21491.000000
1206.833618 21956.000000
1208.602539 21607.000000
1210.370361 21576.000000
1212.137329 21653.000000
1213.902954 21647.000000
1215.667603 21137.000000
1217.431152 21498.000000
1219.193604 21556.000000
1220.955200 21362.000000
1222.715576 21495.000000
1224.474854 21215.000000
1226.233276 21379.000000
1227.990479 21164.000000
1229.746582 21465.000000
1231.501587 21489.000000
1233.255737 21421.000000
1235.008545 21526.000000
1236.760376 21636.000000
1238.511353 21838.000000
1240.260986 22146.000000
1242.009766 21654.000000
1243.757202 21988.000000
1245.503906 21980.000000
1247.249390 22032.000000
1248.994019 22101.000000
1250.737305 22056.000000
1252.479614 21785.000000
1254.220825 21861.000000
1255.961182 21777.000000
1257.700439 21178.000000
1259.438477 20772.000000
1261.175659 20319.000000
1262.911621 20602.000000
1264.646606 20994.000000
1266.380615 21136.000000
1268.113647 21643.000000
1269.845459 21787.000000
1271.576294 21948.000000
1273.305908 21840.000000
1275.034668 22140.000000
1276.762329 22211.000000
1278.488892 22226.000000
1280.214600 22208.000000
1281.938965 21841.000000
1283.662476 22060.000000
1285.385010 21534.000000
1287.106567 21591.000000
1288.826904 21672.000000
1290.546265 21482.000000
1292.264526 21236.000000
1293.981812 21332.000000
1295.698120 21557.000000
1297.413208 21383.000000
1299.127319 21393.000000
1300.840454 21307.000000
1302.552734 20995.000000
1304.263794 20282.000000
1305.973877 20719.000000
1307.682861 20451.000000
1309.390625 20338.000000
1311.097778 20290.000000
1312.803467 20196.000000
1314.508423 20034.000000
1316.212402 20442.000000
1317.915161 20936.000000
1319.616943 22671.000000
1321.317871 25788.000000
1323.017456 25120.000000
1324.716187 22464.000000
1326.414185 19808.000000
1328.110840 19546.000000
1329.806396 19537.000000
1331.501099 19652.000000
1333.194580 19384.000000
1334.887207 19439.000000
1336.578979 18948.000000
1338.269409 19099.000000
1339.959106 19080.000000
1341.647705 19145.000000
1343.335205 18798.000000
1345.021729 19059.000000
1346.707153 19035.000000
1348.391602 18995.000000
1350.075195 18978.000000
1351.757568 19013.000000
1353.438965 19311.000000
1355.119507 19426.000000
1356.798828 19545.000000
1358.477539 19757.000000
1360.154907 20034.000000
1361.831177 19994.000000
1363.506470 20097.000000
1365.181030 19830.000000
1366.854370 19762.000000
1368.526733 19745.000000
1370.198120 19868.000000
1371.868530 19789.000000
1373.537842 19673.000000
1375.206177 19708.000000
1376.873657 19766.000000
1378.540039 19561.000000
1380.205444 19605.000000
1381.869873 19454.000000
1383.533081 19344.000000
1385.195679 19345.000000
1386.856934 19197.000000
1388.517334 19103.000000
1390.176636 19028.000000
1391.834961 18833.000000
1393.492554 18750.000000
1395.148926 18709.000000
1396.804443 18765.000000
1398.458740 18795.000000
1400.112183 18818.000000
1401.764526 18959.000000
1403.416138 18825.000000
1405.066528 18673.000000
1406.715820 18381.000000
1408.364380 17913.000000
1410.011841 17658.000000
1411.658325 17569.000000
1413.303955 17674.000000
1414.948608 17533.000000
1416.592041 17355.000000
1418.234619 17404.000000
1419.876099 17378.000000
1421.516724 17364.000000
1423.156372 17378.000000
1424.794922 17410.000000
1426.432617 17307.000000
1428.069214 17193.000000
1429.704834 17203.000000
1431.339722 17145.000000
1432.973511 17096.000000
1434.606201 17141.000000
1436.237915 17070.000000
1437.868774 16981.000000
1439.498535 17198.000000
1441.127197 17056.000000
1442.755249 17262.000000
1444.382202 17195.000000
1446.007935 17209.000000
1447.633057 17447.000000
1449.257080 17656.000000
1450.880127 17965.000000
1452.502197 18250.000000
1454.123169 18454.000000
1455.743164 18634.000000
1457.362427 18869.000000
1458.980347 22394.000000
1460.597656 13292.000000
1462.213989 17935.000000
1463.829102 17608.000000
1465.443359 17442.000000
1467.056763 17728.000000
1468.669067 17625.000000
1470.280518 17559.000000
1471.891113 17261.000000
1473.500488 17325.000000
1475.108887 17332.000000
1476.716431 17477.000000
1478.322998 17150.000000
1479.928833 17478.000000
1481.533447 17421.000000
1483.137207 17076.000000
1484.739746 16731.000000
1486.341675 16252.000000
1487.942383 16245.000000
1489.542358 16005.000000
1491.141235 15621.000000
1492.739258 15923.000000
1494.336182 15759.000000
1495.932251 16273.000000
1497.527344 16826.000000
1499.121460 16691.000000
1500.714844 16593.000000
1502.307129 16569.000000
1503.898193 16347.000000
1505.488770 16445.000000
1507.078003 16021.000000
1508.666626 16086.000000
1510.254150 15826.000000
1511.840576 15786.000000
1513.426270 15727.000000
1515.010864 15706.000000
1516.594604 15813.000000
1518.177246 15675.000000
1519.759155 15572.000000
1521.339966 15654.000000
1522.920044 15549.000000
1524.498901 15447.000000
1526.076904 15150.000000
1527.654175 15156.000000
1529.230225 15052.000000
1530.805542 14793.000000
1532.379761 14855.000000
1533.953247 14805.000000
1535.525513 14908.000000
1537.097046 14929.000000
1538.667603 14730.000000
1540.237305 14657.000000
1541.805786 14790.000000
1543.373535 14641.000000
1544.940430 14646.000000
1546.506104 14569.000000
1548.071045 14487.000000
1549.634888 14464.000000
1551.198120 14413.000000
1552.760010 14480.000000
1554.321289 14542.000000
1555.881470 14402.000000
1557.440918 14255.000000
1558.999268 14538.000000
1560.556885 14200.000000
1562.113403 14208.000000
1563.668701 14329.000000
1565.223389 14278.000000
1566.777344 14404.000000
1568.330322 14319.000000
1569.881958 14285.000000
1571.432861 14297.000000
1572.983032 14340.000000
1574.532227 14417.000000
1576.080078 14494.000000
1577.627441 14374.000000
1579.173828 14382.000000
1580.719360 14540.000000
1582.263916 14465.000000
1583.807251 14500.000000
1585.349976 14421.000000
1586.891846 14356.000000
1588.432617 14512.000000
1589.972412 14510.000000
1591.511475 14320.000000
1593.049438 14358.000000
1594.586914 14204.000000
1596.123047 14453.000000
1597.658081 14532.000000
1599.192627 14180.000000
1600.726196 14147.000000
1602.258911 14231.000000
1603.790039 14294.000000
1605.320923 14473.000000
1606.850952 14380.000000
1608.379761 14065.000000
1609.907471 14130.000000
1611.434570 14272.000000
1612.960938 14618.000000
1614.486328 14420.000000
1616.010864 14302.000000
1617.534058 14240.000000
1619.056519 14348.000000
1620.578247 14479.000000
1622.099121 14796.000000
1623.618530 13165.000000
1625.137451 14177.000000
1626.655640 14148.000000
1628.172974 14061.000000
1629.689209 13995.000000
1631.204102 13918.000000
1632.718506 13965.000000
1634.232178 13908.000000
1635.744751 13910.000000
1637.256104 13937.000000
1638.767090 13805.000000
1640.276978 13779.000000
1641.786011 13849.000000
1643.293701 13632.000000
1644.801025 13491.000000
1646.307495 13470.000000
1647.812988 13470.000000
1649.317627 13409.000000
1650.820801 13424.000000
1652.323364 13358.000000
1653.825562 13359.000000
1655.326416 13056.000000
1656.826172 13042.000000
1658.325073 12924.000000
1659.823608 12820.000000
1661.320923 13005.000000
1662.817505 12949.000000
1664.312500 12816.000000
1665.807251 12616.000000
1667.301147 12556.000000
1668.794067 14446.000000
1670.285645 9681.000000
1671.776733 12316.000000
1673.267212 12132.000000
1674.756592 12260.000000
1676.244507 12065.000000
1677.732178 12143.000000
1679.218872 12257.000000
1680.704712 12241.000000
1682.189697 12100.000000
1683.673218 11865.000000
1685.156494 11689.000000
1686.638916 11941.000000
1688.120239 11817.000000
1689.600098 11865.000000
1691.079712 11682.000000
1692.558594 11777.000000
1694.036499 11617.000000
1695.513428 11714.000000
1696.989136 11713.000000
1698.464478 11512.000000
1699.938599 11547.000000
1701.412109 11531.000000
1702.884155 11456.000000
1704.355957 11493.000000
1705.826782 11599.000000
1707.296753 11617.000000
1708.765381 11665.000000
1710.233521 11623.000000
1711.700928 11429.000000
1713.167236 11534.000000
1714.632935 11530.000000
1716.096924 11534.000000
1717.560791 11429.000000
1719.023804 11382.000000
1720.485840 11381.000000
1721.946655 11384.000000
1723.406860 11501.000000
1724.866333 11910.000000
1726.324951 11381.000000
1727.782593 11335.000000
1729.238892 11305.000000
1730.694946 11326.000000
1732.150024 11269.000000
1733.604126 11290.000000
1735.057007 11094.000000
1736.509644 11262.000000
1737.961182 11099.000000
1739.411987 11082.000000
1740.861816 11095.000000
1742.310303 10776.000000
1743.758423 10865.000000
1745.205688 10862.000000
1746.652222 10791.000000
1748.097168 10638.000000
1749.541870 10852.000000
1750.985718 10783.000000
1752.428711 10828.000000
1753.870239 10671.000000
1755.311523 11243.000000
1756.751953 9437.000000
1758.191406 10599.000000
1759.629883 10528.000000
1761.067383 10281.000000
1762.504395 10354.000000
1763.940430 10209.000000
1765.375610 10158.000000
1766.809326 10284.000000
1768.242920 10426.000000
1769.675537 10356.000000
1771.107300 10466.000000
1772.538208 10428.000000
1773.967896 10299.000000
1775.396851 10004.000000
1776.825317 9993.000000
1778.252808 9499.000000
1779.678955 9259.000000
1781.104858 9827.000000
1782.529663 9824.000000
1783.953857 9779.000000
1785.376587 9673.000000
1786.798828 9699.000000
1788.220337 9579.000000
1789.641113 9696.000000
1791.060913 9446.000000
1792.479370 9282.000000
1793.897339 9369.000000
1795.314697 9478.000000
1796.731201 9311.000000
1798.146240 9439.000000
1799.560913 9299.000000
1800.974976 9323.000000
1802.387817 9293.000000
1803.800049 9371.000000
1805.210938 9263.000000
1806.621338 9183.000000
1808.031006 9313.000000
1809.439697 9294.000000
1810.847290 9197.000000
1812.254395 9266.000000
1813.660645 9163.000000
1815.065918 9302.000000
1816.470093 9247.000000
1817.873901 9411.000000
1819.276733 9329.000000
1820.678711 9302.000000
1822.080078 9248.000000
1823.479980 9218.000000
1824.879272 9178.000000
1826.278076 9246.000000
1827.676025 9224.000000
1829.072632 9193.000000
1830.468628 9208.000000
1831.863892 9115.000000
1833.258545 9036.000000
1834.652222 9053.000000
1836.044556 9094.000000
1837.436401 9139.000000
1838.827637 9066.000000
1840.217896 9031.000000
1841.606934 9026.000000
1842.995605 8959.000000
1844.383301 8915.000000
1845.770264 9021.000000
1847.155884 8999.000000
1848.541260 8968.000000
1849.925781 8903.000000
1851.309570 8914.000000
1852.692261 8803.000000
1854.073730 8866.000000
1855.454712 8668.000000
1856.835205 8623.000000
1858.214722 8604.000000
1859.592773 8630.000000
1860.970703 8631.000000
1862.347656 8484.000000
1863.723877 8415.000000
1865.099243 8385.000000
1866.473145 8515.000000
1867.846924 8373.000000
1869.219849 8276.000000
1870.591675 8067.000000
1871.962524 8262.000000
1873.333008 8286.000000
1874.702393 8098.000000
1876.071289 8120.000000
1877.438599 8041.000000
1878.805786 8047.000000
1880.171997 8043.000000
1881.537476 7992.000000
1882.902222 7955.000000
1884.265381 8030.000000
1885.628418 7986.000000
1886.990601 7894.000000
1888.351929 7740.000000
1889.711914 7862.000000
1891.071533 7767.000000
1892.430542 7900.000000
1893.788574 7708.000000
1895.145752 7728.000000
1896.501709 7648.000000
1897.857422 7633.000000
1899.212158 7733.000000
1900.566040 7677.000000
1901.918823 7732.000000
1903.271118 7757.000000
1904.622681 7650.000000
1905.973389 7798.000000
1907.322876 7711.000000
1908.671875 7892.000000
1910.020020 7814.000000
1911.367554 7724.000000
1912.714355 7617.000000
1914.059570 7719.000000
1915.404541 7668.000000
1916.748779 7748.000000
1918.092163 7875.000000
1919.434204 7790.000000
1920.776001 7714.000000
1922.116943 7617.000000
1923.457153 7704.000000
1924.796387 7573.000000
1926.134644 7595.000000
1927.472290 7628.000000
1928.809204 7673.000000
1930.145264 7549.000000
1931.480103 7525.000000
1932.814575 7738.000000
1934.148315 7416.000000
1935.481201 7457.000000
1936.812622 7457.000000
1938.144165 7370.000000
1939.474365 7591.000000
1940.804077 7448.000000
1942.132935 7450.000000
1943.460571 7439.000000
1944.787720 7356.000000
1946.114136 7497.000000
1947.439819 7364.000000
1948.764160 7432.000000
1950.088257 7251.000000
1951.411499 7311.000000
1952.734009 7258.000000
1954.055420 7233.000000
1955.375854 7152.000000
1956.695679 7266.000000
1958.015137 7226.000000
1959.333618 7173.000000
1960.650757 7086.000000
1961.967529 6953.000000
1963.283569 6988.000000
1964.598877 7017.000000
1965.912720 7037.000000
1967.226318 7004.000000
1968.539185 6954.000000
1969.851196 7032.000000
1971.162598 6974.000000
1972.472656 6907.000000
1973.782227 6804.000000
1975.091064 6672.000000
1976.399292 6736.000000
1977.706177 6692.000000
1979.012451 6735.000000
1980.318359 6736.000000
1981.623047 6852.000000
1982.927246 6684.000000
1984.230225 6703.000000
1985.532837 6642.000000
1986.834473 6737.000000
1988.135498 6589.000000
1989.434937 6536.000000
1990.734497 6437.000000
1992.032959 6464.000000
1993.330933 6334.000000
1994.627319 6510.000000
1995.923706 6392.000000
1997.219116 6405.000000
1998.513794 6401.000000
1999.807617 6308.000000
2001.100220 6329.000000
2002.392334 6313.000000
2003.683960 6306.000000
2004.974854 6210.000000
2006.264160 6127.000000
2007.553223 6178.000000
2008.841553 6154.000000
2010.129150 6365.000000
2011.415894 6175.000000
2012.701538 6206.000000
2013.986816 6087.000000
2015.271118 6051.000000
2016.554810 6113.000000
2017.837158 6063.000000
2019.119141 6080.000000
2020.400635 6146.000000
2021.681152 6135.000000
2022.960938 6107.000000
2024.239624 6002.000000
2025.517578 6103.000000
2026.795044 6019.000000
2028.071899 6114.000000
2029.347046 6210.000000
2030.622314 6076.000000
2031.896606 6162.000000
2033.169922 6119.000000
2034.442383 6207.000000
2035.714478 6108.000000
2036.985474 6105.000000
2038.256226 6108.000000
2039.525635 6194.000000
2040.793945 6163.000000
2042.062256 6177.000000
2043.329590 6173.000000
2044.596191 6113.000000
2045.861572 5976.000000
2047.126343 6070.000000
2048.390869 6058.000000
2049.654297 6017.000000
2050.917236 6050.000000
2052.178223 6036.000000
2053.439697 5928.000000
2054.699951 5875.000000
2055.959473 5914.000000
2057.218262 5805.000000
2058.476074 5760.000000
2059.733398 5852.000000
2060.989990 5783.000000
2062.245117 5732.000000
2063.500244 5878.000000
2064.754395 5768.000000
2066.007813 5729.000000
2067.260498 5734.000000
2068.511963 5773.000000
2069.763184 5797.000000
2071.013672 5764.000000
2072.263428 5750.000000
2073.511719 5396.000000
2074.760010 5645.000000
2076.007324 5615.000000
2077.253906 5608.000000
2078.499756 5591.000000
2079.744385 5527.000000
2080.988525 5595.000000
2082.232178 5475.000000
2083.474854 5507.000000
2084.716309 5477.000000
2085.957520 5418.000000
2087.198242 5447.000000
2088.437988 5422.000000
2089.676514 5454.000000
2090.914551 5319.000000
2092.151855 5323.000000
2093.388916 5266.000000
2094.624512 5347.000000
2095.859375 5359.000000
2097.093994 5303.000000
2098.327637 5389.000000
2099.560303 5272.000000
2100.792236 5238.000000
2102.023682 5321.000000
2103.254150 5250.000000
2104.483887 5138.000000
2105.713379 5164.000000
2106.940918 5147.000000
2108.168701 5110.000000
2109.395752 5047.000000
2110.621826 5116.000000
2111.846436 4923.000000
2113.071289 5042.000000
2114.294922 5027.000000
2115.518066 5050.000000
2116.739990 5036.000000
2117.961670 4978.000000
2119.182373 5084.000000
2120.402344 5106.000000
2121.621826 5159.000000
2122.839844 5145.000000
2124.057861 5076.000000
2125.274902 5016.000000
2126.491455 5000.000000
2127.706299 5093.000000
2128.921387 4989.000000
2130.135498 5068.000000
2131.348877 5095.000000
2132.561523 4872.000000
2133.772705 5014.000000
2134.984131 5161.000000
2136.194336 4996.000000
2137.404053 5019.000000
2138.612305 5089.000000
2139.820557 5007.000000
2141.028076 4899.000000
2142.234375 4876.000000
2143.439941 5023.000000
2144.645264 4954.000000
2145.849609 4826.000000
2147.053223 4979.000000
2148.256348 4924.000000
2149.458008 4882.000000
2150.659424 4903.000000
2151.860107 4943.000000
2153.060059 4907.000000
2154.258789 4905.000000
2155.457275 4847.000000
2156.655273 4845.000000
2157.852295 4722.000000
2159.048584 4698.000000
2160.243652 4637.000000
2161.438477 4523.000000
2162.632568 4590.000000
2163.825684 4681.000000
2165.017822 4668.000000
2166.209717 4630.000000
2167.400879 4438.000000
2168.591064 4455.000000
2169.780518 4477.000000
2170.969482 4421.000000
2172.157471 4369.000000
2173.345215 4432.000000
2174.531494 4233.000000
2175.717041 4265.000000
2176.902344 4205.000000
2178.087158 4273.000000
2179.270752 4211.000000
2180.453613 4334.000000
2181.635498 4274.000000
2182.817139 4266.000000
2183.998291 4247.000000
2185.178223 4221.000000
2186.357178 4153.000000
2187.535645 4191.000000
2188.713867 4263.000000
2189.890869 4154.000000
2191.066895 4158.000000
2192.242676 4265.000000
2193.417969 4097.000000
2194.591797 4182.000000
2195.765137 4183.000000
2196.938232 4179.000000
2198.110107 4237.000000
2199.281494 4110.000000
2200.452393 4152.000000
2201.621582 4130.000000
2202.790771 4302.000000
2203.959473 4159.000000
2205.127197 4217.000000
2206.293945 4197.000000
2207.459961 4172.000000
2208.625488 4244.000000
2209.790771 4231.000000
2210.954590 4226.000000
2212.117920 4198.000000
2213.280029 4180.000000
2214.442383 4085.000000
2215.603516 4151.000000
2216.763672 3975.000000
2217.923340 4100.000000
2219.082764 3947.000000
2220.240967 4003.000000
2221.398193 3979.000000
2222.555176 4118.000000
2223.711426 4001.000000
2224.866943 4002.000000
2226.021729 3801.000000
2227.175537 3982.000000
2228.328369 3940.000000
2229.481689 3939.000000
2230.633057 3876.000000
2231.784180 3870.000000
2232.934570 3868.000000
2234.084473 3821.000000
2235.233398 3703.000000
2236.381836 3820.000000
2237.528809 3443.000000
2238.676025 3880.000000
2239.822021 3722.000000
2240.967773 3745.000000
2242.111816 3612.000000
2243.256104 3523.000000
2244.399414 3612.000000
2245.541992 3615.000000
2246.683594 3625.000000
2247.824951 3533.000000
2248.965332 3510.000000
2250.104980 3504.000000
2251.244141 3539.000000
2252.382080 3441.000000
2253.520020 3534.000000
2254.656982 3536.000000
2255.793213 3501.000000
2256.928467 3502.000000
2258.062988 3505.000000
2259.197266 3529.000000
2260.331055 3500.000000
2261.463379 3589.000000
2262.595215 3472.000000
2263.726563 3521.000000
2264.856934 3415.000000
2265.987061 3323.000000
2267.115967 3261.000000
2268.244385 3301.000000
2269.372314 3338.000000
2270.499268 3241.000000
2271.625488 3258.000000
2272.750732 3290.000000
2273.875977 3330.000000
2275.000488 3307.000000
2276.123779 3361.000000
2277.246338 3336.000000
2278.368408 3297.000000
2279.489990 3316.000000
2280.610840 3331.000000
2281.730469 3299.000000
2282.849609 3260.000000
2283.968506 3190.000000
2285.086670 3075.000000
2286.203857 3165.000000
2287.320068 3251.000000
2288.436035 3177.000000
2289.551270 3204.000000
2290.665771 3275.000000
2291.779053 3158.000000
2292.892334 3199.000000
2294.004883 3202.000000
2295.116699 3245.000000
2296.227783 3166.000000
2297.337646 3224.000000
2298.447021 3262.000000
2299.556152 3288.000000
2300.664307 3214.000000
2301.771484 3236.000000
2302.878418 3263.000000
2303.984619 3203.000000
2305.090332 3196.000000
2306.194580 3216.000000
2307.298584 3165.000000
2308.402100 3147.000000
2309.505127 3085.000000
2310.606934 3097.000000
2311.708008 3109.000000
2312.808594 3198.000000
2313.908691 3086.000000
2315.008057 3102.000000
2316.105957 3059.000000
2317.204346 3054.000000
2318.301270 3081.000000
2319.397949 3027.000000
2320.494141 3079.000000
2321.588623 2921.000000
2322.683105 2984.000000
2323.776855 2989.000000
2324.870361 2971.000000
2325.962158 3130.000000
2327.053955 2877.000000
2328.145020 3037.000000
2329.235352 3010.000000
2330.324707 3022.000000
2331.414063 2948.000000
2332.502197 2970.000000
2333.589844 2950.000000
2334.677246 2915.000000
2335.762939 2915.000000
2336.848389 2817.000000
2337.933594 2932.000000
2339.017822 2868.000000
2340.101074 2763.000000
2341.184082 2782.000000
2342.266113 3126.000000
2343.347900 2808.000000
2344.428955 2700.000000
2345.508789 2833.000000
2346.588135 2711.000000
2347.666992 2641.000000
2348.745361 2648.000000
2349.822266 2621.000000
2350.898926 2574.000000
2351.975342 2643.000000
2353.050781 2659.000000
2354.125244 2685.000000
2355.199463 2654.000000
2356.272949 2603.000000
2357.345947 2535.000000
2358.417725 2670.000000
2359.489258 2595.000000
2360.559814 2579.000000
2361.630127 2587.000000
2362.699463 2382.000000
2363.767822 2596.000000
2364.835938 2513.000000
2365.903320 2590.000000
2366.970215 2489.000000
2368.036377 2571.000000
2369.101318 2360.000000
2370.166260 2381.000000
2371.230469 2413.000000
2372.293945 2487.000000
2373.356201 2438.000000
2374.418457 2484.000000
2375.479736 2443.000000
2376.540771 2435.000000
2377.600586 2402.000000
2378.659668 2456.000000
2379.718750 2444.000000
2380.776855 2477.000000
2381.834229 2390.000000
2382.890625 2479.000000
2383.946777 2432.000000
2385.002441 2396.000000
2386.057373 2330.000000
2387.110840 2377.000000
2388.164551 2369.000000
2389.217285 2360.000000
2390.269531 2363.000000
2391.321045 2444.000000
2392.371582 2490.000000
2393.421875 2398.000000
2394.471191 2355.000000
2395.520508 2446.000000
2396.568359 2471.000000
2397.615723 2396.000000
2398.662842 2403.000000
2399.708984 2285.000000
2400.754395 2448.000000
2401.799072 2306.000000
2402.843750 2332.000000
2403.886963 2306.000000
2404.930176 2386.000000
2405.971924 2308.000000
2407.013916 2279.000000
2408.055176 2416.000000
2409.095459 2353.000000
2410.135010 2281.000000
2411.173584 2340.000000
2412.212402 2325.000000
2413.250000 2336.000000
2414.287354 2361.000000
2415.323486 2221.000000
2416.359375 2295.000000
2417.394531 2345.000000
2418.429199 2215.000000
2419.462402 2357.000000
2420.495850 2322.000000
2421.528320 2235.000000
2422.560547 2274.000000
2423.591309 2278.000000
2424.622070 2234.000000
2425.652344 2235.000000
2426.681396 2206.000000
2427.710449 2068.000000
2428.737793 2185.000000
2429.765625 2232.000000
2430.792236 2202.000000
2431.818604 2163.000000
2432.843506 2187.000000
2433.868652 2138.000000
2434.892822 2048.000000
2435.916748 2128.000000
2436.939453 2110.000000
2437.961426 2095.000000
2438.983154 2192.000000
2440.004150 2079.000000
2441.024658 2096.000000
2442.043945 2129.000000
2443.063232 2050.000000
2444.081543 1965.000000
2445.099609 1938.000000
2446.116211 2000.000000
2447.132813 1942.000000
2448.148682 2032.000000
2449.164551 2042.000000
2450.178955 1980.000000
2451.192627 2009.000000
2452.205811 1916.000000
2453.218750 1916.000000
2454.230957 2004.000000
2455.242188 1924.000000
2456.253174 1994.000000
2457.263428 1895.000000
2458.273193 2033.000000
2459.281982 1960.000000
2460.290039 1853.000000
2461.298096 1923.000000
2462.304932 1906.000000
2463.311523 1886.000000
2464.316895 1801.000000
2465.322021 1813.000000
2466.326904 1818.000000
2467.330566 1788.000000
2468.333984 1871.000000
2469.336426 1933.000000
2470.338623 2010.000000
2471.340332 1863.000000
2472.341064 1819.000000
2473.340820 1830.000000
2474.340576 1775.000000
2475.339355 1793.000000
2476.337646 1811.000000
2477.334961 1793.000000
2478.332031 1819.000000
2479.329102 1815.000000
2480.324707 1823.000000
2481.320313 1793.000000
2482.314209 1794.000000
2483.308105 1782.000000
2484.301514 1757.000000
2485.294434 1941.000000
2486.286377 1801.000000
2487.277588 1911.000000
2488.268555 1823.000000
2489.259033 1798.000000
2490.248535 1862.000000
2491.237305 1763.000000
2492.226074 1778.000000
2493.213867 1853.000000
2494.200439 1736.000000
2495.187012 1808.000000
2496.173096 1770.000000
2497.158447 1821.000000
2498.142822 1374.000000
2499.126953 1941.000000
2500.111084 1824.000000
2501.093750 1793.000000
2502.075928 1650.000000
2503.057617 1759.000000
2504.038574 1730.000000
2505.019043 1755.000000
2505.999268 1806.000000
2506.978027 1744.000000
2507.956543 1745.000000
2508.934570 1691.000000
2509.912109 1635.000000
2510.888672 1736.000000
2511.864990 1672.000000
2512.840576 1714.000000
2513.815674 1610.000000
2514.790283 1590.000000
2515.763672 1639.000000
2516.736816 1664.000000
2517.709717 1611.000000
2518.681641 1605.000000
2519.652832 1632.000000
2520.623535 1625.000000
2521.593994 1680.000000
2522.563721 1614.000000
2523.532471 1546.000000
2524.500488 1588.000000
2525.468506 1515.000000
2526.435547 1628.000000
2527.402344 1567.000000
2528.367920 1581.000000
2529.333496 1635.000000
2530.298340 1485.000000
2531.262695 1543.000000
2532.225830 1630.000000
2533.189209 1578.000000
2534.151611 1570.000000
2535.113770 1502.000000
2536.074707 1582.000000
2537.034912 1592.000000
2537.995361 1580.000000
2538.954834 1604.000000
2539.913574 1663.000000
2540.871338 1508.000000
2541.829346 1483.000000
2542.786621 1516.000000
2543.742920 1512.000000
2544.698975 1466.000000
2545.653809 1472.000000
2546.608887 1550.000000
2547.563232 1468.000000
2548.516846 1368.000000
2549.469482 1471.000000
2550.421875 1480.000000
2551.373779 1473.000000
2552.324951 1412.000000
2553.275391 1517.000000
2554.225342 1494.000000
2555.175049 1413.000000
2556.124023 1523.000000
2557.072510 1488.000000
2558.019775 1301.000000
2558.967041 1437.000000
2559.913574 1474.000000
2560.859619 1353.000000
2561.804688 1303.000000
2562.749512 1410.000000
2563.693848 1450.000000
2564.637695 1421.000000
2565.581055 1351.000000
2566.522949 1430.000000
2567.465088 1375.000000
2568.406494 1417.000000
2569.347168 1322.000000
2570.287109 1355.000000
2571.227051 1351.000000
2572.166016 1370.000000
2573.104736 1378.000000
2574.042480 1441.000000
2574.979980 1457.000000
2575.916748 1358.000000
2576.852783 1332.000000
2577.788330 1345.000000
2578.723145 1403.000000
2579.657959 1315.000000
2580.591797 1259.000000
2581.525146 1452.000000
2582.457764 1298.000000
2583.390137 1475.000000
2584.321777 1379.000000
2585.252930 1285.000000
2586.183594 1279.000000
2587.113037 1257.000000
2588.042480 1366.000000
2588.971436 1354.000000
2589.900146 1369.000000
2590.827148 1463.000000
2591.754395 1325.000000
2592.681152 1223.000000
2593.607178 1264.000000
2594.532959 1314.000000
2595.457520 1335.000000
2596.381836 1338.000000
2597.305664 1395.000000
2598.229004 1368.000000
2599.151367 1356.000000
2600.073486 1319.000000
2600.995117 1295.000000
2601.916016 1277.000000
2602.836182 1296.000000
2603.756104 1244.000000
2604.675537 1299.000000
2605.594727 1190.000000
2606.512939 1275.000000
2607.429932 1320.000000
2608.347168 1159.000000
2609.264160 1202.000000
2610.180176 1365.000000
2611.094971 1171.000000
2612.010254 1196.000000
2612.924805 1282.000000
2613.838379 1156.000000
2614.751953 1337.000000
2615.664307 1231.000000
2616.576660 1300.000000
2617.488037 1267.000000
2618.399170 1140.000000
2619.309570 1186.000000
2620.219727 1110.000000
2621.129150 1208.000000
2622.038086 1162.000000
2622.946045 1139.000000
2623.854248 1157.000000
2624.761475 1111.000000
2625.668213 1091.000000
2626.574219 1093.000000
2627.479980 1102.000000
2628.385010 1297.000000
2629.289795 1150.000000
2630.193848 1174.000000
2631.096924 1142.000000
2632.000000 1052.000000
2632.902100 1121.000000
2633.804199 1133.000000
2634.706055 1220.000000
2635.606201 1101.000000
2636.506592 1209.000000
2637.406250 1051.000000
2638.305664 1106.000000
2639.203613 1181.000000
2640.102051 1110.000000
2641.000000 1134.000000
2641.897217 1125.000000
2642.793213 1160.000000
2643.689209 926.000000
2644.584961 1019.000000
2645.479980 1051.000000
2646.374756 1181.000000
2647.268066 1020.000000
2648.161377 996.000000
2649.054443 970.000000
2649.947266 1114.000000
2650.838379 1017.000000
2651.729736 1024.000000
2652.620605 1044.000000
2653.510742 979.000000
2654.400635 1048.000000
2655.289307 973.000000
2656.178223 1040.000000
2657.066650 1024.000000
2657.954102 1126.000000
2658.840576 1011.000000
2659.727539 1045.000000
2660.613770 940.000000
2661.499512 1020.000000
2662.384033 997.000000
2663.268555 1074.000000
2664.152832 1119.000000
2665.036377 1033.000000
2665.919434 944.000000
2666.801758 978.000000
2667.683594 1008.000000
2668.564697 977.000000
2669.446045 986.000000
2670.325928 1052.000000
2671.206055 985.000000
2672.085449 936.000000
2672.964844 1087.000000
2673.843506 1007.000000
2674.720459 1084.000000
2675.598145 1042.000000
2676.475098 919.000000
2677.351318 1013.000000
2678.227051 902.000000
2679.102051 1009.000000
2679.977295 1013.000000
2680.851563 905.000000
2681.725342 966.000000
2682.598389 999.000000
2683.471191 919.000000
2684.343750 1017.000000
2685.215576 955.000000
2686.086670 1008.000000
2686.957520 946.000000
2687.827881 947.000000
2688.697998 954.000000
2689.566406 802.000000
2690.435547 912.000000
2691.303955 908.000000
2692.172119 946.000000
2693.039551 915.000000
2693.905762 892.000000
2694.772461 903.000000
2695.638184 932.000000
2696.503906 892.000000
2697.368164 871.000000
2698.233154 939.000000
2699.096680 941.000000
2699.960449 881.000000
2700.822754 980.000000
2701.685547 926.000000
2702.547363 942.000000
2703.408691 850.000000
2704.270020 823.000000
2705.130127 939.000000
2705.990234 927.000000
2706.849854 932.000000
2707.709229 983.000000
2708.566895 867.000000
2709.424805 963.000000
2710.283203 691.000000
2711.140381 861.000000
2711.996826 837.000000
2712.852783 875.000000
2713.708740 777.000000
2714.563965 806.000000
2715.418457 927.000000
2716.272461 882.000000
2717.126465 842.000000
2717.979492 839.000000
2718.832764 877.000000
2719.684326 881.000000
2720.536377 824.000000
2721.388184 808.000000
2722.238770 803.000000
2723.089355 850.000000
2723.939453 906.000000
2724.788818 845.000000
2725.638184 993.000000
2726.486328 867.000000
2727.333984 764.000000
2728.182129 909.000000
2729.029053 906.000000
2729.876465 805.000000
2730.722412 786.000000
2731.567627 819.000000
2732.413330 830.000000
2733.258057 811.000000
2734.102783 762.000000
2734.946289 773.000000
2735.790039 829.000000
2736.633057 831.000000
2737.475586 827.000000
2738.317139 791.000000
2739.159180 722.000000
2740.000244 834.000000
2740.841064 746.000000
2741.681641 866.000000
2742.520996 718.000000
2743.360352 813.000000
2744.199707 820.000000
2745.037842 828.000000
2745.875488 856.000000
2746.713135 829.000000
2747.550293 677.000000
2748.387207 804.000000
2749.223633 812.000000
2750.058838 841.000000
2750.894287 775.000000
2751.729248 826.000000
2752.563477 856.000000
2753.397461 811.000000
2754.230957 769.000000
2755.064453 950.000000
2755.896973 792.000000
2756.729004 684.000000
2757.560547 713.000000
2758.392090 753.000000
2759.222656 675.000000
2760.053467 745.000000
2760.883057 811.000000
2761.712646 761.000000
2762.541992 683.000000
2763.370605 737.000000
2764.198730 746.000000
2765.026367 599.000000
2765.854004 723.000000
2766.681152 658.000000
2767.507568 794.000000
2768.333496 676.000000
2769.158936 738.000000
2769.984131 786.000000
2770.809326 755.000000
2771.633301 729.000000
2772.457275 688.000000
2773.281250 745.000000
2774.104004 780.000000
2774.927002 629.000000
2775.748779 691.000000
2776.570557 788.000000
2777.392334 753.000000
2778.213135 720.000000
2779.033203 757.000000
2779.853516 578.000000
2780.673340 691.000000
2781.493164 710.000000
2782.311035 659.000000
2783.130127 614.000000
2783.947998 567.000000
2784.765625 683.000000
2785.582764 695.000000
2786.399414 758.000000
2787.215820 659.000000
2788.031738 577.000000
2788.847412 678.000000
2789.662109 709.000000
2790.477295 571.000000
2791.291748 605.000000
2792.105713 594.000000
2792.919434 619.000000
2793.731934 614.000000
2794.544678 570.000000
2795.356934 662.000000
2796.168701 651.000000
2796.979736 638.000000
2797.791504 583.000000
2798.602051 645.000000
2799.412598 659.000000
2800.221680 697.000000
2801.031494 660.000000
2801.840576 741.000000
2802.649414 630.000000
2803.457764 610.000000
2804.265137 630.000000
2805.072998 649.000000
2805.880127 669.000000
2806.687012 560.000000
2807.492676 596.000000
2808.298828 664.000000
2809.104248 638.000000
2809.909668 659.000000
2810.714355 683.000000
2811.518066 489.000000
2812.322266 619.000000
2813.125977 596.000000
2813.929443 669.000000
2814.731445 661.000000
2815.534180 686.000000
2816.336182 570.000000
2817.137939 595.000000
2817.939209 581.000000
2818.739990 599.000000
2819.540283 656.000000
2820.340820 648.000000
2821.140381 541.000000
2821.939453 653.000000
2822.738525 594.000000
2823.537354 611.000000
2824.335693 587.000000
2825.133057 575.000000
2825.930664 574.000000
2826.727539 677.000000
2827.524658 629.000000
2828.321045 802.000000
2829.116699 617.000000
2829.912354 604.000000
2830.707764 669.000000
2831.502686 638.000000
2832.296875 557.000000
2833.091064 613.000000
2833.885010 653.000000
2834.678467 626.000000
2835.471191 675.000000
2836.263672 731.000000
2837.056152 659.000000
2837.848389 646.000000
2838.640137 732.000000
2839.430908 647.000000
2840.221680 606.000000
2841.012695 653.000000
2841.802734 724.000000
2842.592285 592.000000
2843.382080 634.000000
2844.170898 589.000000
2844.959717 647.000000
2845.748535 648.000000
2846.536377 588.000000
2847.323730 588.000000
2848.111328 522.000000
2848.898438 581.000000
2849.684814 592.000000
2850.471191 555.000000
2851.257324 517.000000
2852.042969 553.000000
2852.827637 562.000000
2853.612793 612.000000
2854.397705 565.000000
2855.181885 613.000000
2855.966064 547.000000
2856.749023 620.000000
2857.532227 599.000000
2858.315186 595.000000
2859.097656 669.000000
2859.879883 661.000000
2860.661621 712.000000
2861.443115 647.000000
2862.224854 673.000000
2863.005859 654.000000
2863.786133 650.000000
2864.566162 652.000000
2865.346191 622.000000
2866.125977 678.000000
2866.904785 692.000000
2867.683838 704.000000
2868.462402 611.000000
2869.240723 736.000000
2870.018555 661.000000
2870.796143 728.000000
2871.573486 705.000000
2872.350586 711.000000
2873.127197 732.000000
2873.903320 674.000000
2874.679443 704.000000
2875.455078 853.000000
2876.230469 838.000000
2877.005371 805.000000
2877.780029 800.000000
2878.554688 891.000000
2879.329102 894.000000
2880.102783 780.000000
2880.875732 766.000000
2881.649414 873.000000
2882.422119 918.000000
2883.194824 744.000000
2883.966797 819.000000
2884.738525 804.000000
2885.510742 862.000000
2886.281738 815.000000
2887.052246 780.000000
2887.823242 871.000000
2888.594238 863.000000
2889.364502 903.000000
2890.133789 865.000000
2890.903320 828.000000
2891.672852 850.000000
2892.441895 791.000000
2893.210449 810.000000
2893.979004 754.000000
2894.746582 724.000000
2895.514648 856.000000
2896.282227 787.000000
2897.049805 852.000000
2897.816162 767.000000
2898.583496 707.000000
2899.349609 680.000000
2900.115967 683.000000
2900.880859 708.000000
2901.646240 782.000000
2902.412109 781.000000
2903.176514 809.000000
2903.940918 678.000000
2904.705566 825.000000
2905.469238 740.000000
2906.233643 746.000000
2906.997314 750.000000
2907.760254 725.000000
2908.522949 653.000000
2909.286133 739.000000
2910.048828 699.000000
2910.810303 769.000000
2911.572266 769.000000
spectrumdark 2048
-96.658684 6191.000000
-94.031815 6191.000000
-91.406822 5958.000000
-88.783722 6341.000000
-86.162491 5772.000000
-83.543159 6234.000000
-80.925690 6079.000000
-78.310097 6417.000000
-75.696381 6207.000000
-73.084541 5828.000000
-70.474564 6064.000000
-67.866470 5939.000000
-65.260223 5947.000000
-62.655853 5982.000000
-60.053345 6096.000000
-57.452690 5645.000000
-54.853897 6235.000000
-52.256962 6875.000000
-49.661880 6365.000000
-47.068653 6549.000000
-44.477276 6294.000000
-41.887745 6687.000000
-39.300056 5899.000000
-36.714218 6031.000000
-34.130222 6494.000000
-31.548061 5609.000000
-28.967749 6327.000000
-26.389263 5715.000000
-23.812620 6163.000000
-21.237803 6200.000000
-18.664825 6450.000000
-16.093668 6383.000000
-13.524345 6746.000000
-10.956846 7782.000000
-8.391167 6244.000000
-5.827313 6437.000000
-3.265273 5974.000000
-0.705057 5816.000000
1.853351 6064.000000
4.409938 6865.000000
6.964720 6610.000000
9.517685 5992.000000
12.068850 6785.000000
14.618202 6460.000000
17.165758 6630.000000
19.711502 5976.000000
22.255453 5660.000000
24.797600 6586.000000
27.337950 6768.000000
29.876514 6793.000000
32.413280 6160.000000
34.948246 5768.000000
37.481434 7221.000000
40.012840 6320.000000
42.542454 7071.000000
45.070271 6468.000000
47.596329 7792.000000
50.120598 5658.000000
52.643097 6201.000000
55.163799 6779.000000
57.682747 6332.000000
60.199921 6432.000000
62.715317 6588.000000
65.228935 5579.000000
67.740799 5694.000000
70.250916 6501.000000
72.759239 6544.000000
75.265808 5908.000000
77.770630 6346.000000
80.273697 6357.000000
82.774986 6243.000000
85.274536 6169.000000
87.772331 6288.000000
90.268394 5700.000000
92.762680 7191.000000
95.255226 5767.000000
97.746056 6851.000000
100.235115 7129.000000
102.722427 6364.000000
105.208015 6227.000000
107.691864 6350.000000
110.173965 5787.000000
112.654343 6550.000000
115.132996 6164.000000
117.609924 6415.000000
120.085098 7193.000000
122.558563 6783.000000
125.030296 5868.000000
127.500320 6705.000000
129.968597 6226.000000
132.435196 6214.000000
134.900040 5714.000000
137.363190 6117.000000
139.824600 7219.000000
142.284317 6856.000000
144.742310 6357.000000
147.198608 5953.000000
149.653198 5815.000000
152.106064 6806.000000
154.557251 6357.000000
157.006744 6575.000000
159.454514 5994.000000
161.900574 6579.000000
164.344955 8612.000000
166.787659 6306.000000
169.228668 6830.000000
171.667969 6236.000000
174.105560 7211.000000
176.541519 6625.000000
178.975739 6956.000000
181.408279 7153.000000
183.839172 6657.000000
186.268341 6727.000000
188.695862 6651.000000
191.121704 6268.000000
193.545868 6690.000000
195.968369 7170.000000
198.389175 7322.000000
200.808319 6470.000000
203.225800 5969.000000
205.641586 7588.000000
208.055725 6984.000000
210.468231 6281.000000
212.879059 6057.000000
215.288208 6198.000000
217.695724 7361.000000
220.101532 6064.000000
222.505753 6478.000000
224.908264 6658.000000
227.309158 6877.000000
229.708405 6387.000000
232.105988 6793.000000
234.501907 7237.000000
236.896210 6493.000000
239.288849 5806.000000
241.679871 6731.000000
244.069229 6495.000000
246.456970 6306.000000
248.843063 6887.000000
251.227524 6048.000000
253.610336 7883.000000
255.991577 6654.000000
258.371094 6569.000000
260.749054 6490.000000
263.125336 7508.000000
265.500061 7518.000000
267.873138 7861.000000
270.244568 6202.000000
272.614349 6440.000000
274.982574 5836.000000
277.349152 6324.000000
279.714142 6743.000000
282.077515 6001.000000
284.439240 6189.000000
286.799377 7081.000000
289.157898 5957.000000
291.514832 6523.000000
293.870148 6339.000000
296.223877 5971.000000
298.575958 5918.000000
300.926483 6227.000000
303.275421 6331.000000
305.622711 6727.000000
307.968475 6391.000000
310.312561 6364.000000
312.655121 7327.000000
314.996063 7550.000000
317.335388 7070.000000
319.673157 6866.000000
322.009369 8029.000000
324.343933 6231.000000
326.676941 6512.000000
329.008392 5920.000000
331.338257 6480.000000
333.666534 6347.000000
335.993195 7167.000000
338.318359 6344.000000
340.641907 6237.000000
342.963898 5913.000000
345.284332 7458.000000
347.603149 7651.000000
349.920410 5953.000000
352.236145 5802.000000
354.550293 6983.000000
356.862854 6296.000000
359.173859 6186.000000
361.483337 7023.000000
363.791290 6356.000000
366.097626 5606.000000
368.402374 6376.000000
370.705658 6388.000000
373.007324 6211.000000
375.307495 6385.000000
377.606110 6269.000000
379.903168 5705.000000
382.198669 6053.000000
384.492645 5786.000000
386.785034 5110.000000
389.075928 5566.000000
391.365295 6246.000000
393.653076 6258.000000
395.939331 6493.000000
398.224091 6948.000000
400.507233 6000.000000
402.788940 6372.000000
405.069122 6116.000000
407.347717 7198.000000
409.624786 6413.000000
411.900330 6652.000000
414.174347 6433.000000
416.446930 6340.000000
418.717896 6376.000000
420.987366 6306.000000
423.255341 7101.000000
425.521759 7255.000000
427.786682 6209.000000
430.050140 6333.000000
432.312012 6425.000000
434.572418 5939.000000
436.831268 6559.000000
439.088654 6063.000000
441.344543 5642.000000
443.598938 5802.000000
445.851807 5410.000000
448.103119 6847.000000
450.353027 6059.000000
452.601349 6200.000000
454.848236 5600.000000
457.093658 6476.000000
459.337524 6463.000000
461.579895 6783.000000
463.820770 5641.000000
466.060242 6713.000000
468.298126 5384.000000
470.534576 5819.000000
472.769501 6030.000000
475.002960 7339.000000
477.234985 6678.000000
479.465485 5668.000000
481.694489 6447.000000
483.922028 6248.000000
486.148071 5954.000000
488.372681 6525.000000
490.595825 5868.000000
492.817505 6370.000000
495.037628 6661.000000
497.256348 5669.000000
499.473572 6239.000000
501.689423 5488.000000
503.903656 6077.000000
506.116577 6399.000000
508.327911 6411.000000
510.537811 6830.000000
512.746277 6500.000000
514.953369 6531.000000
517.158875 6322.000000
519.362976 6530.000000
521.565552 6133.000000
523.766724 6529.000000
525.966553 6658.000000
528.164856 6880.000000
530.361633 5265.000000
532.557068 5835.000000
534.750977 5503.000000
536.943542 7497.000000
539.134583 6648.000000
541.324219 6010.000000
543.512451 6919.000000
545.699158 7111.000000
547.884399 6743.000000
550.068359 6117.000000
552.250732 6369.000000
554.431763 6175.000000
556.611267 6010.000000
558.789490 5807.000000
560.966187 5971.000000
563.141479 6366.000000
565.315369 6382.000000
567.487793 5928.000000
569.658813 5970.000000
571.828369 6307.000000
573.996643 5221.000000
576.163391 6448.000000
578.328674 6265.000000
580.492554 6132.000000
582.655151 5755.000000
584.816223 5979.000000
586.975891 5592.000000
589.134216 5719.000000
591.291016 6105.000000
593.446472 6527.000000
595.600525 5758.000000
597.753235 6061.000000
599.904419 7159.000000
602.054260 6706.000000
604.202759 6611.000000
606.349670 5933.000000
608.495361 6506.000000
610.639648 6390.000000
612.782471 6949.000000
614.923828 6114.000000
617.063965 6451.000000
619.202576 7692.000000
621.339905 5725.000000
623.475769 6554.000000
625.610229 6880.000000
627.743225 7171.000000
629.875061 6629.000000
632.005432 6554.000000
634.134399 6820.000000
636.261902 6421.000000
638.388123 6178.000000
640.512817 7239.000000
642.636292 6269.000000
644.758423 6740.000000
646.879089 6855.000000
648.998413 6572.000000
651.116333 5578.000000
653.232910 5655.000000
655.348083 6377.000000
657.461914 6454.000000
659.574280 5769.000000
661.685425 6112.000000
663.795166 5387.000000
665.903442 6035.000000
668.010559 6293.000000
670.116211 6815.000000
672.220398 5832.000000
674.323364 5651.000000
676.424927 6966.000000
678.525146 5307.000000
680.623962 6743.000000
682.721436 6208.000000
684.817627 6910.000000
686.912354 6328.000000
689.005859 6918.000000
691.098022 6523.000000
693.188660 7900.000000
695.278076 6624.000000
697.366211 6464.000000
699.452881 6008.000000
701.538330 6683.000000
703.622253 5117.000000
705.704956 5888.000000
707.786377 5893.000000
709.866333 7496.000000
711.945068 6182.000000
714.022339 5510.000000
716.098328 6588.000000
718.173035 6014.000000
720.246460 6940.000000
722.318359 6296.000000
724.389099 7309.000000
726.458496 5772.000000
728.526489 6469.000000
730.593140 6313.000000
732.658569 7040.000000
734.722656 5734.000000
736.785400 6124.000000
738.846802 6407.000000
740.906921 6555.000000
742.965637 5944.000000
745.023132 6640.000000
747.079346 6436.000000
749.134155 6639.000000
751.187683 6303.000000
753.239807 7436.000000
755.290710 5757.000000
757.340393 6668.000000
759.388611 6358.000000
761.435608 6126.000000
763.481323 6961.000000
765.525635 5299.000000
767.568665 5729.000000
769.610474 6334.500000
771.650940 6940.000000
773.690002 6362.000000
775.727905 6058.000000
777.764465 6035.000000
779.799805 5280.000000
781.833801 5612.000000
783.866394 6800.000000
785.897827 5513.000000
787.927856 11515.000000
789.956604 6024.000000
791.984192 6225.000000
794.010437 6400.000000
796.035278 5759.000000
798.059021 5502.000000
800.081360 6316.000000
802.102478 5847.000000
804.122253 6617.000000
806.140747 4890.000000
808.158020 6596.000000
810.173889 6760.000000
812.188599 5615.000000
814.201965 6410.000000
816.214111 6268.000000
818.225037 6041.000000
820.234619 6613.000000
822.242981 5255.000000
824.249939 5676.000000
826.255676 6004.000000
828.260193 5711.000000
830.263428 5583.000000
832.265381 6511.000000
834.266052 6068.000000
836.265503 5845.000000
838.263611 6323.000000
840.260620 6931.000000
842.256226 6139.000000
844.250671 5936.000000
846.243774 6151.000000
848.235657 6746.000000
850.226196 5495.000000
852.215454 6815.000000
854.203674 5960.000000
856.190491 5734.000000
858.176086 6404.000000
860.160400 7267.000000
862.143616 6274.000000
864.125427 6365.000000
866.106018 5772.000000
868.085327 7752.000000
870.063477 7067.000000
872.040283 6092.000000
874.015808 5895.000000
875.990295 6164.000000
877.963318 6000.000000
879.935303 5459.000000
881.905945 6360.000000
883.875427 6127.000000
885.843567 5529.000000
887.810547 5148.000000
889.776184 6059.000000
891.740662 5773.000000
893.703918 5927.000000
895.665955 6447.000000
897.626709 5796.000000
899.586243 6415.000000
901.544495 6687.000000
903.501648 6303.000000
905.457642 5970.000000
907.412231 6876.000000
909.365601 6415.000000
911.317810 6403.000000
913.268799 6330.000000
915.218506 7048.000000
917.167053 6312.000000
919.114380 6122.000000
921.060425 6071.000000
923.005188 6044.000000
924.948914 6233.000000
926.891479 5956.000000
928.832764 5528.000000
930.772705 6442.000000
932.711548 5672.000000
934.649109 5490.000000
936.585449 5865.000000
938.520630 5756.000000
940.454529 6112.000000
942.387329 5877.000000
944.318909 6724.000000
946.249329 5147.000000
948.178528 6321.000000
950.106384 6984.000000
952.033203 6619.000000
953.958740 5944.000000
955.882996 5431.000000
957.806152 5891.000000
959.728149 6668.000000
961.648865 7198.000000
963.568420 6480.000000
965.486816 5291.000000
967.404175 6411.000000
969.320068 6396.000000
971.234863 6124.000000
973.148438 5893.000000
975.060852 6375.000000
976.972046 6415.000000
978.882080 5516.000000
980.790833 6180.000000
982.698547 6082.000000
984.605042 6402.000000
986.510315 5683.000000
988.414490 6661.000000
990.317444 6128.000000
992.219177 6808.000000
994.119751 6269.000000
996.019165 6550.000000
997.917358 5231.000000
999.814392 6517.000000
1001.710205 6477.000000
1003.604858 7643.000000
1005.498413 5581.000000
1007.390686 7070.000000
1009.282043 6030.000000
1011.172058 5302.000000
1013.060852 6602.000000
1014.948486 6246.000000
1016.834961 6905.000000
1018.720276 6653.000000
1020.604431 5976.000000
1022.487366 5825.000000
1024.369263 6149.000000
1026.249878 5203.000000
1028.129395 5782.000000
1030.007935 6068.000000
1031.885132 5458.000000
1033.760986 6162.000000
1035.635864 5842.000000
1037.509766 6561.000000
1039.382202 6965.000000
1041.253662 6656.000000
1043.123779 5456.000000
1044.992920 5425.000000
1046.860840 5778.000000
1048.727661 7158.000000
1050.593384 6721.000000
1052.457886 6424.000000
1054.321289 6527.000000
1056.183350 6400.000000
1058.044434 5829.000000
1059.904419 6446.000000
1061.763062 6581.000000
1063.620605 5791.000000
1065.477051 6680.000000
1067.332397 5966.000000
1069.186523 5781.000000
1071.039795 6246.000000
1072.891602 6302.000000
1074.742432 6080.000000
1076.592041 6133.000000
1078.440430 5687.000000
1080.287964 7885.000000
1082.134155 5544.000000
1083.979126 6157.000000
1085.823242 5395.000000
1087.666016 5507.000000
1089.507568 6530.000000
1091.348389 5433.000000
1093.187622 5806.000000
1095.026123 6003.000000
1096.863281 5991.000000
1098.699219 6761.000000
1100.534180 6471.000000
1102.367920 5444.000000
1104.200684 5611.000000
1106.032104 6146.000000
1107.862671 7234.000000
1109.691895 6487.000000
1111.520142 6449.000000
1113.347168 7027.000000
1115.173218 5409.000000
1116.998047 6288.000000
1118.821777 7106.000000
1120.644287 6074.000000
1122.465698 5830.000000
1124.286255 5814.000000
1126.105347 6520.000000
1127.923584 7049.000000
1129.740479 6836.000000
1131.556519 6624.000000
1133.371338 6485.000000
1135.185059 5573.000000
1136.997681 5754.000000
1138.809082 5664.000000
1140.619507 6093.000000
1142.428833 6710.000000
1144.236816 6942.000000
1146.044067 5865.000000
1147.849854 5857.000000
1149.654785 5342.000000
1151.458618 5340.000000
1153.261230 6112.000000
1155.062988 6014.000000
1156.863281 6058.000000
1158.662598 6048.000000
1160.460938 5856.000000
1162.257935 5441.000000
1164.054199 5877.000000
1165.849121 6025.000000
1167.642944 6272.000000
1169.435913 7756.000000
1171.227539 5610.000000
1173.018188 6514.000000
1174.807861 5987.000000
1176.596069 5757.000000
1178.383423 7440.000000
1180.169678 6777.000000
1181.954834 5696.000000
1183.738892 5891.000000
1185.521851 7639.000000
1187.303833 5869.000000
1189.084595 5862.000000
1190.864380 6273.000000
1192.643066 6907.000000
1194.420776 6583.000000
1196.197266 7202.000000
1197.972656 6552.000000
1199.746948 6466.000000
1201.520142 6603.000000
1203.292480 6427.000000
1205.063477 6685.000000
1206.833618 5645.000000
1208.602539 6101.000000
1210.370361 6311.000000
1212.137329 5746.000000
1213.902954 5850.000000
1215.667603 7062.000000
1217.431152 6471.000000
1219.193604 5898.000000
1220.955200 6740.000000
1222.715576 5816.000000
1224.474854 6256.000000
1226.233276 5959.000000
1227.990479 7048.000000
1229.746582 6384.000000
1231.501587 5501.000000
1233.255737 6001.000000
1235.008545 5814.000000
1236.760376 5917.000000
1238.511353 5869.000000
1240.260986 4839.000000
1242.009766 6974.000000
1243.757202 6440.000000
1245.503906 6567.000000
1247.249390 6438.000000
1248.994019 6382.000000
1250.737305 6693.000000
1252.479614 6632.000000
1254.220825 5294.000000
1255.961182 4980.000000
1257.700439 5785.000000
1259.438477 6487.000000
1261.175659 7052.000000
1262.911621 6116.000000
1264.646606 6428.000000
1266.380615 7283.000000
1268.113647 5903.000000
1269.845459 6164.000000
1271.576294 6392.000000
1273.305908 7252.000000
1275.034668 5882.000000
1276.762329 5602.000000
1278.488892 5525.000000
1280.214600 5504.000000
1281.938965 6376.000000
1283.662476 5213.000000
1285.385010 6969.000000
1287.106567 6575.000000
1288.826904 6133.000000
1290.546265 6616.000000
1292.264526 7210.000000
1293.981812 6391.000000
1295.698120 5767.000000
1297.413208 6371.000000
1299.127319 6104.000000
1300.840454 5717.000000
1302.552734 6351.000000
1304.263794 8283.000000
1305.973877 5202.000000
1307.682861 6300.000000
1309.390625 6615.000000
1311.097778 6918.000000
1312.803467 5735.000000
1314.508423 6832.000000
1316.212402 6133.000000
1317.915161 5994.000000
1319.616943 6553.000000
1321.317871 5979.000000
1323.017456 8701.000000
1324.716187 7113.000000
1326.414185 5525.000000
1328.110840 6483.000000
1329.806396 7038.000000
1331.501099 6743.000000
1333.194580 5760.000000
1334.887207 5363.000000
1336.578979 7407.000000
1338.269409 6292.000000
1339.959106 6535.000000
1341.647705 6072.000000
1343.335205 7578.000000
1345.021729 5615.000000
1346.707153 6744.000000
1348.391602 5867.000000
1350.075195 7184.000000
1351.757568 6388.000000
1353.438965 5954.000000
1355.119507 6512.000000
1356.798828 6635.000000
1358.477539 5868.000000
1360.154907 6545.000000
1361.831177 5749.000000
1363.506470 5552.000000
1365.181030 6587.000000
1366.854370 6404.000000
1368.526733 6750.000000
1370.198120 5191.000000
1371.868530 6697.000000
1373.537842 6198.000000
1375.206177 5620.000000
1376.873657 5945.000000
1378.540039 6494.000000
1380.205444 6135.000000
1381.869873 5837.000000
1383.533081 5893.000000
1385.195679 5626.000000
1386.856934 6365.000000
1388.517334 6530.000000
1390.176636 6334.000000
1391.834961 6466.000000
1393.492554 6845.000000
1395.148926 6419.000000
1396.804443 6945.000000
1398.458740 6273.000000
1400.112183 5804.000000
1401.764526 6147.000000
1403.416138 6435.000000
1405.066528 7171.000000
1406.715820 6211.000000
1408.364380 7500.000000
1410.011841 7870.000000
1411.658325 6163.000000
1413.303955 6150.000000
1414.948608 5955.000000
1416.592041 6924.000000
1418.234619 7064.000000
1419.876099 6842.000000
1421.516724 6452.000000
1423.156372 6426.000000
1424.794922 5972.000000
1426.432617 6525.000000
1428.069214 6260.000000
1429.704834 5961.000000
1431.339722 6336.000000
1432.973511 5849.000000
1434.606201 6111.000000
1436.237915 5640.000000
1437.868774 6159.000000
1439.498535 5997.000000
1441.127197 7771.000000
1442.755249 5911.000000
1444.382202 6217.000000
1446.007935 6135.000000
1447.633057 6147.000000
1449.257080 6514.000000
1450.880127 5998.000000
1452.502197 6023.000000
1454.123169 7327.000000
1455.743164 6254.000000
1457.362427 6800.000000
1458.980347 5640.000000
1460.597656 19127.000000
1462.213989 5495.000000
1463.829102 7209.000000
1465.443359 6228.000000
1467.056763 5121.000000
1468.669067 5558.000000
1470.280518 6182.000000
1471.891113 6330.000000
1473.500488 5972.000000
1475.108887 5926.000000
1476.716431 6097.000000
1478.322998 6736.000000
1479.928833 5260.000000
1481.533447 6281.000000
1483.137207 5480.000000
1484.739746 6758.000000
1486.341675 5477.000000
1487.942383 5476.000000
1489.542358 5575.000000
1491.141235 6260.000000
1492.739258 6464.000000
1494.336182 6643.000000
1495.932251 6325.000000
1497.527344 5959.000000
1499.121460 5448.000000
1500.714844 6541.000000
1502.307129 5423.000000
1503.898193 6210.000000
1505.488770 6654.000000
1507.078003 6457.000000
1508.666626 6107.000000
1510.254150 6495.000000
1511.840576 6812.000000
1513.426270 6184.000000
1515.010864 6618.000000
1516.594604 6162.000000
1518.177246 6111.000000
1519.759155 6593.000000
1521.339966 6608.000000
1522.920044 5960.000000
1524.498901 6164.000000
1526.076904 6390.000000
1527.654175 6299.000000
1529.230225 5640.000000
1530.805542 5909.000000
1532.379761 6316.000000
1533.953247 5488.000000
1535.525513 5959.000000
1537.097046 6352.000000
1538.667603 6419.000000
1540.237305 6301.000000
1541.805786 5364.000000
1543.373535 6582.000000
1544.940430 5600.000000
1546.506104 6770.000000
1548.071045 5918.000000
1549.634888 5044.000000
1551.198120 7453.000000
1552.760010 6189.000000
1554.321289 5929.000000
1555.881470 5632.000000
1557.440918 5725.000000
1558.999268 5827.000000
1560.556885 6267.000000
1562.113403 7010.000000
1563.668701 5764.000000
1565.223389 6358.000000
1566.777344 5554.000000
1568.330322 6255.000000
1569.881958 5704.000000
1571.432861 5869.000000
1572.983032 6168.000000
1574.532227 6304.000000
1576.080078 5754.000000
1577.627441 5448.000000
1579.173828 5698.000000
1580.719360 5057.000000
1582.263916 6613.000000
1583.807251 6313.000000
1585.349976 6592.000000
1586.891846 6428.000000
1588.432617 6638.000000
1589.972412 5770.000000
1591.511475 6718.000000
1593.049438 5848.000000
1594.586914 6121.000000
1596.123047 5820.000000
1597.658081 6632.000000
1599.192627 6205.000000
1600.726196 5981.000000
1602.258911 5979.000000
1603.790039 6284.000000
1605.320923 6260.000000
1606.850952 5683.000000
1608.379761 6107.000000
1609.907471 6138.000000
1611.434570 5912.000000
1612.960938 5740.000000
1614.486328 6227.000000
1616.010864 5791.000000
1617.534058 5793.000000
1619.056519 5557.000000
1620.578247 6533.000000
1622.099121 6911.000000
1623.618530 15562.000000
1625.137451 6130.000000
1626.655640 6030.000000
1628.172974 5899.000000
1629.689209 6395.000000
1631.204102 6969.000000
1632.718506 6769.000000
1634.232178 5708.000000
1635.744751 6782.000000
1637.256104 5907.000000
1638.767090 6410.000000
1640.276978 6242.000000
1641.786011 6092.000000
1643.293701 5613.000000
1644.801025 6070.000000
1646.307495 7088.000000
1647.812988 6208.000000
1649.317627 6761.000000
1650.820801 6087.000000
1652.323364 6528.000000
1653.825562 6269.000000
1655.326416 6673.000000
1656.826172 7562.000000
1658.325073 5903.000000
1659.823608 6473.000000
1661.320923 6195.000000
1662.817505 5922.000000
1664.312500 6476.000000
1665.807251 6311.000000
1667.301147 5158.000000
1668.794067 5582.000000
1670.285645 20901.000000
1671.776733 6429.000000
1673.267212 6143.000000
1674.756592 5933.000000
1676.244507 6976.000000
1677.732178 6822.000000
1679.218872 6022.000000
1680.704712 5358.000000
1682.189697 6011.000000
1683.673218 6129.000000
1685.156494 6161.000000
1686.638916 5785.000000
1688.120239 6213.000000
1689.600098 6138.000000
1691.079712 5515.000000
1692.558594 6535.000000
1694.036499 6007.000000
1695.513428 6047.000000
1696.989136 5721.000000
1698.464478 5987.000000
1699.938599 6258.000000
1701.412109 5450.000000
1702.884155 5579.000000
1704.355957 6875.000000
1705.826782 6307.000000
1707.296753 7005.000000
1708.765381 5109.000000
1710.233521 5755.000000
1711.700928 6355.000000
1713.167236 5462.000000
1714.632935 5754.000000
1716.096924 6158.000000
1717.560791 5939.000000
1719.023804 6954.000000
1720.485840 6328.000000
1721.946655 6573.000000
1723.406860 5384.000000
1724.866333 5610.000000
1726.324951 6096.000000
1727.782593 5960.000000
1729.238892 6210.000000
1730.694946 5980.000000
1732.150024 6404.000000
1733.604126 5964.000000
1735.057007 6856.000000
1736.509644 5945.000000
1737.961182 6713.000000
1739.411987 5936.000000
1740.861816 6473.000000
1742.310303 5965.000000
1743.758423 7366.000000
1745.205688 6523.000000
1746.652222 6677.000000
1748.097168 6726.000000
1749.541870 6026.000000
1750.985718 5760.000000
1752.428711 5407.000000
1753.870239 6526.000000
1755.311523 6373.000000
1756.751953 19436.000000
1758.191406 6264.000000
1759.629883 5214.000000
1761.067383 6037.000000
1762.504395 7431.000000
1763.940430 5797.000000
1765.375610 7184.000000
1766.809326 6180.000000
1768.242920 6474.000000
1769.675537 6583.000000
1771.107300 5727.000000
1772.538208 5712.000000
1773.967896 6369.000000
1775.396851 6184.000000
1776.825317 6222.000000
1778.252808 6615.000000
1779.678955 6181.000000
1781.104858 5522.000000
1782.529663 6857.000000
1783.953857 5564.000000
1785.376587 6559.000000
1786.798828 6526.000000
1788.220337 6896.000000
1789.641113 5758.000000
1791.060913 6084.000000
1792.479370 6231.000000
1793.897339 6841.000000
1795.314697 5457.000000
1796.731201 6081.000000
1798.146240 6485.000000
1799.560913 5871.000000
1800.974976 6598.000000
1802.387817 5986.000000
1803.800049 6926.000000
1805.210938 7142.000000
1806.621338 7738.000000
1808.031006 6433.000000
1809.439697 5936.000000
1810.847290 5373.000000
1812.254395 6352.000000
1813.660645 6416.000000
1815.065918 6695.000000
1816.470093 5993.000000
1817.873901 5914.000000
1819.276733 6160.000000
1820.678711 5909.000000
1822.080078 5867.000000
1823.479980 6295.000000
1824.879272 6516.000000
1826.278076 6524.000000
1827.676025 7379.000000
1829.072632 5678.000000
1830.468628 6682.000000
1831.863892 5889.000000
1833.258545 8088.000000
1834.652222 5986.000000
1836.044556 6820.000000
1837.436401 6337.000000
1838.827637 5887.000000
1840.217896 7033.000000
1841.606934 6008.000000
1842.995605 6037.000000
1844.383301 6022.000000
1845.770264 5762.000000
1847.155884 6842.000000
1848.541260 5833.000000
1849.925781 6366.000000
1851.309570 6220.000000
1852.692261 6328.000000
1854.073730 5377.000000
1855.454712 6466.000000
1856.835205 6300.000000
1858.214722 5653.000000
1859.592773 5869.000000
1860.970703 6199.000000
1862.347656 7829.000000
1863.723877 6100.000000
1865.099243 6090.000000
1866.473145 5579.000000
1867.846924 5651.000000
1869.219849 6171.000000
1870.591675 5996.000000
1871.962524 6833.000000
1873.333008 5387.000000
1874.702393 6026.000000
1876.071289 6078.000000
1877.438599 7109.000000
1878.805786 6011.000000
1880.171997 5971.000000
1881.537476 6780.000000
1882.902222 7493.000000
1884.265381 6682.000000
1885.628418 6887.000000
1886.990601 6314.000000
1888.351929 6440.000000
1889.711914 5594.000000
1891.071533 5785.000000
1892.430542 6090.000000
1893.788574 6628.000000
1895.145752 7261.000000
1896.501709 5928.000000
1897.857422 7623.000000
1899.212158 5792.000000
1900.566040 5544.000000
1901.918823 5895.000000
1903.271118 5900.000000
1904.622681 5899.000000
1905.973389 6829.000000
1907.322876 6536.000000
1908.671875 6598.000000
1910.020020 5776.000000
1911.367554 6090.000000
1912.714355 6270.000000
1914.059570 6820.000000
1915.404541 6057.000000
1916.748779 5424.000000
1918.092163 6453.000000
1919.434204 5933.000000
1920.776001 6669.000000
1922.116943 6982.000000
1923.457153 6136.000000
1924.796387 6291.000000
1926.134644 6331.000000
1927.472290 6459.000000
1928.809204 6957.000000
1930.145264 6748.000000
1931.480103 5643.000000
1932.814575 6582.000000
1934.148315 7263.000000
1935.481201 6203.000000
1936.812622 5721.000000
1938.144165 6327.000000
1939.474365 6541.000000
1940.804077 5750.000000
1942.132935 6046.000000
1943.460571 5834.000000
1944.787720 5019.000000
1946.114136 5743.000000
1947.439819 6469.000000
1948.764160 5697.000000
1950.088257 6696.000000
1951.411499 6295.000000
1952.734009 6411.000000
1954.055420 5810.000000
1955.375854 7382.000000
1956.695679 5988.000000
1958.015137 5530.000000
1959.333618 6790.000000
1960.650757 5892.000000
1961.967529 5840.000000
1963.283569 6553.000000
1964.598877 6576.000000
1965.912720 6281.000000
1967.226318 5653.000000
1968.539185 6212.000000
1969.851196 5931.000000
1971.162598 6005.000000
1972.472656 6266.000000
1973.782227 5850.000000
1975.091064 6188.000000
1976.399292 6559.000000
1977.706177 6110.000000
1979.012451 7236.000000
1980.318359 5533.000000
1981.623047 6360.000000
1982.927246 5903.000000
1984.230225 5673.000000
1985.532837 7588.000000
1986.834473 6126.000000
1988.135498 6696.000000
1989.434937 6015.000000
1990.734497 6635.000000
1992.032959 5241.000000
1993.330933 6076.000000
1994.627319 6104.000000
1995.923706 5779.000000
1997.219116 5499.000000
1998.513794 6454.000000
1999.807617 5705.000000
2001.100220 6476.000000
2002.392334 5686.000000
2003.683960 7111.000000
2004.974854 6445.000000
2006.264160 6307.000000
2007.553223 6848.000000
2008.841553 5929.000000
2010.129150 5894.000000
2011.415894 6599.000000
2012.701538 5595.000000
2013.986816 6309.000000
2015.271118 6039.000000
2016.554810 5565.000000
2017.837158 6030.000000
2019.119141 6478.000000
2020.400635 6722.000000
2021.681152 5890.000000
2022.960938 6062.000000
2024.239624 6760.000000
2025.517578 5821.000000
2026.795044 5925.000000
2028.071899 6196.000000
2029.347046 5697.000000
2030.622314 6620.000000
2031.896606 6006.000000
2033.169922 5994.000000
2034.442383 5913.000000
2035.714478 6142.000000
2036.985474 6968.000000
2038.256226 6545.000000
2039.525635 5949.000000
2040.793945 6734.000000
2042.062256 6552.000000
2043.329590 5825.000000
2044.596191 5982.000000
2045.861572 5622.000000
2047.126343 5465.000000
2048.390869 5412.000000
2049.654297 5839.000000
2050.917236 6348.000000
2052.178223 6101.000000
2053.439697 6070.000000
2054.699951 5865.000000
2055.959473 6382.000000
2057.218262 6232.000000
2058.476074 6839.000000
2059.733398 6133.000000
2060.989990 5974.000000
2062.245117 6484.000000
2063.500244 5596.000000
2064.754395 5567.000000
2066.007813 5602.000000
2067.260498 6793.000000
2068.511963 6192.000000
2069.763184 6304.000000
2071.013672 5563.000000
2072.263428 5401.000000
2073.511719 6471.000000
2074.760010 6505.000000
2076.007324 7420.000000
2077.253906 5550.000000
2078.499756 6007.000000
2079.744385 6979.000000
2080.988525 7570.000000
2082.232178 5472.000000
2083.474854 6009.000000
2084.716309 6951.000000
2085.957520 5966.000000
2087.198242 6324.000000
2088.437988 6704.000000
2089.676514 7050.000000
2090.914551 6206.000000
2092.151855 5733.000000
2093.388916 6653.000000
2094.624512 6045.000000
2095.859375 6213.000000
2097.093994 6060.000000
2098.327637 5595.000000
2099.560303 6078.000000
2100.792236 6867.000000
2102.023682 6363.000000
2103.254150 6752.000000
2104.483887 6035.000000
2105.713379 5949.000000
2106.940918 6019.000000
2108.168701 5986.000000
2109.395752 6265.000000
2110.621826 5403.000000
2111.846436 6403.000000
2113.071289 6870.000000
2114.294922 7065.000000
2115.518066 6191.000000
2116.739990 7507.000000
2117.961670 6002.000000
2119.182373 6784.000000
2120.402344 5986.000000
2121.621826 6087.000000
2122.839844 6550.000000
2124.057861 7040.000000
2125.274902 5701.000000
2126.491455 5792.000000
2127.706299 6547.000000
2128.921387 6321.000000
2130.135498 6913.000000
2131.348877 5627.000000
2132.561523 6117.000000
2133.772705 5770.000000
2134.984131 6383.000000
2136.194336 6851.000000
2137.404053 5862.000000
2138.612305 6102.000000
2139.820557 5653.000000
2141.028076 5906.000000
2142.234375 7598.000000
2143.439941 5828.000000
2144.645264 5664.000000
2145.849609 5582.000000
2147.053223 6248.000000
2148.256348 6161.000000
2149.458008 6513.000000
2150.659424 5285.000000
2151.860107 6213.000000
2153.060059 6012.000000
2154.258789 5890.000000
2155.457275 6919.000000
2156.655273 6135.000000
2157.852295 5998.000000
2159.048584 5169.000000
2160.243652 5265.000000
2161.438477 6162.000000
2162.632568 5535.000000
2163.825684 5956.000000
2165.017822 6842.000000
2166.209717 5843.000000
2167.400879 6321.000000
2168.591064 6235.000000
2169.780518 6421.000000
2170.969482 6780.000000
2172.157471 5950.000000
2173.345215 5642.000000
2174.531494 5935.000000
2175.717041 6531.000000
2176.902344 6029.000000
2178.087158 5821.000000
2179.270752 6329.000000
2180.453613 7423.000000
2181.635498 6287.000000
2182.817139 5954.000000
2183.998291 6546.000000
2185.178223 5643.000000
2186.357178 5538.000000
2187.535645 6291.000000
2188.713867 6817.000000
2189.890869 7232.000000
2191.066895 6694.000000
2192.242676 6073.000000
2193.417969 5647.000000
2194.591797 6659.000000
2195.765137 6153.000000
2196.938232 6201.000000
2198.110107 6363.000000
2199.281494 7099.000000
2200.452393 6330.000000
2201.621582 6882.000000
2202.790771 7498.000000
2203.959473 6254.000000
2205.127197 5898.000000
2206.293945 5624.000000
2207.459961 7132.000000
2208.625488 6592.000000
2209.790771 5924.000000
2210.954590 6656.000000
2212.117920 5421.000000
2213.280029 6121.000000
2214.442383 6176.000000
2215.603516 6624.000000
2216.763672 6681.000000
2217.923340 6242.000000
2219.082764 6615.000000
2220.240967 6320.000000
2221.398193 6292.000000
2222.555176 6715.000000
2223.711426 6512.000000
2224.866943 6742.000000
2226.021729 6253.000000
2227.175537 6432.000000
2228.328369 6026.000000
2229.481689 6856.000000
2230.633057 6165.000000
2231.784180 6103.000000
2232.934570 6501.000000
2234.084473 7656.000000
2235.233398 6316.000000
2236.381836 5190.000000
2237.528809 6803.000000
2238.676025 7035.000000
2239.822021 6041.000000
2240.967773 7165.000000
2242.111816 7237.000000
2243.256104 6798.000000
2244.399414 6198.000000
2245.541992 5963.000000
2246.683594 5775.000000
2247.824951 5810.000000
2248.965332 6368.000000
2250.104980 6396.000000
2251.244141 5762.000000
2252.382080 5839.000000
2253.520020 6169.000000
2254.656982 5264.000000
2255.793213 6260.000000
2256.928467 6128.000000
2258.062988 7195.000000
2259.197266 6326.000000
2260.331055 5416.000000
2261.463379 6101.000000
2262.595215 6749.000000
2263.726563 6211.000000
2264.856934 6440.000000
2265.987061 8085.000000
2267.115967 6707.000000
2268.244385 6042.000000
2269.372314 5531.000000
2270.499268 6109.000000
2271.625488 5951.000000
2272.750732 6698.000000
2273.875977 6525.000000
2275.000488 6435.000000
2276.123779 5927.000000
2277.246338 6262.000000
2278.368408 6020.000000
2279.489990 7338.000000
2280.610840 6330.000000
2281.730469 6406.000000
2282.849609 7141.000000
2283.968506 7609.000000
2285.086670 7281.000000
2286.203857 5861.000000
2287.320068 6404.000000
2288.436035 6942.000000
2289.551270 6923.000000
2290.665771 7318.000000
2291.779053 5782.000000
2292.892334 6328.000000
2294.004883 5952.000000
2295.116699 5330.000000
2296.227783 6761.000000
2297.337646 6412.000000
2298.447021 6184.000000
2299.556152 6637.000000
2300.664307 6309.000000
2301.771484 6710.000000
2302.878418 5817.000000
2303.984619 6217.000000
2305.090332 6559.000000
2306.194580 6450.000000
2307.298584 5428.000000
2308.402100 5766.000000
2309.505127 6503.000000
2310.606934 7406.000000
2311.708008 7316.000000
2312.808594 6537.000000
2313.908691 5524.000000
2315.008057 6307.000000
2316.105957 6588.000000
2317.204346 7016.000000
2318.301270 8106.000000
2319.397949 6893.000000
2320.494141 5751.000000
2321.588623 6889.000000
2322.683105 7592.000000
2323.776855 5773.000000
2324.870361 6030.000000
2325.962158 6355.000000
2327.053955 6907.000000
2328.145020 6072.000000
2329.235352 6258.000000
2330.324707 6865.000000
2331.414063 6058.000000
2332.502197 6302.000000
2333.589844 6836.000000
2334.677246 6461.000000
2335.762939 6683.000000
2336.848389 7768.000000
2337.933594 6256.000000
2339.017822 6648.000000
2340.101074 5894.000000
2341.184082 6427.000000
2342.266113 7496.000000
2343.347900 5985.000000
2344.428955 7408.000000
2345.508789 6585.000000
2346.588135 5635.000000
2347.666992 6796.000000
2348.745361 6523.000000
2349.822266 6312.000000
2350.898926 7002.000000
2351.975342 5990.000000
2353.050781 6424.000000
2354.125244 5898.000000
2355.199463 6253.000000
2356.272949 6725.000000
2357.345947 6228.000000
2358.417725 6940.000000
2359.489258 6236.000000
2360.559814 6783.000000
2361.630127 7526.000000
2362.699463 7564.000000
2363.767822 6724.000000
2364.835938 6741.000000
2365.903320 7071.000000
2366.970215 7129.000000
2368.036377 6005.000000
2369.101318 6924.000000
2370.166260 6991.000000
2371.230469 6306.000000
2372.293945 6862.000000
2373.356201 5711.000000
2374.418457 6273.000000
2375.479736 6366.000000
2376.540771 5932.000000
2377.600586 6220.000000
2378.659668 7863.000000
2379.718750 6415.000000
2380.776855 7629.000000
2381.834229 6857.000000
2382.890625 7997.000000
2383.946777 7810.000000
2385.002441 6234.000000
2386.057373 7078.000000
2387.110840 6754.000000
2388.164551 6615.000000
2389.217285 6289.000000
2390.269531 6761.000000
2391.321045 6101.000000
2392.371582 6557.000000
2393.421875 6487.000000
2394.471191 6175.000000
2395.520508 6122.000000
2396.568359 6855.000000
2397.615723 6890.000000
2398.662842 6327.000000
2399.708984 6671.000000
2400.754395 6108.000000
2401.799072 6730.000000
2402.843750 7664.000000
2403.886963 7443.000000
2404.930176 6534.000000
2405.971924 5748.000000
2407.013916 6665.000000
2408.055176 6988.000000
2409.095459 6050.000000
2410.135010 6448.000000
2411.173584 6261.000000
2412.212402 6051.000000
2413.250000 6497.000000
2414.287354 6817.000000
2415.323486 7385.000000
2416.359375 6243.000000
2417.394531 6183.000000
2418.429199 6651.000000
2419.462402 7187.000000
2420.495850 6435.000000
2421.528320 6694.000000
2422.560547 6723.000000
2423.591309 7038.000000
2424.622070 6362.000000
2425.652344 6803.000000
2426.681396 6861.000000
2427.710449 6627.000000
2428.737793 7380.000000
2429.765625 6653.000000
2430.792236 7258.000000
2431.818604 6867.000000
2432.843506 7675.000000
2433.868652 6525.000000
2434.892822 7130.000000
2435.916748 6676.000000
2436.939453 5819.000000
2437.961426 6298.000000
2438.983154 6554.000000
2440.004150 6605.000000
2441.024658 5956.000000
2442.043945 6426.000000
2443.063232 6505.000000
2444.081543 8396.000000
2445.099609 6290.000000
2446.116211 6433.000000
2447.132813 6597.000000
2448.148682 5922.000000
2449.164551 6976.000000
2450.178955 6820.000000
2451.192627 5526.000000
2452.205811 7266.000000
2453.218750 5976.000000
2454.230957 7161.000000
2455.242188 6680.000000
2456.253174 7657.000000
2457.263428 6329.000000
2458.273193 7536.000000
2459.281982 5851.000000
2460.290039 5912.000000
2461.298096 6295.000000
2462.304932 7303.000000
2463.311523 5413.000000
2464.316895 7330.000000
2465.322021 6921.000000
2466.326904 5838.000000
2467.330566 6475.000000
2468.333984 6359.000000
2469.336426 7569.000000
2470.338623 7254.000000
2471.340332 6833.000000
2472.341064 6507.000000
2473.340820 6907.000000
2474.340576 6734.000000
2475.339355 5684.000000
2476.337646 6506.000000
2477.334961 6995.000000
2478.332031 6095.000000
2479.329102 6900.000000
2480.324707 5776.000000
2481.320313 7125.000000
2482.314209 6662.000000
2483.308105 8111.000000
2484.301514 6805.000000
2485.294434 6657.000000
2486.286377 7427.000000
2487.277588 7173.000000
2488.268555 6707.000000
2489.259033 5794.000000
2490.248535 6495.000000
2491.237305 6450.000000
2492.226074 5622.000000
2493.213867 6731.000000
2494.200439 6580.000000
2495.187012 7979.000000
2496.173096 6693.000000
2497.158447 7060.000000
2498.142822 8375.000000
2499.126953 5904.000000
2500.111084 6819.000000
2501.093750 5754.000000
2502.075928 6976.000000
2503.057617 6819.000000
2504.038574 7245.000000
2505.019043 6487.000000
2505.999268 5665.000000
2506.978027 6268.000000
2507.956543 7567.000000
2508.934570 6735.000000
2509.912109 7058.000000
2510.888672 6039.000000
2511.864990 5921.000000
2512.840576 6374.000000
2513.815674 6250.000000
2514.790283 6481.000000
2515.763672 7519.000000
2516.736816 6767.000000
2517.709717 6813.000000
2518.681641 6124.000000
2519.652832 6811.000000
2520.623535 6895.000000
2521.593994 7815.000000
2522.563721 8031.000000
2523.532471 6104.000000
2524.500488 6127.000000
2525.468506 7786.000000
2526.435547 6247.000000
2527.402344 5523.000000
2528.367920 7196.000000
2529.333496 6939.000000
2530.298340 7745.000000
2531.262695 6291.000000
2532.225830 6335.000000
2533.189209 5833.000000
2534.151611 5922.000000
2535.113770 6675.000000
2536.074707 6335.000000
2537.034912 6103.000000
2537.995361 6106.000000
2538.954834 6649.000000
2539.913574 6735.000000
2540.871338 6722.000000
2541.829346 6223.000000
2542.786621 6708.000000
2543.742920 6062.000000
2544.698975 7063.000000
2545.653809 6204.000000
2546.608887 7638.000000
2547.563232 6940.000000
2548.516846 6936.000000
2549.469482 7195.000000
2550.421875 6688.000000
2551.373779 6948.000000
2552.324951 6376.000000
2553.275391 7616.000000
2554.225342 7218.000000
2555.175049 7400.000000
2556.124023 6532.000000
2557.072510 6240.000000
2558.019775 7121.000000
2558.967041 6200.000000
2559.913574 6508.000000
2560.859619 6729.000000
2561.804688 7365.000000
2562.749512 6678.000000
2563.693848 7077.000000
2564.637695 6744.000000
2565.581055 6606.000000
2566.522949 6514.000000
2567.465088 6509.000000
2568.406494 6082.000000
2569.347168 7145.000000
2570.287109 7280.000000
2571.227051 5693.000000
2572.166016 6134.000000
2573.104736 7484.000000
2574.042480 7098.000000
2574.979980 5441.000000
2575.916748 6943.000000
2576.852783 6809.000000
2577.788330 7440.000000
2578.723145 6340.000000
2579.657959 5938.000000
2580.591797 7047.000000
2581.525146 7118.000000
2582.457764 5849.000000
2583.390137 6804.000000
2584.321777 5392.000000
2585.252930 7047.000000
2586.183594 6989.000000
2587.113037 6926.000000
2588.042480 7196.000000
2588.971436 6420.000000
2589.900146 7531.000000
2590.827148 7226.000000
2591.754395 5837.000000
2592.681152 6809.000000
2593.607178 6225.000000
2594.532959 5619.000000
2595.457520 7568.000000
2596.381836 7590.000000
2597.305664 5306.000000
2598.229004 7234.000000
2599.151367 6230.000000
2600.073486 6784.000000
2600.995117 8305.000000
2601.916016 6377.000000
2602.836182 5729.000000
2603.756104 6353.000000
2604.675537 6364.000000
2605.594727 6411.000000
2606.512939 5826.000000
2607.429932 5939.000000
2608.347168 7263.000000
2609.264160 5860.000000
2610.180176 7506.000000
2611.094971 6688.000000
2612.010254 6615.000000
2612.924805 6494.000000
2613.838379 6545.000000
2614.751953 6065.000000
2615.664307 7620.000000
2616.576660 6979.000000
2617.488037 6713.000000
2618.399170 5723.000000
2619.309570 7182.000000
2620.219727 6656.000000
2621.129150 6154.000000
2622.038086 6615.000000
2622.946045 6203.000000
2623.854248 6776.000000
2624.761475 6597.000000
2625.668213 7045.000000
2626.574219 6058.000000
2627.479980 6614.000000
2628.385010 6421.000000
2629.289795 7799.000000
2630.193848 6450.000000
2631.096924 6389.000000
2632.000000 6420.000000
2632.902100 5615.000000
2633.804199 6718.000000
2634.706055 6900.000000
2635.606201 6706.000000
2636.506592 6340.000000
2637.406250 6410.000000
2638.305664 5969.000000
2639.203613 6816.000000
2640.102051 6700.000000
2641.000000 6297.000000
2641.897217 6061.000000
2642.793213 6131.000000
2643.689209 6872.000000
2644.584961 6089.000000
2645.479980 6423.000000
2646.374756 6551.000000
2647.268066 7087.000000
2648.161377 6333.000000
2649.054443 6778.000000
2649.947266 6410.000000
2650.838379 7443.000000
2651.729736 6358.000000
2652.620605 7571.000000
2653.510742 7285.000000
2654.400635 6573.000000
2655.289307 7279.000000
2656.178223 6628.000000
2657.066650 6586.000000
2657.954102 7238.000000
2658.840576 6475.000000
2659.727539 7051.000000
2660.613770 6844.000000
2661.499512 6784.000000
2662.384033 6528.000000
2663.268555 6326.000000
2664.152832 6122.000000
2665.036377 7032.000000
2665.919434 7825.000000
2666.801758 7300.000000
2667.683594 6200.000000
2668.564697 6577.000000
2669.446045 6096.000000
2670.325928 6526.000000
2671.206055 7376.000000
2672.085449 7209.000000
2672.964844 6186.000000
2673.843506 6097.000000
2674.720459 6389.000000
2675.598145 6732.000000
2676.475098 6399.000000
2677.351318 8065.000000
2678.227051 7195.000000
2679.102051 6262.000000
2679.977295 7696.000000
2680.851563 6995.000000
2681.725342 7326.000000
2682.598389 6999.000000
2683.471191 6144.000000
2684.343750 6061.000000
2685.215576 6942.000000
2686.086670 6497.000000
2686.957520 6882.000000
2687.827881 7116.000000
2688.697998 6694.000000
2689.566406 6365.000000
2690.435547 7366.000000
2691.303955 7049.000000
2692.172119 6612.000000
2693.039551 6865.000000
2693.905762 5899.000000
2694.772461 7105.000000
2695.638184 7383.000000
2696.503906 7213.000000
2697.368164 7918.000000
2698.233154 6527.000000
2699.096680 7235.000000
2699.960449 5854.000000
2700.822754 7378.000000
2701.685547 6732.000000
2702.547363 5902.000000
2703.408691 6883.000000
2704.270020 6732.000000
2705.130127 7385.000000
2705.990234 7309.000000
2706.849854 6581.000000
2707.709229 6791.000000
2708.566895 7192.000000
2709.424805 6810.000000
2710.283203 7386.000000
2711.140381 6714.000000
2711.996826 5991.000000
2712.852783 6852.000000
2713.708740 6141.000000
2714.563965 6913.000000
2715.418457 6072.000000
2716.272461 6807.000000
2717.126465 7273.000000
2717.979492 6266.000000
2718.832764 6506.000000
2719.684326 7733.000000
2720.536377 6742.000000
2721.388184 6287.000000
2722.238770 6516.000000
2723.089355 6377.000000
2723.939453 7094.000000
2724.788818 7020.000000
2725.638184 6890.000000
2726.486328 6644.000000
2727.333984 6570.000000
2728.182129 6980.000000
2729.029053 6800.000000
2729.876465 5549.000000
2730.722412 7441.000000
2731.567627 6953.000000
2732.413330 6408.000000
2733.258057 6945.000000
2734.102783 7346.000000
2734.946289 6918.000000
2735.790039 7759.000000
2736.633057 7093.000000
2737.475586 6062.000000
2738.317139 6225.000000
2739.159180 6828.000000
2740.000244 6879.000000
2740.841064 5755.000000
2741.681641 5885.000000
2742.520996 7835.000000
2743.360352 6800.000000
2744.199707 6887.000000
2745.037842 6794.000000
2745.875488 7831.000000
2746.713135 6306.000000
2747.550293 7161.000000
2748.387207 6154.000000
2749.223633 5965.000000
2750.058838 6594.000000
2750.894287 6324.000000
2751.729248 6283.000000
2752.563477 6208.000000
2753.397461 6835.000000
2754.230957 6797.000000
2755.064453 7893.000000
2755.896973 6758.000000
2756.729004 7297.000000
2757.560547 6747.000000
2758.392090 7111.000000
2759.222656 7183.000000
2760.053467 7212.000000
2760.883057 7247.000000
2761.712646 6667.000000
2762.541992 7286.000000
2763.370605 6815.000000
2764.198730 6760.000000
2765.026367 6946.000000
2765.854004 6646.000000
2766.681152 7912.000000
2767.507568 5751.000000
2768.333496 7508.000000
2769.158936 6825.000000
2769.984131 7749.000000
2770.809326 7001.000000
2771.633301 6706.000000
2772.457275 6481.000000
2773.281250 7638.000000
2774.104004 6590.000000
2774.927002 6939.000000
2775.748779 6888.000000
2776.570557 6911.000000
2777.392334 6425.000000
2778.213135 7932.000000
2779.033203 6503.000000
2779.853516 7029.000000
2780.673340 7275.000000
2781.493164 6439.000000
2782.311035 5913.000000
2783.130127 8094.000000
2783.947998 6519.000000
2784.765625 6718.000000
2785.582764 7131.000000
2786.399414 7238.000000
2787.215820 7165.000000
2788.031738 6295.000000
2788.847412 5937.000000
2789.662109 6291.000000
2790.477295 7009.000000
2791.291748 7143.000000
2792.105713 6534.000000
2792.919434 7399.000000
2793.731934 8774.000000
2794.544678 7035.000000
2795.356934 7427.000000
2796.168701 7177.000000
2796.979736 7331.000000
2797.791504 6525.000000
2798.602051 7178.000000
2799.412598 6991.000000
2800.221680 7343.000000
2801.031494 8166.000000
2801.840576 7707.000000
2802.649414 6593.000000
2803.457764 7135.000000
2804.265137 6151.000000
2805.072998 6384.000000
2805.880127 6827.000000
2806.687012 7022.000000
2807.492676 7210.000000
2808.298828 6627.000000
2809.104248 6460.000000
2809.909668 7290.000000
2810.714355 6153.000000
2811.518066 7632.000000
2812.322266 7447.000000
2813.125977 6317.000000
2813.929443 6061.000000
2814.731445 6575.000000
2815.534180 7289.000000
2816.336182 7775.000000
2817.137939 6167.000000
2817.939209 6479.000000
2818.739990 7258.000000
2819.540283 6487.000000
2820.340820 6651.000000
2821.140381 8035.000000
2821.939453 7159.000000
2822.738525 6481.000000
2823.537354 6907.000000
2824.335693 6311.000000
2825.133057 7026.000000
2825.930664 7375.000000
2826.727539 6642.000000
2827.524658 7327.000000
2828.321045 7927.000000
2829.116699 6965.000000
2829.912354 7342.000000
2830.707764 7525.000000
2831.502686 7418.000000
2832.296875 6646.000000
2833.091064 6783.000000
2833.885010 5668.000000
2834.678467 6826.000000
2835.471191 7121.000000
2836.263672 8084.000000
2837.056152 7578.000000
2837.848389 7649.000000
2838.640137 6381.000000
2839.430908 6814.000000
2840.221680 8873.000000
2841.012695 7461.000000
2841.802734 6158.000000
2842.592285 7663.000000
2843.382080 7057.000000
2844.170898 7318.000000
2844.959717 7746.000000
2845.748535 7653.000000
2846.536377 7531.000000
2847.323730 7270.000000
2848.111328 7465.000000
2848.898438 7293.000000
2849.684814 6651.000000
2850.471191 7455.000000
2851.257324 7204.000000
2852.042969 7518.000000
2852.827637 7127.000000
2853.612793 6907.000000
2854.397705 7423.000000
2855.181885 7117.000000
2855.966064 6988.000000
2856.749023 8242.000000
2857.532227 6763.000000
2858.315186 6778.000000
2859.097656 7715.000000
2859.879883 6205.000000
2860.661621 6616.000000
2861.443115 7562.000000
2862.224854 7433.000000
2863.005859 7570.000000
2863.786133 6583.000000
2864.566162 6736.000000
2865.346191 8156.000000
2866.125977 7443.000000
2866.904785 8073.000000
2867.683838 7630.000000
2868.462402 6805.000000
2869.240723 6965.000000
2870.018555 7230.000000
2870.796143 6902.000000
2871.573486 7472.000000
2872.350586 6990.000000
2873.127197 6394.000000
2873.903320 7440.000000
2874.679443 7144.000000
2875.455078 8193.000000
2876.230469 7209.000000
2877.005371 6580.000000
2877.780029 7968.000000
2878.554688 6505.000000
2879.329102 7734.000000
2880.102783 6739.000000
2880.875732 7136.000000
2881.649414 6688.000000
2882.422119 7470.000000
2883.194824 7852.000000
2883.966797 8187.000000
2884.738525 6193.000000
2885.510742 6756.000000
2886.281738 6873.000000
2887.052246 6164.000000
2887.823242 8338.000000
2888.594238 7299.000000
2889.364502 7917.000000
2890.133789 7587.000000
2890.903320 6908.000000
2891.672852 7196.000000
2892.441895 7358.000000
2893.210449 7903.000000
2893.979004 7623.000000
2894.746582 7028.000000
2895.514648 6505.000000
2896.282227 7432.000000
2897.049805 8291.000000
2897.816162 7411.000000
2898.583496 6561.000000
2899.349609 7203.000000
2900.115967 7032.000000
2900.880859 8274.000000
2901.646240 6906.000000
2902.412109 6419.000000
2903.176514 7730.000000
2903.940918 7800.000000
2904.705566 8352.000000
2905.469238 6600.000000
2906.233643 8451.000000
2906.997314 6701.000000
2907.760254 8376.000000
2908.522949 6489.000000
2909.286133 8953.000000
2910.048828 7007.000000
2910.810303 6722.000000
2911.572266 6722.000000
