scanname Analyse010
timestamp 2017-02-10 20:02:09
ccdbias 906.693359
ccdgain 3.473401
sigmaread 8.960639
laserwavenum -0.658283
wavenumcorrection -0.135319
scancount 1
totalexposurems 10000
singleexposurems 10000
measurementstate Unknown
scanmode Manual
snr 242.307510 6.915980 6.138303
replacelist 4
374 46317.000000 15042.000000
383 46147.000000 12199.000000
672 38061.000000 31431.000000
753 32660.000000 5671.000000
peaks 47
278.169373 0.680876 0.000000 1.584775 0.000193
291.277527 0.680958 0.000000 0.729973 0.000031
329.910126 0.694854 0.000000 0.796546 0.000134
342.514954 0.698153 0.000000 0.701082 0.000032
350.359863 0.700967 0.000000 0.538554 0.000021
361.963348 0.703016 0.000000 0.257276 0.000015
386.496796 0.708647 0.000000 1.481661 0.000307
464.568390 0.715983 0.000000 0.417644 0.000036
486.437317 0.722299 0.000000 0.420484 0.000051
494.288269 0.719885 0.000000 0.244601 0.000042
533.569397 0.717674 0.000000 0.625092 0.000140
559.841187 0.745461 0.000000 1.064686 0.000194
575.691711 0.752300 0.000000 0.328995 0.000051
583.989441 0.749413 0.000000 0.783480 0.000112
662.065674 0.749498 0.000000 0.826416 0.000063
674.197266 0.752479 0.000000 1.265560 0.000241
715.715637 0.747866 0.000000 5.136800 0.001031
741.362366 0.739846 0.000000 0.729672 0.000086
752.637146 0.742182 0.000000 0.529522 0.000030
765.196899 0.760008 0.000000 1.580709 0.000463
779.526733 0.749538 0.000000 0.971485 0.000150
789.672119 0.747253 0.000000 0.408517 0.000027
825.971191 0.737564 0.000000 0.409841 0.000028
831.755737 0.736440 0.000000 0.953979 0.000153
854.188660 0.757156 0.000000 0.612845 0.000191
874.416809 0.765278 0.000000 1.400620 0.000472
936.413879 0.732082 0.000000 1.135604 0.000194
955.118591 0.731462 0.000000 3.421493 0.000933
1010.823059 0.708741 0.000000 0.561424 0.000138
1030.371704 0.725332 0.000000 0.623618 0.000149
1044.984375 0.741408 0.000000 3.426097 0.001024
1079.679932 0.714976 0.000000 0.600386 0.000075
1102.045166 0.705080 0.000000 1.250287 0.000353
1121.120605 0.711370 0.000000 0.685429 0.000172
1135.913818 0.709180 0.000000 1.898959 0.000721
1150.243530 0.697683 0.000000 1.810252 0.000689
1172.084351 0.685275 0.000000 0.955863 0.000318
1212.942139 0.678958 0.000000 0.339817 0.000049
1236.978271 0.687328 0.000000 0.805414 0.000499
1261.672974 0.688426 0.000000 1.215517 0.000278
1278.992920 0.680418 0.000000 0.368866 0.000386
1320.217163 0.737391 0.000000 2.746441 0.001188
1452.305786 0.723536 0.000000 12.228496 0.003671
1472.562744 0.670118 0.000000 4.906218 0.000599
1608.898926 0.620702 0.000000 0.963775 0.000140
1664.885254 0.645442 0.000000 8.969880 0.004983
1747.576172 0.579276 0.000000 1.774420 0.000687
finalresult GLS_NoMatch 0
spectrum 2048
-96.943169 45555.000000
-94.316299 45555.000000
-91.691307 46251.000000
-89.068207 46237.000000
-86.446976 46999.000000
-83.827644 46821.000000
-81.210175 47114.000000
-78.594582 46846.000000
-75.980865 47102.000000
-73.369026 47479.000000
-70.759048 47350.000000
-68.150955 47572.000000
-65.544708 47552.000000
-62.940342 47548.000000
-60.337833 47450.000000
-57.737179 47907.000000
-55.138386 47320.000000
-52.541451 46700.000000
-49.946369 47063.000000
-47.353142 46915.000000
-44.761765 47266.000000
-42.172234 46813.000000
-39.584545 47612.000000
-36.998707 47522.000000
-34.414711 47038.000000
-31.832552 47752.000000
-29.252239 47159.000000
-26.673754 47771.000000
-24.097111 47279.000000
-21.522293 47168.000000
-18.949316 46936.000000
-16.378159 46847.000000
-13.808835 46606.000000
-11.241337 45530.000000
-8.675657 46908.000000
-6.111803 46768.000000
-3.549763 47134.000000
-0.989547 47156.000000
1.568861 46680.000000
4.125448 45964.000000
6.680231 45977.000000
9.233195 46300.000000
11.784360 45112.000000
14.333712 44792.000000
16.881268 43983.000000
19.427011 43958.000000
21.970963 43147.000000
24.513109 40061.000000
27.053459 37200.000000
29.592024 33479.000000
32.128792 28819.000000
34.663757 19799.000000
37.196945 12034.000000
39.728352 9000.000000
42.257965 8271.000000
44.785782 7798.000000
47.311840 6907.000000
49.836109 6105.000000
52.358608 5576.000000
54.879311 5031.000000
57.398258 5215.000000
59.915432 6470.000000
62.430828 7949.000000
64.944450 8197.000000
67.456314 7598.000000
69.966431 6342.000000
72.474754 4501.000000
74.981323 3618.000000
77.486145 2950.000000
79.989212 2508.000000
82.490501 2356.000000
84.990051 2185.000000
87.487846 2147.000000
89.983910 2304.000000
92.478195 2808.000000
94.970741 3024.000000
97.461571 2959.000000
99.950630 2754.000000
102.437943 2248.000000
104.923531 1824.000000
107.407379 1612.000000
109.889481 1575.000000
112.369858 1501.000000
114.848511 1408.000000
117.325439 1332.000000
119.800613 1352.000000
122.274078 1454.000000
124.745811 1481.000000
127.215836 1519.000000
129.684097 1636.000000
132.150696 1829.000000
134.615540 2008.000000
137.078690 2366.000000
139.540100 2759.000000
141.999817 3380.000000
144.457809 4114.000000
146.914108 5128.000000
149.368698 6403.000000
151.821564 7842.000000
154.272751 9520.000000
156.722244 11523.000000
159.170013 13981.000000
161.616074 16462.000000
164.060455 18643.000000
166.503159 22117.000000
168.944168 24362.000000
171.383469 26310.000000
173.821060 26396.000000
176.257019 27842.000000
178.691238 28166.000000
181.123779 28804.000000
183.554672 30252.000000
185.983841 31281.000000
188.411362 33561.000000
190.837204 35228.000000
193.261368 35884.000000
195.683868 36479.000000
198.104675 37014.000000
200.523819 38715.000000
202.941299 40119.000000
205.357086 39532.000000
207.771225 41133.000000
210.183731 42584.000000
212.594559 43262.000000
215.003708 43509.000000
217.411224 42711.000000
219.817032 44249.000000
222.221252 44095.000000
224.623764 44096.000000
227.024658 43950.000000
229.423904 44461.000000
231.821487 44194.000000
234.217407 43782.000000
236.611710 44483.000000
239.004349 44960.000000
241.395370 44274.000000
243.784729 44435.000000
246.172470 44665.000000
248.558563 44019.000000
250.943024 44897.000000
253.325836 43089.000000
255.707077 44394.000000
258.086609 44329.000000
260.464569 44502.000000
262.840851 43367.000000
265.215576 43379.000000
267.588654 43035.000000
269.960083 44703.000000
272.329865 44399.000000
274.698090 44922.000000
277.064667 44522.000000
279.429657 44262.000000
281.793030 44733.000000
284.154755 44570.000000
286.514893 43620.000000
288.873413 44832.000000
291.230347 44276.000000
293.585663 44314.000000
295.939392 44719.000000
298.291473 44784.000000
300.641998 44304.000000
302.990936 44216.000000
305.338226 43865.000000
307.683990 44251.000000
310.028076 44109.000000
312.370636 43248.000000
314.711578 42999.000000
317.050903 43454.000000
319.388672 43738.000000
321.724884 42514.000000
324.059448 44351.000000
326.392456 44017.000000
328.723907 44535.000000
331.053772 43920.000000
333.382050 44139.000000
335.708710 43291.000000
338.033875 44202.000000
340.357422 44354.000000
342.679413 44599.000000
344.999847 43086.000000
347.318665 42838.000000
349.635925 44531.000000
351.951660 44668.000000
354.265808 43597.000000
356.578369 44191.000000
358.889374 44276.000000
361.198853 43545.000000
363.506805 44248.000000
365.813141 44889.000000
368.117889 44130.000000
370.421173 44220.000000
372.722839 44374.000000
375.023010 44252.000000
377.321625 44370.000000
379.618683 45028.000000
381.914185 44615.000000
384.208160 44877.000000
386.500549 45505.000000
388.791443 45179.000000
391.080811 44580.000000
393.368591 44530.000000
395.654846 44265.000000
397.939606 43938.000000
400.222748 44857.000000
402.504456 44385.000000
404.784637 44576.000000
407.063232 43426.000000
409.340302 44343.000000
411.615845 44007.000000
413.889862 44169.000000
416.162445 44193.000000
418.433411 44284.000000
420.702881 44271.000000
422.970856 43574.000000
425.237274 43390.000000
427.502197 44277.000000
429.765656 44244.000000
432.027527 43994.000000
434.287933 44401.000000
436.546783 43688.000000
438.804169 44229.000000
441.060059 44632.000000
443.314453 44425.000000
445.567322 44726.000000
447.818634 43268.000000
450.068542 44083.000000
452.316864 43839.000000
454.563751 44486.000000
456.809174 43632.000000
459.053040 43664.000000
461.295410 43618.000000
463.536285 44454.000000
465.775757 43381.000000
468.013641 44659.000000
470.250092 44193.000000
472.485016 44068.000000
474.718475 42841.000000
476.950500 43394.000000
479.181000 44402.000000
481.410004 43619.000000
483.637543 43755.000000
485.863586 44086.000000
488.088196 43473.000000
490.311340 44128.000000
492.533020 43602.000000
494.753143 43274.000000
496.971863 44376.000000
499.189087 43799.000000
501.404938 44540.000000
503.619171 43848.000000
505.832092 43608.000000
508.043427 43529.000000
510.253326 43066.000000
512.461792 43496.000000
514.668884 43363.000000
516.874390 43472.000000
519.078491 43238.000000
521.281067 43580.000000
523.482239 43201.000000
525.682068 43031.000000
527.880371 42740.000000
530.077148 44224.000000
532.272583 43625.000000
534.466492 43930.000000
536.659058 41927.000000
538.850098 42732.000000
541.039734 43352.000000
543.227966 42342.000000
545.414673 42064.000000
547.599915 42322.000000
549.783875 42792.000000
551.966248 42676.000000
554.147278 42745.000000
556.326782 42880.000000
558.505005 43124.000000
560.681702 42977.000000
562.856995 42593.000000
565.030884 42550.000000
567.203308 43023.000000
569.374329 42868.000000
571.543884 42730.000000
573.712158 43793.000000
575.878906 42696.000000
578.044189 42811.000000
580.208069 42936.000000
582.370667 43384.000000
584.531738 43127.000000
586.691406 43535.000000
588.849731 43446.000000
591.006531 43028.000000
593.161987 42573.000000
595.316040 43470.000000
597.468750 43042.000000
599.619934 41913.000000
601.769775 42388.000000
603.918274 42422.000000
606.065186 43099.000000
608.210876 42575.000000
610.355164 42602.000000
612.497986 42025.000000
614.639343 42848.000000
616.779480 42437.000000
618.918091 41229.000000
621.055420 43117.000000
623.191284 42135.000000
625.325745 41811.000000
627.458740 41422.000000
629.590576 41843.000000
631.720947 41818.000000
633.849915 41466.000000
635.977417 41749.000000
638.103638 41855.000000
640.228333 40577.000000
642.351807 41645.000000
644.473938 41023.000000
646.594604 40918.000000
648.713928 41157.000000
650.831848 42005.000000
652.948425 41853.000000
655.063599 41123.000000
657.177429 41049.000000
659.289795 41722.000000
661.400940 41450.000000
663.510681 42185.000000
665.618958 41651.000000
667.726074 41450.000000
669.831726 40952.000000
671.935913 41852.000000
674.038879 42123.000000
676.140442 40867.000000
678.240662 42601.000000
680.339478 41235.000000
682.436951 41804.000000
684.533142 41089.000000
686.627869 41685.000000
688.721375 40917.000000
690.813538 41206.000000
692.904175 39912.000000
694.993591 41098.000000
697.081726 41097.000000
699.168396 41418.000000
701.253845 40661.000000
703.337769 42096.000000
705.420471 41121.000000
707.501892 41018.000000
709.581848 39237.000000
711.660583 40423.000000
713.737854 40924.000000
715.813843 40006.000000
717.888550 40564.000000
719.961975 39542.000000
722.033875 40154.000000
724.104614 39152.000000
726.174011 40539.000000
728.242004 39699.000000
730.308655 39711.000000
732.374084 39016.000000
734.438171 40315.000000
736.500916 39766.000000
738.562317 39453.000000
740.622437 39310.000000
742.681152 39848.000000
744.738647 39273.000000
746.794861 39352.000000
748.849670 39109.000000
750.903198 39485.000000
752.955322 38427.000000
755.006226 40045.000000
757.055908 39068.000000
759.104126 39525.000000
761.151123 39734.000000
763.196838 38935.000000
765.241150 40683.000000
767.284180 40328.000000
769.325989 39717.500000
771.366455 39107.000000
773.405518 39446.000000
775.443420 39769.000000
777.479980 39904.000000
779.515320 40567.000000
781.549316 40174.000000
783.581909 39216.000000
785.613342 40630.000000
787.643372 40331.500000
789.672119 40033.000000
791.699707 39472.000000
793.725952 39424.000000
795.750793 39916.000000
797.774536 40128.000000
799.796875 39265.000000
801.817993 39801.000000
803.837769 38843.000000
805.856262 40512.000000
807.873535 38689.000000
809.889404 38530.000000
811.904114 39346.000000
813.917480 38582.000000
815.929626 38617.000000
817.940552 38618.000000
819.950134 38045.000000
821.958496 39276.000000
823.965454 38740.000000
825.971191 38394.000000
827.975708 38592.000000
829.978943 38739.000000
831.980896 37876.000000
833.981567 38260.000000
835.981018 38407.000000
837.979126 37948.000000
839.976135 37315.000000
841.971741 38133.000000
843.966187 38276.000000
845.959290 38071.000000
847.951172 37409.000000
849.941711 38639.000000
851.930969 37418.000000
853.919189 38260.000000
855.906006 38511.000000
857.891602 38035.000000
859.875916 37334.000000
861.859131 38299.000000
863.840942 38177.000000
865.821533 38901.000000
867.800842 37027.000000
869.778992 37780.000000
871.755798 38679.000000
873.731323 38631.000000
875.705811 38658.000000
877.678833 38869.000000
879.650818 39288.000000
881.621460 38178.000000
883.590942 38287.000000
885.559082 38635.000000
887.526062 38806.000000
889.491699 37748.000000
891.456177 37928.000000
893.419434 37646.000000
895.381470 37031.000000
897.342224 37655.000000
899.301758 36993.000000
901.260010 36693.000000
903.217163 36829.000000
905.173157 37102.000000
907.127747 36202.000000
909.081116 36445.000000
911.033325 36325.000000
912.984314 36187.000000
914.934021 35176.000000
916.882568 35776.000000
918.829895 35659.000000
920.775940 35427.000000
922.720703 35149.000000
924.664429 34731.000000
926.606995 34752.000000
928.548279 34901.000000
930.488220 33997.000000
932.427063 34573.000000
934.364624 34714.000000
936.300964 34365.000000
938.236145 34557.000000
940.170044 34354.000000
942.102844 34639.000000
944.034424 33804.000000
945.964844 35379.000000
947.894043 34398.000000
949.821899 33851.000000
951.748718 34166.000000
953.674255 34924.000000
955.598511 35613.000000
957.521667 35079.000000
959.443665 34685.000000
961.364380 34116.000000
963.283936 34835.000000
965.202332 35971.000000
967.119690 35069.000000
969.035583 35058.000000
970.950378 35304.000000
972.863953 35418.000000
974.776367 34986.000000
976.687561 34895.000000
978.597595 35835.000000
980.506348 35091.000000
982.414063 35157.000000
984.320557 34864.000000
986.225830 35414.000000
988.130005 34381.000000
990.032959 34809.000000
991.934692 34154.000000
993.835266 34436.000000
995.734680 33983.000000
997.632874 34983.000000
999.529907 33598.000000
1001.425720 33427.000000
1003.320374 32048.000000
1005.213928 33735.000000
1007.106201 31894.000000
1008.997559 32828.000000
1010.887573 33350.000000
1012.776367 32185.000000
1014.664001 32449.000000
1016.550476 31788.000000
1018.435791 31863.000000
1020.319946 32503.000000
1022.202881 32554.000000
1024.084839 32270.000000
1025.965454 33276.000000
1027.844971 32797.000000
1029.723511 32729.000000
1031.600708 33404.000000
1033.476563 32767.000000
1035.351440 33328.000000
1037.225342 32855.000000
1039.097778 32535.000000
1040.969238 32752.000000
1042.839355 33822.000000
1044.708496 33984.000000
1046.576416 34026.000000
1048.443237 32947.000000
1050.308960 33400.000000
1052.173462 33553.000000
1054.036865 33537.000000
1055.898926 33480.000000
1057.760010 33893.000000
1059.619995 33316.000000
1061.478638 33095.000000
1063.336182 33957.000000
1065.192627 33083.000000
1067.047974 33902.000000
1068.902100 34007.000000
1070.755371 33567.000000
1072.607178 33574.000000
1074.458008 33806.000000
1076.307617 33744.000000
1078.156006 34166.000000
1080.003540 31961.000000
1081.849731 34036.000000
1083.694702 33237.000000
1085.538818 33780.000000
1087.381592 33500.000000
1089.223145 32413.000000
1091.063965 33272.000000
1092.903198 32638.000000
1094.741699 32192.000000
1096.578857 32272.000000
1098.414795 31131.000000
1100.249756 30999.000000
1102.083496 31812.000000
1103.916260 31532.000000
1105.747681 31187.000000
1107.578247 30105.000000
1109.407471 30479.000000
1111.235718 30288.000000
1113.062744 29413.000000
1114.888794 30958.000000
1116.713623 30143.000000
1118.537354 29409.000000
1120.359863 30528.000000
1122.181274 30653.000000
1124.001831 30715.000000
1125.820923 30231.000000
1127.639160 29971.000000
1129.456055 29992.000000
1131.272095 30233.000000
1133.086914 30347.000000
1134.900635 31195.000000
1136.713257 31083.000000
1138.524658 31485.000000
1140.335083 31149.000000
1142.144409 30603.000000
1143.952393 30246.000000
1145.759644 31098.000000
1147.565430 30901.000000
1149.370361 31326.000000
1151.174194 31369.000000
1152.976807 30828.000000
1154.778564 30799.000000
1156.578857 30753.000000
1158.378174 30529.000000
1160.176514 30571.000000
1161.973511 30764.000000
1163.769775 30314.000000
1165.564697 30117.000000
1167.358521 29667.000000
1169.151489 28271.000000
1170.943115 30160.000000
1172.733765 29068.000000
1174.523438 29509.000000
1176.311646 29571.000000
1178.098999 28079.000000
1179.885254 28496.000000
1181.670410 29500.000000
1183.454468 29194.000000
1185.237427 27539.000000
1187.019409 29179.000000
1188.800171 28932.000000
1190.579956 28617.000000
1192.358643 27960.000000
1194.136353 28042.000000
1195.912842 27398.000000
1197.688232 27664.000000
1199.462524 27451.000000
1201.235718 27149.000000
1203.008057 27043.000000
1204.779053 26724.000000
1206.549194 27571.000000
1208.318115 27203.000000
1210.085938 26965.000000
1211.852905 27514.000000
1213.618530 27472.000000
1215.383179 26455.000000
1217.146729 26870.000000
1218.909180 27389.000000
1220.670776 26492.000000
1222.431152 27287.000000
1224.190430 26883.000000
1225.948853 27284.000000
1227.706055 26245.000000
1229.462158 27004.000000
1231.217163 27763.000000
1232.971313 27441.000000
1234.724121 27777.000000
1236.475952 27665.000000
1238.226929 27845.000000
1239.976563 28901.000000
1241.725342 27147.000000
1243.472778 27770.000000
1245.219482 27486.000000
1246.964966 27614.000000
1248.709595 27578.000000
1250.452881 26951.000000
1252.195190 26955.000000
1253.936401 27695.000000
1255.676758 27715.000000
1257.416016 27107.000000
1259.154053 26478.000000
1260.891235 26047.000000
1262.627197 27050.000000
1264.362183 27062.000000
1266.096191 26434.000000
1267.829224 27877.000000
1269.561035 27662.000000
1271.291870 27509.000000
1273.021484 26749.000000
1274.750244 27919.000000
1276.477905 27970.000000
1278.204468 28132.000000
1279.930176 28202.000000
1281.654541 27321.000000
1283.378052 28545.000000
1285.100586 26925.000000
1286.822144 27191.000000
1288.542480 27293.000000
1290.261841 26973.000000
1291.980103 26333.000000
1293.697388 26978.000000
1295.413696 27514.000000
1297.128784 26786.000000
1298.842896 27013.000000
1300.556030 27225.000000
1302.268311 26608.000000
1303.979370 24728.000000
1305.689453 27199.000000
1307.398438 26086.000000
1309.106201 26162.000000
1310.813354 25956.000000
1312.519043 27268.000000
1314.223999 26611.000000
1315.927979 27767.000000
1317.630737 28525.000000
1319.332520 28563.000000
1321.033447 29739.000000
1322.733032 26911.000000
1324.431763 26650.500000
1326.129761 26390.000000
1327.826416 24986.000000
1329.521973 24497.000000
1331.216675 24403.000000
1332.910156 24991.000000
1334.602783 25356.000000
1336.294556 23993.000000
1337.984985 24597.000000
1339.674683 24374.000000
1341.363281 24778.000000
1343.050781 23600.000000
1344.737305 24814.000000
1346.422729 24106.000000
1348.107178 24695.000000
1349.790771 23948.000000
1351.473145 24544.000000
1353.154541 24993.000000
1354.835083 24816.000000
1356.514404 24775.000000
1358.193115 25520.000000
1359.870483 25065.000000
1361.546753 25694.000000
1363.222046 25945.000000
1364.896606 25130.000000
1366.569946 25276.000000
1368.242310 24939.000000
1369.913696 26100.000000
1371.584106 24835.000000
1373.253418 25300.000000
1374.921753 25531.000000
1376.589233 25395.000000
1378.255615 24989.000000
1379.921021 25118.000000
1381.585449 25093.000000
1383.248657 24885.000000
1384.911255 24926.000000
1386.572510 24449.000000
1388.232910 24327.000000
1389.892212 24385.000000
1391.550537 24303.000000
1393.208130 24191.000000
1394.864502 24410.000000
1396.520020 23983.000000
1398.174316 24298.000000
1399.827759 24626.000000
1401.480103 24634.000000
1403.131714 24584.000000
1404.782104 23907.000000
1406.431396 24032.000000
1408.079956 23048.000000
1409.727417 22604.000000
1411.373901 22772.000000
1413.019531 22713.000000
1414.664185 22728.000000
1416.307617 22443.000000
1417.950195 22528.000000
1419.591675 22337.000000
1421.232300 22505.000000
1422.871948 22379.000000
1424.510498 22422.000000
1426.148193 22111.000000
1427.784790 22106.000000
1429.420410 22203.000000
1431.055298 21942.000000
1432.689087 22049.000000
1434.321777 21878.000000
1435.953491 21940.000000
1437.584351 21946.000000
1439.214111 22100.000000
1440.842773 21546.000000
1442.470825 22092.000000
1444.097778 22112.000000
1445.723511 22171.000000
1447.348633 22356.000000
1448.972656 22488.000000
1450.595703 22955.000000
1452.217773 23336.000000
1453.838745 23063.000000
1455.458740 24223.000000
1457.078003 24655.000000
1458.695923 19699.500000
1460.313232 14744.000000
1461.929565 22966.000000
1463.544678 22270.000000
1465.158936 22210.000000
1466.772339 22661.000000
1468.384644 22844.000000
1469.996094 22677.000000
1471.606689 22311.000000
1473.216064 22513.000000
1474.824463 22489.000000
1476.432007 22617.000000
1478.038574 22351.000000
1479.644409 22673.000000
1481.249023 22285.000000
1482.852783 22103.000000
1484.455322 21513.000000
1486.057251 21054.000000
1487.657959 21015.000000
1489.257935 20819.000000
1490.856812 20505.000000
1492.454834 20667.000000
1494.051758 20456.000000
1495.647827 21114.000000
1497.242920 21778.000000
1498.837036 21753.000000
1500.430420 21598.000000
1502.022705 21572.000000
1503.613770 21355.000000
1505.204346 21220.000000
1506.793579 21087.000000
1508.382202 21223.000000
1509.969727 20891.000000
1511.556152 20694.000000
1513.141846 20720.000000
1514.726440 20562.000000
1516.310181 20741.000000
1517.892822 20753.000000
1519.474731 20671.000000
1521.055542 20680.000000
1522.635620 20436.000000
1524.214478 20322.000000
1525.792480 19990.000000
1527.369751 19701.000000
1528.945801 19905.000000
1530.521118 19635.000000
1532.095337 19416.000000
1533.668823 19521.000000
1535.241089 19685.000000
1536.812622 19578.000000
1538.383179 19474.000000
1539.952881 19381.000000
1541.521362 19346.000000
1543.089111 19331.000000
1544.656006 19351.000000
1546.221680 19247.000000
1547.786621 19138.000000
1549.350464 19076.000000
1550.913696 18943.000000
1552.475586 19054.000000
1554.036865 18990.000000
1555.597046 18812.000000
1557.156494 18903.000000
1558.714844 18477.000000
1560.272461 18644.000000
1561.828979 18661.000000
1563.384277 18743.000000
1564.938965 18582.000000
1566.492920 18898.000000
1568.045898 18852.000000
1569.597534 18903.000000
1571.148438 18938.000000
1572.698608 18959.000000
1574.247803 18716.000000
1575.795654 18960.000000
1577.343018 18843.000000
1578.889404 18983.000000
1580.434937 19122.000000
1581.979492 18888.000000
1583.522827 19056.000000
1585.065552 18935.000000
1586.607422 18870.000000
1588.148193 18656.000000
1589.687988 18932.000000
1591.227051 18564.000000
1592.765015 18878.000000
1594.302490 18668.000000
1595.838623 18737.000000
1597.373657 18907.000000
1598.908203 18436.000000
1600.441772 18528.000000
1601.974487 18396.000000
1603.505615 18698.000000
1605.036499 18906.000000
1606.566528 18800.000000
1608.095337 18555.000000
1609.623047 18532.000000
1611.150146 18641.000000
1612.676514 18765.000000
1614.201904 18712.000000
1615.726440 18526.000000
1617.249634 18276.000000
1618.772095 18626.000000
1620.293823 18574.000000
1621.814697 20408.000000
1623.334106 15681.000000
1624.853027 18376.000000
1626.371216 18384.000000
1627.888550 18241.000000
1629.404785 18128.000000
1630.919678 18070.000000
1632.434082 17891.000000
1633.947754 18009.000000
1635.460327 17999.000000
1636.971680 17911.000000
1638.482666 17845.000000
1639.992554 17935.000000
1641.501587 17951.000000
1643.009277 17801.000000
1644.516602 17629.000000
1646.023071 17590.000000
1647.528564 17643.000000
1649.033203 17590.000000
1650.536377 17441.000000
1652.038940 17365.000000
1653.541138 17340.000000
1655.041992 17115.000000
1656.541748 16971.000000
1658.040649 17046.000000
1659.539185 16961.000000
1661.036499 16960.000000
1662.533081 16958.000000
1664.028076 16827.000000
1665.522827 16583.000000
1667.016724 16514.000000
1668.509644 20815.000000
1670.001221 11200.000000
1671.492310 16315.000000
1672.982788 16098.000000
1674.472168 16103.000000
1675.960083 15934.000000
1677.447754 16051.000000
1678.934448 16250.000000
1680.420288 16307.000000
1681.905273 16242.000000
1683.388794 15728.000000
1684.872070 15514.000000
1686.354492 15596.000000
1687.835815 15757.000000
1689.315674 15733.000000
1690.795288 15672.000000
1692.274170 15588.000000
1693.752075 15652.000000
1695.229004 15454.000000
1696.704712 15739.000000
1698.180054 15508.000000
1699.654175 15460.000000
1701.127686 15508.000000
1702.599731 15603.000000
1704.071533 15494.000000
1705.542358 15487.000000
1707.012329 15499.000000
1708.480957 15615.000000
1709.949097 15567.000000
1711.416504 15464.000000
1712.882813 15441.000000
1714.348511 15478.000000
1715.812500 15566.000000
1717.276367 15670.000000
1718.739380 15416.000000
1720.201416 15430.000000
1721.662231 15508.000000
1723.122437 15416.000000
1724.581909 15577.000000
1726.040527 15475.000000
1727.498169 15320.000000
1728.954468 15379.000000
1730.410522 15461.000000
1731.865601 15298.000000
1733.319702 15414.000000
1734.772583 15321.000000
1736.225220 15318.000000
1737.676758 15066.000000
1739.127563 15240.000000
1740.577393 15192.000000
1742.025879 15231.000000
1743.473999 15017.000000
1744.921265 14937.000000
1746.367798 14860.000000
1747.812744 14789.000000
1749.257446 14906.000000
1750.701294 14826.000000
1752.144287 14925.000000
1753.585815 14580.000000
1755.027100 16910.000000
1756.467529 11493.000000
1757.906982 14528.000000
1759.345459 14434.000000
1760.782959 14288.000000
1762.219971 14167.000000
1763.656006 14226.000000
1765.091187 14323.000000
1766.524902 14212.000000
1767.958496 14432.000000
1769.391113 14359.000000
1770.822876 14527.000000
1772.253784 14306.000000
1773.683472 14271.000000
1775.112427 13961.000000
1776.540894 13742.000000
1777.968384 13394.000000
1779.394531 12748.000000
1780.820435 13651.000000
1782.245239 13442.000000
1783.669434 13521.000000
1785.092163 13395.000000
1786.514404 13336.000000
1787.935913 13426.000000
1789.356689 13509.000000
1790.776489 13330.000000
1792.194946 13221.000000
1793.612915 12977.000000
1795.030273 13096.000000
1796.446777 13033.000000
1797.861816 13028.000000
1799.276489 12898.000000
1800.690552 12882.000000
1802.103394 13112.000000
1803.515625 12986.000000
1804.926514 12841.000000
1806.336914 12847.000000
1807.746582 12988.000000
1809.155273 13044.000000
1810.562866 12984.000000
1811.969971 12914.000000
1813.376221 12946.000000
1814.781494 12932.000000
1816.185669 13113.000000
1817.589478 12932.000000
1818.992310 13047.000000
1820.394287 12968.000000
1821.795654 12852.000000
1823.195557 12867.000000
1824.594849 12859.000000
1825.993652 12970.000000
1827.391602 12824.000000
1828.788208 12856.000000
1830.184204 12814.000000
1831.579468 12859.000000
1832.974121 12680.000000
1834.367798 12740.000000
1835.760132 12805.000000
1837.151978 12696.000000
1838.543213 12774.000000
1839.933472 12628.000000
1841.322510 12575.000000
1842.711182 12670.000000
1844.098877 12584.000000
1845.485840 12561.000000
1846.871460 12552.000000
1848.256836 12470.000000
1849.641357 12427.000000
1851.025146 12361.000000
1852.407837 12438.000000
1853.789307 12412.000000
1855.170288 12171.000000
1856.550781 12142.000000
1857.930298 12207.000000
1859.308350 12068.000000
1860.686279 12336.000000
1862.063232 12085.000000
1863.439453 11904.000000
1864.814819 11970.000000
1866.188721 11844.000000
1867.562500 11864.000000
1868.935425 11706.000000
1870.307251 11611.000000
1871.678101 11548.000000
1873.048584 11644.000000
1874.417969 11563.000000
1875.786865 11545.000000
1877.154175 11322.000000
1878.521362 11245.000000
1879.887573 11344.000000
1881.253052 11362.000000
1882.617798 11297.000000
1883.980957 11327.000000
1885.343994 11147.000000
1886.706177 11259.000000
1888.067505 11251.000000
1889.427490 11046.000000
1890.787109 11143.000000
1892.146118 11038.000000
1893.504150 10974.000000
1894.861328 10923.000000
1896.217285 11021.000000
1897.572998 11002.000000
1898.927734 11003.000000
1900.281616 10979.000000
1901.634399 10982.000000
1902.986694 11125.000000
1904.338257 11080.000000
1905.688965 11102.000000
1907.038452 11073.000000
1908.387451 10951.000000
1909.735596 11127.000000
1911.083130 10955.000000
1912.429932 10908.000000
1913.775146 10995.000000
1915.120117 11061.000000
1916.464355 11243.000000
1917.807739 11158.000000
1919.149780 11084.000000
1920.491577 11038.000000
1921.832520 11079.000000
1923.172729 11034.000000
1924.511963 10947.000000
1925.850220 10951.000000
1927.187866 11028.000000
1928.524780 10958.000000
1929.860840 10936.000000
1931.195679 10966.000000
1932.530151 10787.000000
1933.863892 10825.000000
1935.196777 10748.000000
1936.528198 10700.000000
1937.859741 10741.000000
1939.189941 10502.000000
1940.519653 10587.000000
1941.848511 10668.000000
1943.176147 10701.000000
1944.503296 10670.000000
1945.829712 10680.000000
1947.155396 10546.000000
1948.479736 10569.000000
1949.803833 10571.000000
1951.127075 10524.000000
1952.449585 10587.000000
1953.770996 10431.000000
1955.091431 10457.000000
1956.411255 10445.000000
1957.730713 10460.000000
1959.049194 10318.000000
1960.366333 10307.000000
1961.683105 10150.000000
1962.999146 10142.000000
1964.314453 10131.000000
1965.628296 10087.000000
1966.941895 10113.000000
1968.254761 10123.000000
1969.566772 10013.000000
1970.878174 10034.000000
1972.188232 10117.000000
1973.497803 9938.000000
1974.806641 9670.000000
1976.114868 9718.000000
1977.421753 9740.000000
1978.728027 9662.000000
1980.033936 9764.000000
1981.338623 9743.000000
1982.642822 9653.000000
1983.945801 9628.000000
1985.248413 9616.000000
1986.550049 9768.000000
1987.851074 9441.000000
1989.150513 9393.000000
1990.450073 9304.000000
1991.748535 9319.000000
1993.046509 9288.000000
1994.342896 9326.000000
1995.639282 9331.000000
1996.934692 9145.000000
1998.229370 9109.000000
1999.523193 9248.000000
2000.815796 9052.000000
2002.107910 9018.000000
2003.399536 9046.000000
2004.690430 9023.000000
2005.979736 9032.000000
2007.268799 9016.000000
2008.557129 9047.000000
2009.844727 8860.000000
2011.131470 9002.000000
2012.417114 8749.000000
2013.702393 8859.000000
2014.986694 8923.000000
2016.270386 8961.000000
2017.552734 8851.000000
2018.834717 8821.000000
2020.116211 8822.000000
2021.396729 8858.000000
2022.676514 8839.000000
2023.955200 8671.000000
2025.233154 8754.000000
2026.510620 8653.000000
2027.787476 8812.000000
2029.062622 8905.000000
2030.337891 8938.000000
2031.612183 8984.000000
2032.885498 9015.000000
2034.157959 8996.000000
2035.430054 9050.000000
2036.701050 8740.000000
2037.971802 8964.000000
2039.241211 8994.000000
2040.509521 8883.000000
2041.777832 9016.000000
2043.045166 8704.000000
2044.311768 8872.000000
2045.577148 8905.000000
2046.841919 8333.000000
2048.106445 8775.000000
2049.369629 8868.000000
2050.632568 8712.000000
2051.893555 8815.000000
2053.155029 8586.000000
2054.415283 8539.000000
2055.674805 8452.000000
2056.933594 8384.000000
2058.191406 8450.000000
2059.448730 8544.000000
2060.705322 8477.000000
2061.960449 8384.000000
2063.215576 8476.000000
2064.469727 8464.000000
2065.723145 8416.000000
2066.975830 8374.000000
2068.227295 8296.000000
2069.478516 8336.000000
2070.729004 8472.000000
2071.978760 8465.000000
2073.227051 8684.000000
2074.475342 8328.000000
2075.722656 8135.000000
2076.969238 8295.000000
2078.215088 8145.000000
2079.459717 8040.000000
2080.703857 7989.000000
2081.947510 8165.000000
2083.190186 8003.000000
2084.431641 8013.000000
2085.672852 8036.000000
2086.913574 7995.000000
2088.153320 7893.000000
2089.391846 7946.000000
2090.629883 7839.000000
2091.867188 7988.000000
2093.104248 7866.000000
2094.339844 7737.000000
2095.574707 7728.000000
2096.809326 7850.000000
2098.042969 7883.000000
2099.275635 7732.000000
2100.507568 7810.000000
2101.739014 7801.000000
2102.969482 7741.000000
2104.199219 7694.000000
2105.428711 7609.000000
2106.656250 7556.000000
2107.884033 7461.000000
2109.111084 7530.000000
2110.337158 7512.000000
2111.561768 7458.000000
2112.786621 7305.000000
2114.010254 7413.000000
2115.233398 7353.000000
2116.455322 7359.000000
2117.677002 7496.000000
2118.897705 7422.000000
2120.117676 7471.000000
2121.337158 7485.000000
2122.555176 7498.000000
2123.773193 7481.000000
2124.990234 7576.000000
2126.206787 7446.000000
2127.421631 7469.000000
2128.636719 7475.000000
2129.850830 7514.000000
2131.064209 7381.000000
2132.276855 7268.000000
2133.488037 7335.000000
2134.699463 7407.000000
2135.909668 7479.000000
2137.119385 7365.000000
2138.327637 7452.000000
2139.535889 7247.000000
2140.743408 7379.000000
2141.949707 7158.000000
2143.155273 7286.000000
2144.360596 7236.000000
2145.564941 7207.000000
2146.768555 7245.000000
2147.971680 7168.000000
2149.173340 7227.000000
2150.374756 7184.000000
2151.575439 7169.000000
2152.775391 7231.000000
2153.974121 7215.000000
2155.172607 7197.000000
2156.370605 7085.000000
2157.567627 7130.000000
2158.763916 6982.000000
2159.958984 6799.000000
2161.153809 6831.000000
2162.347900 6894.000000
2163.541016 6740.000000
2164.733154 6816.000000
2165.925049 6723.000000
2167.116211 6797.000000
2168.306396 6704.000000
2169.495850 6600.000000
2170.684814 6484.000000
2171.872803 6458.000000
2173.060547 6438.000000
2174.246826 6392.000000
2175.432373 6375.000000
2176.617676 6319.000000
2177.802490 6280.000000
2178.986084 6336.000000
2180.168945 6325.000000
2181.350830 6301.000000
2182.532471 6395.000000
2183.713623 6288.000000
2184.893555 6388.000000
2186.072510 6290.000000
2187.250977 6234.000000
2188.429199 6230.000000
2189.606201 6237.000000
2190.782227 6223.000000
2191.958008 6408.000000
2193.133301 6289.000000
2194.307129 6251.000000
2195.480469 6313.000000
2196.653564 6194.000000
2197.825439 6337.000000
2198.996826 6261.000000
2200.167725 6330.000000
2201.336914 6333.000000
2202.506104 6239.000000
2203.674805 6318.000000
2204.842529 6302.000000
2206.009277 6308.000000
2207.175293 6198.000000
2208.340820 6258.000000
2209.506104 6241.000000
2210.669922 6215.000000
2211.833252 6205.000000
2212.995361 6247.000000
2214.157715 6143.000000
2215.318848 6191.000000
2216.479004 6123.000000
2217.638672 6177.000000
2218.798096 6046.000000
2219.956299 6010.000000
2221.113525 6003.000000
2222.270508 6127.000000
2223.426758 6067.000000
2224.582275 5940.000000
2225.737061 5959.000000
2226.890869 5946.000000
2228.043701 5959.000000
2229.197021 5921.000000
2230.348389 5835.000000
2231.499512 5882.000000
2232.649902 5723.000000
2233.799805 5745.000000
2234.948730 5702.000000
2236.097168 5725.000000
2237.244141 5471.000000
2238.391357 5721.000000
2239.537354 5682.000000
2240.683105 5628.000000
2241.827148 5498.000000
2242.971436 5549.000000
2244.114746 5593.000000
2245.257324 5477.000000
2246.398926 5524.000000
2247.540283 5503.000000
2248.680664 5369.000000
2249.820313 5331.000000
2250.959473 5334.000000
2252.097412 5356.000000
2253.235352 5405.000000
2254.372314 5363.000000
2255.508545 5298.000000
2256.643799 5356.000000
2257.778320 5276.000000
2258.912598 5215.000000
2260.046387 5462.000000
2261.178711 5433.000000
2262.310547 5356.000000
2263.441895 5312.000000
2264.572266 5126.000000
2265.702393 5089.000000
2266.831299 5271.000000
2267.959717 5008.000000
2269.087646 5011.000000
2270.214600 5093.000000
2271.340820 5015.000000
2272.466064 5006.000000
2273.591309 5044.000000
2274.715820 5007.000000
2275.839111 5093.000000
2276.961670 5113.000000
2278.083740 5060.000000
2279.205322 5033.000000
2280.326172 4939.000000
2281.445801 5093.000000
2282.564941 5074.000000
2283.683838 4899.000000
2284.802002 4827.000000
2285.919189 4854.000000
2287.035400 4866.000000
2288.151367 4993.000000
2289.266602 4941.000000
2290.381104 4922.000000
2291.494385 5075.000000
2292.607666 4781.000000
2293.720215 4835.000000
2294.832031 5018.000000
2295.943115 4887.000000
2297.052979 4906.000000
2298.162354 5061.000000
2299.271484 4942.000000
2300.379639 5028.000000
2301.486816 4977.000000
2302.593750 4995.000000
2303.699951 4979.000000
2304.805664 4988.000000
2305.909912 4987.000000
2307.013916 4882.000000
2308.117432 5019.000000
2309.220459 4830.000000
2310.322266 4888.000000
2311.423340 4698.000000
2312.523926 4837.000000
2313.624023 4758.000000
2314.723389 4928.000000
2315.821289 4720.000000
2316.919678 4769.000000
2318.016602 4646.000000
2319.113281 4735.000000
2320.209473 4728.000000
2321.303955 4753.000000
2322.398438 4615.000000
2323.492188 4635.000000
2324.585693 4613.000000
2325.677490 4636.000000
2326.769287 4567.000000
2327.860352 4723.000000
2328.950684 4647.000000
2330.040039 4530.000000
2331.129395 4688.000000
2332.217529 4619.000000
2333.305176 4551.000000
2334.392578 4546.000000
2335.478271 4480.000000
2336.563721 4489.000000
2337.648926 4526.000000
2338.733154 4354.000000
2339.816406 4360.000000
2340.899414 4348.000000
2341.981445 4414.000000
2343.063232 4240.000000
2344.144287 4335.000000
2345.224121 4300.000000
2346.303467 4267.000000
2347.382324 4303.000000
2348.460693 4215.000000
2349.537598 4210.000000
2350.614258 4272.000000
2351.690674 4194.000000
2352.766113 4214.000000
2353.840576 4127.000000
2354.914795 4125.000000
2355.988281 4073.000000
2357.061279 4091.000000
2358.133057 4097.000000
2359.204590 4070.000000
2360.275146 4002.000000
2361.345459 4083.000000
2362.414795 4018.000000
2363.483154 4021.000000
2364.551270 4033.000000
2365.618652 3988.000000
2366.685547 3997.000000
2367.751709 3903.000000
2368.816650 3914.000000
2369.881592 3881.000000
2370.945801 3932.000000
2372.009277 3898.000000
2373.071533 3934.000000
2374.133789 3895.000000
2375.195068 3851.000000
2376.256104 3836.000000
2377.315918 3939.000000
2378.375000 3845.000000
2379.434082 3846.000000
2380.492188 3874.000000
2381.549561 3884.000000
2382.605957 3905.000000
2383.662109 3787.000000
2384.717773 3733.000000
2385.772705 3687.000000
2386.826172 3803.000000
2387.879883 3690.000000
2388.932617 3697.000000
2389.984863 3898.000000
2391.036377 3835.000000
2392.086914 3827.000000
2393.137207 3855.000000
2394.186523 3778.000000
2395.235840 3821.000000
2396.283691 3782.000000
2397.331055 3798.000000
2398.378174 3653.000000
2399.424316 3784.000000
2400.469727 3659.000000
2401.514404 3728.000000
2402.559082 3744.000000
2403.602295 3706.000000
2404.645508 3671.000000
2405.687256 3798.000000
2406.729248 3712.000000
2407.770508 3751.000000
2408.810791 3643.000000
2409.850342 3719.000000
2410.888916 3788.000000
2411.927734 3696.000000
2412.965332 3678.000000
2414.002686 3654.000000
2415.038818 3581.000000
2416.074707 3584.000000
2417.109863 3663.000000
2418.144531 3628.000000
2419.177734 3785.000000
2420.211182 3615.000000
2421.243652 3519.000000
2422.275879 3703.000000
2423.306641 3587.000000
2424.337402 3638.000000
2425.367676 3487.000000
2426.396729 3530.000000
2427.425781 3514.000000
2428.453125 3529.000000
2429.480957 3504.000000
2430.507568 3475.000000
2431.533936 3483.000000
2432.558838 3444.000000
2433.583984 3442.000000
2434.608154 3456.000000
2435.632080 3363.000000
2436.654785 3418.000000
2437.676758 3340.000000
2438.698486 3339.000000
2439.719482 3304.000000
2440.739990 3325.000000
2441.759277 3241.000000
2442.778564 3249.000000
2443.796875 3131.000000
2444.814941 3320.000000
2445.831543 3306.000000
2446.848145 3250.000000
2447.864014 3239.000000
2448.879883 3133.000000
2449.894287 3236.000000
2450.907959 3116.000000
2451.921143 3169.000000
2452.934082 3190.000000
2453.946289 3125.000000
2454.957520 3109.000000
2455.968506 3145.000000
2456.978760 3102.000000
2457.988525 3057.000000
2458.997314 3133.000000
2460.005371 3138.000000
2461.013428 2990.000000
2462.020264 2995.000000
2463.026855 3026.000000
2464.032227 3009.000000
2465.037354 3009.000000
2466.042236 3011.000000
2467.045898 2990.000000
2468.049316 3068.000000
2469.051758 2938.000000
2470.053955 3030.000000
2471.055664 3038.000000
2472.056396 2956.000000
2473.056152 2939.000000
2474.055908 2939.000000
2475.054688 2916.000000
2476.052979 2915.000000
2477.050293 2860.000000
2478.047363 2918.000000
2479.044434 2910.000000
2480.040039 2923.000000
2481.035645 2953.000000
2482.029541 2976.000000
2483.023438 2856.000000
2484.016846 2996.000000
2485.009766 2926.000000
2486.001709 2934.000000
2486.992920 2931.000000
2487.983887 3012.000000
2488.974365 2805.000000
2489.963867 2880.000000
2490.952637 2943.000000
2491.941406 2905.000000
2492.929199 2968.000000
2493.915771 2923.000000
2494.902344 2897.000000
2495.888428 2958.000000
2496.873779 2867.000000
2497.858154 2828.000000
2498.842285 2967.000000
2499.826416 2853.000000
2500.809082 2833.000000
2501.791260 2813.000000
2502.772949 2785.000000
2503.753906 2863.000000
2504.734375 2918.000000
2505.714600 2858.000000
2506.693359 2795.000000
2507.671875 2842.000000
2508.649902 2726.000000
2509.627441 2733.000000
2510.604004 2812.000000
2511.580322 2791.000000
2512.555908 2845.000000
2513.531006 2777.000000
2514.505615 2805.000000
2515.479004 2740.000000
2516.452148 2718.000000
2517.425049 2719.000000
2518.396973 2653.000000
2519.368164 2737.000000
2520.338867 2655.000000
2521.309326 2708.000000
2522.279053 2583.000000
2523.247803 2582.000000
2524.215820 2615.000000
2525.183838 2626.000000
2526.150879 2641.000000
2527.117676 2606.000000
2528.083252 2577.000000
2529.048828 2627.000000
2530.013672 2460.000000
2530.978027 2530.000000
2531.941162 2651.000000
2532.904541 2486.000000
2533.866943 2551.000000
2534.829102 2599.000000
2535.790039 2577.000000
2536.750244 2582.000000
2537.710693 2484.000000
2538.670166 2562.000000
2539.628906 2618.000000
2540.586670 2510.000000
2541.544678 2507.000000
2542.501953 2453.000000
2543.458252 2475.000000
2544.414307 2468.000000
2545.369141 2379.000000
2546.324219 2270.000000
2547.278564 2270.000000
2548.232178 2150.000000
2549.184814 2500.000000
2550.137207 2365.000000
2551.089111 2316.000000
2552.040283 2383.000000
2552.990723 2340.000000
2553.940674 2416.000000
2554.890381 2373.000000
2555.839355 2369.000000
2556.787842 2394.000000
2557.735107 2440.000000
2558.682373 2420.000000
2559.628906 2299.000000
2560.574951 2318.000000
2561.520020 2352.000000
2562.464844 2359.000000
2563.409180 2360.000000
2564.353027 2294.000000
2565.296387 2304.000000
2566.238281 2321.000000
2567.180420 2181.000000
2568.121826 2268.000000
2569.062500 2272.000000
2570.002441 2361.000000
2570.942383 2262.000000
2571.881348 2322.000000
2572.820068 2219.000000
2573.757813 2225.000000
2574.695313 2274.000000
2575.632080 2232.000000
2576.568115 2263.000000
2577.503662 2186.000000
2578.438477 2209.000000
2579.373291 2284.000000
2580.307129 2208.000000
2581.240479 2067.000000
2582.173096 2172.000000
2583.105469 2165.000000
2584.037109 2163.000000
2584.968262 2192.000000
2585.898926 2138.000000
2586.828369 2223.000000
2587.757813 2130.000000
2588.686768 2150.000000
2589.615479 2236.000000
2590.542480 2147.000000
2591.469727 2178.000000
2592.396484 2080.000000
2593.322510 2124.000000
2594.248291 2148.000000
2595.172852 2106.000000
2596.097168 2101.000000
2597.020996 2179.000000
2597.944336 2156.000000
2598.866699 2189.000000
2599.788818 2164.000000
2600.710449 2118.000000
2601.631348 2094.000000
2602.551514 2144.000000
2603.471436 2118.000000
2604.390869 2199.000000
2605.310059 2104.000000
2606.228271 2077.000000
2607.145264 2012.000000
2608.062500 1928.000000
2608.979492 2011.000000
2609.895508 2031.000000
2610.810303 2082.000000
2611.725586 2081.000000
2612.640137 1981.000000
2613.553711 2023.000000
2614.467285 1939.000000
2615.379639 1941.000000
2616.291992 1981.000000
2617.203369 2049.000000
2618.114502 1919.000000
2619.024902 2302.000000
2619.935059 2058.000000
2620.844482 2037.000000
2621.753418 1929.000000
2622.661377 1954.000000
2623.569580 1943.000000
2624.476807 1893.000000
2625.383545 1938.000000
2626.289551 1979.000000
2627.195313 1936.000000
2628.100342 2006.000000
2629.005127 1918.000000
2629.909180 1832.000000
2630.812256 1942.000000
2631.715332 1961.000000
2632.617432 1933.000000
2633.519531 1876.000000
2634.421387 1928.000000
2635.321533 1936.000000
2636.221924 1899.000000
2637.121582 1891.000000
2638.020996 1845.000000
2638.918945 1892.000000
2639.817383 1796.000000
2640.715332 1878.000000
2641.612549 1906.000000
2642.508545 1806.000000
2643.404541 1719.000000
2644.300293 1755.000000
2645.195313 1772.000000
2646.090088 1836.000000
2646.983398 1748.000000
2647.876709 1718.000000
2648.769775 1727.000000
2649.662598 1744.000000
2650.553711 1712.000000
2651.445068 1721.000000
2652.335938 1732.000000
2653.226074 1670.000000
2654.115967 1704.000000
2655.004639 1767.000000
2655.893555 1714.000000
2656.781982 1768.000000
2657.669434 1703.000000
2658.555908 1683.000000
2659.442871 1723.000000
2660.329102 1616.000000
2661.214844 1705.000000
2662.099365 1617.000000
2662.983887 1734.000000
2663.868164 1723.000000
2664.751709 1545.000000
2665.634766 1667.000000
2666.517090 1710.000000
2667.398926 1687.000000
2668.280029 1691.000000
2669.161377 1734.000000
2670.041260 1729.000000
2670.921387 1700.000000
2671.800781 1650.000000
2672.680176 1617.000000
2673.558838 1693.000000
2674.435791 1698.000000
2675.313477 1605.000000
2676.190430 1677.000000
2677.066650 1699.000000
2677.942383 1657.000000
2678.817383 1597.000000
2679.692627 1670.000000
2680.566895 1654.000000
2681.440674 1758.000000
2682.313721 1570.000000
2683.186523 1663.000000
2684.059082 1651.000000
2684.930908 1540.000000
2685.802002 1656.000000
2686.672852 1456.000000
2687.543213 1553.000000
2688.413330 1638.000000
2689.281738 1637.000000
2690.150879 1616.000000
2691.019287 1548.000000
2691.887451 1586.000000
2692.754883 1584.000000
2693.621094 1646.000000
2694.487793 1549.000000
2695.353516 1583.000000
2696.219238 1624.000000
2697.083496 1564.000000
2697.948486 1452.000000
2698.812012 1591.000000
2699.675781 1477.000000
2700.538086 1479.000000
2701.400879 1427.000000
2702.262695 1531.000000
2703.124023 1561.000000
2703.985352 1397.000000
2704.845459 1422.000000
2705.705566 1530.000000
2706.565186 1503.000000
2707.424561 1518.000000
2708.282227 1426.000000
2709.140137 1536.000000
2709.998535 1440.000000
2710.855713 1481.000000
2711.712158 1440.000000
2712.568115 1568.000000
2713.424072 1485.000000
2714.279297 1504.000000
2715.133789 1434.000000
2715.987793 1480.000000
2716.841797 1349.000000
2717.694824 1482.000000
2718.548096 1436.000000
2719.399658 1451.000000
2720.251709 1505.000000
2721.103516 1373.000000
2721.954102 1440.000000
2722.804688 1612.000000
2723.654785 1406.000000
2724.504150 1353.000000
2725.353516 1375.000000
2726.201660 1368.000000
2727.049316 1387.000000
2727.897461 1372.000000
2728.744385 1402.000000
2729.591797 1343.000000
2730.437744 1468.000000
2731.282959 1450.000000
2732.128662 1408.000000
2732.973389 1392.000000
2733.818115 1318.000000
2734.661621 1319.000000
2735.505371 1292.000000
2736.348389 1324.000000
2737.190918 1351.000000
2738.032471 1305.000000
2738.874512 1438.000000
2739.715576 1287.000000
2740.556396 1332.000000
2741.396973 1449.000000
2742.236328 1302.000000
2743.075684 1268.000000
2743.915039 1327.000000
2744.753174 1344.000000
2745.590820 1315.000000
2746.428467 1452.000000
2747.265625 1300.000000
2748.102539 1342.000000
2748.938965 1376.000000
2749.774170 1174.000000
2750.609619 1255.000000
2751.444580 1388.000000
2752.278809 1296.000000
2753.112793 1289.000000
2753.946289 1348.000000
2754.779785 1286.000000
2755.612305 1312.000000
2756.444336 1264.000000
2757.275879 1362.000000
2758.107422 1305.000000
2758.937988 1317.000000
2759.768799 1280.000000
2760.598389 1284.000000
2761.427979 1283.000000
2762.257324 1349.000000
2763.085938 1214.000000
2763.914063 1293.000000
2764.741699 1344.000000
2765.569336 1234.000000
2766.396484 1322.000000
2767.222900 1212.000000
2768.048828 1206.000000
2768.874268 1248.000000
2769.699463 1220.000000
2770.524658 1156.000000
2771.348633 1133.000000
2772.172607 1200.000000
2772.996582 1228.000000
2773.819336 1204.000000
2774.642334 984.000000
2775.464111 1098.000000
2776.285889 1176.000000
2777.107666 1276.000000
2777.928467 1232.000000
2778.748535 1139.000000
2779.568848 1117.000000
2780.388672 1088.000000
2781.208496 1109.000000
2782.026367 1136.000000
2782.845459 1123.000000
2783.663330 1169.000000
2784.480957 1239.000000
2785.298096 1173.000000
2786.114746 1105.000000
2786.931152 1105.000000
2787.747070 1079.000000
2788.562744 1119.000000
2789.377441 1163.000000
2790.192627 1093.000000
2791.007080 1069.000000
2791.821045 1122.000000
2792.634766 1041.000000
2793.447266 1033.000000
2794.260010 1118.000000
2795.072266 1137.000000
2795.884033 1147.000000
2796.695068 1098.000000
2797.506836 1105.000000
2798.317383 1013.000000
2799.127930 979.000000
2799.937012 1002.000000
2800.746826 1007.000000
2801.555908 1146.000000
2802.364746 1062.000000
2803.173096 1034.000000
2803.980469 1135.000000
2804.788330 1149.000000
2805.595459 1061.000000
2806.402344 968.000000
2807.208008 1224.000000
2808.014160 1118.000000
2808.819580 1077.000000
2809.625000 1031.000000
2810.429688 1039.000000
2811.233398 1056.000000
2812.037598 1077.000000
2812.841309 990.000000
2813.644775 1105.000000
2814.446777 995.000000
2815.249512 1119.000000
2816.051514 1070.000000
2816.853271 1071.000000
2817.654541 978.000000
2818.455322 1027.000000
2819.255615 1018.000000
2820.056152 1116.000000
2820.855713 974.000000
2821.654785 1048.000000
2822.453857 1062.000000
2823.252686 1000.000000
2824.051025 1057.000000
2824.848389 973.000000
2825.645996 981.000000
2826.442871 983.000000
2827.239990 1069.000000
2828.036377 1115.000000
2828.832031 1042.000000
2829.627686 1102.000000
2830.423096 1082.000000
2831.218018 1010.000000
2832.012207 1087.000000
2832.806396 1136.000000
2833.600342 1051.000000
2834.393799 972.000000
2835.186523 997.000000
2835.979004 1029.000000
2836.771484 1259.000000
2837.563721 1027.000000
2838.355469 940.000000
2839.146240 999.000000
2839.937012 945.000000
2840.728027 1018.000000
2841.518066 1013.000000
2842.307617 1001.000000
2843.097412 1078.000000
2843.886230 954.000000
2844.675049 1044.000000
2845.463867 1011.000000
2846.251709 1063.000000
2847.039063 981.000000
2847.826660 1016.000000
2848.613770 933.000000
2849.400146 983.000000
2850.186523 994.000000
2850.972656 1067.000000
2851.758301 952.000000
2852.542969 962.000000
2853.328125 902.000000
2854.113037 936.000000
2854.897217 871.000000
2855.681396 1053.000000
2856.464355 1003.000000
2857.247559 980.000000
2858.030518 911.000000
2858.812988 1082.000000
2859.595215 953.000000
2860.376953 1037.000000
2861.158447 957.000000
2861.940186 1054.000000
2862.721191 955.000000
2863.501465 969.000000
2864.281494 998.000000
2865.061523 1038.000000
2865.841309 1000.000000
2866.620117 925.000000
2867.399170 998.000000
2868.177734 1111.000000
2868.956055 1076.000000
2869.733887 1172.000000
2870.511475 1006.000000
2871.288818 1028.000000
2872.065918 1122.000000
2872.842529 1212.000000
2873.618652 1092.000000
2874.394775 1173.000000
2875.170410 1205.000000
2875.945801 1157.000000
2876.720703 1129.000000
2877.495361 996.000000
2878.270020 1145.000000
2879.044434 1194.000000
2879.818115 1179.000000
2880.591064 1250.000000
2881.364746 1180.000000
2882.137451 1202.000000
2882.910156 1137.000000
2883.682129 1246.000000
2884.453857 1188.000000
2885.226074 1191.000000
2885.997070 1269.000000
2886.767578 1266.000000
2887.538574 1296.000000
2888.309570 1175.000000
2889.079834 1274.000000
2889.849121 1138.000000
2890.618652 1221.000000
2891.388184 1160.000000
2892.157227 1158.000000
2892.925781 1047.000000
2893.694336 1111.000000
2894.461914 1233.000000
2895.229980 1228.000000
2895.997559 1176.000000
2896.765137 1115.000000
2897.531494 1107.000000
2898.298828 1070.000000
2899.064941 1068.000000
2899.831299 1187.000000
2900.596191 1054.000000
2901.361572 1274.000000
2902.127441 1096.000000
2902.891846 1104.000000
2903.656250 1074.000000
2904.420898 1037.000000
2905.184570 1147.000000
2905.948975 1088.000000
2906.712646 1069.000000
2907.475586 1072.000000
2908.238281 1118.000000
2909.001465 1277.000000
2909.764160 1045.000000
2910.525635 1042.000000
2911.287598 1042.000000
spectrumdark 2048
-96.943169 6225.000000
-94.316299 6225.000000
-91.691307 6072.000000
-89.068207 6394.000000
-86.446976 5838.000000
-83.827644 6210.000000
-81.210175 6106.000000
-78.594582 6429.000000
-75.980865 6296.000000
-73.369026 5988.000000
-70.759048 6116.000000
-68.150955 5937.000000
-65.544708 5978.000000
-62.940342 6025.000000
-60.337833 6156.000000
-57.737179 5681.000000
-55.138386 6230.000000
-52.541451 6816.000000
-49.946369 6495.000000
-47.353142 6617.000000
-44.761765 6286.000000
-42.172234 6728.000000
-39.584545 5960.000000
-36.998707 6034.000000
-34.414711 6494.000000
-31.832552 5756.000000
-29.252239 6328.000000
-26.673754 5705.000000
-24.097111 6165.000000
-21.522293 6249.000000
-18.949316 6480.000000
-16.378159 6512.000000
-13.808835 6731.000000
-11.241337 7803.000000
-8.675657 6347.000000
-6.111803 6452.000000
-3.549763 5985.000000
-0.989547 5854.000000
1.568861 6246.000000
4.125448 6854.000000
6.680231 6640.000000
9.233195 6007.000000
11.784360 6765.000000
14.333712 6480.000000
16.881268 6761.000000
19.427011 6096.000000
21.970963 5715.000000
24.513109 6670.000000
27.053459 6801.000000
29.592024 6870.000000
32.128792 6205.000000
34.663757 5806.000000
37.196945 7252.000000
39.728352 6315.000000
42.257965 7116.000000
44.785782 6579.000000
47.311840 7876.000000
49.836109 5672.000000
52.358608 6207.000000
54.879311 6760.000000
57.398258 6347.000000
59.915432 6393.000000
62.430828 6689.000000
64.944450 5622.000000
67.456314 5736.000000
69.966431 6530.000000
72.474754 6526.000000
74.981323 5978.000000
77.486145 6333.000000
79.989212 6424.000000
82.490501 6309.000000
84.990051 6125.000000
87.487846 6357.000000
89.983910 5719.000000
92.478195 7236.000000
94.970741 5847.000000
97.461571 6946.000000
99.950630 7187.000000
102.437943 6371.000000
104.923531 6221.000000
107.407379 6403.000000
109.889481 5832.000000
112.369858 6802.000000
114.848511 6275.000000
117.325439 6539.000000
119.800613 7218.000000
122.274078 6781.000000
124.745811 5885.000000
127.215836 6779.000000
129.684097 6314.000000
132.150696 6304.000000
134.615540 5706.000000
137.078690 6195.000000
139.540100 7310.000000
141.999817 6905.000000
144.457809 6337.000000
146.914108 5988.000000
149.368698 5815.000000
151.821564 6805.000000
154.272751 6407.000000
156.722244 6643.000000
159.170013 6016.000000
161.616074 6703.000000
164.060455 8667.000000
166.503159 6430.000000
168.944168 6807.000000
171.383469 6308.000000
173.821060 7247.000000
176.257019 6599.000000
178.691238 6988.000000
181.123779 7154.000000
183.554672 6701.000000
185.983841 7146.000000
188.411362 6726.000000
190.837204 6404.000000
193.261368 6701.000000
195.683868 7115.000000
198.104675 7376.000000
200.523819 6476.000000
202.941299 6009.000000
205.357086 7622.000000
207.771225 7091.000000
210.183731 6385.000000
212.594559 6108.000000
215.003708 6291.000000
217.411224 7421.000000
219.817032 6159.000000
222.221252 6531.000000
224.623764 6705.000000
227.024658 6958.000000
229.423904 6527.000000
231.821487 6854.000000
234.217407 7274.000000
236.611710 6559.000000
239.004349 6141.000000
241.395370 6811.000000
243.784729 6629.000000
246.172470 6424.000000
248.558563 7026.000000
250.943024 6146.000000
253.325836 7942.000000
255.707077 6618.000000
258.086609 6665.000000
260.464569 6517.000000
262.840851 7596.000000
265.215576 7600.000000
267.588654 7881.000000
269.960083 6190.000000
272.329865 6443.000000
274.698090 5905.000000
277.064667 6308.000000
279.429657 6527.000000
281.793030 6061.000000
284.154755 6206.000000
286.514893 7154.000000
288.873413 5937.000000
291.230347 6499.000000
293.585663 6423.000000
295.939392 5973.000000
298.291473 5937.000000
300.641998 6347.000000
302.990936 6443.000000
305.338226 6850.000000
307.683990 6450.000000
310.028076 6522.000000
312.370636 7407.000000
314.711578 7627.000000
317.050903 7160.000000
319.388672 6905.000000
321.724884 8116.000000
324.059448 6239.000000
326.392456 6547.000000
328.723907 5973.000000
331.053772 6659.000000
333.382050 6373.000000
335.708710 7274.000000
338.033875 6391.000000
340.357422 6207.000000
342.679413 5967.000000
344.999847 7462.000000
347.318665 7721.000000
349.635925 6035.000000
351.951660 5906.000000
354.265808 6975.000000
356.578369 6409.000000
358.889374 6330.000000
361.198853 7071.000000
363.506805 6380.000000
365.813141 5719.000000
368.117889 6526.000000
370.421173 6388.000000
372.722839 6311.000000
375.023010 6421.000000
377.321625 6314.000000
379.618683 5720.000000
381.914185 6133.000000
384.208160 5862.000000
386.500549 5246.000000
388.791443 5621.000000
391.080811 6228.000000
393.368591 6279.000000
395.654846 6593.000000
397.939606 6944.000000
400.222748 5991.000000
402.504456 6444.000000
404.784637 6226.000000
407.063232 7363.000000
409.340302 6469.000000
411.615845 6770.000000
413.889862 6565.000000
416.162445 6520.000000
418.433411 6362.000000
420.702881 6374.000000
422.970856 7076.000000
425.237274 7235.000000
427.502197 6293.000000
429.765656 6308.000000
432.027527 6513.000000
434.287933 6048.000000
436.546783 6675.000000
438.804169 6147.000000
441.060059 5685.000000
443.314453 5826.000000
445.567322 5513.000000
447.818634 6926.000000
450.068542 6118.000000
452.316864 6303.000000
454.563751 5653.000000
456.809174 6510.000000
459.053040 6508.000000
461.295410 6504.000000
463.536285 5670.000000
465.775757 6742.000000
468.013641 5469.000000
470.250092 5916.000000
472.485016 6077.000000
474.718475 7308.000000
476.950500 6721.000000
479.181000 5678.000000
481.410004 6464.000000
483.637543 6315.000000
485.863586 6017.000000
488.088196 6578.000000
490.311340 5924.000000
492.533020 6457.000000
494.753143 6790.000000
496.971863 5714.000000
499.189087 6220.000000
501.404938 5488.000000
503.619171 6199.000000
505.832092 6425.000000
508.043427 6484.000000
510.253326 6917.000000
512.461792 6504.000000
514.668884 6555.000000
516.874390 6430.000000
519.078491 6593.000000
521.281067 6214.000000
523.482239 6536.000000
525.682068 6654.000000
527.880371 6912.000000
530.077148 5319.000000
532.272583 5876.000000
534.466492 5593.000000
536.659058 7536.000000
538.850098 6696.000000
541.039734 5971.000000
543.227966 6937.000000
545.414673 7159.000000
547.599915 6837.000000
549.783875 6268.000000
551.966248 6378.000000
554.147278 6266.000000
556.326782 6095.000000
558.505005 5878.000000
560.681702 6064.000000
562.856995 6384.000000
565.030884 6440.000000
567.203308 5939.000000
569.374329 6128.000000
571.543884 6337.000000
573.712158 5249.000000
575.878906 6369.000000
578.044189 6294.000000
580.208069 6216.000000
582.370667 5762.000000
584.531738 6066.000000
586.691406 5611.000000
588.849731 5728.000000
591.006531 6153.000000
593.161987 6640.000000
595.316040 5756.000000
597.468750 6147.000000
599.619934 7284.000000
601.769775 6806.000000
603.918274 6672.000000
606.065186 6017.000000
608.210876 6511.000000
610.355164 6452.000000
612.497986 7020.000000
614.639343 6160.000000
616.779480 6495.000000
618.918091 7635.000000
621.055420 5716.000000
623.191284 6596.000000
625.325745 6905.000000
627.458740 7210.000000
629.590576 6694.000000
631.720947 6576.000000
633.849915 6853.000000
635.977417 6499.000000
638.103638 6285.000000
640.228333 7465.000000
642.351807 6392.000000
644.473938 6823.000000
646.594604 6906.000000
648.713928 6567.000000
650.831848 5607.000000
652.948425 5697.000000
655.063599 6442.000000
657.177429 6528.000000
659.289795 5823.000000
661.400940 6122.000000
663.510681 5427.000000
665.618958 6000.000000
667.726074 6309.000000
669.831726 6847.000000
671.935913 5952.000000
674.038879 5690.000000
676.140442 7044.000000
678.240662 5390.000000
680.339478 6771.000000
682.436951 6269.000000
684.533142 6965.000000
686.627869 6337.000000
688.721375 7029.000000
690.813538 6691.000000
692.904175 7947.000000
694.993591 6682.000000
697.081726 6499.000000
699.168396 6050.000000
701.253845 6706.000000
703.337769 5135.000000
705.420471 5912.000000
707.501892 5911.000000
709.581848 7608.000000
711.660583 6276.000000
713.737854 5594.000000
715.813843 6572.000000
717.888550 6063.000000
719.961975 7076.000000
722.033875 6424.000000
724.104614 7340.000000
726.174011 5821.000000
728.242004 6503.000000
730.308655 6437.000000
732.374084 7077.000000
734.438171 5713.000000
736.500916 6195.000000
738.562317 6535.000000
740.622437 6619.000000
742.681152 6047.000000
744.738647 6595.000000
746.794861 6546.000000
748.849670 6763.000000
750.903198 6398.000000
752.955322 7483.000000
755.006226 5811.000000
757.055908 6733.000000
759.104126 6399.000000
761.151123 6220.000000
763.196838 7042.000000
765.241150 5386.000000
767.284180 5791.000000
769.325989 6510.000000
771.366455 7229.000000
773.405518 6436.000000
775.443420 6105.000000
777.479980 5959.000000
779.515320 5380.000000
781.549316 5791.000000
783.581909 6901.000000
785.613342 5546.000000
787.643372 5815.500000
789.672119 6085.000000
791.699707 6310.000000
793.725952 6375.000000
795.750793 5821.000000
797.774536 5563.000000
799.796875 6395.000000
801.817993 5828.000000
803.837769 6731.000000
805.856262 4959.000000
807.873535 6654.000000
809.889404 6811.000000
811.904114 5796.000000
813.917480 6383.000000
815.929626 6282.000000
817.940552 6120.000000
819.950134 6622.000000
821.958496 5308.000000
823.965454 5735.000000
825.971191 6068.000000
827.975708 5816.000000
829.978943 5680.000000
831.980896 6496.000000
833.981567 6122.000000
835.981018 5941.000000
837.979126 6360.000000
839.976135 7020.000000
841.971741 6212.000000
843.966187 5948.000000
845.959290 6182.000000
847.951172 6836.000000
849.941711 5616.000000
851.930969 6805.000000
853.919189 6020.000000
855.906006 5836.000000
857.891602 6408.000000
859.875916 7236.000000
861.859131 6319.000000
863.840942 6436.000000
865.821533 5837.000000
867.800842 7752.000000
869.778992 7109.000000
871.755798 6234.000000
873.731323 6216.000000
875.705811 6242.000000
877.678833 6009.000000
879.650818 5459.000000
881.621460 6405.000000
883.590942 6128.000000
885.559082 5557.000000
887.526062 5202.000000
889.491699 6139.000000
891.456177 5850.000000
893.419434 6017.000000
895.381470 6550.000000
897.342224 5837.000000
899.301758 6422.000000
901.260010 6648.000000
903.217163 6390.000000
905.173157 6029.000000
907.127747 6883.000000
909.081116 6493.000000
911.033325 6429.000000
912.984314 6388.000000
914.934021 7151.000000
916.882568 6338.000000
918.829895 6142.000000
920.775940 6102.000000
922.720703 6069.000000
924.664429 6283.000000
926.606995 6008.000000
928.548279 5661.000000
930.488220 6497.000000
932.427063 5779.000000
934.364624 5551.000000
936.300964 5980.000000
938.236145 5843.000000
940.170044 6090.000000
942.102844 5862.000000
944.034424 6810.000000
945.964844 5244.000000
947.894043 6399.000000
949.821899 7045.000000
951.748718 6701.000000
953.674255 5969.000000
955.598511 5333.000000
957.521667 6095.000000
959.443665 6671.000000
961.364380 7294.000000
963.283936 6511.000000
965.202332 5346.000000
967.119690 6359.000000
969.035583 6442.000000
970.950378 6140.000000
972.863953 5959.000000
974.776367 6397.000000
976.687561 6474.000000
978.597595 5477.000000
980.506348 6205.000000
982.414063 6146.000000
984.320557 6398.000000
986.225830 5737.000000
988.130005 6779.000000
990.032959 6267.000000
991.934692 6820.000000
993.835266 6364.000000
995.734680 6611.000000
997.632874 5258.000000
999.529907 6570.000000
1001.425720 6537.000000
1003.320374 7676.000000
1005.213928 5602.000000
1007.106201 7249.000000
1008.997559 6093.000000
1010.887573 5334.000000
1012.776367 6588.000000
1014.664001 6305.000000
1016.550476 6963.000000
1018.435791 6791.000000
1020.319946 6001.000000
1022.202881 5905.000000
1024.084839 6226.000000
1025.965454 5215.000000
1027.844971 5859.000000
1029.723511 6067.000000
1031.600708 5422.000000
1033.476563 6245.000000
1035.351440 5907.000000
1037.225342 6626.000000
1039.097778 7006.000000
1040.969238 6712.000000
1042.839355 5558.000000
1044.708496 5531.000000
1046.576416 5785.000000
1048.443237 7140.000000
1050.308960 6736.000000
1052.173462 6496.000000
1054.036865 6458.000000
1055.898926 6474.000000
1057.760010 5953.000000
1059.619995 6501.000000
1061.478638 6712.000000
1063.336182 5797.000000
1065.192627 6761.000000
1067.047974 5918.000000
1068.902100 5767.000000
1070.755371 6296.000000
1072.607178 6334.000000
1074.458008 6127.000000
1076.307617 6196.000000
1078.156006 5755.000000
1080.003540 7997.000000
1081.849731 5624.000000
1083.694702 6242.000000
1085.538818 5496.000000
1087.381592 5603.000000
1089.223145 6571.000000
1091.063965 5444.000000
1092.903198 5833.000000
1094.741699 6180.000000
1096.578857 5987.000000
1098.414795 6810.000000
1100.249756 6653.000000
1102.083496 5434.000000
1103.916260 5708.000000
1105.747681 6139.000000
1107.578247 7241.000000
1109.407471 6586.000000
1111.235718 6405.000000
1113.062744 7120.000000
1114.888794 5450.000000
1116.713623 6358.000000
1118.537354 7205.000000
1120.359863 6066.000000
1122.181274 5889.000000
1124.001831 5985.000000
1125.820923 6628.000000
1127.639160 7042.000000
1129.456055 7012.000000
1131.272095 6699.000000
1133.086914 6522.000000
1134.900635 5632.000000
1136.713257 5860.000000
1138.524658 5568.000000
1140.335083 6143.000000
1142.144409 6800.000000
1143.952393 7045.000000
1145.759644 5981.000000
1147.565430 5981.000000
1149.370361 5462.000000
1151.174194 5437.000000
1152.976807 6075.000000
1154.778564 6107.000000
1156.578857 6047.000000
1158.378174 6116.000000
1160.176514 5898.000000
1161.973511 5506.000000
1163.769775 5934.000000
1165.564697 6075.000000
1167.358521 6448.000000
1169.151489 7708.000000
1170.943115 5576.000000
1172.733765 6497.000000
1174.523438 5987.000000
1176.311646 5884.000000
1178.098999 7520.000000
1179.885254 6968.000000
1181.670410 5759.000000
1183.454468 5983.000000
1185.237427 7696.000000
1187.019409 5912.000000
1188.800171 5993.000000
1190.579956 6354.000000
1192.358643 6930.000000
1194.136353 6704.000000
1195.912842 7160.000000
1197.688232 6550.000000
1199.462524 6564.000000
1201.235718 6684.000000
1203.008057 6621.000000
1204.779053 6765.000000
1206.549194 5773.000000
1208.318115 6088.000000
1210.085938 6361.000000
1211.852905 5794.000000
1213.618530 5859.000000
1215.383179 7034.000000
1217.146729 6556.000000
1218.909180 5887.000000
1220.670776 6773.000000
1222.431152 5919.000000
1224.190430 6388.000000
1225.948853 6101.000000
1227.706055 7259.000000
1229.462158 6487.000000
1231.217163 5562.000000
1232.971313 6005.000000
1234.724121 5806.000000
1236.475952 6043.000000
1238.226929 5978.000000
1239.976563 4985.000000
1241.725342 7006.000000
1243.472778 6509.000000
1245.219482 6714.000000
1246.964966 6484.000000
1248.709595 6407.000000
1250.452881 6816.000000
1252.195190 6627.000000
1253.936401 5429.000000
1255.676758 5149.000000
1257.416016 5823.000000
1259.154053 6600.000000
1260.891235 7114.000000
1262.627197 6199.000000
1264.362183 6454.000000
1266.096191 7362.000000
1267.829224 5988.000000
1269.561035 6196.000000
1271.291870 6470.000000
1273.021484 7280.000000
1274.750244 5941.000000
1276.477905 5708.000000
1278.204468 5573.000000
1279.930176 5557.000000
1281.654541 6485.000000
1283.378052 5211.000000
1285.100586 6896.000000
1286.822144 6679.000000
1288.542480 6446.000000
1290.261841 6735.000000
1291.980103 7311.000000
1293.697388 6509.000000
1295.413696 5763.000000
1297.128784 6417.000000
1298.842896 6155.000000
1300.556030 5771.000000
1302.268311 6430.000000
1303.979370 8334.000000
1305.689453 5303.000000
1307.398438 6595.000000
1309.106201 6719.000000
1310.813354 7008.000000
1312.519043 5820.000000
1314.223999 6898.000000
1315.927979 6167.000000
1317.630737 5938.000000
1319.332520 6601.000000
1321.033447 6149.000000
1322.733032 10136.000000
1324.431763 7866.500000
1326.129761 5597.000000
1327.826416 6527.000000
1329.521973 7119.000000
1331.216675 6880.000000
1332.910156 5803.000000
1334.602783 5459.000000
1336.294556 7458.000000
1337.984985 6315.000000
1339.674683 6621.000000
1341.363281 6174.000000
1343.050781 7655.000000
1344.737305 5668.000000
1346.422729 6843.000000
1348.107178 6011.000000
1349.790771 7272.000000
1351.473145 6379.000000
1353.154541 5960.000000
1354.835083 6591.000000
1356.514404 6746.000000
1358.193115 5928.000000
1359.870483 6638.000000
1361.546753 5796.000000
1363.222046 5578.000000
1364.896606 6629.000000
1366.569946 6496.000000
1368.242310 6820.000000
1369.913696 5185.000000
1371.584106 6888.000000
1373.253418 6203.000000
1374.921753 5705.000000
1376.589233 5992.000000
1378.255615 6482.000000
1379.921021 6169.000000
1381.585449 5866.000000
1383.248657 5995.000000
1384.911255 5757.000000
1386.572510 6437.000000
1388.232910 6579.000000
1389.892212 6469.000000
1391.550537 6510.000000
1393.208130 6847.000000
1394.864502 6506.000000
1396.520020 7010.000000
1398.174316 6394.000000
1399.827759 5897.000000
1401.480103 6103.000000
1403.131714 6445.000000
1404.782104 7196.000000
1406.431396 6293.000000
1408.079956 7574.000000
1409.727417 7883.000000
1411.373901 6299.000000
1413.019531 6257.000000
1414.664185 6011.000000
1416.307617 7025.000000
1417.950195 7162.000000
1419.591675 6910.000000
1421.232300 6491.000000
1422.871948 6547.000000
1424.510498 6038.000000
1426.148193 6653.000000
1427.784790 6389.000000
1429.420410 6074.000000
1431.055298 6407.000000
1432.689087 5880.000000
1434.321777 6170.000000
1435.953491 5714.000000
1437.584351 6157.000000
1439.214111 6103.000000
1440.842773 7920.000000
1442.470825 6009.000000
1444.097778 6513.000000
1445.723511 6163.000000
1447.348633 6207.000000
1448.972656 6520.000000
1450.595703 6059.000000
1452.217773 6067.000000
1453.838745 7318.000000
1455.458740 6251.000000
1457.078003 6945.000000
1458.695923 13087.500000
1460.313232 19230.000000
1461.929565 5609.000000
1463.544678 7259.000000
1465.158936 6363.000000
1466.772339 5223.000000
1468.384644 5625.000000
1469.996094 6282.000000
1471.606689 6403.000000
1473.216064 5966.000000
1474.824463 6011.000000
1476.432007 6202.000000
1478.038574 6716.000000
1479.644409 5319.000000
1481.249023 6273.000000
1482.852783 5554.000000
1484.455322 6789.000000
1486.057251 5521.000000
1487.657959 5498.000000
1489.257935 5690.000000
1490.856812 6261.000000
1492.454834 6478.000000
1494.051758 6683.000000
1495.647827 6361.000000
1497.242920 6008.000000
1498.837036 5511.000000
1500.430420 6532.000000
1502.022705 5546.000000
1503.613770 6231.000000
1505.204346 6784.000000
1506.793579 6486.000000
1508.382202 6057.000000
1509.969727 6557.000000
1511.556152 6906.000000
1513.141846 6260.000000
1514.726440 6633.000000
1516.310181 6435.000000
1517.892822 6087.000000
1519.474731 6545.000000
1521.055542 6701.000000
1522.635620 6002.000000
1524.214478 6215.000000
1525.792480 6387.000000
1527.369751 6327.000000
1528.945801 5674.000000
1530.521118 5957.000000
1532.095337 6242.000000
1533.668823 5518.000000
1535.241089 5971.000000
1536.812622 6349.000000
1538.383179 6462.000000
1539.952881 6336.000000
1541.521362 5528.000000
1543.089111 6534.000000
1544.656006 5599.000000
1546.221680 6873.000000
1547.786621 6000.000000
1549.350464 5117.000000
1550.913696 7504.000000
1552.475586 6335.000000
1554.036865 6007.000000
1555.597046 5796.000000
1557.156494 5779.000000
1558.714844 6065.000000
1560.272461 6322.000000
1561.828979 7094.000000
1563.384277 5905.000000
1564.938965 6486.000000
1566.492920 5698.000000
1568.045898 6280.000000
1569.597534 5684.000000
1571.148438 5883.000000
1572.698608 6229.000000
1574.247803 6420.000000
1575.795654 5801.000000
1577.343018 5572.000000
1578.889404 5699.000000
1580.434937 5070.000000
1581.979492 6717.000000
1583.522827 6395.000000
1585.065552 6644.000000
1586.607422 6494.000000
1588.148193 6713.000000
1589.687988 5819.000000
1591.227051 6690.000000
1592.765015 5913.000000
1594.302490 6136.000000
1595.838623 5946.000000
1597.373657 6703.000000
1598.908203 6345.000000
1600.441772 6055.000000
1601.974487 6185.000000
1603.505615 6324.000000
1605.036499 6278.000000
1606.566528 5742.000000
1608.095337 6107.000000
1609.623047 6230.000000
1611.150146 6076.000000
1612.676514 5888.000000
1614.201904 6232.000000
1615.726440 5823.000000
1617.249634 5884.000000
1618.772095 5649.000000
1620.293823 6597.000000
1621.814697 6952.000000
1623.334106 15646.000000
1624.853027 6220.000000
1626.371216 6070.000000
1627.888550 5826.000000
1629.404785 6437.000000
1630.919678 7068.000000
1632.434082 6905.000000
1633.947754 5776.000000
1635.460327 6884.000000
1636.971680 6011.000000
1638.482666 6444.000000
1639.992554 6258.000000
1641.501587 6236.000000
1643.009277 5629.000000
1644.516602 6075.000000
1646.023071 7168.000000
1647.528564 6244.000000
1649.033203 6860.000000
1650.536377 6187.000000
1652.038940 6623.000000
1653.541138 6336.000000
1655.041992 6664.000000
1656.541748 7633.000000
1658.040649 6158.000000
1659.539185 6527.000000
1661.036499 6280.000000
1662.533081 5953.000000
1664.028076 6498.000000
1665.522827 6417.000000
1667.016724 5275.000000
1668.509644 5785.000000
1670.001221 21231.000000
1671.492310 6456.000000
1672.982788 6130.000000
1674.472168 6015.000000
1675.960083 6979.000000
1677.447754 6931.000000
1678.934448 6100.000000
1680.420288 5433.000000
1681.905273 6047.000000
1683.388794 6179.000000
1684.872070 6270.000000
1686.354492 5960.000000
1687.835815 6231.000000
1689.315674 6242.000000
1690.795288 5555.000000
1692.274170 6588.000000
1693.752075 5980.000000
1695.229004 6170.000000
1696.704712 5752.000000
1698.180054 6087.000000
1699.654175 6360.000000
1701.127686 5465.000000
1702.599731 5601.000000
1704.071533 6900.000000
1705.542358 6431.000000
1707.012329 7069.000000
1708.480957 5199.000000
1709.949097 5822.000000
1711.416504 6417.000000
1712.882813 5575.000000
1714.348511 5814.000000
1715.812500 6214.000000
1717.276367 5985.000000
1718.739380 6974.000000
1720.201416 6422.000000
1721.662231 6680.000000
1723.122437 5561.000000
1724.581909 6406.000000
1726.040527 6289.000000
1727.498169 6065.000000
1728.954468 6241.000000
1730.410522 6118.000000
1731.865601 6472.000000
1733.319702 6026.000000
1734.772583 6954.000000
1736.225220 6035.000000
1737.676758 6924.000000
1739.127563 6004.000000
1740.577393 6620.000000
1742.025879 5976.000000
1743.473999 7522.000000
1744.921265 6644.000000
1746.367798 6649.000000
1747.812744 6732.000000
1749.257446 6144.000000
1750.701294 5844.000000
1752.144287 5453.000000
1753.585815 6566.000000
1755.027100 6409.000000
1756.467529 19664.000000
1757.906982 6233.000000
1759.345459 5275.000000
1760.782959 6141.000000
1762.219971 7603.000000
1763.656006 5917.000000
1765.091187 7151.000000
1766.524902 6182.000000
1767.958496 6510.000000
1769.391113 6706.000000
1770.822876 5775.000000
1772.253784 5902.000000
1773.683472 6445.000000
1775.112427 6200.000000
1776.540894 6301.000000
1777.968384 6730.000000
1779.394531 6305.000000
1780.820435 5642.000000
1782.245239 6944.000000
1783.669434 5598.000000
1785.092163 6697.000000
1786.514404 6583.000000
1787.935913 6888.000000
1789.356689 5880.000000
1790.776489 6109.000000
1792.194946 6251.000000
1793.612915 6942.000000
1795.030273 5509.000000
1796.446777 6089.000000
1797.861816 6554.000000
1799.276489 5951.000000
1800.690552 6681.000000
1802.103394 6027.000000
1803.515625 7066.000000
1804.926514 7236.000000
1806.336914 7871.000000
1807.746582 6491.000000
1809.155273 5910.000000
1810.562866 5404.000000
1811.969971 6501.000000
1813.376221 6359.000000
1814.781494 6742.000000
1816.185669 6000.000000
1817.589478 6020.000000
1818.992310 6219.000000
1820.394287 6046.000000
1821.795654 5928.000000
1823.195557 6396.000000
1824.594849 6513.000000
1825.993652 6562.000000
1827.391602 7420.000000
1828.788208 5804.000000
1830.184204 6776.000000
1831.579468 5986.000000
1832.974121 8165.000000
1834.367798 6080.000000
1835.760132 6828.000000
1837.151978 6425.000000
1838.543213 5889.000000
1839.933472 7099.000000
1841.322510 6089.000000
1842.711182 6109.000000
1844.098877 6046.000000
1845.485840 5842.000000
1846.871460 6931.000000
1848.256836 5922.000000
1849.641357 6407.000000
1851.025146 6372.000000
1852.407837 6385.000000
1853.789307 5375.000000
1855.170288 6553.000000
1856.550781 6338.000000
1857.930298 5744.000000
1859.308350 6071.000000
1860.686279 6171.000000
1862.063232 7899.000000
1863.439453 6184.000000
1864.814819 6072.000000
1866.188721 5682.000000
1867.562500 5746.000000
1868.935425 6251.000000
1870.307251 5949.000000
1871.678101 6964.000000
1873.048584 5417.000000
1874.417969 6089.000000
1875.786865 6194.000000
1877.154175 7251.000000
1878.521362 6072.000000
1879.887573 6043.000000
1881.253052 6859.000000
1882.617798 7529.000000
1883.980957 6771.000000
1885.343994 7036.000000
1886.706177 6355.000000
1888.067505 6439.000000
1889.427490 5682.000000
1890.787109 5818.000000
1892.146118 6128.000000
1893.504150 6702.000000
1894.861328 7342.000000
1896.217285 5976.000000
1897.572998 7649.000000
1898.927734 5857.000000
1900.281616 5637.000000
1901.634399 6008.000000
1902.986694 5969.000000
1904.338257 5995.000000
1905.688965 6911.000000
1907.038452 6567.000000
1908.387451 6677.000000
1909.735596 5822.000000
1911.083130 6255.000000
1912.429932 6302.000000
1913.775146 6874.000000
1915.120117 6099.000000
1916.464355 5472.000000
1917.807739 6542.000000
1919.149780 6036.000000
1920.491577 6696.000000
1921.832520 6966.000000
1923.172729 6205.000000
1924.511963 6385.000000
1925.850220 6369.000000
1927.187866 6504.000000
1928.524780 7116.000000
1929.860840 6774.000000
1931.195679 5586.000000
1932.530151 6790.000000
1933.863892 7292.000000
1935.196777 6289.000000
1936.528198 5832.000000
1937.859741 6408.000000
1939.189941 6709.000000
1940.519653 5808.000000
1941.848511 6098.000000
1943.176147 5836.000000
1944.503296 5040.000000
1945.829712 5871.000000
1947.155396 6545.000000
1948.479736 5852.000000
1949.803833 6660.000000
1951.127075 6388.000000
1952.449585 6411.000000
1953.770996 5795.000000
1955.091431 7433.000000
1956.411255 6093.000000
1957.730713 5541.000000
1959.049194 6903.000000
1960.366333 5950.000000
1961.683105 5910.000000
1962.999146 6586.000000
1964.314453 6599.000000
1965.628296 6311.000000
1966.941895 5737.000000
1968.254761 6261.000000
1969.566772 6064.000000
1970.878174 6070.000000
1972.188232 6275.000000
1973.497803 5911.000000
1974.806641 6211.000000
1976.114868 6604.000000
1977.421753 6128.000000
1978.728027 7311.000000
1980.033936 5578.000000
1981.338623 6511.000000
1982.642822 5940.000000
1983.945801 5805.000000
1985.248413 7663.000000
1986.550049 6120.000000
1987.851074 6855.000000
1989.150513 6009.000000
1990.450073 6678.000000
1991.748535 5363.000000
1993.046509 6152.000000
1994.342896 6171.000000
1995.639282 5818.000000
1996.934692 5632.000000
1998.229370 6583.000000
1999.523193 5684.000000
2000.815796 6570.000000
2002.107910 5780.000000
2003.399536 7193.000000
2004.690430 6454.000000
2005.979736 6276.000000
2007.268799 6853.000000
2008.557129 5945.000000
2009.844727 6087.000000
2011.131470 6641.000000
2012.417114 5756.000000
2013.702393 6379.000000
2014.986694 6026.000000
2016.270386 5630.000000
2017.552734 6119.000000
2018.834717 6525.000000
2020.116211 6798.000000
2021.396729 5913.000000
2022.676514 6128.000000
2023.955200 6794.000000
2025.233154 5870.000000
2026.510620 5972.000000
2027.787476 6275.000000
2029.062622 5881.000000
2030.337891 6620.000000
2031.612183 6240.000000
2032.885498 5988.000000
2034.157959 5963.000000
2035.430054 6186.000000
2036.701050 7029.000000
2037.971802 6572.000000
2039.241211 6004.000000
2040.509521 6827.000000
2041.777832 6584.000000
2043.045166 5990.000000
2044.311768 6016.000000
2045.577148 5616.000000
2046.841919 5963.000000
2048.106445 5457.000000
2049.369629 5896.000000
2050.632568 6421.000000
2051.893555 6140.000000
2053.155029 6134.000000
2054.415283 5910.000000
2055.674805 6733.000000
2056.933594 6331.000000
2058.191406 6877.000000
2059.448730 5949.000000
2060.705322 6065.000000
2061.960449 6562.000000
2063.215576 5730.000000
2064.469727 5614.000000
2065.723145 5626.000000
2066.975830 6843.000000
2068.227295 6284.000000
2069.478516 6401.000000
2070.729004 5600.000000
2071.978760 5440.000000
2073.227051 6198.000000
2074.475342 6553.000000
2075.722656 7439.000000
2076.969238 5625.000000
2078.215088 6085.000000
2079.459717 7089.000000
2080.703857 7698.000000
2081.947510 5551.000000
2083.190186 6034.000000
2084.431641 7003.000000
2085.672852 5946.000000
2086.913574 6332.000000
2088.153320 6783.000000
2089.391846 7120.000000
2090.629883 6278.000000
2091.867188 5817.000000
2093.104248 6669.000000
2094.339844 6155.000000
2095.574707 6276.000000
2096.809326 6072.000000
2098.042969 5659.000000
2099.275635 6147.000000
2100.507568 6994.000000
2101.739014 6432.000000
2102.969482 6800.000000
2104.199219 6051.000000
2105.428711 6058.000000
2106.656250 6040.000000
2107.884033 6061.000000
2109.111084 6448.000000
2110.337158 5510.000000
2111.561768 6380.000000
2112.786621 6944.000000
2114.010254 7079.000000
2115.233398 6272.000000
2116.455322 7577.000000
2117.677002 6028.000000
2118.897705 6848.000000
2120.117676 6082.000000
2121.337158 6173.000000
2122.555176 6582.000000
2123.773193 7076.000000
2124.990234 5721.000000
2126.206787 5877.000000
2127.421631 6583.000000
2128.636719 6369.000000
2129.850830 6917.000000
2131.064209 5734.000000
2132.276855 6142.000000
2133.488037 5806.000000
2134.699463 6514.000000
2135.909668 6607.000000
2137.119385 6001.000000
2138.327637 6172.000000
2139.535889 5700.000000
2140.743408 5888.000000
2141.949707 7715.000000
2143.155273 5923.000000
2144.360596 5700.000000
2145.564941 5536.000000
2146.768555 6289.000000
2147.971680 6239.000000
2149.173340 6415.000000
2150.374756 5332.000000
2151.575439 6297.000000
2152.775391 6086.000000
2153.974121 5999.000000
2155.172607 6915.000000
2156.370605 6176.000000
2157.567627 5999.000000
2158.763916 5201.000000
2159.958984 5350.000000
2161.153809 6182.000000
2162.347900 5588.000000
2163.541016 6159.000000
2164.733154 7007.000000
2165.925049 5896.000000
2167.116211 6333.000000
2168.306396 6320.000000
2169.495850 6523.000000
2170.684814 6866.000000
2171.872803 6072.000000
2173.060547 5771.000000
2174.246826 6005.000000
2175.432373 6571.000000
2176.617676 6049.000000
2177.802490 5837.000000
2178.986084 6375.000000
2180.168945 7510.000000
2181.350830 6359.000000
2182.532471 5926.000000
2183.713623 6618.000000
2184.893555 5687.000000
2186.072510 5613.000000
2187.250977 6382.000000
2188.429199 6885.000000
2189.606201 7236.000000
2190.782227 6759.000000
2191.958008 6094.000000
2193.133301 5608.000000
2194.307129 6739.000000
2195.480469 6189.000000
2196.653564 6218.000000
2197.825439 6600.000000
2198.996826 7137.000000
2200.167725 6311.000000
2201.336914 6879.000000
2202.506104 7629.000000
2203.674805 6293.000000
2204.842529 5911.000000
2206.009277 5695.000000
2207.175293 7203.000000
2208.340820 6735.000000
2209.506104 6026.000000
2210.669922 6743.000000
2211.833252 5546.000000
2212.995361 6207.000000
2214.157715 6191.000000
2215.318848 6664.000000
2216.479004 6678.000000
2217.638672 6305.000000
2218.798096 6619.000000
2219.956299 6438.000000
2221.113525 6344.000000
2222.270508 6784.000000
2223.426758 6566.000000
2224.582275 6798.000000
2225.737061 6313.000000
2226.890869 6481.000000
2228.043701 6176.000000
2229.197021 6925.000000
2230.348389 6285.000000
2231.499512 6194.000000
2232.649902 6619.000000
2233.799805 7737.000000
2234.948730 6450.000000
2236.097168 5251.000000
2237.244141 6837.000000
2238.391357 7087.000000
2239.537354 6099.000000
2240.683105 7308.000000
2241.827148 7379.000000
2242.971436 6727.000000
2244.114746 6159.000000
2245.257324 6030.000000
2246.398926 5793.000000
2247.540283 5807.000000
2248.680664 6419.000000
2249.820313 6502.000000
2250.959473 5828.000000
2252.097412 5830.000000
2253.235352 6215.000000
2254.372314 5326.000000
2255.508545 6388.000000
2256.643799 6092.000000
2257.778320 7348.000000
2258.912598 6426.000000
2260.046387 5405.000000
2261.178711 6192.000000
2262.310547 6828.000000
2263.441895 6296.000000
2264.572266 6540.000000
2265.702393 8150.000000
2266.831299 6632.000000
2267.959717 6116.000000
2269.087646 5573.000000
2270.214600 6160.000000
2271.340820 5984.000000
2272.466064 6749.000000
2273.591309 6553.000000
2274.715820 6454.000000
2275.839111 6001.000000
2276.961670 6309.000000
2278.083740 6191.000000
2279.205322 7406.000000
2280.326172 6444.000000
2281.445801 6375.000000
2282.564941 7155.000000
2283.683838 7679.000000
2284.802002 7272.000000
2285.919189 5920.000000
2287.035400 6486.000000
2288.151367 7034.000000
2289.266602 6907.000000
2290.381104 7477.000000
2291.494385 5841.000000
2292.607666 6392.000000
2293.720215 6108.000000
2294.832031 5358.000000
2295.943115 6799.000000
2297.052979 6498.000000
2298.162354 6185.000000
2299.271484 6736.000000
2300.379639 6348.000000
2301.486816 6823.000000
2302.593750 5917.000000
2303.699951 6394.000000
2304.805664 6573.000000
2305.909912 6673.000000
2307.013916 5503.000000
2308.117432 5762.000000
2309.220459 6605.000000
2310.322266 7423.000000
2311.423340 7390.000000
2312.523926 6598.000000
2313.624023 5572.000000
2314.723389 6403.000000
2315.821289 6643.000000
2316.919678 7056.000000
2318.016602 8249.000000
2319.113281 6917.000000
2320.209473 5823.000000
2321.303955 6862.000000
2322.398438 7644.000000
2323.492188 5839.000000
2324.585693 6091.000000
2325.677490 6494.000000
2326.769287 7128.000000
2327.860352 6108.000000
2328.950684 6294.000000
2330.040039 7050.000000
2331.129395 6013.000000
2332.217529 6368.000000
2333.305176 7084.000000
2334.392578 6565.000000
2335.478271 6741.000000
2336.563721 7742.000000
2337.648926 6301.000000
2338.733154 6752.000000
2339.816406 5931.000000
2340.899414 6454.000000
2341.981445 7112.000000
2343.063232 6087.000000
2344.144287 7457.000000
2345.224121 6650.000000
2346.303467 5729.000000
2347.382324 6785.000000
2348.460693 6619.000000
2349.537598 6362.000000
2350.614258 6997.000000
2351.690674 6091.000000
2352.766113 6443.000000
2353.840576 5970.000000
2354.914795 6316.000000
2355.988281 6838.000000
2357.061279 6271.000000
2358.133057 7074.000000
2359.204590 6333.000000
2360.275146 6796.000000
2361.345459 7560.000000
2362.414795 7591.000000
2363.483154 6853.000000
2364.551270 6702.000000
2365.618652 7148.000000
2366.685547 7145.000000
2367.751709 6087.000000
2368.816650 6951.000000
2369.881592 7037.000000
2370.945801 6309.000000
2372.009277 6918.000000
2373.071533 5747.000000
2374.133789 6323.000000
2375.195068 6450.000000
2376.256104 5970.000000
2377.315918 6261.000000
2378.375000 7950.000000
2379.434082 6534.000000
2380.492188 7664.000000
2381.549561 6977.000000
2382.605957 8059.000000
2383.662109 7816.000000
2384.717773 6248.000000
2385.772705 7101.000000
2386.826172 6771.000000
2387.879883 6583.000000
2388.932617 6337.000000
2389.984863 6625.000000
2391.036377 6182.000000
2392.086914 6634.000000
2393.137207 6487.000000
2394.186523 6326.000000
2395.235840 6198.000000
2396.283691 6973.000000
2397.331055 7016.000000
2398.378174 6415.000000
2399.424316 6717.000000
2400.469727 6220.000000
2401.514404 6742.000000
2402.559082 7740.000000
2403.602295 7438.000000
2404.645508 6599.000000
2405.687256 5901.000000
2406.729248 6741.000000
2407.770508 7097.000000
2408.810791 6193.000000
2409.850342 6458.000000
2410.888916 6354.000000
2411.927734 6003.000000
2412.965332 6570.000000
2414.002686 6902.000000
2415.038818 7397.000000
2416.074707 6272.000000
2417.109863 6243.000000
2418.144531 6620.000000
2419.177734 7148.000000
2420.211182 6522.000000
2421.243652 6737.000000
2422.275879 6810.000000
2423.306641 7145.000000
2424.337402 6397.000000
2425.367676 6900.000000
2426.396729 6870.000000
2427.425781 6668.000000
2428.453125 7443.000000
2429.480957 6703.000000
2430.507568 7316.000000
2431.533936 6953.000000
2432.558838 7753.000000
2433.583984 6558.000000
2434.608154 7095.000000
2435.632080 6740.000000
2436.654785 5799.000000
2437.676758 6359.000000
2438.698486 6697.000000
2439.719482 6638.000000
2440.739990 5997.000000
2441.759277 6582.000000
2442.778564 6602.000000
2443.796875 8490.000000
2444.814941 6297.000000
2445.831543 6427.000000
2446.848145 6532.000000
2447.864014 6016.000000
2448.879883 7141.000000
2449.894287 6854.000000
2450.907959 5615.000000
2451.921143 7284.000000
2452.934082 6025.000000
2453.946289 7231.000000
2454.957520 6768.000000
2455.968506 7734.000000
2456.978760 6413.000000
2457.988525 7662.000000
2458.997314 5883.000000
2460.005371 5985.000000
2461.013428 6397.000000
2462.020264 7391.000000
2463.026855 5429.000000
2464.032227 7439.000000
2465.037354 6962.000000
2466.042236 5939.000000
2467.045898 6578.000000
2468.049316 6383.000000
2469.051758 7690.000000
2470.053955 7296.000000
2471.055664 6883.000000
2472.056396 6561.000000
2473.056152 7011.000000
2474.055908 6777.000000
2475.054688 5680.000000
2476.052979 6599.000000
2477.050293 7146.000000
2478.047363 6142.000000
2479.044434 7007.000000
2480.040039 5877.000000
2481.035645 7127.000000
2482.029541 6701.000000
2483.023438 8112.000000
2484.016846 6859.000000
2485.009766 6727.000000
2486.001709 7542.000000
2486.992920 7283.000000
2487.983887 6717.000000
2488.974365 5926.000000
2489.963867 6586.000000
2490.952637 6517.000000
2491.941406 5683.000000
2492.929199 6766.000000
2493.915771 6560.000000
2494.902344 7800.000000
2495.888428 6754.000000
2496.873779 7166.000000
2497.858154 8272.000000
2498.842285 6040.000000
2499.826416 6941.000000
2500.809082 5820.000000
2501.791260 7073.000000
2502.772949 6848.000000
2503.753906 7292.000000
2504.734375 6527.000000
2505.714600 5720.000000
2506.693359 6342.000000
2507.671875 7580.000000
2508.649902 6812.000000
2509.627441 7114.000000
2510.604004 6133.000000
2511.580322 5972.000000
2512.555908 6372.000000
2513.531006 6228.000000
2514.505615 6545.000000
2515.479004 7634.000000
2516.452148 6824.000000
2517.425049 6924.000000
2518.396973 6189.000000
2519.368164 6807.000000
2520.338867 6913.000000
2521.309326 7812.000000
2522.279053 8124.000000
2523.247803 6142.000000
2524.215820 6194.000000
2525.183838 7711.000000
2526.150879 6320.000000
2527.117676 5565.000000
2528.083252 7216.000000
2529.048828 7032.000000
2530.013672 7774.000000
2530.978027 6361.000000
2531.941162 6375.000000
2532.904541 5913.000000
2533.866943 5968.000000
2534.829102 6725.000000
2535.790039 6354.000000
2536.750244 6139.000000
2537.710693 6162.000000
2538.670166 6720.000000
2539.628906 6886.000000
2540.586670 6741.000000
2541.544678 6207.000000
2542.501953 6776.000000
2543.458252 6081.000000
2544.414307 7113.000000
2545.369141 6267.000000
2546.324219 7822.000000
2547.278564 7144.000000
2548.232178 6686.000000
2549.184814 7178.000000
2550.137207 6783.000000
2551.089111 7064.000000
2552.040283 6421.000000
2552.990723 7772.000000
2553.940674 7061.000000
2554.890381 7439.000000
2555.839355 6644.000000
2556.787842 6287.000000
2557.735107 7116.000000
2558.682373 6242.000000
2559.628906 6602.000000
2560.574951 6776.000000
2561.520020 7459.000000
2562.464844 6725.000000
2563.409180 7181.000000
2564.353027 6853.000000
2565.296387 6665.000000
2566.238281 6578.000000
2567.180420 6615.000000
2568.121826 6183.000000
2569.062500 7190.000000
2570.002441 7274.000000
2570.942383 5668.000000
2571.881348 6147.000000
2572.820068 7555.000000
2573.757813 7224.000000
2574.695313 5492.000000
2575.632080 6997.000000
2576.568115 6807.000000
2577.503662 7526.000000
2578.438477 6389.000000
2579.373291 6000.000000
2580.307129 7106.000000
2581.240479 7122.000000
2582.173096 5965.000000
2583.105469 6867.000000
2584.037109 5425.000000
2584.968262 7065.000000
2585.898926 7033.000000
2586.828369 6931.000000
2587.757813 7275.000000
2588.686768 6543.000000
2589.615479 7658.000000
2590.542480 7411.000000
2591.469727 5943.000000
2592.396484 6839.000000
2593.322510 6286.000000
2594.248291 5672.000000
2595.172852 7715.000000
2596.097168 7658.000000
2597.020996 5351.000000
2597.944336 7368.000000
2598.866699 6264.000000
2599.788818 6867.000000
2600.710449 8361.000000
2601.631348 6506.000000
2602.551514 5988.000000
2603.471436 6424.000000
2604.390869 6367.000000
2605.310059 6458.000000
2606.228271 5824.000000
2607.145264 6041.000000
2608.062500 7336.000000
2608.979492 5918.000000
2609.895508 7581.000000
2610.810303 6648.000000
2611.725586 6602.000000
2612.640137 6616.000000
2613.553711 6560.000000
2614.467285 6450.000000
2615.379639 7684.000000
2616.291992 7085.000000
2617.203369 6797.000000
2618.114502 5784.000000
2619.024902 7192.000000
2619.935059 6685.000000
2620.844482 6151.000000
2621.753418 6771.000000
2622.661377 6273.000000
2623.569580 6905.000000
2624.476807 6690.000000
2625.383545 7054.000000
2626.289551 5990.000000
2627.195313 6678.000000
2628.100342 6495.000000
2629.005127 7849.000000
2629.909180 6532.000000
2630.812256 6404.000000
2631.715332 6416.000000
2632.617432 5638.000000
2633.519531 6791.000000
2634.421387 7021.000000
2635.321533 6817.000000
2636.221924 6440.000000
2637.121582 6396.000000
2638.020996 6002.000000
2638.918945 6914.000000
2639.817383 6814.000000
2640.715332 6341.000000
2641.612549 6109.000000
2642.508545 6184.000000
2643.404541 6917.000000
2644.300293 6077.000000
2645.195313 6486.000000
2646.090088 6663.000000
2646.983398 7260.000000
2647.876709 6359.000000
2648.769775 6766.000000
2649.662598 6433.000000
2650.553711 7495.000000
2651.445068 6384.000000
2652.335938 7678.000000
2653.226074 7360.000000
2654.115967 6599.000000
2655.004639 7235.000000
2655.893555 6644.000000
2656.781982 6589.000000
2657.669434 7413.000000
2658.555908 6507.000000
2659.442871 7126.000000
2660.329102 6876.000000
2661.214844 6838.000000
2662.099365 6515.000000
2662.983887 6406.000000
2663.868164 6176.000000
2664.751709 7236.000000
2665.634766 7864.000000
2666.517090 7330.000000
2667.398926 6213.000000
2668.280029 6612.000000
2669.161377 6077.000000
2670.041260 6577.000000
2670.921387 7421.000000
2671.800781 7271.000000
2672.680176 6401.000000
2673.558838 6174.000000
2674.435791 6458.000000
2675.313477 6770.000000
2676.190430 6414.000000
2677.066650 8110.000000
2677.942383 7229.000000
2678.817383 6312.000000
2679.692627 7696.000000
2680.566895 6949.000000
2681.440674 7297.000000
2682.313721 7035.000000
2683.186523 6200.000000
2684.059082 6133.000000
2684.930908 7046.000000
2685.802002 6487.000000
2686.672852 6926.000000
2687.543213 7177.000000
2688.413330 6758.000000
2689.281738 6300.000000
2690.150879 7378.000000
2691.019287 7124.000000
2691.887451 6722.000000
2692.754883 6976.000000
2693.621094 5804.000000
2694.487793 7168.000000
2695.353516 7449.000000
2696.219238 7189.000000
2697.083496 7929.000000
2697.948486 6640.000000
2698.812012 7244.000000
2699.675781 5891.000000
2700.538086 7431.000000
2701.400879 6819.000000
2702.262695 5989.000000
2703.124023 6917.000000
2703.985352 6787.000000
2704.845459 7482.000000
2705.705566 7335.000000
2706.565186 6614.000000
2707.424561 6874.000000
2708.282227 7246.000000
2709.140137 6904.000000
2709.998535 7343.000000
2710.855713 6737.000000
2711.712158 6017.000000
2712.568115 6844.000000
2713.424072 6112.000000
2714.279297 6934.000000
2715.133789 6159.000000
2715.987793 6823.000000
2716.841797 7380.000000
2717.694824 6265.000000
2718.548096 6613.000000
2719.399658 7747.000000
2720.251709 6754.000000
2721.103516 6305.000000
2721.954102 6499.000000
2722.804688 6458.000000
2723.654785 7139.000000
2724.504150 7009.000000
2725.353516 7006.000000
2726.201660 6698.000000
2727.049316 6585.000000
2727.897461 7051.000000
2728.744385 6843.000000
2729.591797 5572.000000
2730.437744 7484.000000
2731.282959 6943.000000
2732.128662 6482.000000
2732.973389 7150.000000
2733.818115 7396.000000
2734.661621 6905.000000
2735.505371 7835.000000
2736.348389 7160.000000
2737.190918 6093.000000
2738.032471 6288.000000
2738.874512 6778.000000
2739.715576 7003.000000
2740.556396 5840.000000
2741.396973 5867.000000
2742.236328 7789.000000
2743.075684 6892.000000
2743.915039 6926.000000
2744.753174 6829.000000
2745.590820 7898.000000
2746.428467 6323.000000
2747.265625 7184.000000
2748.102539 6232.000000
2748.938965 5991.000000
2749.774170 6720.000000
2750.609619 6359.000000
2751.444580 6316.000000
2752.278809 6296.000000
2753.112793 6966.000000
2753.946289 6837.000000
2754.779785 8015.000000
2755.612305 6780.000000
2756.444336 7297.000000
2757.275879 6772.000000
2758.107422 7082.000000
2758.937988 7354.000000
2759.768799 7265.000000
2760.598389 7314.000000
2761.427979 6797.000000
2762.257324 7253.000000
2763.085938 6892.000000
2763.914063 6802.000000
2764.741699 6792.000000
2765.569336 6698.000000
2766.396484 7983.000000
2767.222900 5776.000000
2768.048828 7549.000000
2768.874268 6896.000000
2769.699463 7816.000000
2770.524658 7162.000000
2771.348633 6828.000000
2772.172607 6519.000000
2772.996582 7697.000000
2773.819336 6653.000000
2774.642334 7005.000000
2775.464111 6961.000000
2776.285889 6994.000000
2777.107666 6519.000000
2777.928467 8034.000000
2778.748535 6559.000000
2779.568848 7054.000000
2780.388672 7272.000000
2781.208496 6538.000000
2782.026367 5976.000000
2782.845459 8110.000000
2783.663330 6513.000000
2784.480957 6717.000000
2785.298096 7193.000000
2786.114746 7268.000000
2786.931152 7173.000000
2787.747070 6306.000000
2788.562744 5954.000000
2789.377441 6362.000000
2790.192627 7001.000000
2791.007080 7239.000000
2791.821045 6613.000000
2792.634766 7477.000000
2793.447266 8849.000000
2794.260010 6963.000000
2795.072266 7451.000000
2795.884033 7163.000000
2796.695068 7414.000000
2797.506836 6547.000000
2798.317383 7266.000000
2799.127930 7102.000000
2799.937012 7482.000000
2800.746826 8213.000000
2801.555908 7815.000000
2802.364746 6693.000000
2803.173096 7184.000000
2803.980469 6173.000000
2804.788330 6491.000000
2805.595459 6790.000000
2806.402344 7050.000000
2807.208008 7009.000000
2808.014160 6659.000000
2808.819580 6503.000000
2809.625000 7356.000000
2810.429688 6229.000000
2811.233398 7659.000000
2812.037598 7474.000000
2812.841309 6375.000000
2813.644775 6113.000000
2814.446777 6638.000000
2815.249512 7303.000000
2816.051514 7813.000000
2816.853271 6143.000000
2817.654541 6571.000000
2818.455322 7332.000000
2819.255615 6550.000000
2820.056152 6602.000000
2820.855713 8166.000000
2821.654785 7178.000000
2822.453857 6660.000000
2823.252686 6893.000000
2824.051025 6412.000000
2824.848389 7084.000000
2825.645996 7068.000000
2826.442871 6749.000000
2827.239990 7342.000000
2828.036377 8052.000000
2828.832031 7025.000000
2829.627686 7321.000000
2830.423096 7522.000000
2831.218018 7489.000000
2832.012207 6652.000000
2832.806396 6854.000000
2833.600342 5603.000000
2834.393799 6941.000000
2835.186523 7202.000000
2835.979004 8173.000000
2836.771484 7409.000000
2837.563721 7542.000000
2838.355469 6494.000000
2839.146240 6828.000000
2839.937012 8911.000000
2840.728027 7507.000000
2841.518066 6261.000000
2842.307617 7704.000000
2843.097412 7141.000000
2843.886230 7414.000000
2844.675049 7791.000000
2845.463867 7706.000000
2846.251709 7540.000000
2847.039063 7226.000000
2847.826660 7497.000000
2848.613770 7302.000000
2849.400146 6660.000000
2850.186523 7484.000000
2850.972656 7216.000000
2851.758301 7543.000000
2852.542969 7293.000000
2853.328125 6928.000000
2854.113037 7493.000000
2854.897217 7164.000000
2855.681396 6914.000000
2856.464355 8235.000000
2857.247559 6829.000000
2858.030518 6835.000000
2858.812988 7724.000000
2859.595215 6273.000000
2860.376953 6643.000000
2861.158447 7570.000000
2861.940186 7418.000000
2862.721191 7721.000000
2863.501465 6603.000000
2864.281494 6726.000000
2865.061523 8180.000000
2865.841309 7460.000000
2866.620117 8135.000000
2867.399170 7706.000000
2868.177734 6769.000000
2868.956055 6924.000000
2869.733887 7221.000000
2870.511475 6990.000000
2871.288818 7540.000000
2872.065918 6919.000000
2872.842529 6433.000000
2873.618652 7498.000000
2874.394775 7116.000000
2875.170410 8312.000000
2875.945801 7226.000000
2876.720703 6646.000000
2877.495361 8108.000000
2878.270020 6641.000000
2879.044434 7796.000000
2879.818115 6808.000000
2880.591064 7224.000000
2881.364746 6805.000000
2882.137451 7582.000000
2882.910156 7916.000000
2883.682129 8196.000000
2884.453857 6237.000000
2885.226074 6783.000000
2885.997070 6848.000000
2886.767578 6136.000000
2887.538574 8381.000000
2888.309570 7439.000000
2889.079834 7970.000000
2889.849121 7652.000000
2890.618652 6932.000000
2891.388184 7278.000000
2892.157227 7410.000000
2892.925781 7973.000000
2893.694336 7653.000000
2894.461914 6953.000000
2895.229980 6572.000000
2895.997559 7432.000000
2896.765137 8374.000000
2897.531494 7470.000000
2898.298828 6499.000000
2899.064941 7277.000000
2899.831299 6961.000000
2900.596191 8321.000000
2901.361572 6948.000000
2902.127441 6482.000000
2902.891846 7730.000000
2903.656250 7918.000000
2904.420898 8442.000000
2905.184570 6613.000000
2905.948975 8489.000000
2906.712646 6736.000000
2907.475586 8429.000000
2908.238281 6476.000000
2909.001465 8975.000000
2909.764160 7006.000000
2910.525635 6861.000000
2911.287598 6861.000000
