scanname Analyse092
timestamp 2017-02-10 22:20:41
ccdbias 954.286621
ccdgain 3.473401
sigmaread 8.960639
laserwavenum -0.216845
wavenumcorrection 0.306119
scancount 1
totalexposurems 10000
singleexposurems 10000
measurementstate Unknown
scanmode Manual
snr 110.261032 1.482616 1.094612
replacelist 1
671 22749.000000 8747.000000
peaks 10
398.401947 0.272730 0.000000 0.081409 0.000011
522.502075 0.275987 0.000000 0.291222 0.000032
809.657166 0.269643 0.000000 0.363165 0.000100
843.087463 0.266573 0.000000 0.133186 0.000025
878.649048 0.269896 0.000000 0.389742 0.000112
1079.349365 0.245777 0.000000 0.050484 0.000019
1152.762817 0.241550 0.000000 0.173688 0.000049
1315.166382 0.247662 0.000000 9.424148 0.001882
1334.340332 0.248730 0.000000 6.590833 0.000994
1455.029541 0.231178 0.000000 0.121971 0.000107
finalresult GLS_NotPositive 83
A6025	2-Nitrothiophene	8.513505e-003
A9370	1,2-(Methylenedioxy)-4-nitrobenzene	1.558956e-003
A14252	2-Methyl-5-nitrophenol	7.289672e-004
A8797	6-Nitroindoline	6.308086e-004
A3222	Potassium nitrite	5.062761e-004
A5797	5-Nitroindazole	4.315172e-004
A0115	Polypropylene	2.635228e-004
A8248	5-Hydroxy-2-nitrobenzaldehyde	1.860807e-004
A12040	Ethanol w/ sweetener	1.831337e-004
A2782	Acetamide	1.709804e-004
A8461	Ethanol	1.687859e-004
A11101	Hydrogen peroxide, 70%	1.624296e-004
A0113	Hydrogen peroxide	1.600647e-004
A0251	Ethylamine	1.579779e-004
A0273	Denatured Solvent Alcohol	1.492047e-004
A4408	Acetamidine hydrochloride	1.469936e-004
A5353	Dibutyl suberate	1.454155e-004
A3164	Ammonium chromate	1.444825e-004
A0518	Propylene glycol	1.426595e-004
A14069	(R)-(-)-1,2-Propanediol	1.424921e-004
A1351	Sodium propionate	1.396718e-004
A2017	Isopropylamine	1.375713e-004
A1531	Ethyl formate	1.338643e-004
A1550	Nitroethane	1.320941e-004
A4972	Boric acid	1.317772e-004
A10674	Dibutyl succinate	1.291305e-004
A7183	Dibutyl oxalate	1.290718e-004
A4807	2-(2-Nitroethoxy)tetrahydropyran	1.276789e-004
A11100	Hydrogen peroxide, 50%	1.269170e-004
A9092	p-Tolyl ether	1.268121e-004
A0138	Dibutyl ether	1.260141e-004
A6700	4'-Methoxypropiophenone	1.252252e-004
A2721	Formaldehyde diethyl acetal	1.225649e-004
A1270	Methyl DL-lactate	1.224518e-004
A2703	Acetaldehyde dimethyl acetal	1.218197e-004
A0524	Propionic acid	1.209109e-004
A1697	Ethyl vinyl ether	1.195987e-004
A9546	4-Methoxy-alpha-methylbenzyl alcohol	1.193849e-004
A0400	Potassium permanganate	1.191460e-004
A3082	Methyl n-propyl ether	1.189925e-004
A0340	Butyronitrile	1.189080e-004
A8610	5-Methyl-2-pyrrolidinone	1.187007e-004
A11872	Poly(methyl methacrylate)	1.185679e-004
A1754	N,N-Dimethylhydrazine	1.183855e-004
A1676	Trifluoroacetic acid	1.181315e-004
A2210	Calcium peroxide hydrate	1.173882e-004
A1886	Butylamine	1.173821e-004
A2313	Barium peroxide	1.165788e-004
A0395	Potassium persulfate	1.165070e-004
A1547	Isovaleric acid	1.162149e-004
A8580	Sodium permanganate solution	1.142713e-004
A13507	Poly(methyl methacrylate-co-ethyl acrylate)	1.140019e-004
A14340	Titanium(IV) fluoride	1.137218e-004
A5310	4-Methyl-3-nitroanisole	1.131151e-004
A2197	Isopropyl chloroacetate	1.123881e-004
A5382	3-Methoxypropionic acid	1.122210e-004
A2413	Sodium selenate	1.115888e-004
A12448	Tribromofluoromethane	1.111943e-004
A0369	2,4,6-Tribromophenol	1.107743e-004
A5061	2,4,5-Trichloroaniline	1.106944e-004
A6278	6-Methylnicotinamide	1.105306e-004
A10650	Ethylmercuric chloride	1.101513e-004
A7119	2-Deoxy-D-ribose	1.100888e-004
A7387	4-Hydroxypiperidine	1.098796e-004
A10290	1-Bromo-4-chloro-2,3,5,6-tetrafluorobenzene	1.096030e-004
A4551	1-Amino-2,6-dimethylpiperidine	1.089479e-004
A14283	Bromoiodomethane	1.082739e-004
A1918	Sodium carbonate	1.082465e-004
A0673	Hexachlorocyclopentadiene	1.079469e-004
A7885	beta-Carotene	1.069325e-004
A3132	4-Methyl-3-nitrobenzoic acid	1.068718e-004
A4269	2,4-Dibromoanisole	1.066363e-004
A7633	2-Nitro-p-cymene	1.054491e-004
A3868	N-formylmorpholine	1.051849e-004
A1644	Ethyl isobutyrate	1.051309e-004
A1324	Ethyl dichlorophosphate	1.049377e-004
A2171	Potassium hexafluorozirconate	1.046778e-004
A0419	Sodium chlorite	1.044584e-004
A5814	Dimethyltin dichloride	1.044155e-004
A10588	Sodium hypophosphite monohydrate	1.038706e-004
A10284	Iodomethane	1.032225e-004
A10529	1-Formylpiperazine	1.021515e-004
A2943	Potassium binoxalate	1.013885e-004
spectrum 2048
-97.384613 45069.000000
-94.757744 45069.000000
-92.132751 45702.000000
-89.509651 45818.000000
-86.888420 46679.000000
-84.269089 46416.000000
-81.651619 46783.000000
-79.036026 46589.000000
-76.422310 46783.000000
-73.810471 47269.000000
-71.200493 47100.000000
-68.592400 47218.000000
-65.986153 47322.000000
-63.381779 47213.000000
-60.779270 47175.000000
-58.178616 47664.000000
-55.579823 47036.000000
-52.982887 46417.000000
-50.387806 46850.000000
-47.794579 46805.000000
-45.203201 47020.000000
-42.613670 46476.000000
-40.025982 47310.000000
-37.440144 47219.000000
-34.856148 46695.000000
-32.273991 47528.000000
-29.693678 46812.000000
-27.115192 47545.000000
-24.538549 47050.000000
-21.963732 46901.000000
-19.390755 46579.000000
-16.819597 46673.000000
-14.250273 46266.000000
-11.682775 45272.000000
-9.117095 46734.000000
-6.553242 46414.000000
-3.991201 46778.000000
-1.430985 46764.000000
1.127423 46395.000000
3.684010 45355.000000
6.238792 45324.000000
8.791758 45395.000000
11.342922 43936.000000
13.892274 43210.000000
16.439829 41774.000000
18.985573 41008.000000
21.529524 39230.000000
24.071671 35928.000000
26.612020 32857.000000
29.150585 29969.000000
31.687353 26460.000000
34.222321 19039.000000
36.755508 12528.000000
39.286915 8182.000000
41.816528 7318.000000
44.344345 7115.000000
46.870403 6609.000000
49.394672 5808.000000
51.917171 4995.000000
54.437874 4461.000000
56.956821 4554.000000
59.473995 5299.000000
61.989391 6989.000000
64.503006 7935.000000
67.014870 8010.000000
69.524986 6255.000000
72.033310 4142.000000
74.539879 3202.000000
77.044701 2551.000000
79.547768 2184.000000
82.049057 1966.000000
84.548607 1825.000000
87.046402 1672.000000
89.542465 1801.000000
92.036751 2196.000000
94.529297 2528.000000
97.020126 2398.000000
99.509186 2172.000000
101.996498 1718.000000
104.482086 1372.000000
106.965935 1211.000000
109.448036 1287.000000
111.928413 1180.000000
114.407066 1096.000000
116.883995 1084.000000
119.359169 1066.000000
121.832634 991.000000
124.304367 1059.000000
126.774391 1097.000000
129.242661 1167.000000
131.709259 1228.000000
134.174103 1177.000000
136.637253 1253.000000
139.098663 1495.000000
141.558380 1691.000000
144.016373 2073.000000
146.472672 2414.000000
148.927261 2831.000000
151.380127 3318.000000
153.831314 4010.000000
156.280807 4701.000000
158.728577 5484.000000
161.174637 6326.000000
163.619019 7255.000000
166.061722 7976.000000
168.502731 8589.000000
170.942032 8968.000000
173.379623 9340.000000
175.815582 9609.000000
178.249802 9724.000000
180.682343 9938.000000
183.113235 9752.000000
185.542404 9797.000000
187.969925 9819.000000
190.395767 9881.000000
192.819931 9869.000000
195.242432 9972.000000
197.663239 10150.000000
200.082382 10418.000000
202.499863 10625.000000
204.915649 10937.000000
207.329788 11408.000000
209.742294 11956.000000
212.153122 12485.000000
214.562271 13354.000000
216.969788 14127.000000
219.375595 14851.000000
221.779816 15572.000000
224.182327 16334.000000
226.583221 16869.000000
228.982468 17289.000000
231.380051 17626.000000
233.775970 17709.000000
236.170273 17680.000000
238.562912 17902.000000
240.953934 17891.000000
243.343292 17872.000000
245.731033 17859.000000
248.117126 17784.000000
250.501587 17903.000000
252.884399 17774.000000
255.265640 17900.000000
257.645172 17891.000000
260.023132 17756.000000
262.399414 17635.000000
264.774139 17816.000000
267.147217 17496.000000
269.518646 17677.000000
271.888428 17627.000000
274.256653 17642.000000
276.623230 17576.000000
278.988220 17548.000000
281.351593 17590.000000
283.713318 17510.000000
286.073456 17333.000000
288.431976 17487.000000
290.788910 17412.000000
293.144226 17484.000000
295.497955 17583.000000
297.850037 17582.000000
300.200562 17535.000000
302.549500 17577.000000
304.896790 17403.000000
307.242554 17159.000000
309.586639 17168.000000
311.929199 17109.000000
314.270142 17037.000000
316.609467 17173.000000
318.947235 17249.000000
321.283447 17044.000000
323.618011 17323.000000
325.951019 17153.000000
328.282471 17071.000000
330.612335 17006.000000
332.940613 16891.000000
335.267273 16889.000000
337.592438 17090.000000
339.915985 17025.000000
342.237976 17187.000000
344.558411 16949.000000
346.877228 16806.000000
349.194489 16957.000000
351.510223 16933.000000
353.824371 16713.000000
356.136932 16725.000000
358.447937 16960.000000
360.757416 16778.000000
363.065369 16918.000000
365.371704 16769.000000
367.676453 16766.000000
369.979736 17035.000000
372.281403 16968.000000
374.581573 17083.000000
376.880188 16974.000000
379.177246 17028.000000
381.472748 17106.000000
383.766724 17243.000000
386.059113 17277.000000
388.350006 17192.000000
390.639374 17344.000000
392.927155 17444.000000
395.213409 17602.000000
397.498169 17741.000000
399.781311 17807.000000
402.063019 17845.000000
404.343201 17759.000000
406.621796 17680.000000
408.898865 17566.000000
411.174408 17606.000000
413.448425 17443.000000
415.721008 17526.000000
417.991974 17444.000000
420.261444 17429.000000
422.529419 17359.000000
424.795837 17326.000000
427.060760 17280.000000
429.324219 17287.000000
431.586090 17223.000000
433.846497 17134.000000
436.105347 17221.000000
438.362732 17115.000000
440.618622 17175.000000
442.873016 17214.000000
445.125885 16955.000000
447.377197 16939.000000
449.627106 16750.000000
451.875427 16851.000000
454.122314 16800.000000
456.367737 16575.000000
458.611603 16598.000000
460.853973 16773.000000
463.094849 16749.000000
465.334320 16544.000000
467.572205 16863.000000
469.808655 16644.000000
472.043579 16630.000000
474.277039 16537.000000
476.509064 16379.000000
478.739563 16371.000000
480.968567 16493.000000
483.196106 16445.000000
485.422150 16342.000000
487.646759 16438.000000
489.869904 16385.000000
492.091583 16357.000000
494.311707 16677.000000
496.530426 16568.000000
498.747650 16697.000000
500.963501 16666.000000
503.177734 16697.000000
505.390656 16757.000000
507.601990 16497.000000
509.811890 16627.000000
512.020386 16784.000000
514.227478 16831.000000
516.432983 16798.000000
518.637085 16807.000000
520.839661 16837.000000
523.040833 16881.000000
525.240662 16733.000000
527.438965 16565.000000
529.635742 16762.000000
531.831177 16606.000000
534.025085 16502.000000
536.217651 16161.000000
538.408691 16343.000000
540.598328 16420.000000
542.786560 16359.000000
544.973267 16316.000000
547.158508 16211.000000
549.342468 16082.000000
551.524841 15984.000000
553.705872 15918.000000
555.885376 16000.000000
558.063599 15769.000000
560.240295 15747.000000
562.415588 15537.000000
564.589478 15584.000000
566.761902 15593.000000
568.932922 15510.000000
571.102478 15658.000000
573.270752 15654.000000
575.437500 15619.000000
577.602783 15733.000000
579.766663 15603.000000
581.929260 15688.000000
584.090332 15749.000000
586.250000 15881.000000
588.408325 15846.000000
590.565125 15910.000000
592.720581 15760.000000
594.874634 15970.000000
597.027344 16027.000000
599.178528 16084.000000
601.328369 15913.000000
603.476868 15913.000000
605.623779 15892.000000
607.769470 15991.000000
609.913757 16069.000000
612.056580 15965.000000
614.197937 16058.000000
616.338074 16044.000000
618.476685 15835.000000
620.614014 15969.000000
622.749878 15866.000000
624.884338 15931.000000
627.017334 15771.000000
629.149170 15785.000000
631.279541 15510.000000
633.408508 15644.000000
635.536011 15499.000000
637.662231 15391.000000
639.786926 15361.000000
641.910400 15347.000000
644.032532 15251.000000
646.153198 15067.000000
648.272522 14953.000000
650.390442 15030.000000
652.507019 15019.000000
654.622192 15018.000000
656.736023 14821.000000
658.848389 14835.000000
660.959534 14751.000000
663.069275 14962.000000
665.177551 14880.000000
667.284668 14871.000000
669.390320 14714.000000
671.494507 14705.000000
673.597473 14840.000000
675.699036 14956.000000
677.799255 14942.000000
679.898071 15113.000000
681.995544 15203.000000
684.091736 15152.000000
686.186462 15117.000000
688.279968 15168.000000
690.372131 14927.000000
692.462769 15078.000000
694.552185 15267.000000
696.640320 15414.000000
698.726990 15307.000000
700.812439 15506.000000
702.896362 15504.000000
704.979065 15414.000000
707.060486 15232.000000
709.140442 14865.000000
711.219177 14351.000000
713.296448 14441.000000
715.372437 14637.000000
717.447144 14521.000000
719.520569 14322.000000
721.592468 14945.000000
723.663208 14826.000000
725.732605 14546.000000
727.800598 14447.000000
729.867249 14404.000000
731.932678 14373.000000
733.996765 14304.000000
736.059509 14464.000000
738.120911 14170.000000
740.181030 14280.000000
742.239746 14173.000000
744.297241 14056.000000
746.353455 14059.000000
748.408264 14021.000000
750.461792 13999.000000
752.513916 14065.000000
754.564819 14009.000000
756.614502 13927.000000
758.662720 13915.000000
760.709717 14018.000000
762.755432 13614.000000
764.799744 13806.000000
766.842773 14281.000000
768.884583 13073.000000
770.925049 13908.000000
772.964111 13800.000000
775.002014 14009.000000
777.038574 14070.000000
779.073914 14111.000000
781.107910 14095.000000
783.140503 14237.000000
785.171936 14231.000000
787.201965 13705.000000
789.230713 14125.000000
791.258301 14219.000000
793.284546 14414.000000
795.309387 14393.000000
797.333130 14514.000000
799.355469 14493.000000
801.376587 14534.000000
803.396362 14541.000000
805.414856 14846.000000
807.432129 14893.000000
809.447998 14862.000000
811.462708 14756.000000
813.476074 14721.000000
815.488220 14356.000000
817.499146 14317.000000
819.508728 14128.000000
821.517090 14012.000000
823.524048 13877.000000
825.529785 13881.000000
827.534302 13834.000000
829.537537 13832.000000
831.539490 13588.000000
833.540161 13765.000000
835.539612 13801.000000
837.537720 13775.000000
839.534729 13824.000000
841.530334 13756.000000
843.524780 13843.000000
845.517883 13585.000000
847.509766 13450.000000
849.500305 13420.000000
851.489563 13271.000000
853.477783 13247.000000
855.464600 13126.000000
857.450195 13200.000000
859.434509 13089.000000
861.417725 12914.000000
863.399536 13135.000000
865.380127 13045.000000
867.359436 13051.000000
869.337585 13103.000000
871.314392 13333.000000
873.289917 13390.000000
875.264404 13790.000000
877.237427 13805.000000
879.209412 14046.000000
881.180054 14070.000000
883.149536 14028.000000
885.117676 13805.000000
887.084656 13787.000000
889.050293 13572.000000
891.014771 13571.000000
892.978027 13436.000000
894.940063 13581.000000
896.900818 13373.000000
898.860352 13480.000000
900.818604 13414.000000
902.775757 13252.000000
904.731750 13298.000000
906.686340 13314.000000
908.639709 13279.000000
910.591919 13124.000000
912.542908 13119.000000
914.492615 12872.000000
916.441162 12797.000000
918.388489 12862.000000
920.334534 12747.000000
922.279297 12443.000000
924.223022 12412.000000
926.165588 12166.000000
928.106873 12119.000000
930.046814 11974.000000
931.985657 11750.000000
933.923218 12040.000000
935.859558 11817.000000
937.794739 11814.000000
939.728638 11905.000000
941.661438 11901.000000
943.593018 11935.000000
945.523438 11966.000000
947.452637 11979.000000
949.380493 11949.000000
951.307312 11910.000000
953.232849 11831.000000
955.157104 11941.000000
957.080261 12009.000000
959.002258 12065.000000
960.922974 12160.000000
962.842529 12259.000000
964.760925 12326.000000
966.678284 12246.000000
968.594177 12322.000000
970.508972 12379.000000
972.422546 12358.000000
974.334961 12408.000000
976.246155 12480.000000
978.156189 12324.000000
980.064941 12278.000000
981.972656 12196.000000
983.879150 12319.000000
985.784424 12220.000000
987.688599 12195.000000
989.591553 12220.000000
991.493286 12129.000000
993.393860 12251.000000
995.293274 12117.000000
997.191467 12034.000000
999.088501 12005.000000
1000.984314 11666.000000
1002.878967 11601.000000
1004.772522 11486.000000
1006.664795 11311.000000
1008.556152 11335.000000
1010.446167 11347.000000
1012.334961 11279.000000
1014.222595 11245.000000
1016.109070 11103.000000
1017.994385 11006.000000
1019.878540 11137.000000
1021.761475 11117.000000
1023.643372 11178.000000
1025.523926 11155.000000
1027.403442 11221.000000
1029.281982 11258.000000
1031.159180 11282.000000
1033.035034 11315.000000
1034.909912 11349.000000
1036.783813 11262.000000
1038.656250 11360.000000
1040.527710 11292.000000
1042.397827 11299.000000
1044.266968 11330.000000
1046.134888 11355.000000
1048.001709 11469.000000
1049.867432 11495.000000
1051.731934 11499.000000
1053.595337 11404.000000
1055.457397 11702.000000
1057.318481 11474.000000
1059.178467 11393.000000
1061.037109 11445.000000
1062.894653 11523.000000
1064.751099 11417.000000
1066.606445 11584.000000
1068.460571 11538.000000
1070.313843 11401.000000
1072.165649 11627.000000
1074.016479 11579.000000
1075.866089 11539.000000
1077.714478 11607.000000
1079.562012 11554.000000
1081.408203 11566.000000
1083.253174 11469.000000
1085.097290 11470.000000
1086.940063 11522.000000
1088.781616 11388.000000
1090.622437 11272.000000
1092.461670 11067.000000
1094.300171 11255.000000
1096.137329 11123.000000
1097.973267 11012.000000
1099.808228 10765.000000
1101.641968 10599.000000
1103.474731 10550.000000
1105.306152 10630.000000
1107.136719 10784.000000
1108.965942 10467.000000
1110.794189 10297.000000
1112.621216 10364.000000
1114.447266 10273.000000
1116.272095 10192.000000
1118.095825 10281.000000
1119.918335 10222.000000
1121.739746 10303.000000
1123.560303 10250.000000
1125.379395 10324.000000
1127.197632 10253.000000
1129.014526 10323.000000
1130.830566 10282.000000
1132.645386 10525.000000
1134.459106 10389.000000
1136.271729 10538.000000
1138.083130 10526.000000
1139.893555 10636.000000
1141.702881 10695.000000
1143.510864 10750.000000
1145.318115 10759.000000
1147.123901 10748.000000
1148.928833 10792.000000
1150.732666 10799.000000
1152.535278 10996.000000
1154.337036 10865.000000
1156.137329 10744.000000
1157.936646 10756.000000
1159.734985 10658.000000
1161.531982 10612.000000
1163.328247 10473.000000
1165.123169 10380.000000
1166.916992 10353.000000
1168.709961 10135.000000
1170.501587 10116.000000
1172.292236 10074.000000
1174.081909 9956.000000
1175.870117 10006.000000
1177.657471 9813.000000
1179.443726 9841.000000
1181.228882 9820.000000
1183.012939 9851.000000
1184.795898 9747.000000
1186.577881 9759.000000
1188.358643 9905.000000
1190.138428 9696.000000
1191.917114 9571.000000
1193.694824 9643.000000
1195.471313 9639.000000
1197.246704 9465.000000
1199.020996 9384.000000
1200.794189 9397.000000
1202.566528 9249.000000
1204.337524 9258.000000
1206.107666 9259.000000
1207.876587 9212.000000
1209.644409 9222.000000
1211.411377 9170.000000
1213.177002 9211.000000
1214.941650 9082.000000
1216.705200 9128.000000
1218.467651 9199.000000
1220.229248 9160.000000
1221.989624 9195.000000
1223.748901 9116.000000
1225.507324 9096.000000
1227.264526 9130.000000
1229.020630 9309.000000
1230.775635 9291.000000
1232.529785 9369.000000
1234.282593 9381.000000
1236.034424 9356.000000
1237.785400 9434.000000
1239.535034 9458.000000
1241.283813 9565.000000
1243.031250 9466.000000
1244.777954 9479.000000
1246.523438 9460.000000
1248.268066 9492.000000
1250.011353 9494.000000
1251.753662 9608.000000
1253.494873 9454.000000
1255.235229 9268.000000
1256.974487 9267.000000
1258.712524 8808.000000
1260.449707 8656.000000
1262.185669 8860.000000
1263.920654 8964.000000
1265.654663 9195.000000
1267.387695 9344.000000
1269.119507 9204.000000
1270.850342 9483.000000
1272.579956 9423.000000
1274.308716 9457.000000
1276.036377 9432.000000
1277.762939 9476.000000
1279.488647 9565.000000
1281.213013 9390.000000
1282.936523 9354.000000
1284.659058 9448.000000
1286.380615 9316.000000
1288.100952 9355.000000
1289.820313 9272.000000
1291.538574 9228.000000
1293.255859 9299.000000
1294.972168 9296.000000
1296.687256 9286.000000
1298.401367 9421.000000
1300.114502 9179.000000
1301.826782 8930.000000
1303.537842 8821.000000
1305.247925 8967.000000
1306.956909 8878.000000
1308.664673 8694.000000
1310.371826 8609.000000
1312.077515 8650.000000
1313.782471 8793.000000
1315.486450 8728.000000
1317.189209 8987.000000
1318.890991 9203.000000
1320.591919 9112.000000
1322.291504 5957.500000
1323.990234 2803.000000
1325.688232 8574.000000
1327.384888 8734.000000
1329.080444 8599.000000
1330.775146 8511.000000
1332.468628 8538.000000
1334.161255 8533.000000
1335.853027 8148.000000
1337.543457 8306.000000
1339.233154 8321.000000
1340.921753 8265.000000
1342.609253 8133.000000
1344.295776 8287.000000
1345.981201 8164.000000
1347.665649 8294.000000
1349.349243 8415.000000
1351.031616 8302.000000
1352.713013 8287.000000
1354.393555 8449.000000
1356.072876 8571.000000
1357.751587 8629.000000
1359.428955 8620.000000
1361.105225 8670.000000
1362.780518 8781.000000
1364.455078 8698.000000
1366.128418 8635.000000
1367.800781 8745.000000
1369.472168 8680.000000
1371.142578 8694.000000
1372.811890 8724.000000
1374.480225 8686.000000
1376.147705 8609.000000
1377.814087 8564.000000
1379.479492 8628.000000
1381.143921 8468.000000
1382.807129 8499.000000
1384.469727 8239.000000
1386.130981 8247.000000
1387.791382 8239.000000
1389.450684 8169.000000
1391.109009 8138.000000
1392.766602 8249.000000
1394.422974 8098.000000
1396.078491 8185.000000
1397.732788 8194.000000
1399.386230 8159.000000
1401.038574 8279.000000
1402.690186 8280.000000
1404.340576 8042.000000
1405.989868 7935.000000
1407.638428 7805.000000
1409.285889 7671.000000
1410.932373 7537.000000
1412.578003 7489.000000
1414.222656 7513.000000
1415.866089 7365.000000
1417.508667 7470.000000
1419.150146 7575.000000
1420.790771 7539.000000
1422.430420 7438.000000
1424.068970 7470.000000
1425.706665 7432.000000
1427.343262 7299.000000
1428.978882 7371.000000
1430.613770 7361.000000
1432.247559 7407.000000
1433.880249 7504.000000
1435.511963 7255.000000
1437.142822 7314.000000
1438.772583 7422.000000
1440.401245 7318.000000
1442.029297 7345.000000
1443.656250 7338.000000
1445.281982 7376.000000
1446.907104 7328.000000
1448.531128 7515.000000
1450.154175 7705.000000
1451.776245 7819.000000
1453.397217 7724.000000
1455.017212 7876.000000
1456.636475 7918.000000
1458.254395 8090.000000
1459.871704 7419.000000
1461.488037 7785.000000
1463.103149 7744.000000
1464.717407 7611.000000
1466.330811 7625.000000
1467.943115 7697.000000
1469.554565 7702.000000
1471.165161 7648.000000
1472.774536 7462.000000
1474.382935 7578.000000
1475.990479 7491.000000
1477.597046 7584.000000
1479.202881 7588.000000
1480.807495 7435.000000
1482.411255 7325.000000
1484.013794 7094.000000
1485.615723 6817.000000
1487.216431 7015.000000
1488.816406 6851.000000
1490.415283 6890.000000
1492.013306 6820.000000
1493.610229 6629.000000
1495.206299 7122.000000
1496.801392 7490.000000
1498.395508 7303.000000
1499.988892 7239.000000
1501.581177 7083.000000
1503.172241 7113.000000
1504.762817 7176.000000
1506.352051 6966.000000
1507.940674 6950.000000
1509.528198 6874.000000
1511.114624 6734.000000
1512.700317 6836.000000
1514.284912 6856.000000
1515.868652 6825.000000
1517.451294 6752.000000
1519.033203 6896.000000
1520.614014 6784.000000
1522.194092 6679.000000
1523.772949 6618.000000
1525.350952 6511.000000
1526.928223 6532.000000
1528.504272 6431.000000
1530.079590 6419.000000
1531.653809 6412.000000
1533.227295 6402.000000
1534.799561 6451.000000
1536.371094 6406.000000
1537.941650 6425.000000
1539.511353 6300.000000
1541.079834 6389.000000
1542.647583 6366.000000
1544.214478 6348.000000
1545.780151 6123.000000
1547.345093 6256.000000
1548.908936 6358.000000
1550.472168 6297.000000
1552.034058 6212.000000
1553.595337 6322.000000
1555.155518 6256.000000
1556.714966 6200.000000
1558.273315 6142.000000
1559.830933 6164.000000
1561.387451 6219.000000
1562.942749 6216.000000
1564.497437 6141.000000
1566.051392 6039.000000
1567.604370 6177.000000
1569.156006 6282.000000
1570.706909 6227.000000
1572.257080 6187.000000
1573.806274 6209.000000
1575.354126 6317.000000
1576.901489 6200.000000
1578.447876 6113.000000
1579.993408 6198.000000
1581.537964 6330.000000
1583.081299 6237.000000
1584.624023 6123.000000
1586.165894 6206.000000
1587.706665 6197.000000
1589.246460 6376.000000
1590.785522 6162.000000
1592.323486 6183.000000
1593.860962 6080.000000
1595.397095 6194.000000
1596.932129 6169.000000
1598.466675 6228.000000
1600.000244 6087.000000
1601.532959 6143.000000
1603.064087 6177.000000
1604.594971 6158.000000
1606.125000 6040.000000
1607.653809 5931.000000
1609.181519 6031.000000
1610.708618 6097.000000
1612.234985 6184.000000
1613.760376 6104.000000
1615.284912 6103.000000
1616.808105 6079.000000
1618.330566 6122.000000
1619.852295 6065.000000
1621.373169 6120.000000
1622.892578 5833.000000
1624.411499 6003.000000
1625.929688 6003.000000
1627.447021 6055.000000
1628.963257 6027.000000
1630.478149 5882.000000
1631.992554 5873.000000
1633.506226 5971.000000
1635.018799 5941.000000
1636.530151 5929.000000
1638.041138 5892.000000
1639.551025 5862.000000
1641.060059 5786.000000
1642.567749 5830.000000
1644.075073 5766.000000
1645.581543 5727.000000
1647.087036 5623.000000
1648.591675 5661.000000
1650.094849 5761.000000
1651.597412 5661.000000
1653.099609 5598.000000
1654.600464 5642.000000
1656.100220 5451.000000
1657.599121 5551.000000
1659.097656 5454.000000
1660.594971 5452.000000
1662.091553 5464.000000
1663.586548 5539.000000
1665.081299 5377.000000
1666.575195 5403.000000
1668.068115 5587.000000
1669.559692 5340.000000
1671.050781 5274.000000
1672.541260 5266.000000
1674.030640 5245.000000
1675.518555 5150.000000
1677.006226 5232.000000
1678.492920 5293.000000
1679.978760 5264.000000
1681.463745 5126.000000
1682.947266 5176.000000
1684.430542 5107.000000
1685.912964 5181.000000
1687.394287 5079.000000
1688.874146 5096.000000
1690.353760 5023.000000
1691.832642 4925.000000
1693.310547 5057.000000
1694.787476 4974.000000
1696.263184 5029.000000
1697.738525 4931.000000
1699.212646 5054.000000
1700.686157 4870.000000
1702.158203 4936.000000
1703.630005 4983.000000
1705.100830 5133.000000
1706.570801 4872.000000
1708.039429 4915.000000
1709.507568 4995.000000
1710.974976 5039.000000
1712.441284 4975.000000
1713.906982 4995.000000
1715.370972 4894.000000
1716.834839 5127.000000
1718.297852 5087.000000
1719.759888 4970.000000
1721.220703 4982.000000
1722.680908 5064.000000
1724.140381 4903.000000
1725.598999 5034.000000
1727.056641 4977.000000
1728.512939 4976.000000
1729.968994 4947.000000
1731.424072 4977.000000
1732.878174 4991.000000
1734.331055 4918.000000
1735.783691 4929.000000
1737.235229 4873.000000
1738.686035 4926.000000
1740.135864 4826.000000
1741.584351 4968.000000
1743.032471 4758.000000
1744.479736 4853.000000
1745.926270 4847.000000
1747.371216 4767.000000
1748.815918 4656.000000
1750.259766 4760.000000
1751.702759 4785.000000
1753.144287 4745.000000
1754.585571 4807.000000
1756.026001 4477.000000
1757.465454 4761.000000
1758.903931 4649.000000
1760.341431 4658.000000
1761.778442 4575.000000
1763.214478 4490.000000
1764.649658 4502.000000
1766.083374 4606.000000
1767.516968 4665.000000
1768.949585 4599.000000
1770.381348 4740.000000
1771.812256 4688.000000
1773.241943 4520.000000
1774.670898 4442.000000
1776.099365 4430.000000
1777.526855 4216.000000
1778.953003 4120.000000
1780.378906 4307.000000
1781.803711 4357.000000
1783.227905 4297.000000
1784.650635 4305.000000
1786.072876 4229.000000
1787.494385 4206.000000
1788.915161 4230.000000
1790.334961 4210.000000
1791.753418 4205.000000
1793.171387 4181.000000
1794.588745 4115.000000
1796.005249 4159.000000
1797.420288 4096.000000
1798.834961 4127.000000
1800.249023 4159.000000
1801.661865 4142.000000
1803.074097 4090.000000
1804.484985 4180.000000
1805.895386 4102.000000
1807.305054 4174.000000
1808.713745 4108.000000
1810.121338 4172.000000
1811.528442 4072.000000
1812.934692 4112.000000
1814.339966 4072.000000
1815.744141 4147.000000
1817.147949 4153.000000
1818.550781 4111.000000
1819.952759 4184.000000
1821.354126 4188.000000
1822.754028 4107.000000
1824.153320 4066.000000
1825.552124 4102.000000
1826.950073 4040.000000
1828.346680 4099.000000
1829.742676 4129.000000
1831.137939 4157.000000
1832.532593 4109.000000
1833.926270 4060.000000
1835.318604 4010.000000
1836.710449 4135.000000
1838.101685 4074.000000
1839.491943 4054.000000
1840.880981 4097.000000
1842.269653 4036.000000
1843.657349 4086.000000
1845.044312 3961.000000
1846.429932 4068.000000
1847.815308 3970.000000
1849.199829 3931.000000
1850.583618 3949.000000
1851.966309 3909.000000
1853.347778 3836.000000
1854.728760 3871.000000
1856.109253 3885.000000
1857.488770 3891.000000
1858.866821 3861.000000
1860.244751 3935.000000
1861.621704 3829.000000
1862.997925 3810.000000
1864.373291 3810.000000
1865.747192 3854.000000
1867.120972 3707.000000
1868.493896 3714.000000
1869.865723 3756.000000
1871.236572 3676.000000
1872.607056 3588.000000
1873.976440 3722.000000
1875.345337 3625.000000
1876.712646 3540.000000
1878.079834 3720.000000
1879.446045 3616.000000
1880.811523 3644.000000
1882.176270 3590.000000
1883.539429 3551.000000
1884.902466 3581.000000
1886.264648 3513.000000
1887.625977 3627.000000
1888.985962 3548.000000
1890.345581 3558.000000
1891.704590 3506.000000
1893.062622 3535.000000
1894.419800 3387.000000
1895.775757 3409.000000
1897.131470 3393.000000
1898.486206 3453.000000
1899.840088 3521.000000
1901.192871 3538.000000
1902.545166 3473.000000
1903.896729 3359.000000
1905.247437 3562.000000
1906.596924 3381.000000
1907.945923 3483.000000
1909.294067 3515.000000
1910.641602 3443.000000
1911.988403 3475.000000
1913.333618 3511.000000
1914.678589 3535.000000
1916.022827 3439.000000
1917.366211 3554.000000
1918.708252 3514.000000
1920.050049 3446.000000
1921.390991 3403.000000
1922.731201 3478.000000
1924.070435 3480.000000
1925.408691 3467.000000
1926.746338 3503.000000
1928.083252 3401.000000
1929.419312 3400.000000
1930.754150 3520.000000
1932.088623 3354.000000
1933.422363 3355.000000
1934.755249 3302.000000
1936.086670 3409.000000
1937.418213 3268.000000
1938.748413 3212.000000
1940.078125 3362.000000
1941.406982 3311.000000
1942.734619 3401.000000
1944.061768 3251.000000
1945.388184 3260.000000
1946.713867 3416.000000
1948.038208 3310.000000
1949.362305 3255.000000
1950.685547 3382.000000
1952.008057 3308.000000
1953.329468 3113.000000
1954.649902 3253.000000
1955.969727 3250.000000
1957.289185 3179.000000
1958.607666 3204.000000
1959.924805 3185.000000
1961.241577 3126.000000
1962.557617 3092.000000
1963.872925 3151.000000
1965.186768 3168.000000
1966.500366 3191.000000
1967.813232 2999.000000
1969.125244 3039.000000
1970.436646 3215.000000
1971.746704 3061.000000
1973.056274 3087.000000
1974.365112 3006.000000
1975.673340 3058.000000
1976.980225 3030.000000
1978.286499 3006.000000
1979.592407 2998.000000
1980.897095 3036.000000
1982.201294 2999.000000
1983.504272 2992.000000
1984.806885 2996.000000
1986.108521 3092.000000
1987.409546 2873.000000
1988.708984 2906.000000
1990.008545 2893.000000
1991.307007 2883.000000
1992.604980 2889.000000
1993.901367 2911.000000
1995.197754 2859.000000
1996.493164 2830.000000
1997.787842 2753.000000
1999.081665 2850.000000
2000.374268 2789.000000
2001.666382 2754.000000
2002.958008 2711.000000
2004.248901 2810.000000
2005.538208 2961.000000
2006.827271 2655.000000
2008.115601 2800.000000
2009.403198 2873.000000
2010.689941 2731.000000
2011.975586 2698.000000
2013.260864 2749.000000
2014.545166 2740.000000
2015.828857 2766.000000
2017.111206 2839.000000
2018.393188 2748.000000
2019.674683 2679.000000
2020.955200 2707.000000
2022.234985 2739.000000
2023.513672 2762.000000
2024.791626 2564.000000
2026.069092 2794.000000
2027.345947 2655.000000
2028.621094 2646.000000
2029.896362 2765.000000
2031.170654 2663.000000
2032.443970 2657.000000
2033.716431 2771.000000
2034.988525 2792.000000
2036.259521 2777.000000
2037.530273 2714.000000
2038.799683 2731.000000
2040.067993 2673.000000
2041.336304 2715.000000
2042.603638 2702.000000
2043.870239 2671.000000
2045.135620 2698.000000
2046.400391 2790.000000
2047.664917 2677.000000
2048.928223 2757.000000
2050.191162 2714.000000
2051.452148 2684.000000
2052.713623 2584.000000
2053.973877 2597.000000
2055.233398 2510.000000
2056.492188 2592.000000
2057.750000 2585.000000
2059.007324 2669.000000
2060.263916 2606.000000
2061.519043 2624.000000
2062.774170 2624.000000
2064.028320 2577.000000
2065.281738 2607.000000
2066.534424 2512.000000
2067.785889 2624.000000
2069.037109 2521.000000
2070.287598 2501.000000
2071.537354 2677.000000
2072.785645 2560.000000
2074.033936 2573.000000
2075.281250 2374.000000
2076.527832 2458.000000
2077.773682 2429.000000
2079.018311 2471.000000
2080.262451 2629.000000
2081.506104 2423.000000
2082.748779 2457.000000
2083.990234 2423.000000
2085.231445 2306.000000
2086.472168 2391.000000
2087.711914 2419.000000
2088.950439 2363.000000
2090.188477 2470.000000
2091.425781 2419.000000
2092.662842 2327.000000
2093.898438 2358.000000
2095.133301 2446.000000
2096.367920 2356.000000
2097.601563 2370.000000
2098.834229 2362.000000
2100.066162 2281.000000
2101.297607 2355.000000
2102.528076 2415.000000
2103.757813 2271.000000
2104.987305 2260.000000
2106.214844 2349.000000
2107.442627 2391.000000
2108.669678 2231.000000
2109.895752 2282.000000
2111.120361 2248.000000
2112.345215 2274.000000
2113.568848 2199.000000
2114.791992 2245.000000
2116.013916 2296.000000
2117.235596 2164.000000
2118.456299 2216.000000
2119.676270 2233.000000
2120.895752 2306.000000
2122.113770 2229.000000
2123.331787 2188.000000
2124.548828 2376.000000
2125.765381 2367.000000
2126.980225 2356.000000
2128.195313 2190.000000
2129.409424 2209.000000
2130.622803 2243.000000
2131.835449 2175.000000
2133.046631 2292.000000
2134.258057 2200.000000
2135.468262 2217.000000
2136.677979 2103.000000
2137.886230 2295.000000
2139.094482 2284.000000
2140.302002 2221.000000
2141.508301 2049.000000
2142.713867 2282.000000
2143.919189 2274.000000
2145.123535 2196.000000
2146.327148 2238.000000
2147.530273 2250.000000
2148.731934 2204.000000
2149.933350 2157.000000
2151.134033 2160.000000
2152.333984 2207.000000
2153.532715 2119.000000
2154.731201 2112.000000
2155.929199 2126.000000
2157.126221 2085.000000
2158.322510 2118.000000
2159.517578 2121.000000
2160.712402 1992.000000
2161.906494 2121.000000
2163.099609 2047.000000
2164.291748 1964.000000
2165.483643 2066.000000
2166.674805 2092.000000
2167.864990 2025.000000
2169.054443 1970.000000
2170.243408 1981.000000
2171.431396 1996.000000
2172.619141 1912.000000
2173.805420 1855.000000
2174.990967 1912.000000
2176.176270 1942.000000
2177.361084 1853.000000
2178.544678 1884.000000
2179.727539 1889.000000
2180.909424 1901.000000
2182.091064 1877.000000
2183.272217 2038.000000
2184.452148 1911.000000
2185.631104 1917.000000
2186.809570 1911.000000
2187.987793 1777.000000
2189.164795 1868.000000
2190.340820 1921.000000
2191.516602 1930.000000
2192.691895 1887.000000
2193.865723 1847.000000
2195.039063 1900.000000
2196.212158 1895.000000
2197.384033 1832.000000
2198.555420 1910.000000
2199.726318 1914.000000
2200.895508 1872.000000
2202.064697 1954.000000
2203.233398 1781.000000
2204.401123 1844.000000
2205.567871 1912.000000
2206.733887 1828.000000
2207.899414 1824.000000
2209.064697 1811.000000
2210.228516 1753.000000
2211.391846 1837.000000
2212.553955 1837.000000
2213.716309 1896.000000
2214.877441 1714.000000
2216.037598 1862.000000
2217.197266 1867.000000
2218.356689 1878.000000
2219.514893 1779.000000
2220.672119 1847.000000
2221.829102 1783.000000
2222.985352 1870.000000
2224.140869 1783.000000
2225.295654 1906.000000
2226.449463 1726.000000
2227.602295 1753.000000
2228.755615 1756.000000
2229.906982 1766.000000
2231.058105 1683.000000
2232.208496 1715.000000
2233.358398 1778.000000
2234.507324 1697.000000
2235.655762 1687.000000
2236.802734 1666.000000
2237.949951 1778.000000
2239.095947 1724.000000
2240.241699 1735.000000
2241.385742 1659.000000
2242.530029 1648.000000
2243.673340 1687.000000
2244.815918 1641.000000
2245.957520 1667.000000
2247.098877 1651.000000
2248.239258 1648.000000
2249.378906 1506.000000
2250.518066 1578.000000
2251.656006 1522.000000
2252.793945 1583.000000
2253.930908 1620.000000
2255.067139 1624.000000
2256.202393 1528.000000
2257.336914 1524.000000
2258.471191 1530.000000
2259.604980 1593.000000
2260.737305 1681.000000
2261.869141 1568.000000
2263.000488 1500.000000
2264.130859 1468.000000
2265.260986 1550.000000
2266.389893 1450.000000
2267.518311 1476.000000
2268.646240 1463.000000
2269.773193 1485.000000
2270.899414 1456.000000
2272.024658 1472.000000
2273.149902 1484.000000
2274.274414 1475.000000
2275.397705 1535.000000
2276.520264 1452.000000
2277.642334 1499.000000
2278.763916 1503.000000
2279.884766 1522.000000
2281.004395 1530.000000
2282.123535 1351.000000
2283.242432 1550.000000
2284.360596 1458.000000
2285.477783 1345.000000
2286.593994 1412.000000
2287.709961 1431.000000
2288.825195 1388.000000
2289.939697 1404.000000
2291.052979 1463.000000
2292.166260 1488.000000
2293.278809 1454.000000
2294.390625 1509.000000
2295.501709 1352.000000
2296.611572 1565.000000
2297.720947 1384.000000
2298.830078 1436.000000
2299.938232 1457.000000
2301.045410 1504.000000
2302.152344 1457.000000
2303.258545 1364.000000
2304.364258 1428.000000
2305.468506 1370.000000
2306.572510 1429.000000
2307.676025 1478.000000
2308.779053 1376.000000
2309.880859 1436.000000
2310.981934 1356.000000
2312.082520 1478.000000
2313.182617 1407.000000
2314.281982 1432.000000
2315.379883 1335.000000
2316.478271 1367.000000
2317.575195 1332.000000
2318.671875 1442.000000
2319.768066 1433.000000
2320.862549 1390.000000
2321.957031 1493.000000
2323.050781 1327.000000
2324.144287 1367.000000
2325.236084 1369.000000
2326.327881 1277.000000
2327.418945 1434.000000
2328.509277 1473.000000
2329.598633 1406.000000
2330.687988 1514.000000
2331.776123 1435.000000
2332.863770 1452.000000
2333.951172 1353.000000
2335.036865 1325.000000
2336.122314 1320.000000
2337.207520 1303.000000
2338.291748 1271.000000
2339.375000 1318.000000
2340.458008 1266.000000
2341.540039 1165.000000
2342.621826 1199.000000
2343.702881 1275.000000
2344.782715 1217.000000
2345.862061 1243.000000
2346.940918 1238.000000
2348.019287 1263.000000
2349.096191 1170.000000
2350.172852 1221.000000
2351.249268 1202.000000
2352.324707 1211.000000
2353.399170 1226.000000
2354.473389 1244.000000
2355.546875 1238.000000
2356.619873 1216.000000
2357.691650 1234.000000
2358.763184 1177.000000
2359.833740 1220.000000
2360.904053 1263.000000
2361.973389 1148.000000
2363.041748 1216.000000
2364.109863 1126.000000
2365.177246 1095.000000
2366.244141 1122.000000
2367.310303 1108.000000
2368.375244 1092.000000
2369.440186 1177.000000
2370.504395 1087.000000
2371.567871 1091.000000
2372.630127 1124.000000
2373.692383 1137.000000
2374.753662 1142.000000
2375.814697 1158.000000
2376.874512 1050.000000
2377.933594 1156.000000
2378.992676 1151.000000
2380.050781 1092.000000
2381.108154 1152.000000
2382.164551 1097.000000
2383.220703 1000.000000
2384.276367 1062.000000
2385.331299 956.000000
2386.384766 1052.000000
2387.438477 1155.000000
2388.491211 1136.000000
2389.543457 1112.000000
2390.594971 1135.000000
2391.645508 1027.000000
2392.695801 1106.000000
2393.745117 1107.000000
2394.794434 1037.000000
2395.842285 1139.000000
2396.889648 1166.000000
2397.936768 1216.000000
2398.982910 1093.000000
2400.028320 1093.000000
2401.072998 1202.000000
2402.117676 1137.000000
2403.160889 981.000000
2404.204102 1078.000000
2405.245850 1022.000000
2406.287842 1033.000000
2407.329102 1162.000000
2408.369385 1079.000000
2409.408936 1037.000000
2410.447510 1076.000000
2411.486328 1079.000000
2412.523926 1115.000000
2413.561279 1031.000000
2414.597412 1123.000000
2415.633301 999.000000
2416.668457 1106.000000
2417.703125 1082.000000
2418.736328 1081.000000
2419.769775 967.000000
2420.802246 937.000000
2421.834473 1020.000000
2422.865234 1003.000000
2423.895996 987.000000
2424.926270 1111.000000
2425.955322 1014.000000
2426.984375 1005.000000
2428.011719 1002.000000
2429.039551 959.000000
2430.066162 1043.000000
2431.092529 948.000000
2432.117432 974.000000
2433.142578 1099.000000
2434.166748 951.000000
2435.190674 935.000000
2436.213379 903.000000
2437.235352 996.000000
2438.257080 986.000000
2439.278076 910.000000
2440.298584 923.000000
2441.317871 863.000000
2442.337158 980.000000
2443.355469 1011.000000
2444.373535 936.000000
2445.390137 939.000000
2446.406738 946.000000
2447.422607 876.000000
2448.438477 942.000000
2449.452881 793.000000
2450.466553 883.000000
2451.479736 844.000000
2452.492676 908.000000
2453.504883 957.000000
2454.516113 857.000000
2455.527100 1015.000000
2456.537354 853.000000
2457.547119 1015.000000
2458.555908 850.000000
2459.563965 926.000000
2460.572021 902.000000
2461.578857 959.000000
2462.585449 950.000000
2463.590820 836.000000
2464.595947 847.000000
2465.600830 797.000000
2466.604492 851.000000
2467.607910 871.000000
2468.610352 816.000000
2469.612549 829.000000
2470.614258 854.000000
2471.614990 846.000000
2472.614746 945.000000
2473.614502 864.000000
2474.613281 829.000000
2475.611572 856.000000
2476.608887 776.000000
2477.605957 917.000000
2478.603027 867.000000
2479.598633 859.000000
2480.594238 784.000000
2481.588135 868.000000
2482.582031 870.000000
2483.575439 822.000000
2484.568359 766.000000
2485.560303 804.000000
2486.551514 813.000000
2487.542480 856.000000
2488.532959 796.000000
2489.522461 904.000000
2490.511230 799.000000
2491.500000 795.000000
2492.487793 841.000000
2493.474365 857.000000
2494.460938 880.000000
2495.447021 805.000000
2496.432373 765.000000
2497.416748 867.000000
2498.400879 829.000000
2499.385010 800.000000
2500.367676 837.000000
2501.349854 835.000000
2502.331543 749.000000
2503.312500 858.000000
2504.292969 772.000000
2505.273193 851.000000
2506.251953 810.000000
2507.230469 778.000000
2508.208496 725.000000
2509.186035 784.000000
2510.162598 774.000000
2511.138916 812.000000
2512.114502 792.000000
2513.089600 706.000000
2514.064209 844.000000
2515.037598 781.000000
2516.010742 667.000000
2516.983643 775.000000
2517.955566 840.000000
2518.926758 753.000000
2519.897461 858.000000
2520.867920 793.000000
2521.837646 798.000000
2522.806396 739.000000
2523.774414 813.000000
2524.742432 843.000000
2525.709473 798.000000
2526.676270 696.000000
2527.641846 717.000000
2528.607422 766.000000
2529.572266 755.000000
2530.536621 773.000000
2531.499756 760.000000
2532.463135 730.000000
2533.425537 677.000000
2534.387695 730.000000
2535.348633 778.000000
2536.308838 759.000000
2537.269287 708.000000
2538.228760 686.000000
2539.187500 708.000000
2540.145264 687.000000
2541.103271 703.000000
2542.060547 656.000000
2543.016846 728.000000
2543.972900 661.000000
2544.927734 631.000000
2545.882813 546.000000
2546.837158 632.000000
2547.790771 256.000000
2548.743408 743.000000
2549.695801 702.000000
2550.647705 692.000000
2551.598877 740.000000
2552.549316 716.000000
2553.499268 641.000000
2554.448975 615.000000
2555.397949 736.000000
2556.346436 603.000000
2557.293701 672.000000
2558.240967 578.000000
2559.187500 649.000000
2560.133545 665.000000
2561.078613 726.000000
2562.023438 737.000000
2562.967773 711.000000
2563.911621 705.000000
2564.854980 658.000000
2565.796875 649.000000
2566.739014 583.000000
2567.680420 631.000000
2568.621094 678.000000
2569.561035 495.000000
2570.500977 677.000000
2571.439941 630.000000
2572.378662 646.000000
2573.316406 655.000000
2574.253906 606.000000
2575.190674 642.000000
2576.126709 573.000000
2577.062256 559.000000
2577.997070 625.000000
2578.931885 663.000000
2579.865723 540.000000
2580.799072 663.000000
2581.731689 673.000000
2582.664063 665.000000
2583.595703 642.000000
2584.526855 631.000000
2585.457520 658.000000
2586.386963 621.000000
2587.316406 622.000000
2588.245361 592.000000
2589.174072 570.000000
2590.101074 653.000000
2591.028320 641.000000
2591.955078 652.000000
2592.881104 624.000000
2593.806885 612.000000
2594.731445 634.000000
2595.655762 542.000000
2596.579590 603.000000
2597.502930 652.000000
2598.425293 568.000000
2599.347412 708.000000
2600.269043 527.000000
2601.189941 517.000000
2602.110107 669.000000
2603.030029 631.000000
2603.949463 548.000000
2604.868652 602.000000
2605.786865 530.000000
2606.703857 594.000000
2607.621094 599.000000
2608.538086 640.000000
2609.454102 589.000000
2610.368896 569.000000
2611.284180 540.000000
2612.198730 561.000000
2613.112305 556.000000
2614.025879 569.000000
2614.938232 555.000000
2615.850586 612.000000
2616.761963 633.000000
2617.673096 629.000000
2618.583496 530.000000
2619.493652 574.000000
2620.403076 589.000000
2621.312012 522.000000
2622.219971 594.000000
2623.128174 596.000000
2624.035400 509.000000
2624.942139 461.000000
2625.848145 569.000000
2626.753906 631.000000
2627.658936 573.000000
2628.563721 547.000000
2629.467773 507.000000
2630.370850 538.000000
2631.273926 537.000000
2632.176025 494.000000
2633.078125 499.000000
2633.979980 577.000000
2634.880127 671.000000
2635.780518 507.000000
2636.680176 548.000000
2637.579590 498.000000
2638.477539 477.000000
2639.375977 441.000000
2640.273926 569.000000
2641.171143 489.000000
2642.067139 455.000000
2642.963135 478.000000
2643.858887 537.000000
2644.753906 527.000000
2645.648682 446.000000
2646.541992 614.000000
2647.435303 580.000000
2648.328369 403.000000
2649.221191 531.000000
2650.112305 403.000000
2651.003662 492.000000
2651.894531 508.000000
2652.784668 501.000000
2653.674561 417.000000
2654.563232 466.000000
2655.452148 492.000000
2656.340576 432.000000
2657.228027 497.000000
2658.114502 521.000000
2659.001465 436.000000
2659.887695 377.000000
2660.773438 448.000000
2661.657959 425.000000
2662.542480 478.000000
2663.426758 485.000000
2664.310303 458.000000
2665.193359 576.000000
2666.075684 478.000000
2666.957520 429.000000
2667.838623 518.000000
2668.719971 492.000000
2669.599854 463.000000
2670.479980 517.000000
2671.359375 499.000000
2672.238770 444.000000
2673.117432 493.000000
2673.994385 435.000000
2674.872070 533.000000
2675.749023 486.000000
2676.625244 429.000000
2677.500977 483.000000
2678.375977 470.000000
2679.251221 526.000000
2680.125488 508.000000
2680.999268 378.000000
2681.872314 485.000000
2682.745117 424.000000
2683.617676 445.000000
2684.489502 453.000000
2685.360596 475.000000
2686.231445 363.000000
2687.101807 461.000000
2687.971924 539.000000
2688.840332 486.000000
2689.709473 487.000000
2690.577881 459.000000
2691.446045 425.000000
2692.313477 486.000000
2693.179688 416.000000
2694.046387 477.000000
2694.912109 407.000000
2695.777832 435.000000
2696.642090 448.000000
2697.507080 447.000000
2698.370605 338.000000
2699.234375 467.000000
2700.096680 451.000000
2700.959473 496.000000
2701.821289 441.000000
2702.682617 451.000000
2703.543945 443.000000
2704.404053 419.000000
2705.264160 476.000000
2706.123779 370.000000
2706.983154 426.000000
2707.840820 413.000000
2708.698730 447.000000
2709.557129 339.000000
2710.414307 479.000000
2711.270752 480.000000
2712.126709 414.000000
2712.982666 462.000000
2713.837891 450.000000
2714.692383 422.000000
2715.546387 295.000000
2716.400391 465.000000
2717.253418 427.000000
2718.106689 347.000000
2718.958252 348.000000
2719.810303 417.000000
2720.662109 302.000000
2721.512695 441.000000
2722.363281 499.000000
2723.213379 365.000000
2724.062744 346.000000
2724.912109 504.000000
2725.760254 294.000000
2726.607910 370.000000
2727.456055 402.000000
2728.302979 368.000000
2729.150391 373.000000
2729.996338 305.000000
2730.841553 393.000000
2731.687256 352.000000
2732.531982 361.000000
2733.376709 449.000000
2734.220215 286.000000
2735.063965 363.000000
2735.906982 437.000000
2736.749512 411.000000
2737.591064 366.000000
2738.433105 376.000000
2739.274170 450.000000
2740.114990 394.000000
2740.955566 347.000000
2741.794922 344.000000
2742.634277 337.000000
2743.473633 340.000000
2744.311768 405.000000
2745.149414 391.000000
2745.987061 408.000000
2746.824219 387.000000
2747.661133 311.000000
2748.497559 366.000000
2749.332764 381.000000
2750.168213 384.000000
2751.003174 351.000000
2751.837402 374.000000
2752.671387 400.000000
2753.504883 350.000000
2754.338379 385.000000
2755.170898 326.000000
2756.002930 385.000000
2756.834473 328.000000
2757.666016 323.000000
2758.496582 375.000000
2759.327393 424.000000
2760.156982 283.000000
2760.986572 343.000000
2761.815918 357.000000
2762.644531 523.000000
2763.472656 316.000000
2764.300293 397.000000
2765.127930 290.000000
2765.955078 329.000000
2766.781494 301.000000
2767.607422 277.000000
2768.432861 342.000000
2769.258057 283.000000
2770.083252 334.000000
2770.907227 342.000000
2771.731201 326.000000
2772.555176 336.000000
2773.377930 318.000000
2774.200928 380.000000
2775.022705 373.000000
2775.844482 352.000000
2776.666260 287.000000
2777.487061 341.000000
2778.307129 291.000000
2779.127441 334.000000
2779.947266 403.000000
2780.767090 254.000000
2781.584961 363.000000
2782.404053 302.000000
2783.221924 291.000000
2784.039551 257.000000
2784.856689 311.000000
2785.673340 221.000000
2786.489746 332.000000
2787.305664 334.000000
2788.121338 322.000000
2788.936035 306.000000
2789.751221 309.000000
2790.565674 288.000000
2791.379639 288.000000
2792.193359 309.000000
2793.005859 216.000000
2793.818604 186.000000
2794.630859 315.000000
2795.442627 301.000000
2796.253662 270.000000
2797.065430 412.000000
2797.875977 236.000000
2798.686523 337.000000
2799.495605 198.000000
2800.305420 399.000000
2801.114502 265.000000
2801.923340 275.000000
2802.731689 233.000000
2803.539063 276.000000
2804.346924 286.000000
2805.154053 350.000000
2805.960938 327.000000
2806.766602 274.000000
2807.572754 272.000000
2808.378174 287.000000
2809.183594 280.000000
2809.988281 253.000000
2810.791992 179.000000
2811.596191 232.000000
2812.399902 274.000000
2813.203369 323.000000
2814.005371 322.000000
2814.808105 319.000000
2815.610107 268.000000
2816.411865 352.000000
2817.213135 331.000000
2818.013916 320.000000
2818.814209 367.000000
2819.614746 203.000000
2820.414307 249.000000
2821.213379 354.000000
2822.012451 248.000000
2822.811279 318.000000
2823.609619 234.000000
2824.406982 262.000000
2825.204590 288.000000
2826.001465 271.000000
2826.798584 296.000000
2827.594971 308.000000
2828.390625 172.000000
2829.186279 284.000000
2829.981689 155.000000
2830.776611 343.000000
2831.570801 276.000000
2832.364990 279.000000
2833.158936 280.000000
2833.952393 242.000000
2834.745117 290.000000
2835.537598 260.000000
2836.330078 230.000000
2837.122314 219.000000
2837.914063 280.000000
2838.704834 307.000000
2839.495605 276.000000
2840.286621 349.000000
2841.076660 181.000000
2841.866211 224.000000
2842.656006 321.000000
2843.444824 273.000000
2844.233643 266.000000
2845.022461 315.000000
2845.810303 324.000000
2846.597656 198.000000
2847.385254 265.000000
2848.172363 216.000000
2848.958740 230.000000
2849.745117 252.000000
2850.531250 297.000000
2851.316895 334.000000
2852.101563 325.000000
2852.886719 309.000000
2853.671631 308.000000
2854.455811 277.000000
2855.239990 223.000000
2856.022949 170.000000
2856.806152 270.000000
2857.589111 359.000000
2858.371582 229.000000
2859.153809 226.000000
2859.935547 240.000000
2860.717041 296.000000
2861.498779 278.000000
2862.279785 231.000000
2863.060059 225.000000
2863.840088 276.000000
2864.620117 276.000000
2865.399902 219.000000
2866.178711 306.000000
2866.957764 277.000000
2867.736328 261.000000
2868.514648 220.000000
2869.292480 299.000000
2870.070068 356.000000
2870.847412 342.000000
2871.624512 334.000000
2872.401123 321.000000
2873.177246 210.000000
2873.953369 255.000000
2874.729004 324.000000
2875.504395 312.000000
2876.279297 417.000000
2877.053955 281.000000
2877.828613 373.000000
2878.603027 331.000000
2879.376709 347.000000
2880.149658 309.000000
2880.923340 245.000000
2881.696045 286.000000
2882.468750 354.000000
2883.240723 265.000000
2884.012451 378.000000
2884.784668 459.000000
2885.555664 359.000000
2886.326172 429.000000
2887.097168 354.000000
2887.868164 407.000000
2888.638428 410.000000
2889.407715 382.000000
2890.177246 223.000000
2890.946777 348.000000
2891.715820 279.000000
2892.484375 313.000000
2893.252930 367.000000
2894.020508 325.000000
2894.788574 305.000000
2895.556152 418.000000
2896.323730 262.000000
2897.090088 290.000000
2897.857422 265.000000
2898.623535 303.000000
2899.389893 277.000000
2900.154785 284.000000
2900.920166 415.000000
2901.686035 309.000000
2902.450439 273.000000
2903.214844 243.000000
2903.979492 272.000000
2904.743164 254.000000
2905.507568 294.000000
2906.271240 366.000000
2907.034180 273.000000
2907.796875 336.000000
2908.560059 304.000000
2909.322754 280.000000
2910.084229 308.000000
2910.846191 308.000000
spectrumdark 2048
-97.384613 6216.000000
-94.757744 6216.000000
-92.132751 6077.000000
-89.509651 6455.000000
-86.888420 5838.000000
-84.269089 6292.000000
-81.651619 6104.000000
-79.036026 6418.000000
-76.422310 6299.000000
-73.810471 5877.000000
-71.200493 6100.000000
-68.592400 6020.000000
-65.986153 5964.000000
-63.381779 6055.000000
-60.779270 6122.000000
-58.178616 5660.000000
-55.579823 6273.000000
-52.982887 6896.000000
-50.387806 6435.000000
-47.794579 6517.000000
-45.203201 6241.000000
-42.613670 6778.000000
-40.025982 5988.000000
-37.440144 6059.000000
-34.856148 6554.000000
-32.273991 5763.000000
-29.693678 6384.000000
-27.115192 5668.000000
-24.538549 6143.000000
-21.963732 6241.000000
-19.390755 6547.000000
-16.819597 6488.000000
-14.250273 6784.000000
-11.682775 7767.000000
-9.117095 6254.000000
-6.553242 6479.000000
-3.991201 6032.000000
-1.430985 5885.000000
1.127423 6151.000000
3.684010 7009.000000
6.238792 6670.000000
8.791758 6081.000000
11.342922 6762.000000
13.892274 6514.000000
16.439829 6655.000000
18.985573 6052.000000
21.529524 5703.000000
24.071671 6732.000000
26.612020 6812.000000
29.150585 6862.000000
31.687353 6144.000000
34.222321 5783.000000
36.755508 7233.000000
39.286915 6312.000000
41.816528 7125.000000
44.344345 6541.000000
46.870403 7815.000000
49.394672 5630.000000
51.917171 6189.000000
54.437874 6758.000000
56.956821 6322.000000
59.473995 6478.000000
61.989391 6676.000000
64.503006 5678.000000
67.014870 5736.000000
69.524986 6521.000000
72.033310 6632.000000
74.539879 5957.000000
77.044701 6444.000000
79.547768 6484.000000
82.049057 6270.000000
84.548607 6136.000000
87.046402 6431.000000
89.542465 5765.000000
92.036751 7253.000000
94.529297 5836.000000
97.020126 6925.000000
99.509186 7143.000000
101.996498 6387.000000
104.482086 6255.000000
106.965935 6437.000000
109.448036 5751.000000
111.928413 6610.000000
114.407066 6251.000000
116.883995 6458.000000
119.359169 7179.000000
121.832634 6866.000000
124.304367 5885.000000
126.774391 6710.000000
129.242661 6297.000000
131.709259 6247.000000
134.174103 5757.000000
136.637253 6307.000000
139.098663 7176.000000
141.558380 6866.000000
144.016373 6366.000000
146.472672 6039.000000
148.927261 5858.000000
151.380127 6840.000000
153.831314 6353.000000
156.280807 6609.000000
158.728577 6086.000000
161.174637 6609.000000
163.619019 8457.000000
166.061722 6458.000000
168.502731 6775.000000
170.942032 6265.000000
173.379623 7247.000000
175.815582 6639.000000
178.249802 6972.000000
180.682343 7091.000000
183.113235 6734.000000
185.542404 6766.000000
187.969925 6710.000000
190.395767 6384.000000
192.819931 6686.000000
195.242432 7212.000000
197.663239 7384.000000
200.082382 6509.000000
202.499863 6073.000000
204.915649 7589.000000
207.329788 7045.000000
209.742294 6344.000000
212.153122 6114.000000
214.562271 6239.000000
216.969788 7394.000000
219.375595 6215.000000
221.779816 6525.000000
224.182327 6672.000000
226.583221 6910.000000
228.982468 6501.000000
231.380051 6870.000000
233.775970 7262.000000
236.170273 6565.000000
238.562912 5837.000000
240.953934 6858.000000
243.343292 6600.000000
245.731033 6340.000000
248.117126 6963.000000
250.501587 6099.000000
252.884399 7869.000000
255.265640 6624.000000
257.645172 6636.000000
260.023132 6515.000000
262.399414 7574.000000
264.774139 7570.000000
267.147217 7889.000000
269.518646 6241.000000
271.888428 6483.000000
274.256653 5929.000000
276.623230 6280.000000
278.988220 6767.000000
281.351593 6051.000000
283.713318 6299.000000
286.073456 7170.000000
288.431976 6057.000000
290.788910 6574.000000
293.144226 6423.000000
295.497955 5967.000000
297.850037 5992.000000
300.200562 6350.000000
302.549500 6308.000000
304.896790 6811.000000
307.242554 6478.000000
309.586639 6524.000000
311.929199 7413.000000
314.270142 7621.000000
316.609467 7167.000000
318.947235 6957.000000
321.283447 8064.000000
323.618011 6242.000000
325.951019 6431.000000
328.282471 5970.000000
330.612335 6638.000000
332.940613 6465.000000
335.267273 7257.000000
337.592438 6330.000000
339.915985 6233.000000
342.237976 6013.000000
344.558411 7507.000000
346.877228 7659.000000
349.194489 6004.000000
351.510223 5843.000000
353.824371 6995.000000
356.136932 6379.000000
358.447937 6350.000000
360.757416 7064.000000
363.065369 6391.000000
365.371704 5655.000000
367.676453 6395.000000
369.979736 6425.000000
372.281403 6309.000000
374.581573 6339.000000
376.880188 6347.000000
379.177246 5754.000000
381.472748 6130.000000
383.766724 5907.000000
386.059113 5203.000000
388.350006 5599.000000
390.639374 6233.000000
392.927155 6349.000000
395.213409 6558.000000
397.498169 7043.000000
399.781311 6071.000000
402.063019 6406.000000
404.343201 6143.000000
406.621796 7324.000000
408.898865 6514.000000
411.174408 6731.000000
413.448425 6512.000000
415.721008 6447.000000
417.991974 6312.000000
420.261444 6480.000000
422.529419 7207.000000
424.795837 7264.000000
427.060760 6310.000000
429.324219 6381.000000
431.586090 6520.000000
433.846497 5994.000000
436.105347 6592.000000
438.362732 6117.000000
440.618622 5730.000000
442.873016 5800.000000
445.125885 5485.000000
447.377197 6936.000000
449.627106 6106.000000
451.875427 6292.000000
454.122314 5680.000000
456.367737 6498.000000
458.611603 6497.000000
460.853973 6720.000000
463.094849 5653.000000
465.334320 6768.000000
467.572205 5460.000000
469.808655 5942.000000
472.043579 6056.000000
474.277039 7327.000000
476.509064 6753.000000
478.739563 5720.000000
480.968567 6468.000000
483.196106 6364.000000
485.422150 5974.000000
487.646759 6571.000000
489.869904 5917.000000
492.091583 6413.000000
494.311707 6657.000000
496.530426 5688.000000
498.747650 6306.000000
500.963501 5611.000000
503.177734 6183.000000
505.390656 6463.000000
507.601990 6428.000000
509.811890 6908.000000
512.020386 6494.000000
514.227478 6578.000000
516.432983 6427.000000
518.637085 6548.000000
520.839661 6249.000000
523.040833 6612.000000
525.240662 6721.000000
527.438965 6986.000000
529.635742 5304.000000
531.831177 5863.000000
534.025085 5561.000000
536.217651 7575.000000
538.408691 6732.000000
540.598328 6016.000000
542.786560 6927.000000
544.973267 7150.000000
547.158508 6842.000000
549.342468 6209.000000
551.524841 6405.000000
553.705872 6187.000000
555.885376 6057.000000
558.063599 5933.000000
560.240295 5979.000000
562.415588 6342.000000
564.589478 6454.000000
566.761902 5882.000000
568.932922 6067.000000
571.102478 6326.000000
573.270752 5253.000000
575.437500 6389.000000
577.602783 6293.000000
579.766663 6191.000000
581.929260 5796.000000
584.090332 6094.000000
586.250000 5627.000000
588.408325 5798.000000
590.565125 6234.000000
592.720581 6668.000000
594.874634 5769.000000
597.027344 6122.000000
599.178528 7265.000000
601.328369 6828.000000
603.476868 6692.000000
605.623779 6071.000000
607.769470 6504.000000
609.913757 6422.000000
612.056580 6649.000000
614.197937 6240.000000
616.338074 6495.000000
618.476685 7600.000000
620.614014 5785.000000
622.749878 6607.000000
624.884338 6929.000000
627.017334 7187.000000
629.149170 6645.000000
631.279541 6563.000000
633.408508 6803.000000
635.536011 6518.000000
637.662231 6114.000000
639.786926 7323.000000
641.910400 6379.000000
644.032532 6767.000000
646.153198 6820.000000
648.272522 6585.000000
650.390442 5766.000000
652.507019 5698.000000
654.622192 6502.000000
656.736023 6485.000000
658.848389 5862.000000
660.959534 6197.000000
663.069275 5408.000000
665.177551 6652.000000
667.284668 6306.000000
669.390320 6852.000000
671.494507 5675.000000
673.597473 5712.000000
675.699036 7008.000000
677.799255 5317.000000
679.898071 6708.000000
681.995544 6262.000000
684.091736 6993.000000
686.186462 6212.000000
688.279968 6983.000000
690.372131 6600.000000
692.462769 7936.000000
694.552185 6611.000000
696.640320 6456.000000
698.726990 6047.000000
700.812439 6681.000000
702.896362 5157.000000
704.979065 5910.000000
707.060486 5884.000000
709.140442 7583.000000
711.219177 6255.000000
713.296448 5526.000000
715.372437 6600.000000
717.447144 6100.000000
719.520569 6891.000000
721.592468 6371.000000
723.663208 7388.000000
725.732605 5820.000000
727.800598 6484.000000
729.867249 6350.000000
731.932678 7047.000000
733.996765 5797.000000
736.059509 6136.000000
738.120911 6532.000000
740.181030 6573.000000
742.239746 6099.000000
744.297241 6651.000000
746.353455 6513.000000
748.408264 6704.000000
750.461792 6371.000000
752.513916 7479.000000
754.564819 5806.000000
756.614502 6670.000000
758.662720 6424.000000
760.709717 6126.000000
762.755432 7102.000000
764.799744 5389.000000
766.842773 5737.000000
768.884583 14993.000000
770.925049 6949.000000
772.964111 6389.000000
775.002014 6138.000000
777.038574 5974.000000
779.073914 5406.000000
781.107910 5839.000000
783.140503 6866.000000
785.171936 5524.000000
787.201965 12208.000000
789.230713 6045.000000
791.258301 6370.000000
793.284546 6376.000000
795.309387 5833.000000
797.333130 5584.000000
799.355469 6299.000000
801.376587 5869.000000
803.396362 6700.000000
805.414856 4990.000000
807.432129 6716.000000
809.447998 6827.000000
811.462708 5739.000000
813.476074 6389.000000
815.488220 6289.000000
817.499146 6093.000000
819.508728 6571.000000
821.517090 5359.000000
823.524048 5731.000000
825.529785 6090.000000
827.534302 5822.000000
829.537537 5670.000000
831.539490 6566.000000
833.540161 6079.000000
835.539612 5901.000000
837.537720 6385.000000
839.534729 7085.000000
841.530334 6216.000000
843.524780 5834.000000
845.517883 6223.000000
847.509766 6859.000000
849.500305 5610.000000
851.489563 6817.000000
853.477783 5976.000000
855.464600 5735.000000
857.450195 6354.000000
859.434509 7272.000000
861.417725 6379.000000
863.399536 6428.000000
865.380127 5882.000000
867.359436 7689.000000
869.337585 7152.000000
871.314392 6166.000000
873.289917 6025.000000
875.264404 6121.000000
877.237427 6095.000000
879.209412 5456.000000
881.180054 6408.000000
883.149536 6075.000000
885.117676 5554.000000
887.084656 5234.000000
889.050293 6113.000000
891.014771 5785.000000
892.978027 6035.000000
894.940063 6457.000000
896.900818 5833.000000
898.860352 6434.000000
900.818604 6775.000000
902.775757 6342.000000
904.731750 6054.000000
906.686340 6838.000000
908.639709 6513.000000
910.591919 6454.000000
912.542908 6341.000000
914.492615 7140.000000
916.441162 6380.000000
918.388489 6214.000000
920.334534 6089.000000
922.279297 6074.000000
924.223022 6284.000000
926.165588 5977.000000
928.106873 5565.000000
930.046814 6451.000000
931.985657 5761.000000
933.923218 5444.000000
935.859558 5958.000000
937.794739 5907.000000
939.728638 6058.000000
941.661438 5918.000000
943.593018 6773.000000
945.523438 5256.000000
947.452637 6371.000000
949.380493 6977.000000
951.307312 6665.000000
953.232849 5970.000000
955.157104 5408.000000
957.080261 5967.000000
959.002258 6735.000000
960.922974 7306.000000
962.842529 6396.000000
964.760925 5324.000000
966.678284 6443.000000
968.594177 6462.000000
970.508972 6201.000000
972.422546 5940.000000
974.334961 6440.000000
976.246155 6531.000000
978.156189 5528.000000
980.064941 6226.000000
981.972656 6152.000000
983.879150 6365.000000
985.784424 5742.000000
987.688599 6805.000000
989.591553 6180.000000
991.493286 6780.000000
993.393860 6542.000000
995.293274 6560.000000
997.191467 5282.000000
999.088501 6532.000000
1000.984314 6513.000000
1002.878967 7649.000000
1004.772522 5620.000000
1006.664795 7185.000000
1008.556152 6088.000000
1010.446167 5367.000000
1012.334961 6618.000000
1014.222595 6360.000000
1016.109070 6910.000000
1017.994385 6784.000000
1019.878540 6019.000000
1021.761475 5921.000000
1023.643372 6236.000000
1025.523926 5212.000000
1027.403442 5848.000000
1029.281982 6083.000000
1031.159180 5402.000000
1033.035034 6173.000000
1034.909912 5925.000000
1036.783813 6649.000000
1038.656250 6998.000000
1040.527710 6792.000000
1042.397827 5546.000000
1044.266968 5531.000000
1046.134888 5807.000000
1048.001709 7004.000000
1049.867432 6745.000000
1051.731934 6408.000000
1053.595337 6538.000000
1055.457397 6498.000000
1057.318481 5916.000000
1059.178467 6491.000000
1061.037109 6689.000000
1062.894653 5789.000000
1064.751099 6792.000000
1066.606445 5949.000000
1068.460571 5803.000000
1070.313843 6311.000000
1072.165649 6334.000000
1074.016479 6180.000000
1075.866089 6163.000000
1077.714478 5743.000000
1079.562012 7958.000000
1081.408203 5637.000000
1083.253174 6253.000000
1085.097290 5403.000000
1086.940063 5478.000000
1088.781616 6572.000000
1090.622437 5527.000000
1092.461670 5766.000000
1094.300171 6047.000000
1096.137329 6049.000000
1097.973267 6793.000000
1099.808228 6638.000000
1101.641968 5424.000000
1103.474731 5726.000000
1105.306152 6138.000000
1107.136719 7266.000000
1108.965942 6572.000000
1110.794189 6493.000000
1112.621216 7112.000000
1114.447266 5464.000000
1116.272095 6401.000000
1118.095825 7109.000000
1119.918335 6087.000000
1121.739746 5877.000000
1123.560303 5889.000000
1125.379395 6578.000000
1127.197632 7103.000000
1129.014526 6919.000000
1130.830566 6698.000000
1132.645386 6486.000000
1134.459106 5660.000000
1136.271729 5806.000000
1138.083130 5627.000000
1139.893555 6176.000000
1141.702881 6772.000000
1143.510864 6969.000000
1145.318115 5929.000000
1147.123901 5951.000000
1148.928833 5372.000000
1150.732666 5424.000000
1152.535278 6098.000000
1154.337036 6119.000000
1156.137329 6146.000000
1157.936646 6081.000000
1159.734985 5888.000000
1161.531982 5544.000000
1163.328247 5935.000000
1165.123169 6096.000000
1166.916992 6310.000000
1168.709961 7773.000000
1170.501587 5777.000000
1172.292236 6446.000000
1174.081909 6009.000000
1175.870117 5772.000000
1177.657471 7467.000000
1179.443726 6922.000000
1181.228882 5777.000000
1183.012939 5955.000000
1184.795898 7709.000000
1186.577881 5898.000000
1188.358643 5917.000000
1190.138428 6315.000000
1191.917114 7026.000000
1193.694824 6706.000000
1195.471313 7172.000000
1197.246704 6571.000000
1199.020996 6558.000000
1200.794189 6633.000000
1202.566528 6529.000000
1204.337524 6713.000000
1206.107666 5702.000000
1207.876587 6093.000000
1209.644409 6322.000000
1211.411377 5883.000000
1213.177002 5927.000000
1214.941650 7012.000000
1216.705200 6542.000000
1218.467651 5933.000000
1220.229248 6731.000000
1221.989624 5922.000000
1223.748901 6284.000000
1225.507324 6065.000000
1227.264526 7114.000000
1229.020630 6410.000000
1230.775635 5568.000000
1232.529785 6012.000000
1234.282593 5814.000000
1236.034424 6029.000000
1237.785400 5961.000000
1239.535034 4965.000000
1241.283813 6973.000000
1243.031250 6536.000000
1244.777954 6623.000000
1246.523438 6531.000000
1248.268066 6582.000000
1250.011353 6782.000000
1251.753662 6649.000000
1253.494873 5391.000000
1255.235229 5078.000000
1256.974487 5753.000000
1258.712524 6612.000000
1260.449707 7175.000000
1262.185669 6119.000000
1263.920654 6480.000000
1265.654663 7238.000000
1267.387695 5996.000000
1269.119507 6270.000000
1270.850342 6439.000000
1272.579956 7285.000000
1274.308716 5945.000000
1276.036377 5724.000000
1277.762939 5532.000000
1279.488647 5495.000000
1281.213013 6438.000000
1282.936523 5194.000000
1284.659058 6913.000000
1286.380615 6609.000000
1288.100952 6178.000000
1289.820313 6649.000000
1291.538574 7316.000000
1293.255859 6451.000000
1294.972168 5847.000000
1296.687256 6364.000000
1298.401367 6078.000000
1300.114502 5777.000000
1301.826782 6463.000000
1303.537842 8374.000000
1305.247925 5241.000000
1306.956909 6320.000000
1308.664673 6691.000000
1310.371826 7126.000000
1312.077515 5849.000000
1313.782471 6843.000000
1315.486450 6212.000000
1317.189209 5991.000000
1318.890991 6580.000000
1320.591919 6007.000000
1322.291504 18278.000000
1323.990234 30549.000000
1325.688232 5650.000000
1327.384888 6457.000000
1329.080444 7159.000000
1330.775146 6931.000000
1332.468628 5803.000000
1334.161255 5396.000000
1335.853027 7271.000000
1337.543457 6291.000000
1339.233154 6587.000000
1340.921753 6102.000000
1342.609253 7633.000000
1344.295776 5679.000000
1345.981201 6807.000000
1347.665649 5963.000000
1349.349243 7160.000000
1351.031616 6427.000000
1352.713013 5958.000000
1354.393555 6522.000000
1356.072876 6743.000000
1357.751587 5873.000000
1359.428955 6518.000000
1361.105225 5804.000000
1362.780518 5569.000000
1364.455078 6606.000000
1366.128418 6482.000000
1367.800781 6792.000000
1369.472168 5196.000000
1371.142578 6770.000000
1372.811890 6228.000000
1374.480225 5696.000000
1376.147705 5985.000000
1377.814087 6476.000000
1379.479492 6172.000000
1381.143921 5853.000000
1382.807129 5893.000000
1384.469727 5766.000000
1386.130981 6401.000000
1387.791382 6585.000000
1389.450684 6486.000000
1391.109009 6518.000000
1392.766602 6845.000000
1394.422974 6491.000000
1396.078491 6971.000000
1397.732788 6333.000000
1399.386230 5897.000000
1401.038574 6114.000000
1402.690186 6402.000000
1404.340576 7187.000000
1405.989868 6287.000000
1407.638428 7479.000000
1409.285889 7880.000000
1410.932373 6176.000000
1412.578003 6274.000000
1414.222656 5983.000000
1415.866089 7051.000000
1417.508667 7120.000000
1419.150146 6832.000000
1420.790771 6480.000000
1422.430420 6506.000000
1424.068970 6002.000000
1425.706665 6573.000000
1427.343262 6324.000000
1428.978882 6032.000000
1430.613770 6340.000000
1432.247559 5901.000000
1433.880249 6114.000000
1435.511963 5692.000000
1437.142822 6141.000000
1438.772583 6108.000000
1440.401245 7782.000000
1442.029297 5988.000000
1443.656250 6221.000000
1445.281982 6222.000000
1446.907104 6228.000000
1448.531128 6573.000000
1450.154175 5997.000000
1451.776245 5983.000000
1453.397217 7420.000000
1455.017212 6273.000000
1456.636475 6867.000000
1458.254395 5683.000000
1459.871704 19058.000000
1461.488037 5512.000000
1463.103149 7250.000000
1464.717407 6291.000000
1466.330811 5202.000000
1467.943115 5605.000000
1469.554565 6232.000000
1471.165161 6365.000000
1472.774536 6051.000000
1474.382935 5989.000000
1475.990479 6250.000000
1477.597046 6705.000000
1479.202881 5234.000000
1480.807495 6275.000000
1482.411255 5526.000000
1484.013794 6812.000000
1485.615723 5594.000000
1487.216431 5505.000000
1488.816406 5634.000000
1490.415283 6260.000000
1492.013306 6525.000000
1493.610229 6725.000000
1495.206299 6330.000000
1496.801392 5953.000000
1498.395508 5457.000000
1499.988892 6555.000000
1501.581177 5522.000000
1503.172241 6224.000000
1504.762817 6727.000000
1506.352051 6471.000000
1507.940674 6150.000000
1509.528198 6540.000000
1511.114624 6977.000000
1512.700317 6230.000000
1514.284912 6654.000000
1515.868652 6256.000000
1517.451294 6244.000000
1519.033203 6511.000000
1520.614014 6664.000000
1522.194092 6077.000000
1523.772949 6208.000000
1525.350952 6453.000000
1526.928223 6267.000000
1528.504272 5677.000000
1530.079590 5930.000000
1531.653809 6345.000000
1533.227295 5491.000000
1534.799561 5971.000000
1536.371094 6395.000000
1537.941650 6421.000000
1539.511353 6355.000000
1541.079834 5474.000000
1542.647583 6566.000000
1544.214478 5647.000000
1545.780151 6834.000000
1547.345093 5979.000000
1548.908936 5020.000000
1550.472168 7468.000000
1552.034058 6334.000000
1553.595337 6017.000000
1555.155518 5731.000000
1556.714966 5797.000000
1558.273315 5945.000000
1559.830933 6284.000000
1561.387451 7083.000000
1562.942749 5862.000000
1564.497437 6386.000000
1566.051392 5719.000000
1567.604370 6352.000000
1569.156006 5675.000000
1570.706909 5905.000000
1572.257080 6256.000000
1573.806274 6331.000000
1575.354126 5789.000000
1576.901489 5530.000000
1578.447876 5783.000000
1579.993408 5044.000000
1581.537964 6635.000000
1583.081299 6407.000000
1584.624023 6641.000000
1586.165894 6467.000000
1587.706665 6672.000000
1589.246460 5790.000000
1590.785522 6746.000000
1592.323486 5878.000000
1593.860962 6114.000000
1595.397095 5824.000000
1596.932129 6732.000000
1598.466675 6169.000000
1600.000244 5952.000000
1601.532959 6045.000000
1603.064087 6288.000000
1604.594971 6252.000000
1606.125000 5830.000000
1607.653809 6172.000000
1609.181519 6222.000000
1610.708618 5981.000000
1612.234985 5852.000000
1613.760376 6268.000000
1615.284912 5808.000000
1616.808105 5800.000000
1618.330566 5627.000000
1619.852295 6564.000000
1621.373169 6936.000000
1622.892578 15609.000000
1624.411499 6168.000000
1625.929688 6107.000000
1627.447021 5904.000000
1628.963257 6405.000000
1630.478149 7018.000000
1631.992554 6753.000000
1633.506226 5762.000000
1635.018799 6845.000000
1636.530151 5939.000000
1638.041138 6473.000000
1639.551025 6311.000000
1641.060059 6264.000000
1642.567749 5674.000000
1644.075073 6154.000000
1645.581543 7075.000000
1647.087036 6323.000000
1648.591675 6852.000000
1650.094849 6144.000000
1651.597412 6624.000000
1653.099609 6375.000000
1654.600464 6679.000000
1656.100220 7580.000000
1657.599121 5972.000000
1659.097656 6576.000000
1660.594971 6270.000000
1662.091553 5923.000000
1663.586548 6504.000000
1665.081299 6369.000000
1666.575195 5201.000000
1668.068115 5613.000000
1669.559692 20551.000000
1671.050781 6444.000000
1672.541260 6135.000000
1674.030640 5975.000000
1675.518555 6950.000000
1677.006226 6835.000000
1678.492920 6044.000000
1679.978760 5339.000000
1681.463745 6118.000000
1682.947266 6180.000000
1684.430542 6207.000000
1685.912964 5909.000000
1687.394287 6223.000000
1688.874146 6180.000000
1690.353760 5641.000000
1691.832642 6719.000000
1693.310547 5999.000000
1694.787476 6198.000000
1696.263184 5792.000000
1697.738525 6058.000000
1699.212646 6290.000000
1700.686157 5519.000000
1702.158203 5644.000000
1703.630005 6900.000000
1705.100830 6389.000000
1706.570801 7084.000000
1708.039429 5175.000000
1709.507568 5877.000000
1710.974976 6340.000000
1712.441284 5598.000000
1713.906982 5765.000000
1715.370972 6235.000000
1716.834839 5962.000000
1718.297852 6924.000000
1719.759888 6392.000000
1721.220703 6650.000000
1722.680908 5458.000000
1724.140381 5680.000000
1725.598999 6165.000000
1727.056641 6048.000000
1728.512939 6284.000000
1729.968994 6077.000000
1731.424072 6477.000000
1732.878174 5999.000000
1734.331055 6864.000000
1735.783691 5984.000000
1737.235229 6719.000000
1738.686035 5943.000000
1740.135864 6571.000000
1741.584351 5917.000000
1743.032471 7376.000000
1744.479736 6591.000000
1745.926270 6595.000000
1747.371216 6727.000000
1748.815918 6226.000000
1750.259766 5841.000000
1751.702759 5491.000000
1753.144287 6539.000000
1754.585571 6378.000000
1756.026001 19304.000000
1757.465454 6270.000000
1758.903931 5323.000000
1760.341431 6023.000000
1761.778442 7568.000000
1763.214478 5836.000000
1764.649658 7192.000000
1766.083374 6142.000000
1767.516968 6422.000000
1768.949585 6668.000000
1770.381348 5737.000000
1771.812256 5761.000000
1773.241943 6372.000000
1774.670898 6125.000000
1776.099365 6309.000000
1777.526855 6738.000000
1778.953003 6266.000000
1780.378906 5645.000000
1781.803711 6834.000000
1783.227905 5582.000000
1784.650635 6640.000000
1786.072876 6564.000000
1787.494385 6870.000000
1788.915161 5908.000000
1790.334961 6149.000000
1791.753418 6169.000000
1793.171387 6861.000000
1794.588745 5549.000000
1796.005249 6049.000000
1797.420288 6570.000000
1798.834961 5910.000000
1800.249023 6586.000000
1801.661865 6011.000000
1803.074097 7011.000000
1804.484985 7133.000000
1805.895386 7789.000000
1807.305054 6457.000000
1808.713745 5966.000000
1810.121338 5399.000000
1811.528442 6459.000000
1812.934692 6383.000000
1814.339966 6738.000000
1815.744141 6017.000000
1817.147949 5902.000000
1818.550781 6263.000000
1819.952759 6006.000000
1821.354126 5889.000000
1822.754028 6358.000000
1824.153320 6565.000000
1825.552124 6599.000000
1826.950073 7456.000000
1828.346680 5747.000000
1829.742676 6745.000000
1831.137939 5882.000000
1832.532593 8142.000000
1833.926270 5988.000000
1835.318604 6843.000000
1836.710449 6390.000000
1838.101685 5828.000000
1839.491943 7089.000000
1840.880981 6024.000000
1842.269653 6122.000000
1843.657349 5960.000000
1845.044312 5856.000000
1846.429932 6866.000000
1847.815308 5876.000000
1849.199829 6381.000000
1850.583618 6280.000000
1851.966309 6393.000000
1853.347778 5485.000000
1854.728760 6569.000000
1856.109253 6363.000000
1857.488770 5708.000000
1858.866821 6019.000000
1860.244751 6203.000000
1861.621704 7835.000000
1862.997925 6119.000000
1864.373291 6029.000000
1865.747192 5602.000000
1867.120972 5742.000000
1868.493896 6198.000000
1869.865723 5978.000000
1871.236572 6939.000000
1872.607056 5469.000000
1873.976440 6084.000000
1875.345337 6092.000000
1876.712646 7208.000000
1878.079834 6015.000000
1879.446045 5999.000000
1880.811523 6945.000000
1882.176270 7500.000000
1883.539429 6825.000000
1884.902466 6926.000000
1886.264648 6350.000000
1887.625977 6435.000000
1888.985962 5672.000000
1890.345581 5822.000000
1891.704590 6168.000000
1893.062622 6632.000000
1894.419800 7330.000000
1895.775757 6036.000000
1897.131470 7612.000000
1898.486206 5900.000000
1899.840088 5533.000000
1901.192871 5877.000000
1902.545166 5989.000000
1903.896729 5980.000000
1905.247437 6921.000000
1906.596924 6587.000000
1907.945923 6719.000000
1909.294067 5770.000000
1910.641602 6136.000000
1911.988403 6231.000000
1913.333618 6806.000000
1914.678589 6070.000000
1916.022827 5444.000000
1917.366211 6488.000000
1918.708252 5971.000000
1920.050049 6709.000000
1921.390991 7008.000000
1922.731201 6120.000000
1924.070435 6332.000000
1925.408691 6267.000000
1926.746338 6455.000000
1928.083252 7025.000000
1929.419312 6724.000000
1930.754150 5576.000000
1932.088623 6758.000000
1933.422363 7402.000000
1934.755249 6290.000000
1936.086670 5760.000000
1937.418213 6397.000000
1938.748413 6724.000000
1940.078125 5748.000000
1941.406982 6073.000000
1942.734619 5801.000000
1944.061768 5091.000000
1945.388184 5877.000000
1946.713867 6488.000000
1948.038208 5834.000000
1949.362305 6662.000000
1950.685547 6287.000000
1952.008057 6394.000000
1953.329468 5888.000000
1954.649902 7396.000000
1955.969727 6025.000000
1957.289185 5531.000000
1958.607666 6820.000000
1959.924805 5933.000000
1961.241577 5917.000000
1962.557617 6631.000000
1963.872925 6650.000000
1965.186768 6304.000000
1966.500366 5674.000000
1967.813232 6303.000000
1969.125244 6035.000000
1970.436646 6044.000000
1971.746704 6300.000000
1973.056274 5816.000000
1974.365112 6190.000000
1975.673340 6642.000000
1976.980225 6096.000000
1978.286499 7268.000000
1979.592407 5621.000000
1980.897095 6389.000000
1982.201294 5909.000000
1983.504272 5713.000000
1984.806885 7548.000000
1986.108521 6118.000000
1987.409546 6830.000000
1988.708984 6066.000000
1990.008545 6590.000000
1991.307007 5289.000000
1992.604980 6128.000000
1993.901367 6156.000000
1995.197754 5817.000000
1996.493164 5577.000000
1997.787842 6595.000000
1999.081665 5716.000000
2000.374268 6549.000000
2001.666382 5695.000000
2002.958008 7187.000000
2004.248901 6446.000000
2005.538208 6076.000000
2006.827271 6838.000000
2008.115601 6019.000000
2009.403198 5995.000000
2010.689941 6625.000000
2011.975586 5677.000000
2013.260864 6365.000000
2014.545166 6055.000000
2015.828857 5623.000000
2017.111206 6022.000000
2018.393188 6446.000000
2019.674683 6814.000000
2020.955200 5943.000000
2022.234985 6099.000000
2023.513672 6744.000000
2024.791626 5892.000000
2026.069092 5864.000000
2027.345947 6326.000000
2028.621094 5806.000000
2029.896362 6564.000000
2031.170654 6097.000000
2032.443970 5984.000000
2033.716431 5976.000000
2034.988525 6153.000000
2036.259521 6933.000000
2037.530273 6643.000000
2038.799683 6056.000000
2040.067993 6761.000000
2041.336304 6595.000000
2042.603638 5926.000000
2043.870239 6015.000000
2045.135620 5649.000000
2046.400391 5858.000000
2047.664917 5419.000000
2048.928223 5820.000000
2050.191162 6403.000000
2051.452148 6166.000000
2052.713623 6176.000000
2053.973877 5883.000000
2055.233398 6473.000000
2056.492188 6287.000000
2057.750000 6852.000000
2059.007324 6188.000000
2060.263916 5998.000000
2061.519043 6483.000000
2062.774170 5638.000000
2064.028320 5561.000000
2065.281738 5660.000000
2066.534424 6860.000000
2067.785889 6255.000000
2069.037109 6336.000000
2070.287598 5679.000000
2071.537354 5381.000000
2072.785645 6156.000000
2074.033936 6502.000000
2075.281250 7469.000000
2076.527832 5606.000000
2077.773682 6127.000000
2079.018311 7033.000000
2080.262451 7569.000000
2081.506104 5547.000000
2082.748779 6076.000000
2083.990234 6970.000000
2085.231445 6023.000000
2086.472168 6398.000000
2087.711914 6778.000000
2088.950439 7092.000000
2090.188477 6193.000000
2091.425781 5787.000000
2092.662842 6668.000000
2093.898438 6096.000000
2095.133301 6201.000000
2096.367920 6127.000000
2097.601563 5643.000000
2098.834229 6137.000000
2100.066162 6900.000000
2101.297607 6411.000000
2102.528076 6787.000000
2103.757813 6047.000000
2104.987305 5998.000000
2106.214844 5985.000000
2107.442627 5954.000000
2108.669678 6298.000000
2109.895752 5499.000000
2111.120361 6408.000000
2112.345215 6978.000000
2113.568848 7008.000000
2114.791992 6245.000000
2116.013916 7526.000000
2117.235596 6073.000000
2118.456299 6868.000000
2119.676270 6029.000000
2120.895752 6171.000000
2122.113770 6588.000000
2123.331787 7102.000000
2124.548828 5748.000000
2125.765381 5646.000000
2126.980225 6490.000000
2128.195313 6388.000000
2129.409424 6856.000000
2130.622803 5721.000000
2131.835449 6120.000000
2133.046631 5804.000000
2134.258057 6629.000000
2135.468262 6721.000000
2136.677979 6038.000000
2137.886230 6192.000000
2139.094482 5704.000000
2140.302002 5882.000000
2141.508301 7607.000000
2142.713867 5925.000000
2143.919189 5641.000000
2145.123535 5593.000000
2146.327148 6316.000000
2147.530273 6179.000000
2148.731934 6626.000000
2149.933350 5318.000000
2151.134033 6315.000000
2152.333984 6009.000000
2153.532715 6123.000000
2154.731201 7056.000000
2155.929199 6220.000000
2157.126221 6026.000000
2158.322510 5195.000000
2159.517578 5295.000000
2160.712402 6184.000000
2161.906494 5536.000000
2163.099609 6040.000000
2164.291748 6922.000000
2165.483643 5902.000000
2166.674805 6273.000000
2167.864990 6305.000000
2169.054443 6493.000000
2170.243408 6828.000000
2171.431396 6029.000000
2172.619141 5791.000000
2173.805420 6002.000000
2174.990967 6563.000000
2176.176270 6012.000000
2177.361084 5890.000000
2178.544678 6386.000000
2179.727539 7521.000000
2180.909424 6346.000000
2182.091064 6072.000000
2183.272217 6549.000000
2184.452148 5733.000000
2185.631104 5599.000000
2186.809570 6332.000000
2187.987793 6965.000000
2189.164795 7247.000000
2190.340820 6675.000000
2191.516602 6090.000000
2192.691895 5656.000000
2193.865723 6706.000000
2195.039063 6111.000000
2196.212158 6166.000000
2197.384033 6468.000000
2198.555420 7105.000000
2199.726318 6349.000000
2200.895508 6886.000000
2202.064697 7585.000000
2203.233398 6316.000000
2204.401123 5902.000000
2205.567871 5594.000000
2206.733887 7085.000000
2207.899414 6659.000000
2209.064697 6072.000000
2210.228516 6760.000000
2211.391846 5492.000000
2212.553955 6202.000000
2213.716309 6174.000000
2214.877441 6760.000000
2216.037598 6637.000000
2217.197266 6264.000000
2218.356689 6568.000000
2219.514893 6409.000000
2220.672119 6273.000000
2221.829102 6819.000000
2222.985352 6508.000000
2224.140869 6805.000000
2225.295654 6246.000000
2226.449463 6495.000000
2227.602295 6079.000000
2228.755615 6880.000000
2229.906982 6206.000000
2231.058105 6241.000000
2232.208496 6527.000000
2233.358398 7695.000000
2234.507324 6328.000000
2235.655762 5281.000000
2236.802734 6835.000000
2237.949951 7079.000000
2239.095947 6070.000000
2240.241699 7280.000000
2241.385742 7346.000000
2242.530029 6711.000000
2243.673340 6179.000000
2244.815918 5976.000000
2245.957520 5772.000000
2247.098877 5860.000000
2248.239258 6426.000000
2249.378906 6454.000000
2250.518066 5864.000000
2251.656006 5905.000000
2252.793945 6208.000000
2253.930908 5269.000000
2255.067139 6369.000000
2256.202393 6144.000000
2257.336914 7334.000000
2258.471191 6408.000000
2259.604980 5414.000000
2260.737305 6130.000000
2261.869141 6776.000000
2263.000488 6357.000000
2264.130859 6532.000000
2265.260986 8048.000000
2266.389893 6745.000000
2267.518311 6097.000000
2268.646240 5615.000000
2269.773193 6084.000000
2270.899414 5969.000000
2272.024658 6727.000000
2273.149902 6515.000000
2274.274414 6454.000000
2275.397705 5924.000000
2276.520264 6390.000000
2277.642334 5947.000000
2278.763916 7399.000000
2279.884766 6344.000000
2281.004395 6424.000000
2282.123535 7169.000000
2283.242432 7618.000000
2284.360596 7227.000000
2285.477783 5920.000000
2286.593994 6465.000000
2287.709961 6998.000000
2288.825195 6841.000000
2289.939697 7402.000000
2291.052979 5788.000000
2292.166260 6366.000000
2293.278809 6037.000000
2294.390625 5386.000000
2295.501709 6812.000000
2296.611572 6381.000000
2297.720947 6241.000000
2298.830078 6670.000000
2299.938232 6349.000000
2301.045410 6753.000000
2302.152344 5891.000000
2303.258545 6298.000000
2304.364258 6588.000000
2305.468506 6603.000000
2306.572510 5482.000000
2307.676025 5727.000000
2308.779053 6576.000000
2309.880859 7480.000000
2310.981934 7350.000000
2312.082520 6552.000000
2313.182617 5579.000000
2314.281982 6400.000000
2315.379883 6641.000000
2316.478271 7057.000000
2317.575195 8245.000000
2318.671875 6886.000000
2319.768066 5832.000000
2320.862549 6871.000000
2321.957031 7459.000000
2323.050781 5895.000000
2324.144287 6065.000000
2325.236084 6501.000000
2326.327881 6958.000000
2327.418945 6115.000000
2328.509277 6255.000000
2329.598633 6866.000000
2330.687988 5990.000000
2331.776123 6328.000000
2332.863770 6822.000000
2333.951172 6511.000000
2335.036865 6664.000000
2336.122314 7749.000000
2337.207520 6376.000000
2338.291748 6721.000000
2339.375000 5918.000000
2340.458008 6456.000000
2341.540039 7146.000000
2342.621826 6068.000000
2343.702881 7414.000000
2344.782715 6692.000000
2345.862061 5697.000000
2346.940918 6845.000000
2348.019287 6560.000000
2349.096191 6349.000000
2350.172852 6977.000000
2351.249268 6070.000000
2352.324707 6415.000000
2353.399170 5976.000000
2354.473389 6302.000000
2355.546875 6735.000000
2356.619873 6225.000000
2357.691650 7063.000000
2358.763184 6296.000000
2359.833740 6764.000000
2360.904053 7491.000000
2361.973389 7523.000000
2363.041748 6794.000000
2364.109863 6796.000000
2365.177246 7117.000000
2366.244141 7183.000000
2367.310303 6099.000000
2368.375244 6924.000000
2369.440186 6984.000000
2370.504395 6374.000000
2371.567871 6983.000000
2372.630127 5742.000000
2373.692383 6336.000000
2374.753662 6324.000000
2375.814697 5916.000000
2376.874512 6350.000000
2377.933594 7905.000000
2378.992676 6464.000000
2380.050781 7629.000000
2381.108154 6872.000000
2382.164551 8024.000000
2383.220703 7823.000000
2384.276367 6312.000000
2385.331299 7139.000000
2386.384766 6768.000000
2387.438477 6504.000000
2388.491211 6295.000000
2389.543457 6773.000000
2390.594971 6111.000000
2391.645508 6689.000000
2392.695801 6537.000000
2393.745117 6199.000000
2394.794434 6178.000000
2395.842285 6870.000000
2396.889648 6986.000000
2397.936768 6278.000000
2398.982910 6659.000000
2400.028320 6185.000000
2401.072998 6717.000000
2402.117676 7720.000000
2403.160889 7500.000000
2404.204102 6559.000000
2405.245850 5811.000000
2406.287842 6758.000000
2407.329102 7036.000000
2408.369385 6128.000000
2409.408936 6406.000000
2410.447510 6387.000000
2411.486328 6108.000000
2412.523926 6489.000000
2413.561279 6944.000000
2414.597412 7232.000000
2415.633301 6263.000000
2416.668457 6252.000000
2417.703125 6682.000000
2418.736328 7225.000000
2419.769775 6576.000000
2420.802246 6735.000000
2421.834473 6804.000000
2422.865234 7117.000000
2423.895996 6434.000000
2424.926270 6844.000000
2425.955322 6867.000000
2426.984375 6652.000000
2428.011719 7355.000000
2429.039551 6736.000000
2430.066162 7292.000000
2431.092529 6959.000000
2432.117432 7805.000000
2433.142578 6563.000000
2434.166748 7164.000000
2435.190674 6736.000000
2436.213379 5851.000000
2437.235352 6315.000000
2438.257080 6602.000000
2439.278076 6704.000000
2440.298584 6088.000000
2441.317871 6550.000000
2442.337158 6547.000000
2443.355469 8389.000000
2444.373535 6280.000000
2445.390137 6488.000000
2446.406738 6589.000000
2447.422607 6043.000000
2448.438477 6938.000000
2449.452881 6916.000000
2450.466553 5596.000000
2451.479736 7290.000000
2452.492676 6007.000000
2453.504883 7180.000000
2454.516113 6717.000000
2455.527100 7688.000000
2456.537354 6432.000000
2457.547119 7587.000000
2458.555908 5944.000000
2459.563965 5971.000000
2460.572021 6324.000000
2461.578857 7332.000000
2462.585449 5423.000000
2463.590820 7457.000000
2464.595947 6951.000000
2465.600830 5936.000000
2466.604492 6552.000000
2467.607910 6419.000000
2468.610352 7614.000000
2469.612549 7347.000000
2470.614258 6912.000000
2471.614990 6576.000000
2472.614746 6899.000000
2473.614502 6793.000000
2474.613281 5731.000000
2475.611572 6604.000000
2476.608887 7052.000000
2477.605957 6143.000000
2478.603027 7011.000000
2479.598633 5850.000000
2480.594238 7188.000000
2481.588135 6708.000000
2482.582031 8062.000000
2483.575439 6839.000000
2484.568359 6784.000000
2485.560303 7509.000000
2486.551514 7216.000000
2487.542480 6744.000000
2488.532959 5871.000000
2489.522461 6536.000000
2490.511230 6507.000000
2491.500000 5700.000000
2492.487793 6816.000000
2493.474365 6538.000000
2494.460938 8048.000000
2495.447021 6727.000000
2496.432373 7129.000000
2497.416748 8436.000000
2498.400879 6109.000000
2499.385010 6909.000000
2500.367676 5783.000000
2501.349854 6994.000000
2502.331543 6909.000000
2503.312500 7227.000000
2504.292969 6539.000000
2505.273193 5778.000000
2506.251953 6364.000000
2507.230469 7586.000000
2508.208496 6794.000000
2509.186035 7135.000000
2510.162598 6068.000000
2511.138916 5969.000000
2512.114502 6428.000000
2513.089600 6300.000000
2514.064209 6458.000000
2515.037598 7524.000000
2516.010742 6871.000000
2516.983643 6841.000000
2517.955566 6081.000000
2518.926758 6832.000000
2519.897461 6925.000000
2520.867920 7787.000000
2521.837646 7995.000000
2522.806396 6135.000000
2523.774414 6141.000000
2524.742432 7763.000000
2525.709473 6262.000000
2526.676270 5563.000000
2527.641846 7287.000000
2528.607422 7010.000000
2529.572266 7766.000000
2530.536621 6352.000000
2531.499756 6335.000000
2532.463135 5915.000000
2533.425537 6000.000000
2534.387695 6700.000000
2535.348633 6369.000000
2536.308838 6115.000000
2537.269287 6163.000000
2538.228760 6868.000000
2539.187500 6840.000000
2540.145264 6739.000000
2541.103271 6254.000000
2542.060547 6814.000000
2543.016846 6064.000000
2543.972900 7124.000000
2544.927734 6262.000000
2545.882813 7796.000000
2546.837158 7064.000000
2547.790771 6868.000000
2548.743408 7200.000000
2549.695801 6725.000000
2550.647705 6968.000000
2551.598877 6396.000000
2552.549316 7688.000000
2553.499268 7317.000000
2554.448975 7407.000000
2555.397949 6620.000000
2556.346436 6297.000000
2557.293701 7100.000000
2558.240967 6359.000000
2559.187500 6611.000000
2560.133545 6788.000000
2561.078613 7591.000000
2562.023438 6700.000000
2562.967773 7127.000000
2563.911621 6827.000000
2564.854980 6649.000000
2565.796875 6618.000000
2566.739014 6620.000000
2567.680420 6186.000000
2568.621094 7139.000000
2569.561035 7335.000000
2570.500977 5725.000000
2571.439941 6208.000000
2572.378662 7560.000000
2573.316406 7223.000000
2574.253906 5531.000000
2575.190674 6987.000000
2576.126709 6848.000000
2577.062256 7569.000000
2577.997070 6435.000000
2578.931885 5939.000000
2579.865723 7095.000000
2580.799072 7064.000000
2581.731689 5831.000000
2582.664063 6971.000000
2583.595703 5435.000000
2584.526855 7043.000000
2585.457520 6992.000000
2586.386963 6911.000000
2587.316406 7243.000000
2588.245361 6550.000000
2589.174072 7574.000000
2590.101074 7364.000000
2591.028320 5919.000000
2591.955078 6806.000000
2592.881104 6276.000000
2593.806885 5637.000000
2594.731445 7641.000000
2595.655762 7627.000000
2596.579590 5369.000000
2597.502930 7257.000000
2598.425293 6343.000000
2599.347412 6842.000000
2600.269043 8319.000000
2601.189941 6467.000000
2602.110107 5770.000000
2603.030029 6367.000000
2603.949463 6452.000000
2604.868652 6446.000000
2605.786865 5855.000000
2606.703857 6016.000000
2607.621094 7226.000000
2608.538086 5860.000000
2609.454102 7588.000000
2610.368896 6686.000000
2611.284180 6649.000000
2612.198730 6561.000000
2613.112305 6569.000000
2614.025879 6141.000000
2614.938232 7616.000000
2615.850586 7050.000000
2616.761963 6795.000000
2617.673096 5646.000000
2618.583496 7238.000000
2619.493652 6677.000000
2620.403076 6172.000000
2621.312012 6702.000000
2622.219971 6228.000000
2623.128174 6836.000000
2624.035400 6638.000000
2624.942139 7101.000000
2625.848145 6008.000000
2626.753906 6529.000000
2627.658936 6460.000000
2628.563721 7832.000000
2629.467773 6478.000000
2630.370850 6413.000000
2631.273926 6499.000000
2632.176025 5713.000000
2633.078125 6828.000000
2633.979980 6985.000000
2634.880127 6695.000000
2635.780518 6482.000000
2636.680176 6399.000000
2637.579590 6060.000000
2638.477539 6951.000000
2639.375977 6799.000000
2640.273926 6417.000000
2641.171143 6154.000000
2642.067139 6241.000000
2642.963135 6954.000000
2643.858887 6103.000000
2644.753906 6498.000000
2645.648682 6677.000000
2646.541992 7050.000000
2647.435303 6280.000000
2648.328369 6814.000000
2649.221191 6444.000000
2650.112305 7535.000000
2651.003662 6421.000000
2651.894531 7621.000000
2652.784668 7277.000000
2653.674561 6653.000000
2654.563232 7307.000000
2655.452148 6610.000000
2656.340576 6647.000000
2657.228027 7283.000000
2658.114502 6479.000000
2659.001465 7127.000000
2659.887695 6920.000000
2660.773438 6855.000000
2661.657959 6551.000000
2662.542480 6398.000000
2663.426758 6230.000000
2664.310303 7069.000000
2665.193359 7743.000000
2666.075684 7282.000000
2666.957520 6256.000000
2667.838623 6637.000000
2668.719971 6099.000000
2669.599854 6619.000000
2670.479980 7364.000000
2671.359375 7212.000000
2672.238770 6231.000000
2673.117432 6138.000000
2673.994385 6466.000000
2674.872070 6749.000000
2675.749023 6364.000000
2676.625244 8158.000000
2677.500977 7200.000000
2678.375977 6296.000000
2679.251221 7806.000000
2680.125488 6956.000000
2680.999268 7412.000000
2681.872314 6989.000000
2682.745117 6244.000000
2683.617676 6120.000000
2684.489502 6952.000000
2685.360596 6509.000000
2686.231445 6902.000000
2687.101807 7108.000000
2687.971924 6640.000000
2688.840332 6313.000000
2689.709473 7354.000000
2690.577881 7104.000000
2691.446045 6701.000000
2692.313477 6933.000000
2693.179688 5891.000000
2694.046387 7169.000000
2694.912109 7428.000000
2695.777832 7174.000000
2696.642090 7911.000000
2697.507080 6571.000000
2698.370605 7335.000000
2699.234375 5856.000000
2700.096680 7452.000000
2700.959473 6770.000000
2701.821289 5935.000000
2702.682617 6851.000000
2703.543945 6736.000000
2704.404053 7480.000000
2705.264160 7284.000000
2706.123779 6615.000000
2706.983154 6870.000000
2707.840820 7193.000000
2708.698730 6832.000000
2709.557129 7401.000000
2710.414307 6735.000000
2711.270752 5981.000000
2712.126709 6894.000000
2712.982666 6061.000000
2713.837891 6915.000000
2714.692383 6134.000000
2715.546387 6851.000000
2716.400391 7268.000000
2717.253418 6283.000000
2718.106689 6523.000000
2718.958252 7788.000000
2719.810303 6791.000000
2720.662109 6360.000000
2721.512695 6491.000000
2722.363281 6386.000000
2723.213379 7120.000000
2724.062744 7083.000000
2724.912109 6933.000000
2725.760254 6711.000000
2726.607910 6588.000000
2727.456055 7025.000000
2728.302979 6886.000000
2729.150391 5614.000000
2729.996338 7546.000000
2730.841553 6968.000000
2731.687256 6482.000000
2732.531982 7048.000000
2733.376709 7313.000000
2734.220215 6920.000000
2735.063965 7788.000000
2735.906982 7108.000000
2736.749512 6084.000000
2737.591064 6275.000000
2738.433105 6816.000000
2739.274170 6924.000000
2740.114990 5844.000000
2740.955566 5956.000000
2741.794922 7807.000000
2742.634277 6876.000000
2743.473633 6965.000000
2744.311768 6804.000000
2745.149414 7820.000000
2745.987061 6351.000000
2746.824219 7144.000000
2747.661133 6275.000000
2748.497559 6045.000000
2749.332764 6653.000000
2750.168213 6302.000000
2751.003174 6324.000000
2751.837402 6234.000000
2752.671387 6911.000000
2753.504883 6819.000000
2754.338379 7984.000000
2755.170898 6860.000000
2756.002930 7296.000000
2756.834473 6847.000000
2757.666016 7155.000000
2758.496582 7232.000000
2759.327393 7228.000000
2760.156982 7352.000000
2760.986572 6727.000000
2761.815918 7231.000000
2762.644531 6700.000000
2763.472656 6844.000000
2764.300293 6957.000000
2765.127930 6695.000000
2765.955078 7935.000000
2766.781494 5837.000000
2767.607422 7532.000000
2768.432861 6879.000000
2769.258057 7815.000000
2770.083252 7070.000000
2770.907227 6794.000000
2771.731201 6556.000000
2772.555176 7683.000000
2773.377930 6414.000000
2774.200928 6848.000000
2775.022705 6916.000000
2775.844482 6957.000000
2776.666260 6527.000000
2777.487061 7976.000000
2778.307129 6585.000000
2779.127441 7036.000000
2779.947266 7231.000000
2780.767090 6538.000000
2781.584961 5916.000000
2782.404053 8031.000000
2783.221924 6561.000000
2784.039551 6807.000000
2784.856689 7161.000000
2785.673340 7265.000000
2786.489746 7203.000000
2787.305664 6263.000000
2788.121338 5966.000000
2788.936035 6419.000000
2789.751221 7039.000000
2790.565674 7171.000000
2791.379639 6634.000000
2792.193359 7420.000000
2793.005859 8803.000000
2793.818604 7059.000000
2794.630859 7499.000000
2795.442627 7208.000000
2796.253662 7353.000000
2797.065430 6491.000000
2797.875977 7239.000000
2798.686523 7135.000000
2799.495605 7440.000000
2800.305420 8187.000000
2801.114502 7866.000000
2801.923340 6695.000000
2802.731689 7663.000000
2803.539063 6212.000000
2804.346924 6491.000000
2805.154053 6933.000000
2805.960938 6842.000000
2806.766602 7151.000000
2807.572754 6729.000000
2808.378174 6511.000000
2809.183594 7291.000000
2809.988281 6233.000000
2810.791992 7715.000000
2811.596191 7498.000000
2812.399902 6378.000000
2813.203369 6107.000000
2814.005371 6602.000000
2814.808105 7298.000000
2815.610107 7856.000000
2816.411865 6124.000000
2817.213135 6550.000000
2818.013916 7284.000000
2818.814209 6508.000000
2819.614746 6729.000000
2820.414307 8036.000000
2821.213379 7185.000000
2822.012451 6561.000000
2822.811279 6952.000000
2823.609619 6430.000000
2824.406982 7033.000000
2825.204590 7406.000000
2826.001465 6719.000000
2826.798584 7325.000000
2827.594971 8092.000000
2828.390625 7087.000000
2829.186279 7337.000000
2829.981689 7706.000000
2830.776611 7431.000000
2831.570801 6664.000000
2832.364990 6839.000000
2833.158936 5675.000000
2833.952393 6889.000000
2834.745117 7162.000000
2835.537598 8148.000000
2836.330078 7710.000000
2837.122314 7611.000000
2837.914063 6475.000000
2838.704834 6805.000000
2839.495605 8901.000000
2840.286621 7412.000000
2841.076660 6307.000000
2841.866211 7723.000000
2842.656006 7155.000000
2843.444824 7378.000000
2844.233643 7857.000000
2845.022461 7770.000000
2845.810303 7506.000000
2846.597656 7275.000000
2847.385254 7529.000000
2848.172363 7390.000000
2848.958740 6705.000000
2849.745117 7476.000000
2850.531250 7206.000000
2851.316895 7534.000000
2852.101563 7212.000000
2852.886719 6906.000000
2853.671631 7456.000000
2854.455811 7169.000000
2855.239990 6925.000000
2856.022949 8369.000000
2856.806152 6873.000000
2857.589111 6745.000000
2858.371582 7755.000000
2859.153809 6319.000000
2859.935547 6686.000000
2860.717041 7619.000000
2861.498779 7507.000000
2862.279785 7670.000000
2863.060059 6634.000000
2863.840088 6773.000000
2864.620117 8167.000000
2865.399902 7531.000000
2866.178711 8077.000000
2866.957764 7705.000000
2867.736328 6802.000000
2868.514648 6963.000000
2869.292480 7310.000000
2870.070068 6983.000000
2870.847412 7478.000000
2871.624512 6989.000000
2872.401123 6454.000000
2873.177246 7545.000000
2873.953369 7227.000000
2874.729004 8228.000000
2875.504395 7275.000000
2876.279297 6613.000000
2877.053955 8098.000000
2877.828613 6631.000000
2878.603027 7853.000000
2879.376709 6795.000000
2880.149658 7227.000000
2880.923340 6801.000000
2881.696045 7662.000000
2882.468750 7826.000000
2883.240723 8271.000000
2884.012451 6234.000000
2884.784668 6734.000000
2885.555664 6945.000000
2886.326172 6128.000000
2887.097168 8327.000000
2887.868164 7337.000000
2888.638428 7965.000000
2889.407715 7643.000000
2890.177246 7052.000000
2890.946777 7243.000000
2891.715820 7382.000000
2892.484375 7922.000000
2893.252930 7655.000000
2894.020508 7021.000000
2894.788574 6626.000000
2895.556152 7397.000000
2896.323730 8416.000000
2897.090088 7402.000000
2897.857422 6583.000000
2898.623535 7260.000000
2899.389893 7014.000000
2900.154785 8329.000000
2900.920166 6949.000000
2901.686035 6491.000000
2902.450439 7765.000000
2903.214844 7800.000000
2903.979492 8422.000000
2904.743164 6707.000000
2905.507568 8495.000000
2906.271240 6710.000000
2907.034180 8473.000000
2907.796875 6477.000000
2908.560059 9022.000000
2909.322754 7022.000000
2910.084229 6861.000000
2910.846191 6861.000000
