scanname Analyse068
timestamp 2017-02-10 21:32:04
ccdbias 892.728516
ccdgain 3.473401
sigmaread 8.960639
laserwavenum -0.751538
wavenumcorrection -0.228574
scancount 1
totalexposurems 10000
singleexposurems 10000
measurementstate Unknown
scanmode Manual
snr 237.469040 6.508721 5.504358
replacelist 3
374 44981.000000 15051.000000
383 44692.000000 12044.000000
672 37280.000000 31097.000000
peaks 47
278.225677 0.690107 0.000000 1.352948 0.000175
284.388947 0.689512 0.000000 0.755746 0.000058
292.616821 0.690795 0.000000 0.560396 0.000027
300.305542 0.690761 0.000000 0.173306 0.000023
329.683533 0.704221 0.000000 0.919552 0.000146
342.915619 0.706984 0.000000 0.629229 0.000030
349.206879 0.709914 0.000000 0.618147 0.000023
361.471985 0.711210 0.000000 0.233092 0.000015
386.606476 0.715381 0.000000 1.437126 0.000303
457.048889 0.719031 0.000000 0.322984 0.000031
487.220581 0.730956 0.000000 0.862368 0.000108
533.331238 0.720799 0.000000 0.552366 0.000133
559.595093 0.747441 0.000000 1.072869 0.000195
574.073730 0.753138 0.000000 0.198760 0.000064
583.536743 0.749479 0.000000 0.795522 0.000113
660.677856 0.739794 0.000000 0.813403 0.000062
673.956299 0.741355 0.000000 1.305398 0.000245
715.767029 0.729490 0.000000 4.812717 0.000967
741.221252 0.721568 0.000000 1.277990 0.000090
750.827576 0.722171 0.000000 0.574652 0.000031
766.827393 0.737332 0.000000 1.506035 0.000445
773.213623 0.723451 0.000000 0.652886 0.000045
831.644043 0.707591 0.000000 0.851813 0.000099
842.851013 0.709178 0.000000 0.412655 0.000028
854.831421 0.730885 0.000000 0.637597 0.000192
861.984192 0.735063 0.000000 0.832695 0.000075
874.801453 0.749832 0.000000 1.775249 0.000540
938.932434 0.688855 0.000000 0.992316 0.000175
955.237488 0.684140 0.000000 3.191903 0.000862
976.938843 0.665933 0.000000 0.209811 0.000059
1010.754578 0.660124 0.000000 0.525812 0.000130
1030.868042 0.677281 0.000000 0.698413 0.000154
1044.758667 0.690651 0.000000 3.341944 0.000978
1087.710938 0.665151 0.000000 2.102947 0.000333
1105.561646 0.649293 0.000000 0.980156 0.000297
1114.638306 0.649029 0.000000 0.564210 0.000043
1120.185669 0.653803 0.000000 0.822975 0.000185
1136.019653 0.648587 0.000000 1.816227 0.000677
1150.013428 0.638232 0.000000 1.834582 0.000672
1172.848145 0.620619 0.000000 0.186044 0.000028
1209.392822 0.614662 0.000000 0.130599 0.000035
1261.096191 0.614972 0.000000 0.427148 0.000150
1281.807129 0.606770 0.000000 0.241021 0.000060
1320.931030 0.695751 0.000000 8.775488 0.003000
1454.994141 0.644304 0.000000 8.570366 0.003485
1614.532715 0.541317 0.000000 0.858297 0.000328
1660.969727 0.534724 0.000000 2.821395 0.000866
finalresult GLS_NoMatch 0
spectrum 2048
-96.849915 45150.000000
-94.223045 45150.000000
-91.598053 45830.000000
-88.974953 45912.000000
-86.353722 46756.000000
-83.734390 46534.000000
-81.116920 46944.000000
-78.501328 46717.000000
-75.887611 46943.000000
-73.275772 47455.000000
-70.665794 47116.000000
-68.057701 47353.000000
-65.451454 47357.000000
-62.847088 47386.000000
-60.244579 47302.000000
-57.643925 47835.000000
-55.045132 47262.000000
-52.448196 46641.000000
-49.853115 47016.000000
-47.259888 46927.000000
-44.668510 47062.000000
-42.078979 46705.000000
-39.491291 47426.000000
-36.905453 47372.000000
-34.321457 46957.000000
-31.739298 47647.000000
-29.158985 46978.000000
-26.580500 47555.000000
-24.003857 47151.000000
-21.429039 47006.000000
-18.856062 46829.000000
-16.284904 46739.000000
-13.715580 46467.000000
-11.148082 45422.000000
-8.582402 46816.000000
-6.018548 46585.000000
-3.456508 46851.000000
-0.896292 46937.000000
1.662116 46447.000000
4.218703 45517.000000
6.773485 45470.000000
9.326450 45597.000000
11.877615 44094.000000
14.426967 43666.000000
16.974522 42490.000000
19.520266 42364.000000
22.064217 41313.000000
24.606363 38192.000000
27.146713 35656.000000
29.685278 32224.000000
32.222046 27857.000000
34.757011 21066.000000
37.290199 12551.000000
39.821606 8200.000000
42.351219 7500.000000
44.879036 7102.000000
47.405094 6361.000000
49.929363 5509.000000
52.451862 4888.000000
54.972565 4441.000000
57.491512 4748.000000
60.008686 5575.000000
62.524082 6698.000000
65.037704 7827.000000
67.549568 8654.000000
70.059685 6268.000000
72.568008 4046.000000
75.074577 3128.000000
77.579399 2638.000000
80.082466 2264.000000
82.583755 2052.000000
85.083305 1971.000000
87.581100 1864.000000
90.077164 2056.000000
92.571449 2447.000000
95.063995 2755.000000
97.554825 2742.000000
100.043884 2312.000000
102.531197 1801.000000
105.016785 1578.000000
107.500633 1446.000000
109.982735 1380.000000
112.463112 1317.000000
114.941765 1238.000000
117.418694 1373.000000
119.893867 1365.000000
122.367332 1357.000000
124.839066 1309.000000
127.309090 1536.000000
129.777359 1635.000000
132.243958 1855.000000
134.708801 2258.000000
137.171951 2585.000000
139.633362 2985.000000
142.093079 3878.000000
144.551071 4767.000000
147.007370 5988.000000
149.461960 7734.000000
151.914825 9513.000000
154.366013 11645.000000
156.815506 15905.000000
159.263275 24155.000000
161.709335 27229.000000
164.153717 27922.000000
166.596420 32459.000000
169.037430 34303.000000
171.476730 35914.000000
173.914322 35742.000000
176.350281 37137.000000
178.784500 37285.000000
181.217041 37615.000000
183.647934 38604.000000
186.077103 38664.000000
188.504623 39761.000000
190.930466 40867.000000
193.354630 41375.000000
195.777130 41549.000000
198.197937 41696.000000
200.617081 43030.000000
203.034561 43865.000000
205.450348 42645.000000
207.864487 43434.000000
210.276993 44419.000000
212.687820 44908.000000
215.096970 44945.000000
217.504486 43998.000000
219.910294 45331.000000
222.314514 45042.000000
224.717026 45092.000000
227.117920 44854.000000
229.517166 45323.000000
231.914749 45090.000000
234.310669 44620.000000
236.704971 45400.000000
239.097610 46111.000000
241.488632 45109.000000
243.877991 45348.000000
246.265732 45447.000000
248.651825 44864.000000
251.036285 45657.000000
253.419098 43918.000000
255.800339 45117.000000
258.179871 44991.000000
260.557831 45180.000000
262.934113 44150.000000
265.308838 44068.000000
267.681915 43754.000000
270.053345 45375.000000
272.423126 45128.000000
274.791351 45683.000000
277.157928 45057.000000
279.522919 44689.000000
281.886292 45455.000000
284.248016 45207.000000
286.608154 44317.000000
288.966675 45490.000000
291.323608 44869.000000
293.678925 44999.000000
296.032654 45394.000000
298.384735 45382.000000
300.735260 45028.000000
303.084198 44938.000000
305.431488 44501.000000
307.777252 44828.000000
310.121338 44809.000000
312.463898 43885.000000
314.804840 43651.000000
317.144165 44078.000000
319.481934 44199.000000
321.818146 43111.000000
324.152710 44918.000000
326.485718 44761.000000
328.817169 45132.000000
331.147034 44462.000000
333.475311 44658.000000
335.801971 43853.000000
338.127136 44763.000000
340.450684 44901.000000
342.772675 45100.000000
345.093109 43528.000000
347.411926 43505.000000
349.729187 45123.000000
352.044922 45269.000000
354.359070 44107.000000
356.671631 44749.000000
358.982635 44767.000000
361.292114 43931.000000
363.600067 44718.000000
365.906403 45417.000000
368.211151 44698.000000
370.514435 44665.000000
372.816101 44906.000000
375.116272 44784.000000
377.414886 44890.000000
379.711945 45429.000000
382.007446 45042.000000
384.301422 45319.000000
386.593811 45913.000000
388.884705 45640.000000
391.174072 44993.000000
393.461853 44992.000000
395.748108 44729.000000
398.032867 44230.000000
400.316010 45168.000000
402.597717 44883.000000
404.877899 45081.000000
407.156494 43897.000000
409.433563 44800.000000
411.709106 44420.000000
413.983124 44618.000000
416.255707 44677.000000
418.526672 44801.000000
420.796143 44668.000000
423.064117 43880.000000
425.330536 43799.000000
427.595459 44681.000000
429.858917 44642.000000
432.120789 44447.000000
434.381195 44915.000000
436.640045 44319.000000
438.897430 44763.000000
441.153320 45208.000000
443.407715 44938.000000
445.660583 45313.000000
447.911896 43845.000000
450.161804 44634.000000
452.410126 44400.000000
454.657013 44993.000000
456.902435 44174.000000
459.146301 44119.000000
461.388672 43724.000000
463.629547 44945.000000
465.869019 43821.000000
468.106903 45136.000000
470.343353 44629.000000
472.578278 44476.000000
474.811737 43127.000000
477.043762 43817.000000
479.274261 44836.000000
481.503265 44010.000000
483.730804 44144.000000
485.956848 44434.000000
488.181458 43911.000000
490.404602 44551.000000
492.626282 44017.000000
494.846405 43668.000000
497.065125 44707.000000
499.282349 44039.000000
501.498199 44841.000000
503.712433 44162.000000
505.925354 43945.000000
508.136688 43873.000000
510.346588 43491.000000
512.555054 43805.000000
514.762146 43636.000000
516.967651 43807.000000
519.171753 43506.000000
521.374329 43839.000000
523.575500 43425.000000
525.775330 43277.000000
527.973633 42967.000000
530.170410 44448.000000
532.365845 43910.000000
534.559753 43999.000000
536.752319 42146.000000
538.943359 42926.000000
541.132996 43453.000000
543.321228 42561.000000
545.507935 42335.000000
547.693176 42492.000000
549.877136 42977.000000
552.059509 42674.000000
554.240540 43019.000000
556.420044 43114.000000
558.598267 43248.000000
560.774963 43014.000000
562.950256 42693.000000
565.124146 42661.000000
567.296570 43123.000000
569.467590 43063.000000
571.637146 42768.000000
573.805420 43811.000000
575.972168 42670.000000
578.137451 42839.000000
580.301331 42966.000000
582.463928 43407.000000
584.625000 43149.000000
586.784668 43528.000000
588.942993 43334.000000
591.099792 43047.000000
593.255249 42534.000000
595.409302 43277.000000
597.562012 42980.000000
599.713196 41797.000000
601.863037 42241.000000
604.011536 42387.000000
606.158447 42941.000000
608.304138 42472.000000
610.448425 42487.000000
612.591248 42279.000000
614.732605 42678.000000
616.872742 42410.000000
619.011353 41076.000000
621.148682 43031.000000
623.284546 42001.000000
625.419006 41692.000000
627.552002 41216.000000
629.683838 41665.000000
631.814209 41575.000000
633.943176 41250.000000
636.070679 41540.000000
638.196899 41520.000000
640.321594 40334.000000
642.445068 41214.000000
644.567200 40745.000000
646.687866 40528.000000
648.807190 40683.000000
650.925110 41551.000000
653.041687 41399.000000
655.156860 40662.000000
657.270691 40612.000000
659.383057 41242.000000
661.494202 40870.000000
663.603943 41659.000000
665.712219 40993.000000
667.819336 40916.000000
669.924988 40301.000000
672.029175 41291.000000
674.132141 41483.000000
676.233704 40242.000000
678.333923 41991.000000
680.432739 40487.000000
682.530212 41101.000000
684.626404 40342.000000
686.721130 40901.000000
688.814636 40243.000000
690.906799 40446.000000
692.997437 39049.000000
695.086853 40249.000000
697.174988 40243.000000
699.261658 40607.000000
701.347107 39784.000000
703.431030 41114.000000
705.513733 40158.000000
707.595154 40050.000000
709.675110 38306.000000
711.753845 39576.000000
713.831116 40012.000000
715.907104 38931.000000
717.981812 39555.000000
720.055237 38556.000000
722.127136 39268.000000
724.197876 38076.000000
726.267273 39575.000000
728.335266 38710.000000
730.401917 38799.000000
732.467346 37956.000000
734.531433 39251.000000
736.594177 38763.000000
738.655579 38405.000000
740.715698 38402.000000
742.774414 38869.000000
744.831909 38226.000000
746.888123 38377.000000
748.942932 38066.000000
750.996460 38399.000000
753.048584 37287.000000
755.099487 39016.000000
757.149170 38035.000000
759.197388 38351.000000
761.244385 38522.000000
763.290100 37697.000000
765.334412 39491.000000
767.377441 39157.000000
769.419250 38614.000000
771.459717 38071.000000
773.498779 38267.000000
775.536682 38474.000000
777.573242 38614.000000
779.608582 39241.000000
781.642578 38929.000000
783.675171 37874.000000
785.706604 39212.000000
787.736633 38912.500000
789.765381 38613.000000
791.792969 38086.000000
793.819214 38027.000000
795.844055 38521.000000
797.867798 38751.000000
799.890137 37837.000000
801.911255 38384.000000
803.931030 37438.000000
805.949524 39211.000000
807.966797 37285.000000
809.982666 37183.000000
811.997375 38105.000000
814.010742 37304.000000
816.022888 37282.000000
818.033813 37394.000000
820.043396 36718.000000
822.051758 37871.000000
824.058716 37339.000000
826.064453 37000.000000
828.068970 37187.000000
830.072205 37244.000000
832.074158 36465.000000
834.074829 36855.000000
836.074280 36980.000000
838.072388 36507.000000
840.069397 35924.000000
842.065002 36718.000000
844.059448 36798.000000
846.052551 36655.000000
848.044434 36017.000000
850.034973 37201.000000
852.024231 36081.000000
854.012451 36893.000000
855.999268 37290.000000
857.984863 36750.000000
859.969177 36046.000000
861.952393 37119.000000
863.934204 37086.000000
865.914795 37788.000000
867.894104 36039.000000
869.872253 36840.000000
871.849060 37661.000000
873.824585 38064.000000
875.799072 37856.000000
877.772095 38018.000000
879.744080 38496.000000
881.714722 37375.000000
883.684204 37373.000000
885.652344 37640.000000
887.619324 37720.000000
889.584961 36503.000000
891.549438 36738.000000
893.512695 36286.000000
895.474731 35676.000000
897.435486 36257.000000
899.395020 35521.000000
901.353271 35177.000000
903.310425 35352.000000
905.266418 35555.000000
907.221008 34677.000000
909.174377 34958.000000
911.126587 34750.000000
913.077576 34597.000000
915.027283 33626.000000
916.975830 34043.000000
918.923157 33899.000000
920.869202 33733.000000
922.813965 33263.000000
924.757690 32769.000000
926.700256 32783.000000
928.641541 32949.000000
930.581482 31966.000000
932.520325 32622.000000
934.457886 32635.000000
936.394226 32230.000000
938.329407 32481.000000
940.263306 32191.000000
942.196106 32504.000000
944.127686 31649.000000
946.058105 33168.000000
947.987305 32131.000000
949.915161 31654.000000
951.841980 32016.000000
953.767517 32606.000000
955.691772 33233.000000
957.614929 32918.000000
959.536926 32468.000000
961.457642 31916.000000
963.377197 32608.000000
965.295593 33747.000000
967.212952 32683.000000
969.128845 32817.000000
971.043640 33052.000000
972.957214 33148.000000
974.869629 32826.000000
976.780823 32669.000000
978.690857 33546.000000
980.599609 32900.000000
982.507324 32980.000000
984.413818 32572.000000
986.319092 33113.000000
988.223267 32033.000000
990.126221 32600.000000
992.027954 31952.000000
993.928528 31971.000000
995.827942 31635.000000
997.726135 32570.000000
999.623169 31297.000000
1001.518982 31207.000000
1003.413635 29745.000000
1005.307190 31489.000000
1007.199463 29683.000000
1009.090820 30613.000000
1010.980835 31161.000000
1012.869629 29886.000000
1014.757263 30154.000000
1016.643738 29630.000000
1018.529053 29670.000000
1020.413208 30230.000000
1022.296143 30356.000000
1024.177979 29981.000000
1026.058594 31048.000000
1027.938110 30616.000000
1029.816650 30491.000000
1031.693848 31212.000000
1033.569702 30715.000000
1035.444580 31116.000000
1037.318481 30628.000000
1039.190918 30387.000000
1041.062378 30629.000000
1042.932495 31617.000000
1044.801636 31679.000000
1046.669556 31664.000000
1048.536377 30386.000000
1050.402100 31034.000000
1052.266602 31161.000000
1054.130005 31041.000000
1055.992065 31035.000000
1057.853149 31564.000000
1059.713135 30897.000000
1061.571777 30721.000000
1063.429321 31566.000000
1065.285767 30757.000000
1067.141113 31521.000000
1068.995239 31690.000000
1070.848511 31266.000000
1072.700317 31193.000000
1074.551147 31474.000000
1076.400757 31367.000000
1078.249146 31755.000000
1080.096680 29599.000000
1081.942871 31713.000000
1083.787842 30789.000000
1085.631958 31438.000000
1087.474731 31258.000000
1089.316284 30130.000000
1091.157104 30919.000000
1092.996338 30298.000000
1094.834839 29880.000000
1096.671997 29697.000000
1098.507935 28645.000000
1100.342896 28595.000000
1102.176636 29420.000000
1104.009399 29069.000000
1105.840820 28658.000000
1107.671387 27583.000000
1109.500610 28141.000000
1111.328857 27831.000000
1113.155884 27078.000000
1114.981934 28655.000000
1116.806763 27731.000000
1118.630493 26987.000000
1120.453003 27955.000000
1122.274414 28132.000000
1124.094971 28230.000000
1125.914063 27686.000000
1127.732300 27341.000000
1129.549194 27541.000000
1131.365234 27644.000000
1133.180054 27701.000000
1134.993774 28533.000000
1136.806396 28503.000000
1138.617798 28769.000000
1140.428223 28411.000000
1142.237549 27998.000000
1144.045532 27730.000000
1145.852783 28466.000000
1147.658569 28298.000000
1149.463501 28689.000000
1151.267334 28704.000000
1153.069946 28083.000000
1154.871704 28060.000000
1156.671997 28021.000000
1158.471313 27805.000000
1160.269653 27947.000000
1162.066650 28206.000000
1163.862915 27708.000000
1165.657837 27518.000000
1167.451660 27218.000000
1169.244629 25722.000000
1171.036255 27240.000000
1172.826904 26375.000000
1174.616577 26783.000000
1176.404785 27024.000000
1178.192139 25604.000000
1179.978394 26044.000000
1181.763550 26835.000000
1183.547607 26667.000000
1185.330566 25213.000000
1187.112549 26693.000000
1188.893311 26479.000000
1190.673096 26237.000000
1192.451782 25589.000000
1194.229492 25746.000000
1196.005981 25067.000000
1197.781372 25190.000000
1199.555664 25066.000000
1201.328857 24866.000000
1203.101196 24767.000000
1204.872192 24469.000000
1206.642334 24936.000000
1208.411255 24629.000000
1210.179077 24297.000000
1211.946045 24666.000000
1213.711670 24795.000000
1215.476318 24125.000000
1217.239868 24205.000000
1219.002319 24578.000000
1220.763916 24101.000000
1222.524292 24371.000000
1224.283569 24086.000000
1226.041992 24402.000000
1227.799194 23884.000000
1229.555298 24219.000000
1231.310303 24731.000000
1233.064453 24523.000000
1234.817261 24724.000000
1236.569092 24712.000000
1238.320068 24821.000000
1240.069702 25821.000000
1241.818481 24642.000000
1243.565918 25087.000000
1245.312622 25015.000000
1247.058105 25143.000000
1248.802734 25094.000000
1250.546021 24699.000000
1252.288330 24522.000000
1254.029541 25023.000000
1255.769897 24937.000000
1257.509155 24301.000000
1259.247192 23698.000000
1260.984375 23324.000000
1262.720337 23969.000000
1264.455322 24275.000000
1266.189331 23875.000000
1267.922363 24835.000000
1269.654175 24973.000000
1271.385010 25063.000000
1273.114624 24350.000000
1274.843384 25154.000000
1276.571045 25150.000000
1278.297607 25382.000000
1280.023315 25310.000000
1281.747681 24717.000000
1283.471191 25603.000000
1285.193726 24356.000000
1286.915283 24516.000000
1288.635620 24836.000000
1290.354980 24499.000000
1292.073242 24018.000000
1293.790527 24199.000000
1295.506836 24557.000000
1297.221924 24267.000000
1298.936035 24350.000000
1300.649170 24360.000000
1302.361450 24053.000000
1304.072510 22682.000000
1305.782593 23789.000000
1307.491577 23340.000000
1309.199341 23249.000000
1310.906494 22810.000000
1312.612183 23307.000000
1314.317139 23026.000000
1316.021118 24412.000000
1317.723877 25793.000000
1319.425659 26372.000000
1321.126587 28006.000000
1322.826172 25941.000000
1324.524902 24238.000000
1326.222900 22535.000000
1327.919556 22273.000000
1329.615112 22049.000000
1331.309814 22031.000000
1333.003296 22058.000000
1334.695923 22209.000000
1336.387695 21722.000000
1338.078125 21975.000000
1339.767822 21694.000000
1341.456421 21880.000000
1343.143921 21327.000000
1344.830444 21703.000000
1346.515869 21530.000000
1348.200317 21780.000000
1349.883911 21337.000000
1351.566284 21641.000000
1353.247681 22094.000000
1354.928223 22144.000000
1356.607544 22059.000000
1358.286255 22510.000000
1359.963623 22603.000000
1361.639893 22673.000000
1363.315186 22816.000000
1364.989746 22474.000000
1366.663086 22676.000000
1368.335449 22429.000000
1370.006836 22875.000000
1371.677246 22419.000000
1373.346558 22548.000000
1375.014893 22441.000000
1376.682373 22574.000000
1378.348755 22270.000000
1380.014160 22338.000000
1381.678589 22260.000000
1383.341797 21970.000000
1385.004395 21993.000000
1386.665649 21703.000000
1388.326050 21524.000000
1389.985352 21587.000000
1391.643677 21552.000000
1393.301270 21349.000000
1394.957642 21507.000000
1396.613159 21360.000000
1398.267456 21386.000000
1399.920898 21597.000000
1401.573242 21727.000000
1403.224854 21579.000000
1404.875244 21135.000000
1406.524536 20881.000000
1408.173096 20393.000000
1409.820557 20054.000000
1411.467041 20122.000000
1413.112671 20134.000000
1414.757324 19870.000000
1416.400757 19839.000000
1418.043335 19748.000000
1419.684814 19660.000000
1421.325439 19909.000000
1422.965088 19880.000000
1424.603638 19862.000000
1426.241333 19560.000000
1427.877930 19387.000000
1429.513550 19534.000000
1431.148438 19235.000000
1432.782227 19317.000000
1434.414917 19395.000000
1436.046631 19466.000000
1437.677490 19501.000000
1439.307251 19369.000000
1440.935913 19273.000000
1442.563965 19434.000000
1444.190918 19480.000000
1445.816650 19598.000000
1447.441772 19599.000000
1449.065796 20043.000000
1450.688843 20316.000000
1452.310913 20565.000000
1453.931885 20613.000000
1455.551880 21010.000000
1457.171143 21118.000000
1458.789063 24061.000000
1460.406372 15942.000000
1462.022705 20347.000000
1463.637817 19825.000000
1465.252075 19716.000000
1466.865479 19903.000000
1468.477783 20088.000000
1470.089233 19782.000000
1471.699829 19662.000000
1473.309204 19711.000000
1474.917603 19677.000000
1476.525146 19736.000000
1478.131714 19764.000000
1479.737549 19820.000000
1481.342163 19769.000000
1482.945923 19650.000000
1484.548462 18824.000000
1486.150391 18447.000000
1487.751099 18395.000000
1489.351074 18197.000000
1490.949951 17823.000000
1492.547974 17972.000000
1494.144897 17898.000000
1495.740967 18423.000000
1497.336060 19014.000000
1498.930176 18941.000000
1500.523560 18937.000000
1502.115845 18895.000000
1503.706909 18706.000000
1505.297485 18321.000000
1506.886719 18394.000000
1508.475342 18162.000000
1510.062866 17923.000000
1511.649292 17964.000000
1513.234985 18005.000000
1514.819580 17912.000000
1516.403320 17968.000000
1517.985962 17619.000000
1519.567871 17736.000000
1521.148682 17845.000000
1522.728760 17619.000000
1524.307617 17444.000000
1525.885620 17342.000000
1527.462891 17244.000000
1529.038940 17081.000000
1530.614258 16929.000000
1532.188477 16964.000000
1533.761963 17021.000000
1535.334229 16932.000000
1536.905762 16930.000000
1538.476318 16814.000000
1540.046021 16703.000000
1541.614502 16681.000000
1543.182251 16664.000000
1544.749146 16560.000000
1546.314819 16489.000000
1547.879761 16514.000000
1549.443604 16545.000000
1551.006836 16249.000000
1552.568726 16543.000000
1554.130005 16367.000000
1555.690186 16421.000000
1557.249634 16274.000000
1558.807983 16541.000000
1560.365601 16106.000000
1561.922119 16255.000000
1563.477417 16205.000000
1565.032104 16196.000000
1566.586060 16115.000000
1568.139038 16240.000000
1569.690674 16355.000000
1571.241577 16289.000000
1572.791748 16369.000000
1574.340942 16205.000000
1575.888794 16391.000000
1577.436157 16285.000000
1578.982544 16282.000000
1580.528076 16402.000000
1582.072632 16353.000000
1583.615967 16398.000000
1585.158691 16431.000000
1586.700562 16483.000000
1588.241333 16401.000000
1589.781128 16494.000000
1591.320190 16236.000000
1592.858154 16278.000000
1594.395630 16095.000000
1595.931763 16274.000000
1597.466797 16419.000000
1599.001343 16071.000000
1600.534912 15999.000000
1602.067627 16122.000000
1603.598755 16201.000000
1605.129639 16274.000000
1606.659668 16246.000000
1608.188477 16038.000000
1609.716187 16197.000000
1611.243286 16151.000000
1612.769653 16291.000000
1614.295044 16160.000000
1615.819580 16300.000000
1617.342773 16161.000000
1618.865234 16262.000000
1620.386963 16183.000000
1621.907837 17221.000000
1623.427246 14475.000000
1624.946167 15850.000000
1626.464355 15848.000000
1627.981689 16005.000000
1629.497925 15882.000000
1631.012817 15894.000000
1632.527222 15660.000000
1634.040894 15768.000000
1635.553467 15737.000000
1637.064819 15645.000000
1638.575806 15475.000000
1640.085693 15531.000000
1641.594727 15484.000000
1643.102417 15455.000000
1644.609741 15333.000000
1646.116211 14946.000000
1647.621704 15310.000000
1649.126343 14984.000000
1650.629517 14909.000000
1652.132080 14918.000000
1653.634277 14884.000000
1655.135132 14884.000000
1656.634888 14748.000000
1658.133789 14603.000000
1659.632324 14481.000000
1661.129639 14571.000000
1662.626221 14487.000000
1664.121216 14485.000000
1665.615967 14390.000000
1667.109863 14079.000000
1668.602783 16383.000000
1670.094360 10022.000000
1671.585449 13767.000000
1673.075928 13864.000000
1674.565308 13789.000000
1676.053223 13634.000000
1677.540894 13701.000000
1679.027588 13997.000000
1680.513428 13823.000000
1681.998413 13758.000000
1683.481934 13607.000000
1684.965210 13261.000000
1686.447632 13322.000000
1687.928955 13390.000000
1689.408813 13237.000000
1690.888428 13242.000000
1692.367310 13466.000000
1693.845215 13021.000000
1695.322144 13245.000000
1696.797852 13191.000000
1698.273193 13112.000000
1699.747314 13084.000000
1701.220825 13046.000000
1702.692871 13070.000000
1704.164673 13101.000000
1705.635498 13093.000000
1707.105469 13092.000000
1708.574097 13124.000000
1710.042236 13159.000000
1711.509644 13261.000000
1712.975952 13206.000000
1714.441650 13016.000000
1715.905640 13120.000000
1717.369507 13013.000000
1718.832520 13050.000000
1720.294556 12943.000000
1721.755371 12824.000000
1723.215576 13120.000000
1724.675049 12977.000000
1726.133667 12965.000000
1727.591309 12806.000000
1729.047607 12923.000000
1730.503662 12868.000000
1731.958740 12931.000000
1733.412842 12750.000000
1734.865723 12740.000000
1736.318359 12765.000000
1737.769897 12628.000000
1739.220703 12594.000000
1740.670532 12664.000000
1742.119019 12591.000000
1743.567139 12410.000000
1745.014404 12336.000000
1746.460938 12356.000000
1747.905884 12231.000000
1749.350586 12422.000000
1750.794434 11992.000000
1752.237427 12259.000000
1753.678955 12153.000000
1755.120239 13230.000000
1756.560669 10472.000000
1758.000122 12073.000000
1759.438599 11922.000000
1760.876099 11965.000000
1762.313110 11772.000000
1763.749146 11700.000000
1765.184326 11778.000000
1766.618042 11776.000000
1768.051636 12005.000000
1769.484253 11792.000000
1770.916016 12040.000000
1772.346924 11968.000000
1773.776611 11656.000000
1775.205566 11346.000000
1776.634033 11288.000000
1778.061523 10883.000000
1779.487671 10480.000000
1780.913574 11284.000000
1782.338379 11047.000000
1783.762573 11121.000000
1785.185303 11082.000000
1786.607544 11013.000000
1788.029053 10988.000000
1789.449829 10879.000000
1790.869629 10885.000000
1792.288086 10784.000000
1793.706055 10710.000000
1795.123413 10677.000000
1796.539917 10847.000000
1797.954956 10722.000000
1799.369629 10651.000000
1800.783691 10689.000000
1802.196533 10830.000000
1803.608765 10690.000000
1805.019653 10567.000000
1806.430054 10554.000000
1807.839722 10642.000000
1809.248413 10503.000000
1810.656006 10588.000000
1812.063110 10598.000000
1813.469360 10580.000000
1814.874634 10648.000000
1816.278809 10754.000000
1817.682617 10603.000000
1819.085449 10659.000000
1820.487427 10556.000000
1821.888794 10576.000000
1823.288696 10593.000000
1824.687988 10613.000000
1826.086792 10419.000000
1827.484741 10495.000000
1828.881348 10547.000000
1830.277344 10522.000000
1831.672607 10510.000000
1833.067261 10421.000000
1834.460938 10361.000000
1835.853271 10313.000000
1837.245117 10523.000000
1838.636353 10311.000000
1840.026611 10202.000000
1841.415649 10375.000000
1842.804321 10265.000000
1844.192017 10213.000000
1845.578979 10371.000000
1846.964600 10291.000000
1848.349976 10221.000000
1849.734497 10249.000000
1851.118286 10207.000000
1852.500977 10030.000000
1853.882446 10094.000000
1855.263428 9917.000000
1856.643921 9886.000000
1858.023438 9747.000000
1859.401489 9948.000000
1860.779419 9811.000000
1862.156372 9810.000000
1863.532593 9767.000000
1864.907959 9721.000000
1866.281860 9640.000000
1867.655640 9534.000000
1869.028564 9428.000000
1870.400391 9401.000000
1871.771240 9385.000000
1873.141724 9371.000000
1874.511108 9263.000000
1875.880005 9132.000000
1877.247314 9174.000000
1878.614502 9234.000000
1879.980713 9221.000000
1881.346191 9185.000000
1882.710938 9091.000000
1884.074097 9040.000000
1885.437134 9048.000000
1886.799316 9085.000000
1888.160645 9026.000000
1889.520630 8903.000000
1890.880249 8897.000000
1892.239258 8993.000000
1893.597290 8903.000000
1894.954468 8772.000000
1896.310425 8857.000000
1897.666138 8894.000000
1899.020874 8923.000000
1900.374756 8893.000000
1901.727539 8912.000000
1903.079834 8875.000000
1904.431396 8808.000000
1905.782104 8979.000000
1907.131592 8882.000000
1908.480591 8971.000000
1909.828735 8853.000000
1911.176270 8808.000000
1912.523071 8817.000000
1913.868286 8824.000000
1915.213257 8895.000000
1916.557495 8886.000000
1917.900879 8832.000000
1919.242920 8785.000000
1920.584717 8935.000000
1921.925659 8738.000000
1923.265869 8896.000000
1924.605103 8904.000000
1925.943359 8791.000000
1927.281006 8837.000000
1928.617920 8768.000000
1929.953979 8744.000000
1931.288818 8725.000000
1932.623291 8723.000000
1933.957031 8539.000000
1935.289917 8615.000000
1936.621338 8536.000000
1937.952881 8539.000000
1939.283081 8462.000000
1940.612793 8482.000000
1941.941650 8510.000000
1943.269287 8529.000000
1944.596436 8510.000000
1945.922852 8473.000000
1947.248535 8429.000000
1948.572876 8441.000000
1949.896973 8363.000000
1951.220215 8393.000000
1952.542725 8286.000000
1953.864136 8406.000000
1955.184570 8331.000000
1956.504395 8218.000000
1957.823853 8178.000000
1959.142334 8096.000000
1960.459473 8123.000000
1961.776245 8010.000000
1963.092285 8024.000000
1964.407593 8060.000000
1965.721436 7993.000000
1967.035034 8005.000000
1968.347900 8001.000000
1969.659912 8005.000000
1970.971313 8032.000000
1972.281372 7789.000000
1973.590942 7761.000000
1974.899780 7790.000000
1976.208008 7714.000000
1977.514893 7667.000000
1978.821167 7691.000000
1980.127075 7813.000000
1981.431763 7804.000000
1982.735962 7696.000000
1984.038940 7562.000000
1985.341553 7486.000000
1986.643188 7626.000000
1987.944214 7447.000000
1989.243652 7428.000000
1990.543213 7380.000000
1991.841675 7371.000000
1993.139648 7295.000000
1994.436035 7298.000000
1995.732422 7293.000000
1997.027832 7309.000000
1998.322510 7233.000000
1999.616333 7290.000000
2000.908936 7268.000000
2002.201050 7154.000000
2003.492676 7190.000000
2004.783569 7049.000000
2006.072876 7165.000000
2007.361938 7128.000000
2008.650269 7089.000000
2009.937866 7044.000000
2011.224609 7083.000000
2012.510254 7078.000000
2013.795532 7044.000000
2015.079834 7059.000000
2016.363525 7088.000000
2017.645874 6962.000000
2018.927856 7043.000000
2020.209351 6999.000000
2021.489868 6922.000000
2022.769653 6917.000000
2024.048340 7020.000000
2025.326294 6921.000000
2026.603760 6921.000000
2027.880615 6913.000000
2029.155762 7062.000000
2030.431030 7080.000000
2031.705322 7053.000000
2032.978638 6922.000000
2034.251099 6974.000000
2035.523193 7023.000000
2036.794189 7085.000000
2038.064941 7097.000000
2039.334351 6947.000000
2040.602661 7036.000000
2041.870972 6995.000000
2043.138306 6970.000000
2044.404907 7074.000000
2045.670288 6879.000000
2046.935059 7287.000000
2048.199707 7006.000000
2049.462891 6901.000000
2050.725830 6920.000000
2051.986816 6899.000000
2053.248291 6851.000000
2054.508545 6673.000000
2055.768066 6751.000000
2057.026855 6612.000000
2058.284668 6598.000000
2059.541992 6698.000000
2060.798584 6658.000000
2062.053711 6686.000000
2063.308838 6651.000000
2064.562988 6680.000000
2065.816406 6628.000000
2067.069092 6544.000000
2068.320557 6571.000000
2069.571777 6565.000000
2070.822266 6647.000000
2072.072021 6539.000000
2073.320313 6228.000000
2074.568604 6487.000000
2075.815918 6387.000000
2077.062500 6457.000000
2078.308350 6310.000000
2079.552979 6255.000000
2080.797119 6438.000000
2082.040771 6250.000000
2083.283447 6278.000000
2084.524902 6183.000000
2085.766113 6241.000000
2087.006836 6147.000000
2088.246582 6153.000000
2089.485107 6241.000000
2090.723145 6093.000000
2091.960449 6107.000000
2093.197510 6157.000000
2094.433105 6098.000000
2095.667969 6085.000000
2096.902588 6181.000000
2098.136230 6134.000000
2099.368896 6030.000000
2100.600830 5964.000000
2101.832275 5961.000000
2103.062744 5905.000000
2104.292480 5968.000000
2105.521973 6048.000000
2106.749512 5940.000000
2107.977295 5819.000000
2109.204346 5826.000000
2110.430420 5869.000000
2111.655029 5775.000000
2112.879883 5776.000000
2114.103516 5749.000000
2115.326660 5860.000000
2116.548584 5767.000000
2117.770264 5850.000000
2118.990967 5805.000000
2120.210938 5846.000000
2121.430420 5731.000000
2122.648438 5930.000000
2123.866455 5811.000000
2125.083496 5865.000000
2126.300049 5987.000000
2127.514893 5894.000000
2128.729980 5775.000000
2129.944092 5837.000000
2131.157471 5682.000000
2132.370117 5718.000000
2133.581299 5656.000000
2134.792725 5778.000000
2136.002930 5930.000000
2137.212646 5732.000000
2138.420898 5759.000000
2139.629150 5764.000000
2140.836670 5715.000000
2142.042969 5580.000000
2143.248535 5676.000000
2144.453857 5690.000000
2145.658203 5604.000000
2146.861816 5643.000000
2148.064941 5580.000000
2149.266602 5601.000000
2150.468018 5617.000000
2151.668701 5563.000000
2152.868652 5491.000000
2154.067383 5584.000000
2155.265869 5570.000000
2156.463867 5554.000000
2157.660889 5402.000000
2158.857178 5457.000000
2160.052246 5437.000000
2161.247070 5272.000000
2162.441162 5291.000000
2163.634277 5229.000000
2164.826416 5086.000000
2166.018311 5211.000000
2167.209473 5151.000000
2168.399658 5105.000000
2169.589111 5069.000000
2170.778076 5116.000000
2171.966064 5009.000000
2173.153809 5049.000000
2174.340088 5046.000000
2175.525635 4861.000000
2176.710938 4864.000000
2177.895752 4906.000000
2179.079346 4870.000000
2180.262207 4847.000000
2181.444092 4917.000000
2182.625732 4935.000000
2183.806885 4885.000000
2184.986816 4895.000000
2186.165771 4743.000000
2187.344238 4833.000000
2188.522461 4802.000000
2189.699463 4766.000000
2190.875488 4731.000000
2192.051270 4761.000000
2193.226563 4775.000000
2194.400391 4745.000000
2195.573730 4876.000000
2196.746826 4798.000000
2197.918701 4762.000000
2199.090088 4811.000000
2200.260986 4858.000000
2201.430176 4917.000000
2202.599365 4800.000000
2203.768066 4792.000000
2204.935791 4790.000000
2206.102539 4880.000000
2207.268555 4786.000000
2208.434082 4856.000000
2209.599365 4747.000000
2210.763184 4769.000000
2211.926514 4811.000000
2213.088623 4780.000000
2214.250977 4760.000000
2215.412109 4726.000000
2216.572266 4615.000000
2217.731934 4718.000000
2218.891357 4716.000000
2220.049561 4600.000000
2221.206787 4589.000000
2222.363770 4669.000000
2223.520020 4485.000000
2224.675537 4635.000000
2225.830322 4637.000000
2226.984131 4517.000000
2228.136963 4550.000000
2229.290283 4457.000000
2230.441650 4578.000000
2231.592773 4486.000000
2232.743164 4443.000000
2233.893066 4472.000000
2235.041992 4454.000000
2236.190430 4407.000000
2237.337402 4316.000000
2238.484619 4377.000000
2239.630615 4300.000000
2240.776367 4279.000000
2241.920410 4203.000000
2243.064697 4208.000000
2244.208008 4167.000000
2245.350586 4316.000000
2246.492188 4230.000000
2247.633545 4181.000000
2248.773926 3988.000000
2249.913574 4065.000000
2251.052734 4132.000000
2252.190674 4081.000000
2253.328613 4162.000000
2254.465576 4121.000000
2255.601807 3934.000000
2256.737061 3988.000000
2257.871582 3962.000000
2259.005859 4168.000000
2260.139648 4102.000000
2261.271973 4147.000000
2262.403809 4140.000000
2263.535156 3916.000000
2264.665527 3908.000000
2265.795654 3860.000000
2266.924561 3879.000000
2268.052979 3824.000000
2269.180908 3799.000000
2270.307861 3840.000000
2271.434082 3760.000000
2272.559326 3830.000000
2273.684570 3864.000000
2274.809082 3934.000000
2275.932373 3825.000000
2277.054932 3896.000000
2278.177002 3903.000000
2279.298584 3701.000000
2280.419434 3757.000000
2281.539063 3813.000000
2282.658203 3740.000000
2283.777100 3821.000000
2284.895264 3523.000000
2286.012451 3714.000000
2287.128662 3649.000000
2288.244629 3627.000000
2289.359863 3751.000000
2290.474365 3705.000000
2291.587646 3749.000000
2292.700928 3763.000000
2293.813477 3773.000000
2294.925293 3814.000000
2296.036377 3561.000000
2297.146240 3698.000000
2298.255615 3842.000000
2299.364746 3647.000000
2300.472900 3788.000000
2301.580078 3766.000000
2302.687012 3797.000000
2303.793213 3707.000000
2304.898926 3694.000000
2306.003174 3692.000000
2307.107178 3744.000000
2308.210693 3687.000000
2309.313721 3611.000000
2310.415527 3564.000000
2311.516602 3680.000000
2312.617188 3732.000000
2313.717285 3546.000000
2314.816650 3595.000000
2315.914551 3547.000000
2317.012939 3517.000000
2318.109863 3492.000000
2319.206543 3600.000000
2320.302734 3686.000000
2321.397217 3559.000000
2322.491699 3530.000000
2323.585449 3371.000000
2324.678955 3517.000000
2325.770752 3524.000000
2326.862549 3502.000000
2327.953613 3491.000000
2329.043945 3554.000000
2330.133301 3457.000000
2331.222656 3468.000000
2332.310791 3436.000000
2333.398438 3403.000000
2334.485840 3472.000000
2335.571533 3341.000000
2336.656982 3384.000000
2337.742188 3276.000000
2338.826416 3279.000000
2339.909668 3252.000000
2340.992676 3230.000000
2342.074707 3224.000000
2343.156494 3187.000000
2344.237549 3187.000000
2345.317383 3192.000000
2346.396729 3173.000000
2347.475586 3173.000000
2348.553955 3169.000000
2349.630859 3081.000000
2350.707520 3096.000000
2351.783936 3066.000000
2352.859375 3099.000000
2353.933838 3122.000000
2355.008057 3015.000000
2356.081543 3127.000000
2357.154541 3019.000000
2358.226318 3075.000000
2359.297852 2949.000000
2360.368408 2854.000000
2361.438721 2909.000000
2362.508057 2934.000000
2363.576416 3006.000000
2364.644531 3017.000000
2365.711914 3027.000000
2366.778809 2846.000000
2367.844971 2875.000000
2368.909912 3007.000000
2369.974854 2899.000000
2371.039063 2890.000000
2372.102539 2873.000000
2373.164795 2938.000000
2374.227051 2825.000000
2375.288330 2842.000000
2376.349365 2875.000000
2377.409180 2791.000000
2378.468262 2760.000000
2379.527344 2878.000000
2380.585449 2753.000000
2381.642822 2807.000000
2382.699219 2779.000000
2383.755371 2772.000000
2384.811035 2812.000000
2385.865967 2766.000000
2386.919434 2806.000000
2387.973145 2769.000000
2389.025879 2892.000000
2390.078125 2824.000000
2391.129639 2800.000000
2392.180176 2889.000000
2393.230469 2806.000000
2394.279785 2771.000000
2395.329102 2716.000000
2396.376953 2737.000000
2397.424316 2763.000000
2398.471436 2679.000000
2399.517578 2767.000000
2400.562988 2796.000000
2401.607666 2747.000000
2402.652344 2670.000000
2403.695557 2721.000000
2404.738770 2763.000000
2405.780518 2852.000000
2406.822510 2722.000000
2407.863770 2780.000000
2408.904053 2719.000000
2409.943604 2678.000000
2410.982178 2764.000000
2412.020996 2669.000000
2413.058594 2768.000000
2414.095947 2761.000000
2415.132080 2667.000000
2416.167969 2660.000000
2417.203125 2713.000000
2418.237793 2708.000000
2419.270996 2738.000000
2420.304443 2626.000000
2421.336914 2624.000000
2422.369141 2661.000000
2423.399902 2613.000000
2424.430664 2623.000000
2425.460938 2588.000000
2426.489990 2499.000000
2427.519043 2682.000000
2428.546387 2686.000000
2429.574219 2466.000000
2430.600830 2523.000000
2431.627197 2518.000000
2432.652100 2480.000000
2433.677246 2475.000000
2434.701416 2449.000000
2435.725342 2478.000000
2436.748047 2479.000000
2437.770020 2440.000000
2438.791748 2414.000000
2439.812744 2434.000000
2440.833252 2399.000000
2441.852539 2366.000000
2442.871826 2403.000000
2443.890137 2397.000000
2444.908203 2368.000000
2445.924805 2313.000000
2446.941406 2329.000000
2447.957275 2283.000000
2448.973145 2362.000000
2449.987549 2348.000000
2451.001221 2273.000000
2452.014404 2307.000000
2453.027344 2282.000000
2454.039551 2223.000000
2455.050781 2253.000000
2456.061768 2333.000000
2457.072021 2241.000000
2458.081787 2287.000000
2459.090576 2294.000000
2460.098633 2166.000000
2461.106689 2263.000000
2462.113525 2261.000000
2463.120117 2214.000000
2464.125488 2115.000000
2465.130615 2151.000000
2466.135498 2271.000000
2467.139160 2101.000000
2468.142578 2136.000000
2469.145020 2218.000000
2470.147217 2127.000000
2471.148926 2181.000000
2472.149658 2131.000000
2473.149414 2104.000000
2474.149170 2117.000000
2475.147949 2189.000000
2476.146240 2097.000000
2477.143555 2134.000000
2478.140625 2243.000000
2479.137695 2150.000000
2480.133301 2075.000000
2481.128906 2202.000000
2482.122803 2055.000000
2483.116699 2118.000000
2484.110107 2120.000000
2485.103027 2159.000000
2486.094971 2203.000000
2487.086182 2121.000000
2488.077148 2083.000000
2489.067627 2132.000000
2490.057129 2110.000000
2491.045898 2102.000000
2492.034668 2033.000000
2493.022461 2134.000000
2494.009033 2080.000000
2494.995605 2240.000000
2495.981689 2147.000000
2496.967041 2137.000000
2497.951416 2080.000000
2498.935547 2148.000000
2499.919678 1984.000000
2500.902344 2123.000000
2501.884521 2066.000000
2502.866211 1935.000000
2503.847168 2057.000000
2504.827637 2087.000000
2505.807861 2069.000000
2506.786621 1972.000000
2507.765137 2011.000000
2508.743164 2073.000000
2509.720703 1993.000000
2510.697266 2026.000000
2511.673584 1964.000000
2512.649170 2038.000000
2513.624268 2002.000000
2514.598877 2006.000000
2515.572266 2012.000000
2516.545410 1941.000000
2517.518311 1980.000000
2518.490234 1852.000000
2519.461426 1939.000000
2520.432129 1875.000000
2521.402588 1917.000000
2522.372314 1885.000000
2523.341064 1925.000000
2524.309082 1877.000000
2525.277100 1886.000000
2526.244141 1841.000000
2527.210938 1854.000000
2528.176514 1911.000000
2529.142090 1890.000000
2530.106934 1855.000000
2531.071289 1777.000000
2532.034424 1797.000000
2532.997803 1814.000000
2533.960205 1824.000000
2534.922363 1729.000000
2535.883301 1794.000000
2536.843506 1878.000000
2537.803955 1829.000000
2538.763428 1832.000000
2539.722168 1806.000000
2540.679932 1868.000000
2541.637939 1752.000000
2542.595215 1718.000000
2543.551514 1755.000000
2544.507568 1735.000000
2545.462402 1789.000000
2546.417480 1744.000000
2547.371826 1712.000000
2548.325439 1246.000000
2549.278076 1714.000000
2550.230469 1787.000000
2551.182373 1628.000000
2552.133545 1723.000000
2553.083984 1625.000000
2554.033936 1625.000000
2554.983643 1678.000000
2555.932617 1724.000000
2556.881104 1655.000000
2557.828369 1678.000000
2558.775635 1685.000000
2559.722168 1697.000000
2560.668213 1596.000000
2561.613281 1630.000000
2562.558105 1693.000000
2563.502441 1666.000000
2564.446289 1522.000000
2565.389648 1645.000000
2566.331543 1660.000000
2567.273682 1579.000000
2568.215088 1644.000000
2569.155762 1593.000000
2570.095703 1589.000000
2571.035645 1572.000000
2571.974609 1577.000000
2572.913330 1545.000000
2573.851074 1543.000000
2574.788574 1499.000000
2575.725342 1600.000000
2576.661377 1606.000000
2577.596924 1602.000000
2578.531738 1638.000000
2579.466553 1654.000000
2580.400391 1613.000000
2581.333740 1436.000000
2582.266357 1611.000000
2583.198730 1612.000000
2584.130371 1520.000000
2585.061523 1479.000000
2585.992188 1553.000000
2586.921631 1502.000000
2587.851074 1551.000000
2588.780029 1572.000000
2589.708740 1538.000000
2590.635742 1462.000000
2591.562988 1584.000000
2592.489746 1535.000000
2593.415771 1549.000000
2594.341553 1468.000000
2595.266113 1460.000000
2596.190430 1544.000000
2597.114258 1461.000000
2598.037598 1545.000000
2598.959961 1468.000000
2599.882080 1555.000000
2600.803711 1495.000000
2601.724609 1458.000000
2602.644775 1593.000000
2603.564697 1432.000000
2604.484131 1550.000000
2605.403320 1526.000000
2606.321533 1504.000000
2607.238525 1434.000000
2608.155762 1573.000000
2609.072754 1487.000000
2609.988770 1404.000000
2610.903564 1344.000000
2611.818848 1439.000000
2612.733398 1586.000000
2613.646973 1514.000000
2614.560547 1373.000000
2615.472900 1377.000000
2616.385254 1403.000000
2617.296631 1351.000000
2618.207764 1431.000000
2619.118164 1435.000000
2620.028320 1362.000000
2620.937744 1386.000000
2621.846680 1389.000000
2622.754639 1413.000000
2623.662842 1325.000000
2624.570068 1435.000000
2625.476807 1388.000000
2626.382813 1375.000000
2627.288574 1367.000000
2628.193604 1354.000000
2629.098389 1309.000000
2630.002441 1329.000000
2630.905518 1367.000000
2631.808594 1346.000000
2632.710693 1365.000000
2633.612793 1301.000000
2634.514648 1309.000000
2635.414795 1243.000000
2636.315186 1339.000000
2637.214844 1334.000000
2638.114258 1262.000000
2639.012207 1314.000000
2639.910645 1215.000000
2640.808594 1289.000000
2641.705811 1391.000000
2642.601807 1261.000000
2643.497803 1307.000000
2644.393555 1230.000000
2645.288574 1222.000000
2646.183350 1278.000000
2647.076660 1125.000000
2647.969971 1190.000000
2648.863037 1229.000000
2649.755859 1228.000000
2650.646973 1256.000000
2651.538330 1254.000000
2652.429199 1095.000000
2653.319336 1189.000000
2654.209229 1272.000000
2655.097900 1184.000000
2655.986816 1228.000000
2656.875244 1191.000000
2657.762695 1181.000000
2658.649170 1307.000000
2659.536133 1239.000000
2660.422363 1107.000000
2661.308105 1123.000000
2662.192627 1058.000000
2663.077148 1150.000000
2663.961426 1182.000000
2664.844971 1157.000000
2665.728027 1205.000000
2666.610352 1088.000000
2667.492188 1229.000000
2668.373291 1211.000000
2669.254639 1247.000000
2670.134521 1205.000000
2671.014648 1096.000000
2671.894043 1177.000000
2672.773438 1207.000000
2673.652100 1230.000000
2674.529053 1226.000000
2675.406738 1096.000000
2676.283691 1134.000000
2677.159912 1174.000000
2678.035645 1204.000000
2678.910645 1059.000000
2679.785889 1085.000000
2680.660156 1073.000000
2681.533936 1176.000000
2682.406982 1196.000000
2683.279785 1174.000000
2684.152344 1162.000000
2685.024170 1134.000000
2685.895264 1112.000000
2686.766113 1129.000000
2687.636475 1121.000000
2688.506592 1104.000000
2689.375000 1032.000000
2690.244141 1052.000000
2691.112549 1103.000000
2691.980713 1117.000000
2692.848145 1112.000000
2693.714355 1124.000000
2694.581055 1004.000000
2695.446777 994.000000
2696.312500 1186.000000
2697.176758 992.000000
2698.041748 1076.000000
2698.905273 1000.000000
2699.769043 1020.000000
2700.631348 1105.000000
2701.494141 1089.000000
2702.355957 1095.000000
2703.217285 1121.000000
2704.078613 1131.000000
2704.938721 1037.000000
2705.798828 1133.000000
2706.658447 1067.000000
2707.517822 1003.000000
2708.375488 954.000000
2709.233398 1010.000000
2710.091797 1019.000000
2710.948975 970.000000
2711.805420 1026.000000
2712.661377 1072.000000
2713.517334 1017.000000
2714.372559 1018.000000
2715.227051 988.000000
2716.081055 1087.000000
2716.935059 1056.000000
2717.788086 1018.000000
2718.641357 979.000000
2719.492920 976.000000
2720.344971 1010.000000
2721.196777 1013.000000
2722.047363 1017.000000
2722.897949 1279.000000
2723.748047 1024.000000
2724.597412 984.000000
2725.446777 970.000000
2726.294922 979.000000
2727.142578 929.000000
2727.990723 1003.000000
2728.837646 996.000000
2729.685059 925.000000
2730.531006 1049.000000
2731.376221 995.000000
2732.221924 933.000000
2733.066650 1001.000000
2733.911377 1091.000000
2734.754883 1030.000000
2735.598633 909.000000
2736.441650 969.000000
2737.284180 903.000000
2738.125732 975.000000
2738.967773 963.000000
2739.808838 902.000000
2740.649658 979.000000
2741.490234 961.000000
2742.329590 861.000000
2743.168945 882.000000
2744.008301 856.000000
2744.846436 807.000000
2745.684082 894.000000
2746.521729 978.000000
2747.358887 956.000000
2748.195801 923.000000
2749.032227 853.000000
2749.867432 908.000000
2750.702881 996.000000
2751.537842 972.000000
2752.372070 875.000000
2753.206055 987.000000
2754.039551 945.000000
2754.873047 928.000000
2755.705566 899.000000
2756.537598 802.000000
2757.369141 905.000000
2758.200684 894.000000
2759.031250 919.000000
2759.862061 806.000000
2760.691650 884.000000
2761.521240 810.000000
2762.350586 867.000000
2763.179199 933.000000
2764.007324 844.000000
2764.834961 809.000000
2765.662598 820.000000
2766.489746 898.000000
2767.316162 887.000000
2768.142090 876.000000
2768.967529 827.000000
2769.792725 876.000000
2770.617920 884.000000
2771.441895 837.000000
2772.265869 864.000000
2773.089844 869.000000
2773.912598 832.000000
2774.735596 815.000000
2775.557373 913.000000
2776.379150 845.000000
2777.200928 771.000000
2778.021729 780.000000
2778.841797 841.000000
2779.662109 830.000000
2780.481934 818.000000
2781.301758 821.000000
2782.119629 820.000000
2782.938721 821.000000
2783.756592 728.000000
2784.574219 688.000000
2785.391357 850.000000
2786.208008 744.000000
2787.024414 798.000000
2787.840332 767.000000
2788.656006 696.000000
2789.470703 833.000000
2790.285889 805.000000
2791.100342 784.000000
2791.914307 750.000000
2792.728027 767.000000
2793.540527 751.000000
2794.353271 802.000000
2795.165527 748.000000
2795.977295 812.000000
2796.788330 707.000000
2797.600098 815.000000
2798.410645 704.000000
2799.221191 692.000000
2800.030273 723.000000
2800.840088 678.000000
2801.649170 667.000000
2802.458008 751.000000
2803.266357 773.000000
2804.073730 743.000000
2804.881592 801.000000
2805.688721 849.000000
2806.495605 761.000000
2807.301270 547.000000
2808.107422 738.000000
2808.912842 765.000000
2809.718262 786.000000
2810.522949 747.000000
2811.326660 731.000000
2812.130859 792.000000
2812.934570 682.000000
2813.738037 808.000000
2814.540039 770.000000
2815.342773 694.000000
2816.144775 736.000000
2816.946533 747.000000
2817.747803 751.000000
2818.548584 692.000000
2819.348877 781.000000
2820.149414 712.000000
2820.948975 750.000000
2821.748047 778.000000
2822.547119 655.000000
2823.345947 725.000000
2824.144287 749.000000
2824.941650 732.000000
2825.739258 632.000000
2826.536133 674.000000
2827.333252 673.000000
2828.129639 754.000000
2828.925293 729.000000
2829.720947 751.000000
2830.516357 781.000000
2831.311279 710.000000
2832.105469 809.000000
2832.899658 737.000000
2833.693604 738.000000
2834.487061 649.000000
2835.279785 801.000000
2836.072266 790.000000
2836.864746 718.000000
2837.656982 784.000000
2838.448730 746.000000
2839.239502 707.000000
2840.030273 700.000000
2840.821289 672.000000
2841.611328 609.000000
2842.400879 749.000000
2843.190674 745.000000
2843.979492 676.000000
2844.768311 683.000000
2845.557129 657.000000
2846.344971 726.000000
2847.132324 746.000000
2847.919922 667.000000
2848.707031 729.000000
2849.493408 725.000000
2850.279785 744.000000
2851.065918 667.000000
2851.851563 690.000000
2852.636230 687.000000
2853.421387 777.000000
2854.206299 697.000000
2854.990479 718.000000
2855.774658 761.000000
2856.557617 835.000000
2857.340820 686.000000
2858.123779 717.000000
2858.906250 732.000000
2859.688477 710.000000
2860.470215 789.000000
2861.251709 709.000000
2862.033447 839.000000
2862.814453 836.000000
2863.594727 833.000000
2864.374756 750.000000
2865.154785 685.000000
2865.934570 841.000000
2866.713379 736.000000
2867.492432 742.000000
2868.270996 776.000000
2869.049316 803.000000
2869.827148 750.000000
2870.604736 911.000000
2871.382080 807.000000
2872.159180 863.000000
2872.935791 874.000000
2873.711914 884.000000
2874.488037 965.000000
2875.263672 863.000000
2876.039063 825.000000
2876.813965 973.000000
2877.588623 968.000000
2878.363281 829.000000
2879.137695 987.000000
2879.911377 1007.000000
2880.684326 938.000000
2881.458008 884.000000
2882.230713 879.000000
2883.003418 977.000000
2883.775391 938.000000
2884.547119 896.000000
2885.319336 844.000000
2886.090332 894.000000
2886.860840 1050.000000
2887.631836 908.000000
2888.402832 885.000000
2889.173096 920.000000
2889.942383 863.000000
2890.711914 936.000000
2891.481445 1015.000000
2892.250488 993.000000
2893.019043 924.000000
2893.787598 958.000000
2894.555176 860.000000
2895.323242 869.000000
2896.090820 899.000000
2896.858398 856.000000
2897.624756 864.000000
2898.392090 960.000000
2899.158203 811.000000
2899.924561 806.000000
2900.689453 872.000000
2901.454834 904.000000
2902.220703 805.000000
2902.985107 926.000000
2903.749512 912.000000
2904.514160 745.000000
2905.277832 856.000000
2906.042236 814.000000
2906.805908 857.000000
2907.568848 735.000000
2908.331543 850.000000
2909.094727 784.000000
2909.857422 793.000000
2910.618896 837.000000
2911.380859 837.000000
spectrumdark 2048
-96.849915 6162.000000
-94.223045 6162.000000
-91.598053 6021.000000
-88.974953 6365.000000
-86.353722 5808.000000
-83.734390 6293.000000
-81.116920 6045.000000
-78.501328 6358.000000
-75.887611 6235.000000
-73.275772 5813.000000
-70.665794 6142.000000
-68.057701 5950.000000
-65.451454 6013.000000
-62.847088 5979.000000
-60.244579 6099.000000
-57.643925 5557.000000
-55.045132 6169.000000
-52.448196 6755.000000
-49.853115 6402.000000
-47.259888 6463.000000
-44.668510 6282.000000
-42.078979 6674.000000
-39.491291 5946.000000
-36.905453 5997.000000
-34.321457 6407.000000
-31.739298 5657.000000
-29.158985 6324.000000
-26.580500 5717.000000
-24.003857 6135.000000
-21.429039 6215.000000
-18.856062 6443.000000
-16.284904 6477.000000
-13.715580 6702.000000
-11.148082 7675.000000
-8.582402 6251.000000
-6.018548 6391.000000
-3.456508 5970.000000
-0.896292 5805.000000
1.662116 6151.000000
4.218703 6874.000000
6.773485 6631.000000
9.326450 5989.000000
11.877615 6718.000000
14.426967 6374.000000
16.974522 6661.000000
19.520266 6019.000000
22.064217 5711.000000
24.606363 6688.000000
27.146713 6797.000000
29.685278 6747.000000
32.222046 6142.000000
34.757011 5742.000000
37.290199 7245.000000
39.821606 6270.000000
42.351219 7106.000000
44.879036 6505.000000
47.405094 7784.000000
49.929363 5715.000000
52.451862 6189.000000
54.972565 6696.000000
57.491512 6231.000000
60.008686 6424.000000
62.524082 6690.000000
65.037704 5531.000000
67.549568 5717.000000
70.059685 6510.000000
72.568008 6489.000000
75.074577 5892.000000
77.579399 6331.000000
80.082466 6403.000000
82.583755 6212.000000
85.083305 6083.000000
87.581100 6332.000000
90.077164 5746.000000
92.571449 7151.000000
95.063995 5813.000000
97.554825 6863.000000
100.043884 7185.000000
102.531197 6344.000000
105.016785 6190.000000
107.500633 6359.000000
109.982735 5743.000000
112.463112 6538.000000
114.941765 6133.000000
117.418694 6360.000000
119.893867 7094.000000
122.367332 6770.000000
124.839066 5865.000000
127.309090 6702.000000
129.777359 6244.000000
132.243958 6280.000000
134.708801 5676.000000
137.171951 6187.000000
139.633362 7328.000000
142.093079 6800.000000
144.551071 6332.000000
147.007370 5980.000000
149.461960 5779.000000
151.914825 6821.000000
154.366013 6340.000000
156.815506 6541.000000
159.263275 6025.000000
161.709335 6594.000000
164.153717 8626.000000
166.596420 6404.000000
169.037430 6718.000000
171.476730 6162.000000
173.914322 7217.000000
176.350281 6572.000000
178.784500 6885.000000
181.217041 7096.000000
183.647934 6637.000000
186.077103 7147.000000
188.504623 6649.000000
190.930466 6310.000000
193.354630 6620.000000
195.777130 7178.000000
198.197937 7406.000000
200.617081 6467.000000
203.034561 5973.000000
205.450348 7569.000000
207.864487 7040.000000
210.276993 6333.000000
212.687820 6039.000000
215.096970 6235.000000
217.504486 7327.000000
219.910294 6149.000000
222.314514 6538.000000
224.717026 6606.000000
227.117920 6894.000000
229.517166 6459.000000
231.914749 6803.000000
234.310669 7252.000000
236.704971 6512.000000
239.097610 5797.000000
241.488632 6751.000000
243.877991 6474.000000
246.265732 6397.000000
248.651825 6961.000000
251.036285 6079.000000
253.419098 7846.000000
255.800339 6584.000000
258.179871 6690.000000
260.557831 6454.000000
262.934113 7470.000000
265.308838 7528.000000
267.681915 7833.000000
270.053345 6160.000000
272.423126 6400.000000
274.791351 5813.000000
277.157928 6396.000000
279.522919 6766.000000
281.886292 5996.000000
284.248016 6181.000000
286.608154 7103.000000
288.966675 5900.000000
291.323608 6501.000000
293.678925 6344.000000
296.032654 5931.000000
298.384735 5955.000000
300.735260 6244.000000
303.084198 6298.000000
305.431488 6753.000000
307.777252 6414.000000
310.121338 6434.000000
312.463898 7332.000000
314.804840 7573.000000
317.144165 7119.000000
319.481934 6981.000000
321.818146 8056.000000
324.152710 6244.000000
326.485718 6399.000000
328.817169 5987.000000
331.147034 6611.000000
333.475311 6401.000000
335.801971 7224.000000
338.127136 6290.000000
340.450684 6182.000000
342.772675 5966.000000
345.093109 7534.000000
347.411926 7593.000000
349.729187 5952.000000
352.044922 5785.000000
354.359070 6969.000000
356.671631 6304.000000
358.982635 6290.000000
361.292114 7128.000000
363.600067 6354.000000
365.906403 5635.000000
368.211151 6393.000000
370.514435 6385.000000
372.816101 6213.000000
375.116272 6345.000000
377.414886 6215.000000
379.711945 5694.000000
382.007446 6114.000000
384.301422 5819.000000
386.593811 5218.000000
388.884705 5554.000000
391.174072 6217.000000
393.461853 6213.000000
395.748108 6483.000000
398.032867 7000.000000
400.316010 6072.000000
402.597717 6346.000000
404.877899 6106.000000
407.156494 7251.000000
409.433563 6360.000000
411.709106 6712.000000
413.983124 6480.000000
416.255707 6405.000000
418.526672 6267.000000
420.796143 6385.000000
423.064117 7145.000000
425.330536 7205.000000
427.595459 6303.000000
429.858917 6299.000000
432.120789 6463.000000
434.381195 5963.000000
436.640045 6538.000000
438.897430 6074.000000
441.153320 5583.000000
443.407715 5807.000000
445.660583 5419.000000
447.911896 6889.000000
450.161804 6037.000000
452.410126 6267.000000
454.657013 5670.000000
456.902435 6438.000000
459.146301 6458.000000
461.388672 6867.000000
463.629547 5610.000000
465.869019 6729.000000
468.106903 5388.000000
470.343353 5877.000000
472.578278 6027.000000
474.811737 7348.000000
477.043762 6663.000000
479.274261 5605.000000
481.503265 6422.000000
483.730804 6275.000000
485.956848 5961.000000
488.181458 6494.000000
490.404602 5835.000000
492.626282 6396.000000
494.846405 6715.000000
497.065125 5639.000000
499.282349 6312.000000
501.498199 5519.000000
503.712433 6157.000000
505.925354 6362.000000
508.136688 6447.000000
510.346588 6796.000000
512.555054 6435.000000
514.762146 6534.000000
516.967651 6332.000000
519.171753 6582.000000
521.374329 6160.000000
523.575500 6523.000000
525.775330 6628.000000
527.973633 6836.000000
530.170410 5308.000000
532.365845 5784.000000
534.559753 5670.000000
536.752319 7489.000000
538.943359 6676.000000
541.132996 6064.000000
543.321228 6872.000000
545.507935 7040.000000
547.693176 6779.000000
549.877136 6232.000000
552.059509 6456.000000
554.240540 6104.000000
556.420044 5984.000000
558.598267 5814.000000
560.774963 6013.000000
562.950256 6376.000000
565.124146 6393.000000
567.296570 5937.000000
569.467590 5969.000000
571.637146 6278.000000
573.805420 5228.000000
575.972168 6390.000000
578.137451 6238.000000
580.301331 6119.000000
582.463928 5697.000000
584.625000 5925.000000
586.784668 5576.000000
588.942993 5736.000000
591.099792 6083.000000
593.255249 6587.000000
595.409302 5807.000000
597.562012 6084.000000
599.713196 7276.000000
601.863037 6767.000000
604.011536 6611.000000
606.158447 6003.000000
608.304138 6428.000000
610.448425 6440.000000
612.591248 6606.000000
614.732605 6150.000000
616.872742 6383.000000
619.011353 7648.000000
621.148682 5612.000000
623.284546 6565.000000
625.419006 6833.000000
627.552002 7187.000000
629.683838 6628.000000
631.814209 6540.000000
633.943176 6787.000000
636.070679 6410.000000
638.196899 6262.000000
640.321594 7308.000000
642.445068 6373.000000
644.567200 6698.000000
646.687866 6840.000000
648.807190 6589.000000
650.925110 5577.000000
653.041687 5679.000000
655.156860 6429.000000
657.270691 6441.000000
659.383057 5799.000000
661.494202 6126.000000
663.603943 5398.000000
665.712219 6014.000000
667.819336 6199.000000
669.924988 6854.000000
672.029175 5837.000000
674.132141 5668.000000
676.233704 6984.000000
678.333923 5251.000000
680.432739 6752.000000
682.530212 6235.000000
684.626404 6896.000000
686.721130 6312.000000
688.814636 6902.000000
690.906799 6661.000000
692.997437 7923.000000
695.086853 6664.000000
697.174988 6468.000000
699.261658 5996.000000
701.347107 6642.000000
703.431030 5166.000000
705.513733 5912.000000
707.595154 5944.000000
709.675110 7568.000000
711.753845 6168.000000
713.831116 5537.000000
715.907104 6601.000000
717.981812 6037.000000
720.055237 6965.000000
722.127136 6244.000000
724.197876 7355.000000
726.267273 5734.000000
728.335266 6447.000000
730.401917 6291.000000
732.467346 7053.000000
734.531433 5747.000000
736.594177 6116.000000
738.655579 6470.000000
740.715698 6474.000000
742.774414 5974.000000
744.831909 6594.000000
746.888123 6445.000000
748.942932 6689.000000
750.996460 6349.000000
753.048584 7480.000000
755.099487 5716.000000
757.149170 6658.000000
759.197388 6363.000000
761.244385 6203.000000
763.290100 7041.000000
765.334412 5337.000000
767.377441 5693.000000
769.419250 6300.000000
771.459717 6907.000000
773.498779 6298.000000
775.536682 6067.000000
777.573242 5930.000000
779.608582 5374.000000
781.642578 5687.000000
783.675171 6856.000000
785.706604 5530.000000
787.736633 5787.500000
789.765381 6045.000000
791.792969 6279.000000
793.819214 6337.000000
795.844055 5792.000000
797.867798 5489.000000
799.890137 6371.000000
801.911255 5842.000000
803.931030 6662.000000
805.949524 4876.000000
807.966797 6663.000000
809.982666 6754.000000
811.997375 5688.000000
814.010742 6349.000000
816.022888 6244.000000
818.033813 6014.000000
820.043396 6537.000000
822.051758 5276.000000
824.058716 5679.000000
826.064453 6017.000000
828.068970 5757.000000
830.072205 5654.000000
832.074158 6445.000000
834.074829 6082.000000
836.074280 5895.000000
838.072388 6378.000000
840.069397 6908.000000
842.065002 6155.000000
844.059448 5976.000000
846.052551 6131.000000
848.044434 6781.000000
850.034973 5580.000000
852.024231 6726.000000
854.012451 6036.000000
855.999268 5699.000000
857.984863 6410.000000
859.969177 7253.000000
861.952393 6292.000000
863.934204 6384.000000
865.914795 5834.000000
867.894104 7689.000000
869.872253 7062.000000
871.849060 6261.000000
873.824585 5869.000000
875.799072 6140.000000
877.772095 5979.000000
879.744080 5400.000000
881.714722 6310.000000
883.684204 6118.000000
885.652344 5524.000000
887.619324 5135.000000
889.584961 6117.000000
891.549438 5732.000000
893.512695 5996.000000
895.474731 6465.000000
897.435486 5778.000000
899.395020 6371.000000
901.353271 6620.000000
903.310425 6329.000000
905.266418 6055.000000
907.221008 6893.000000
909.174377 6439.000000
911.126587 6408.000000
913.077576 6350.000000
915.027283 7102.000000
916.975830 6338.000000
918.923157 6135.000000
920.869202 5980.000000
922.813965 6028.000000
924.757690 6252.000000
926.700256 5932.000000
928.641541 5543.000000
930.581482 6417.000000
932.520325 5649.000000
934.457886 5524.000000
936.394226 5949.000000
938.329407 5755.000000
940.263306 6071.000000
942.196106 5814.000000
944.127686 6765.000000
946.058105 5210.000000
947.987305 6418.000000
949.915161 7038.000000
951.841980 6612.000000
953.767517 5910.000000
955.691772 5344.000000
957.614929 5908.000000
959.536926 6673.000000
961.457642 7277.000000
963.377197 6441.000000
965.295593 5264.000000
967.212952 6465.000000
969.128845 6366.000000
971.043640 6107.000000
972.957214 5966.000000
974.869629 6373.000000
976.780823 6491.000000
978.690857 5452.000000
980.599609 6135.000000
982.507324 6068.000000
984.413818 6370.000000
986.319092 5715.000000
988.223267 6788.000000
990.126221 6183.000000
992.027954 6689.000000
993.928528 6505.000000
995.827942 6526.000000
997.726135 5308.000000
999.623169 6510.000000
1001.518982 6471.000000
1003.413635 7695.000000
1005.307190 5581.000000
1007.199463 7133.000000
1009.090820 6045.000000
1010.980835 5303.000000
1012.869629 6598.000000
1014.757263 6367.000000
1016.643738 6842.000000
1018.529053 6686.000000
1020.413208 5982.000000
1022.296143 5812.000000
1024.177979 6190.000000
1026.058594 5153.000000
1027.938110 5760.000000
1029.816650 6065.000000
1031.693848 5436.000000
1033.569702 6144.000000
1035.444580 5882.000000
1037.318481 6572.000000
1039.190918 6958.000000
1041.062378 6612.000000
1042.932495 5501.000000
1044.801636 5477.000000
1046.669556 5721.000000
1048.536377 7241.000000
1050.402100 6629.000000
1052.266602 6375.000000
1054.130005 6463.000000
1055.992065 6407.000000
1057.853149 5823.000000
1059.713135 6478.000000
1061.571777 6655.000000
1063.429321 5786.000000
1065.285767 6687.000000
1067.141113 5906.000000
1068.995239 5761.000000
1070.848511 6266.000000
1072.700317 6320.000000
1074.551147 6058.000000
1076.400757 6136.000000
1078.249146 5731.000000
1080.096680 7881.000000
1081.942871 5525.000000
1083.787842 6184.000000
1085.631958 5372.000000
1087.474731 5450.000000
1089.316284 6486.000000
1091.157104 5422.000000
1092.996338 5732.000000
1094.834839 6004.000000
1096.671997 6000.000000
1098.507935 6808.000000
1100.342896 6564.000000
1102.176636 5352.000000
1104.009399 5648.000000
1105.840820 6149.000000
1107.671387 7284.000000
1109.500610 6505.000000
1111.328857 6413.000000
1113.155884 7073.000000
1114.981934 5371.000000
1116.806763 6268.000000
1118.630493 7150.000000
1120.453003 6106.000000
1122.274414 5839.000000
1124.094971 5854.000000
1125.914063 6592.000000
1127.732300 7053.000000
1129.549194 6809.000000
1131.365234 6623.000000
1133.180054 6484.000000
1134.993774 5612.000000
1136.806396 5738.000000
1138.617798 5575.000000
1140.428223 6115.000000
1142.237549 6697.000000
1144.045532 6904.000000
1145.852783 5936.000000
1147.658569 5890.000000
1149.463501 5435.000000
1151.267334 5410.000000
1153.069946 6109.000000
1154.871704 6085.000000
1156.671997 6012.000000
1158.471313 6111.000000
1160.269653 5813.000000
1162.066650 5439.000000
1163.862915 5898.000000
1165.657837 6032.000000
1167.451660 6311.000000
1169.244629 7723.000000
1171.036255 5739.000000
1172.826904 6489.000000
1174.616577 6001.000000
1176.404785 5811.000000
1178.192139 7418.000000
1179.978394 6802.000000
1181.763550 5734.000000
1183.547607 5962.000000
1185.330566 7642.000000
1187.112549 5820.000000
1188.893311 5893.000000
1190.673096 6241.000000
1192.451782 6945.000000
1194.229492 6657.000000
1196.005981 7116.000000
1197.781372 6547.000000
1199.555664 6467.000000
1201.328857 6607.000000
1203.101196 6455.000000
1204.872192 6677.000000
1206.642334 5707.000000
1208.411255 6106.000000
1210.179077 6362.000000
1211.946045 5751.000000
1213.711670 5898.000000
1215.476318 6938.000000
1217.239868 6541.000000
1219.002319 5900.000000
1220.763916 6638.000000
1222.524292 5900.000000
1224.283569 6301.000000
1226.041992 6031.000000
1227.799194 7053.000000
1229.555298 6424.000000
1231.310303 5484.000000
1233.064453 5963.000000
1234.817261 5778.000000
1236.569092 6014.000000
1238.320068 5965.000000
1240.069702 4945.000000
1241.818481 6942.000000
1243.565918 6465.000000
1245.312622 6529.000000
1247.058105 6434.000000
1248.802734 6363.000000
1250.546021 6753.000000
1252.288330 6667.000000
1254.029541 5302.000000
1255.769897 4969.000000
1257.509155 5802.000000
1259.247192 6551.000000
1260.984375 7035.000000
1262.720337 6077.000000
1264.455322 6430.000000
1266.189331 7280.000000
1267.922363 5975.000000
1269.654175 6178.000000
1271.385010 6342.000000
1273.114624 7228.000000
1274.843384 5877.000000
1276.571045 5678.000000
1278.297607 5517.000000
1280.023315 5536.000000
1281.747681 6388.000000
1283.471191 5147.000000
1285.193726 6921.000000
1286.915283 6650.000000
1288.635620 6109.000000
1290.354980 6620.000000
1292.073242 7162.000000
1293.790527 6403.000000
1295.506836 5720.000000
1297.221924 6347.000000
1298.936035 6129.000000
1300.649170 5717.000000
1302.361450 6423.000000
1304.072510 8265.000000
1305.782593 5207.000000
1307.491577 6282.000000
1309.199341 6550.000000
1310.906494 7023.000000
1312.612183 5807.000000
1314.317139 6855.000000
1316.021118 6120.000000
1317.723877 5949.000000
1319.425659 6554.000000
1321.126587 6022.000000
1322.826172 9538.000000
1324.524902 7552.000000
1326.222900 5566.000000
1327.919556 6448.000000
1329.615112 7092.000000
1331.309814 6764.000000
1333.003296 5703.000000
1334.695923 5341.000000
1336.387695 7216.000000
1338.078125 6196.000000
1339.767822 6541.000000
1341.456421 6066.000000
1343.143921 7578.000000
1344.830444 5549.000000
1346.515869 6748.000000
1348.200317 5918.000000
1349.883911 7276.000000
1351.566284 6341.000000
1353.247681 5958.000000
1354.928223 6516.000000
1356.607544 6725.000000
1358.286255 5905.000000
1359.963623 6570.000000
1361.639893 5744.000000
1363.315186 5556.000000
1364.989746 6571.000000
1366.663086 6394.000000
1368.335449 6765.000000
1370.006836 5112.000000
1371.677246 6705.000000
1373.346558 6102.000000
1375.014893 5664.000000
1376.682373 5895.000000
1378.348755 6429.000000
1380.014160 6127.000000
1381.678589 5825.000000
1383.341797 5900.000000
1385.004395 5662.000000
1386.665649 6419.000000
1388.326050 6619.000000
1389.985352 6391.000000
1391.643677 6452.000000
1393.301270 6809.000000
1394.957642 6470.000000
1396.613159 6963.000000
1398.267456 6319.000000
1399.920898 5776.000000
1401.573242 6130.000000
1403.224854 6448.000000
1404.875244 7091.000000
1406.524536 6230.000000
1408.173096 7509.000000
1409.820557 7889.000000
1411.467041 6129.000000
1413.112671 6243.000000
1414.757324 5984.000000
1416.400757 6918.000000
1418.043335 7139.000000
1419.684814 6866.000000
1421.325439 6426.000000
1422.965088 6433.000000
1424.603638 5985.000000
1426.241333 6643.000000
1427.877930 6353.000000
1429.513550 5989.000000
1431.148438 6391.000000
1432.782227 5886.000000
1434.414917 6123.000000
1436.046631 5638.000000
1437.677490 6110.000000
1439.307251 6103.000000
1440.935913 7721.000000
1442.563965 5903.000000
1444.190918 6216.000000
1445.816650 6165.000000
1447.441772 6130.000000
1449.065796 6438.000000
1450.688843 5979.000000
1452.310913 6024.000000
1453.931885 7338.000000
1455.551880 6272.000000
1457.171143 6897.000000
1458.789063 5602.000000
1460.406372 16489.000000
1462.022705 5500.000000
1463.637817 7256.000000
1465.252075 6163.000000
1466.865479 5192.000000
1468.477783 5594.000000
1470.089233 6185.000000
1471.699829 6332.000000
1473.309204 5939.000000
1474.917603 5917.000000
1476.525146 6181.000000
1478.131714 6670.000000
1479.737549 5249.000000
1481.342163 6191.000000
1482.945923 5430.000000
1484.548462 6814.000000
1486.150391 5537.000000
1487.751099 5579.000000
1489.351074 5567.000000
1490.949951 6329.000000
1492.547974 6444.000000
1494.144897 6626.000000
1495.740967 6290.000000
1497.336060 5978.000000
1498.930176 5487.000000
1500.523560 6476.000000
1502.115845 5509.000000
1503.706909 6160.000000
1505.297485 6724.000000
1506.886719 6402.000000
1508.475342 6145.000000
1510.062866 6590.000000
1511.649292 6837.000000
1513.234985 6189.000000
1514.819580 6572.000000
1516.403320 6199.000000
1517.985962 6192.000000
1519.567871 6578.000000
1521.148682 6635.000000
1522.728760 6041.000000
1524.307617 6179.000000
1525.885620 6369.000000
1527.462891 6209.000000
1529.038940 5659.000000
1530.614258 5891.000000
1532.188477 6258.000000
1533.761963 5394.000000
1535.334229 5950.000000
1536.905762 6335.000000
1538.476318 6386.000000
1540.046021 6277.000000
1541.614502 5409.000000
1543.182251 6585.000000
1544.749146 5618.000000
1546.314819 6784.000000
1547.879761 5939.000000
1549.443604 5039.000000
1551.006836 7462.000000
1552.568726 6277.000000
1554.130005 5960.000000
1555.690186 5642.000000
1557.249634 5726.000000
1558.807983 5797.000000
1560.365601 6246.000000
1561.922119 7032.000000
1563.477417 5833.000000
1565.032104 6276.000000
1566.586060 5662.000000
1568.139038 6241.000000
1569.690674 5652.000000
1571.241577 5863.000000
1572.791748 6184.000000
1574.340942 6289.000000
1575.888794 5687.000000
1577.436157 5453.000000
1578.982544 5651.000000
1580.528076 5021.000000
1582.072632 6651.000000
1583.615967 6358.000000
1585.158691 6602.000000
1586.700562 6355.000000
1588.241333 6602.000000
1589.781128 5795.000000
1591.320190 6657.000000
1592.858154 5873.000000
1594.395630 6102.000000
1595.931763 5968.000000
1597.466797 6663.000000
1599.001343 6243.000000
1600.534912 5967.000000
1602.067627 6057.000000
1603.598755 6300.000000
1605.129639 6274.000000
1606.659668 5703.000000
1608.188477 6147.000000
1609.716187 6094.000000
1611.243286 5972.000000
1612.769653 5809.000000
1614.295044 6222.000000
1615.819580 5814.000000
1617.342773 5737.000000
1618.865234 5584.000000
1620.386963 6526.000000
1621.907837 6924.000000
1623.427246 15517.000000
1624.946167 6294.000000
1626.464355 6053.000000
1627.981689 5869.000000
1629.497925 6360.000000
1631.012817 6947.000000
1632.527222 6784.000000
1634.040894 5707.000000
1635.553467 6795.000000
1637.064819 5960.000000
1638.575806 6427.000000
1640.085693 6241.000000
1641.594727 6215.000000
1643.102417 5562.000000
1644.609741 6033.000000
1646.116211 7115.000000
1647.621704 6203.000000
1649.126343 6834.000000
1650.629517 6129.000000
1652.132080 6558.000000
1653.634277 6275.000000
1655.135132 6571.000000
1656.634888 7549.000000
1658.133789 5942.000000
1659.632324 6576.000000
1661.129639 6219.000000
1662.626221 5903.000000
1664.121216 6418.000000
1665.615967 6285.000000
1667.109863 5184.000000
1668.602783 5602.000000
1670.094360 21002.000000
1671.585449 6444.000000
1673.075928 6086.000000
1674.565308 5937.000000
1676.053223 6920.000000
1677.540894 6804.000000
1679.027588 5973.000000
1680.513428 5329.000000
1681.998413 6026.000000
1683.481934 6109.000000
1684.965210 6177.000000
1686.447632 5871.000000
1687.928955 6231.000000
1689.408813 6176.000000
1690.888428 5451.000000
1692.367310 6519.000000
1693.845215 5998.000000
1695.322144 6074.000000
1696.797852 5760.000000
1698.273193 5994.000000
1699.747314 6306.000000
1701.220825 5473.000000
1702.692871 5528.000000
1704.164673 6837.000000
1705.635498 6376.000000
1707.105469 7065.000000
1708.574097 5138.000000
1710.042236 5777.000000
1711.509644 6303.000000
1712.975952 5441.000000
1714.441650 5734.000000
1715.905640 6185.000000
1717.369507 5995.000000
1718.832520 7039.000000
1720.294556 6395.000000
1721.755371 6649.000000
1723.215576 5419.000000
1724.675049 6315.000000
1726.133667 6122.000000
1727.591309 6007.000000
1729.047607 6227.000000
1730.503662 6055.000000
1731.958740 6398.000000
1733.412842 5972.000000
1734.865723 6834.000000
1736.318359 5935.000000
1737.769897 6878.000000
1739.220703 5897.000000
1740.670532 6569.000000
1742.119019 5869.000000
1743.567139 7319.000000
1745.014404 6536.000000
1746.460938 6623.000000
1747.905884 6695.000000
1749.350586 6114.000000
1750.794434 5946.000000
1752.237427 5577.000000
1753.678955 6506.000000
1755.120239 6342.000000
1756.560669 19389.000000
1758.000122 6252.000000
1759.438599 5258.000000
1760.876099 6033.000000
1762.313110 7537.000000
1763.749146 5862.000000
1765.184326 7089.000000
1766.618042 6137.000000
1768.051636 6431.000000
1769.484253 6630.000000
1770.916016 5712.000000
1772.346924 5683.000000
1773.776611 6383.000000
1775.205566 6174.000000
1776.634033 6225.000000
1778.061523 6677.000000
1779.487671 6242.000000
1780.913574 5550.000000
1782.338379 6893.000000
1783.762573 5590.000000
1785.185303 6599.000000
1786.607544 6532.000000
1788.029053 6836.000000
1789.449829 5910.000000
1790.869629 6109.000000
1792.288086 6138.000000
1793.706055 6869.000000
1795.123413 5472.000000
1796.539917 5948.000000
1797.954956 6511.000000
1799.369629 5809.000000
1800.783691 6526.000000
1802.196533 5901.000000
1803.608765 6925.000000
1805.019653 7111.000000
1806.430054 7742.000000
1807.839722 6433.000000
1809.248413 5907.000000
1810.656006 5355.000000
1812.063110 6379.000000
1813.469360 6305.000000
1814.874634 6722.000000
1816.278809 5926.000000
1817.682617 5967.000000
1819.085449 6223.000000
1820.487427 6014.000000
1821.888794 5816.000000
1823.288696 6324.000000
1824.687988 6443.000000
1826.086792 6602.000000
1827.484741 7437.000000
1828.881348 5669.000000
1830.277344 6713.000000
1831.672607 5846.000000
1833.067261 8145.000000
1834.460938 6019.000000
1835.853271 6755.000000
1837.245117 6323.000000
1838.636353 5869.000000
1840.026611 7123.000000
1841.415649 5918.000000
1842.804321 6051.000000
1844.192017 6019.000000
1845.578979 5774.000000
1846.964600 6799.000000
1848.349976 5837.000000
1849.734497 6319.000000
1851.118286 6210.000000
1852.500977 6329.000000
1853.882446 5319.000000
1855.263428 6487.000000
1856.643921 6302.000000
1858.023438 5720.000000
1859.401489 5911.000000
1860.779419 6303.000000
1862.156372 7818.000000
1863.532593 6057.000000
1864.907959 6057.000000
1866.281860 5595.000000
1867.655640 5695.000000
1869.028564 6217.000000
1870.400391 5971.000000
1871.771240 6851.000000
1873.141724 5403.000000
1874.511108 6023.000000
1875.880005 6094.000000
1877.247314 7155.000000
1878.614502 5943.000000
1879.980713 5923.000000
1881.346191 6751.000000
1882.710938 7457.000000
1884.074097 6815.000000
1885.437134 6898.000000
1886.799316 6235.000000
1888.160645 6451.000000
1889.520630 5638.000000
1890.880249 5770.000000
1892.239258 6120.000000
1893.597290 6646.000000
1894.954468 7282.000000
1896.310425 5929.000000
1897.666138 7600.000000
1899.020874 5780.000000
1900.374756 5553.000000
1901.727539 5864.000000
1903.079834 5882.000000
1904.431396 5949.000000
1905.782104 6856.000000
1907.131592 6490.000000
1908.480591 6609.000000
1909.828735 5817.000000
1911.176270 6090.000000
1912.523071 6265.000000
1913.868286 6757.000000
1915.213257 6014.000000
1916.557495 5435.000000
1917.900879 6517.000000
1919.242920 5987.000000
1920.584717 6683.000000
1921.925659 6997.000000
1923.265869 6034.000000
1924.605103 6222.000000
1925.943359 6274.000000
1927.281006 6399.000000
1928.617920 7019.000000
1929.953979 6704.000000
1931.288818 5576.000000
1932.623291 6620.000000
1933.957031 7278.000000
1935.289917 6239.000000
1936.621338 5697.000000
1937.952881 6272.000000
1939.283081 6608.000000
1940.612793 5772.000000
1941.941650 6110.000000
1943.269287 5814.000000
1944.596436 4973.000000
1945.922852 5832.000000
1947.248535 6396.000000
1948.572876 5736.000000
1949.896973 6640.000000
1951.220215 6286.000000
1952.542725 6416.000000
1953.864136 5760.000000
1955.184570 7344.000000
1956.504395 6009.000000
1957.823853 5545.000000
1959.142334 6857.000000
1960.459473 5917.000000
1961.776245 5865.000000
1963.092285 6562.000000
1964.407593 6570.000000
1965.721436 6310.000000
1967.035034 5619.000000
1968.347900 6162.000000
1969.659912 5984.000000
1970.971313 5968.000000
1972.281372 6313.000000
1973.590942 5859.000000
1974.899780 6145.000000
1976.208008 6564.000000
1977.514893 6117.000000
1978.821167 7198.000000
1980.127075 5487.000000
1981.431763 6358.000000
1982.735962 5933.000000
1984.038940 5698.000000
1985.341553 7641.000000
1986.643188 6090.000000
1987.944214 6841.000000
1989.243652 6095.000000
1990.543213 6616.000000
1991.841675 5255.000000
1993.139648 6085.000000
1994.436035 6138.000000
1995.732422 5818.000000
1997.027832 5576.000000
1998.322510 6523.000000
1999.616333 5630.000000
2000.908936 6505.000000
2002.201050 5788.000000
2003.492676 7105.000000
2004.783569 6419.000000
2006.072876 6176.000000
2007.361938 6743.000000
2008.650269 5964.000000
2009.937866 6050.000000
2011.224609 6630.000000
2012.510254 5548.000000
2013.795532 6295.000000
2015.079834 5956.000000
2016.363525 5525.000000
2017.645874 5997.000000
2018.927856 6437.000000
2020.209351 6735.000000
2021.489868 5985.000000
2022.769653 6126.000000
2024.048340 6659.000000
2025.326294 5827.000000
2026.603760 5887.000000
2027.880615 6258.000000
2029.155762 5784.000000
2030.431030 6611.000000
2031.705322 6055.000000
2032.978638 5982.000000
2034.251099 5916.000000
2035.523193 6145.000000
2036.794189 6914.000000
2038.064941 6527.000000
2039.334351 6009.000000
2040.602661 6733.000000
2041.870972 6602.000000
2043.138306 5848.000000
2044.404907 5922.000000
2045.670288 5722.000000
2046.935059 5459.000000
2048.199707 5380.000000
2049.462891 5876.000000
2050.725830 6393.000000
2051.986816 6132.000000
2053.248291 6082.000000
2054.508545 5856.000000
2055.768066 6480.000000
2057.026855 6282.000000
2058.284668 6948.000000
2059.541992 6149.000000
2060.798584 5945.000000
2062.053711 6432.000000
2063.308838 5577.000000
2064.562988 5572.000000
2065.816406 5567.000000
2067.069092 6863.000000
2068.320557 6213.000000
2069.571777 6291.000000
2070.822266 5521.000000
2072.072021 5383.000000
2073.320313 6450.000000
2074.568604 6426.000000
2075.815918 7430.000000
2077.062500 5527.000000
2078.308350 6038.000000
2079.552979 7001.000000
2080.797119 7540.000000
2082.040771 5508.000000
2083.283447 5970.000000
2084.524902 6937.000000
2085.766113 5907.000000
2087.006836 6381.000000
2088.246582 6740.000000
2089.485107 7068.000000
2090.723145 6183.000000
2091.960449 5746.000000
2093.197510 6599.000000
2094.433105 6069.000000
2095.667969 6221.000000
2096.902588 6079.000000
2098.136230 5617.000000
2099.368896 6051.000000
2100.600830 6879.000000
2101.832275 6383.000000
2103.062744 6759.000000
2104.292480 5974.000000
2105.521973 5934.000000
2106.749512 5938.000000
2107.977295 5990.000000
2109.204346 6259.000000
2110.430420 5448.000000
2111.655029 6385.000000
2112.879883 6900.000000
2114.103516 7117.000000
2115.326660 6199.000000
2116.548584 7540.000000
2117.770264 5971.000000
2118.990967 6836.000000
2120.210938 5975.000000
2121.430420 6155.000000
2122.648438 6521.000000
2123.866455 6991.000000
2125.083496 5721.000000
2126.300049 5747.000000
2127.514893 6543.000000
2128.729980 6375.000000
2129.944092 6887.000000
2131.157471 5683.000000
2132.370117 6015.000000
2133.581299 5795.000000
2134.792725 6510.000000
2136.002930 6726.000000
2137.212646 5906.000000
2138.420898 6155.000000
2139.629150 5630.000000
2140.836670 5785.000000
2142.042969 7437.000000
2143.248535 5865.000000
2144.453857 5627.000000
2145.658203 5529.000000
2146.861816 6258.000000
2148.064941 6219.000000
2149.266602 6522.000000
2150.468018 5314.000000
2151.668701 6239.000000
2152.868652 6040.000000
2154.067383 5882.000000
2155.265869 6873.000000
2156.463867 6128.000000
2157.660889 5950.000000
2158.857178 5129.000000
2160.052246 5244.000000
2161.247070 6082.000000
2162.441162 5561.000000
2163.634277 6032.000000
2164.826416 6927.000000
2166.018311 5856.000000
2167.209473 6305.000000
2168.399658 6335.000000
2169.589111 6489.000000
2170.778076 6803.000000
2171.966064 6269.000000
2173.153809 5735.000000
2174.340088 5867.000000
2175.525635 6551.000000
2176.710938 6018.000000
2177.895752 5803.000000
2179.079346 6342.000000
2180.262207 7455.000000
2181.444092 6259.000000
2182.625732 5937.000000
2183.806885 6522.000000
2184.986816 5713.000000
2186.165771 5562.000000
2187.344238 6339.000000
2188.522461 6863.000000
2189.699463 7205.000000
2190.875488 6718.000000
2192.051270 6037.000000
2193.226563 5618.000000
2194.400391 6706.000000
2195.573730 6102.000000
2196.746826 6132.000000
2197.918701 6310.000000
2199.090088 7060.000000
2200.260986 6332.000000
2201.430176 6832.000000
2202.599365 7584.000000
2203.768066 6280.000000
2204.935791 5856.000000
2206.102539 5621.000000
2207.268555 7196.000000
2208.434082 6657.000000
2209.599365 5953.000000
2210.763184 6668.000000
2211.926514 5367.000000
2213.088623 6144.000000
2214.250977 6114.000000
2215.412109 6650.000000
2216.572266 6684.000000
2217.731934 6222.000000
2218.891357 6548.000000
2220.049561 6305.000000
2221.206787 6292.000000
2222.363770 6725.000000
2223.520020 6584.000000
2224.675537 6725.000000
2225.830322 6230.000000
2226.984131 6405.000000
2228.136963 6038.000000
2229.290283 6877.000000
2230.441650 6106.000000
2231.592773 6133.000000
2232.743164 6558.000000
2233.893066 7633.000000
2235.041992 6283.000000
2236.190430 5209.000000
2237.337402 6795.000000
2238.484619 7045.000000
2239.630615 6066.000000
2240.776367 7235.000000
2241.920410 7350.000000
2243.064697 6739.000000
2244.208008 6198.000000
2245.350586 5965.000000
2246.492188 5682.000000
2247.633545 5769.000000
2248.773926 6439.000000
2249.913574 6429.000000
2251.052734 5799.000000
2252.190674 5832.000000
2253.328613 6091.000000
2254.465576 5266.000000
2255.601807 6394.000000
2256.737061 6142.000000
2257.871582 7296.000000
2259.005859 6307.000000
2260.139648 5428.000000
2261.271973 6101.000000
2262.403809 6765.000000
2263.535156 6252.000000
2264.665527 6507.000000
2265.795654 8045.000000
2266.924561 6682.000000
2268.052979 6066.000000
2269.180908 5565.000000
2270.307861 6067.000000
2271.434082 5910.000000
2272.559326 6712.000000
2273.684570 6461.000000
2274.809082 6399.000000
2275.932373 5918.000000
2277.054932 6421.000000
2278.177002 5921.000000
2279.298584 7470.000000
2280.419434 6326.000000
2281.539063 6453.000000
2282.658203 7103.000000
2283.777100 7583.000000
2284.895264 7240.000000
2286.012451 5848.000000
2287.128662 6415.000000
2288.244629 6991.000000
2289.359863 6858.000000
2290.474365 7321.000000
2291.587646 5760.000000
2292.700928 6306.000000
2293.813477 5999.000000
2294.925293 5337.000000
2296.036377 6763.000000
2297.146240 6437.000000
2298.255615 6105.000000
2299.364746 6730.000000
2300.472900 6322.000000
2301.580078 6747.000000
2302.687012 5838.000000
2303.793213 6231.000000
2304.898926 6561.000000
2306.003174 6552.000000
2307.107178 5394.000000
2308.210693 5700.000000
2309.313721 6526.000000
2310.415527 7446.000000
2311.516602 7276.000000
2312.617188 6477.000000
2313.717285 5557.000000
2314.816650 6368.000000
2315.914551 6545.000000
2317.012939 7016.000000
2318.109863 8258.000000
2319.206543 6866.000000
2320.302734 5733.000000
2321.397217 6750.000000
2322.491699 7572.000000
2323.585449 5865.000000
2324.678955 5972.000000
2325.770752 6410.000000
2326.862549 6908.000000
2327.953613 6077.000000
2329.043945 6202.000000
2330.133301 6853.000000
2331.222656 5997.000000
2332.310791 6260.000000
2333.398438 6822.000000
2334.485840 6444.000000
2335.571533 6691.000000
2336.656982 7703.000000
2337.742188 6313.000000
2338.826416 6704.000000
2339.909668 5901.000000
2340.992676 6415.000000
2342.074707 7059.000000
2343.156494 5995.000000
2344.237549 7444.000000
2345.317383 6598.000000
2346.396729 5674.000000
2347.475586 6726.000000
2348.553955 6455.000000
2349.630859 6309.000000
2350.707520 6944.000000
2351.783936 6076.000000
2352.859375 6432.000000
2353.933838 5903.000000
2355.008057 6282.000000
2356.081543 6717.000000
2357.154541 6253.000000
2358.226318 6976.000000
2359.297852 6262.000000
2360.368408 6820.000000
2361.438721 7527.000000
2362.508057 7506.000000
2363.576416 6804.000000
2364.644531 6705.000000
2365.711914 7045.000000
2366.778809 7134.000000
2367.844971 6049.000000
2368.909912 6805.000000
2369.974854 6930.000000
2371.039063 6338.000000
2372.102539 6928.000000
2373.164795 5651.000000
2374.227051 6343.000000
2375.288330 6312.000000
2376.349365 5873.000000
2377.409180 6248.000000
2378.468262 7943.000000
2379.527344 6446.000000
2380.585449 7564.000000
2381.642822 6886.000000
2382.699219 7988.000000
2383.755371 7750.000000
2384.811035 6221.000000
2385.865967 7001.000000
2386.919434 6689.000000
2387.973145 6521.000000
2389.025879 6240.000000
2390.078125 6718.000000
2391.129639 6103.000000
2392.180176 6606.000000
2393.230469 6471.000000
2394.279785 6197.000000
2395.329102 6236.000000
2396.376953 6826.000000
2397.424316 6932.000000
2398.471436 6331.000000
2399.517578 6678.000000
2400.562988 6100.000000
2401.607666 6704.000000
2402.652344 7672.000000
2403.695557 7431.000000
2404.738770 6504.000000
2405.780518 5673.000000
2406.822510 6708.000000
2407.863770 7065.000000
2408.904053 6126.000000
2409.943604 6401.000000
2410.982178 6279.000000
2412.020996 6044.000000
2413.058594 6455.000000
2414.095947 6825.000000
2415.132080 7311.000000
2416.167969 6186.000000
2417.203125 6217.000000
2418.237793 6850.000000
2419.270996 7150.000000
2420.304443 6463.000000
2421.336914 6641.000000
2422.369141 6759.000000
2423.399902 7032.000000
2424.430664 6345.000000
2425.460938 6846.000000
2426.489990 6847.000000
2427.519043 6550.000000
2428.546387 7337.000000
2429.574219 6747.000000
2430.600830 7209.000000
2431.627197 6923.000000
2432.652100 7688.000000
2433.677246 6571.000000
2434.701416 7106.000000
2435.725342 6626.000000
2436.748047 5831.000000
2437.770020 6329.000000
2438.791748 6654.000000
2439.812744 6645.000000
2440.833252 5993.000000
2441.852539 6519.000000
2442.871826 6535.000000
2443.890137 8408.000000
2444.908203 6254.000000
2445.924805 6463.000000
2446.941406 6554.000000
2447.957275 5962.000000
2448.973145 6956.000000
2449.987549 6816.000000
2451.001221 5491.000000
2452.014404 7200.000000
2453.027344 5965.000000
2454.039551 7209.000000
2455.050781 6684.000000
2456.061768 7607.000000
2457.072021 6377.000000
2458.081787 7555.000000
2459.090576 5811.000000
2460.098633 5964.000000
2461.106689 6254.000000
2462.113525 7307.000000
2463.120117 5390.000000
2464.125488 7435.000000
2465.130615 6921.000000
2466.135498 5748.000000
2467.139160 6575.000000
2468.142578 6401.000000
2469.145020 7599.000000
2470.147217 7366.000000
2471.148926 6829.000000
2472.149658 6594.000000
2473.149414 6871.000000
2474.149170 6714.000000
2475.147949 5665.000000
2476.146240 6523.000000
2477.143555 7005.000000
2478.140625 6007.000000
2479.137695 6921.000000
2480.133301 5798.000000
2481.128906 7063.000000
2482.122803 6743.000000
2483.116699 8022.000000
2484.110107 6851.000000
2485.103027 6724.000000
2486.094971 7427.000000
2487.086182 7179.000000
2488.077148 6721.000000
2489.067627 5799.000000
2490.057129 6549.000000
2491.045898 6498.000000
2492.034668 5663.000000
2493.022461 6763.000000
2494.009033 6562.000000
2494.995605 7902.000000
2495.981689 6729.000000
2496.967041 7103.000000
2497.951416 7970.000000
2498.935547 5964.000000
2499.919678 6869.000000
2500.902344 5742.000000
2501.884521 6902.000000
2502.866211 6877.000000
2503.847168 7196.000000
2504.827637 6439.000000
2505.807861 5673.000000
2506.786621 6372.000000
2507.765137 7526.000000
2508.743164 6681.000000
2509.720703 7023.000000
2510.697266 6010.000000
2511.673584 5921.000000
2512.649170 6349.000000
2513.624268 6214.000000
2514.598877 6443.000000
2515.572266 7436.000000
2516.545410 6778.000000
2517.518311 6819.000000
2518.490234 6077.000000
2519.461426 6779.000000
2520.432129 6885.000000
2521.402588 7809.000000
2522.372314 8026.000000
2523.341064 6050.000000
2524.309082 6175.000000
2525.277100 7771.000000
2526.244141 6263.000000
2527.210938 5453.000000
2528.176514 7164.000000
2529.142090 6923.000000
2530.106934 7711.000000
2531.071289 6351.000000
2532.034424 6362.000000
2532.997803 5857.000000
2533.960205 5931.000000
2534.922363 6695.000000
2535.883301 6403.000000
2536.843506 6097.000000
2537.803955 6122.000000
2538.763428 6711.000000
2539.722168 6830.000000
2540.679932 6607.000000
2541.637939 6183.000000
2542.595215 6736.000000
2543.551514 6039.000000
2544.507568 7053.000000
2545.462402 6154.000000
2546.417480 7662.000000
2547.371826 7044.000000
2548.325439 6862.000000
2549.278076 7198.000000
2550.230469 6648.000000
2551.182373 6996.000000
2552.133545 6357.000000
2553.083984 7700.000000
2554.033936 7288.000000
2554.983643 7337.000000
2555.932617 6629.000000
2556.881104 6194.000000
2557.828369 7057.000000
2558.775635 6193.000000
2559.722168 6466.000000
2560.668213 6759.000000
2561.613281 7364.000000
2562.558105 6698.000000
2563.502441 7098.000000
2564.446289 6880.000000
2565.389648 6578.000000
2566.331543 6521.000000
2567.273682 6524.000000
2568.215088 6124.000000
2569.155762 7128.000000
2570.095703 7241.000000
2571.035645 5667.000000
2571.974609 6125.000000
2572.913330 7524.000000
2573.851074 7136.000000
2574.788574 5470.000000
2575.725342 6962.000000
2576.661377 6795.000000
2577.596924 7457.000000
2578.531738 6248.000000
2579.466553 5877.000000
2580.400391 7020.000000
2581.333740 7190.000000
2582.266357 5843.000000
2583.198730 6949.000000
2584.130371 5418.000000
2585.061523 7028.000000
2585.992188 6980.000000
2586.921631 6863.000000
2587.851074 7211.000000
2588.780029 6445.000000
2589.708740 7405.000000
2590.635742 7296.000000
2591.562988 5854.000000
2592.489746 6750.000000
2593.415771 6258.000000
2594.341553 5634.000000
2595.266113 7624.000000
2596.190430 7637.000000
2597.114258 5369.000000
2598.037598 7249.000000
2598.959961 6300.000000
2599.882080 6793.000000
2600.803711 8299.000000
2601.724609 6323.000000
2602.644775 5747.000000
2603.564697 6376.000000
2604.484131 6334.000000
2605.403320 6347.000000
2606.321533 5814.000000
2607.238525 5975.000000
2608.155762 7224.000000
2609.072754 5857.000000
2609.988770 7519.000000
2610.903564 6668.000000
2611.818848 6615.000000
2612.733398 6485.000000
2613.646973 6491.000000
2614.560547 6158.000000
2615.472900 7608.000000
2616.385254 6998.000000
2617.296631 6803.000000
2618.207764 5671.000000
2619.118164 7144.000000
2620.028320 6609.000000
2620.937744 6129.000000
2621.846680 6587.000000
2622.754639 6163.000000
2623.662842 6869.000000
2624.570068 6583.000000
2625.476807 6995.000000
2626.382813 5938.000000
2627.288574 6590.000000
2628.193604 6467.000000
2629.098389 7791.000000
2630.002441 6462.000000
2630.905518 6348.000000
2631.808594 6365.000000
2632.710693 5598.000000
2633.612793 6755.000000
2634.514648 6977.000000
2635.414795 6688.000000
2636.315186 6371.000000
2637.214844 6376.000000
2638.114258 5955.000000
2639.012207 6882.000000
2639.910645 6740.000000
2640.808594 6343.000000
2641.705811 6045.000000
2642.601807 6158.000000
2643.497803 6693.000000
2644.393555 6057.000000
2645.288574 6414.000000
2646.183350 6595.000000
2647.076660 7057.000000
2647.969971 6278.000000
2648.863037 6738.000000
2649.755859 6412.000000
2650.646973 7434.000000
2651.538330 6350.000000
2652.429199 7673.000000
2653.319336 7321.000000
2654.209229 6504.000000
2655.097900 7300.000000
2655.986816 6597.000000
2656.875244 6566.000000
2657.762695 7331.000000
2658.649170 6401.000000
2659.536133 7009.000000
2660.422363 6835.000000
2661.308105 6824.000000
2662.192627 6546.000000
2663.077148 6335.000000
2663.961426 6154.000000
2664.844971 7071.000000
2665.728027 7729.000000
2666.610352 7320.000000
2667.492188 6118.000000
2668.373291 6569.000000
2669.254639 6086.000000
2670.134521 6483.000000
2671.014648 7408.000000
2671.894043 7149.000000
2672.773438 6158.000000
2673.652100 6109.000000
2674.529053 6371.000000
2675.406738 6764.000000
2676.283691 6374.000000
2677.159912 8080.000000
2678.035645 7110.000000
2678.910645 6255.000000
2679.785889 7772.000000
2680.660156 6976.000000
2681.533936 7285.000000
2682.406982 6912.000000
2683.279785 6171.000000
2684.152344 6048.000000
2685.024170 6928.000000
2685.895264 6538.000000
2686.766113 6816.000000
2687.636475 7066.000000
2688.506592 6677.000000
2689.375000 6325.000000
2690.244141 7344.000000
2691.112549 7060.000000
2691.980713 6601.000000
2692.848145 6903.000000
2693.714355 5850.000000
2694.581055 7136.000000
2695.446777 7397.000000
2696.312500 7094.000000
2697.176758 7935.000000
2698.041748 6540.000000
2698.905273 7201.000000
2699.769043 5854.000000
2700.631348 7360.000000
2701.494141 6726.000000
2702.355957 5889.000000
2703.217285 6818.000000
2704.078613 6673.000000
2704.938721 7437.000000
2705.798828 7237.000000
2706.658447 6586.000000
2707.517822 6812.000000
2708.375488 7194.000000
2709.233398 6835.000000
2710.091797 7250.000000
2710.948975 6768.000000
2711.805420 5952.000000
2712.661377 6845.000000
2713.517334 6046.000000
2714.372559 6884.000000
2715.227051 6068.000000
2716.081055 6761.000000
2716.935059 7246.000000
2717.788086 6253.000000
2718.641357 6581.000000
2719.492920 7713.000000
2720.344971 6735.000000
2721.196777 6284.000000
2722.047363 6410.000000
2722.897949 6414.000000
2723.748047 7126.000000
2724.597412 6951.000000
2725.446777 6964.000000
2726.294922 6616.000000
2727.142578 6581.000000
2727.990723 7005.000000
2728.837646 6799.000000
2729.685059 5580.000000
2730.531006 7421.000000
2731.376221 6922.000000
2732.221924 6443.000000
2733.066650 6946.000000
2733.911377 7236.000000
2734.754883 6862.000000
2735.598633 7769.000000
2736.441650 7107.000000
2737.284180 6032.000000
2738.125732 6204.000000
2738.967773 6765.000000
2739.808838 6926.000000
2740.649658 5762.000000
2741.490234 5913.000000
2742.329590 7817.000000
2743.168945 6847.000000
2744.008301 6936.000000
2744.846436 6868.000000
2745.684082 7839.000000
2746.521729 6327.000000
2747.358887 7127.000000
2748.195801 6185.000000
2749.032227 6057.000000
2749.867432 6675.000000
2750.702881 6242.000000
2751.537842 6291.000000
2752.372070 6294.000000
2753.206055 6858.000000
2754.039551 6762.000000
2754.873047 7897.000000
2755.705566 6771.000000
2756.537598 7300.000000
2757.369141 6777.000000
2758.200684 7060.000000
2759.031250 7147.000000
2759.862061 7267.000000
2760.691650 7265.000000
2761.521240 6710.000000
2762.350586 7241.000000
2763.179199 6783.000000
2764.007324 6734.000000
2764.834961 6982.000000
2765.662598 6660.000000
2766.489746 7874.000000
2767.316162 5754.000000
2768.142090 7456.000000
2768.967529 6820.000000
2769.792725 7748.000000
2770.617920 6984.000000
2771.441895 6697.000000
2772.265869 6432.000000
2773.089844 7637.000000
2773.912598 6584.000000
2774.735596 6833.000000
2775.557373 6827.000000
2776.379150 6884.000000
2777.200928 6506.000000
2778.021729 7941.000000
2778.841797 6507.000000
2779.662109 6950.000000
2780.481934 7289.000000
2781.301758 6417.000000
2782.119629 5955.000000
2782.938721 8015.000000
2783.756592 6509.000000
2784.574219 6750.000000
2785.391357 7042.000000
2786.208008 7242.000000
2787.024414 7163.000000
2787.840332 6271.000000
2788.656006 5977.000000
2789.470703 6348.000000
2790.285889 6944.000000
2791.100342 7134.000000
2791.914307 6570.000000
2792.728027 7375.000000
2793.540527 8776.000000
2794.353271 6941.000000
2795.165527 7441.000000
2795.977295 7180.000000
2796.788330 7418.000000
2797.600098 6508.000000
2798.410645 7254.000000
2799.221191 7054.000000
2800.030273 7405.000000
2800.840088 8132.000000
2801.649170 7832.000000
2802.458008 6617.000000
2803.266357 7116.000000
2804.073730 6142.000000
2804.881592 6432.000000
2805.688721 6745.000000
2806.495605 6971.000000
2807.301270 7260.000000
2808.107422 6613.000000
2808.912842 6465.000000
2809.718262 7303.000000
2810.522949 6142.000000
2811.326660 7600.000000
2812.130859 7398.000000
2812.934570 6346.000000
2813.738037 6035.000000
2814.540039 6576.000000
2815.342773 7328.000000
2816.144775 7772.000000
2816.946533 6085.000000
2817.747803 6503.000000
2818.548584 7253.000000
2819.348877 6472.000000
2820.149414 6641.000000
2820.948975 7970.000000
2821.748047 7111.000000
2822.547119 6483.000000
2823.345947 6949.000000
2824.144287 6326.000000
2824.941650 7072.000000
2825.739258 7403.000000
2826.536133 6722.000000
2827.333252 7331.000000
2828.129639 8065.000000
2828.925293 6960.000000
2829.720947 7323.000000
2830.516357 7492.000000
2831.311279 7431.000000
2832.105469 6582.000000
2832.899658 6793.000000
2833.693604 5651.000000
2834.487061 6813.000000
2835.279785 7102.000000
2836.072266 8100.000000
2836.864746 7607.000000
2837.656982 7426.000000
2838.448730 6378.000000
2839.239502 6736.000000
2840.030273 8800.000000
2840.821289 7503.000000
2841.611328 6276.000000
2842.400879 7664.000000
2843.190674 7137.000000
2843.979492 7297.000000
2844.768311 7835.000000
2845.557129 7701.000000
2846.344971 7480.000000
2847.132324 7195.000000
2847.919922 7491.000000
2848.707031 7283.000000
2849.493408 6623.000000
2850.279785 7404.000000
2851.065918 7143.000000
2851.851563 7498.000000
2852.636230 7130.000000
2853.421387 6855.000000
2854.206299 7484.000000
2854.990479 7047.000000
2855.774658 6840.000000
2856.557617 8180.000000
2857.340820 6834.000000
2858.123779 6705.000000
2858.906250 7747.000000
2859.688477 6237.000000
2860.470215 6597.000000
2861.251709 7540.000000
2862.033447 7378.000000
2862.814453 7535.000000
2863.594727 6482.000000
2864.374756 6686.000000
2865.154785 8137.000000
2865.934570 7385.000000
2866.713379 8086.000000
2867.492432 7665.000000
2868.270996 6789.000000
2869.049316 6974.000000
2869.827148 7242.000000
2870.604736 6881.000000
2871.382080 7459.000000
2872.159180 6923.000000
2872.935791 6373.000000
2873.711914 7436.000000
2874.488037 7119.000000
2875.263672 8238.000000
2876.039063 7203.000000
2876.813965 6586.000000
2877.588623 7972.000000
2878.363281 6599.000000
2879.137695 7784.000000
2879.911377 6726.000000
2880.684326 7172.000000
2881.458008 6733.000000
2882.230713 7590.000000
2883.003418 7797.000000
2883.775391 8180.000000
2884.547119 6228.000000
2885.319336 6763.000000
2886.090332 6873.000000
2886.860840 6078.000000
2887.631836 8285.000000
2888.402832 7368.000000
2889.173096 7935.000000
2889.942383 7671.000000
2890.711914 6936.000000
2891.481445 7147.000000
2892.250488 7261.000000
2893.019043 7883.000000
2893.787598 7627.000000
2894.555176 6968.000000
2895.323242 6607.000000
2896.090820 7414.000000
2896.858398 8323.000000
2897.624756 7359.000000
2898.392090 6461.000000
2899.158203 7266.000000
2899.924561 6972.000000
2900.689453 8279.000000
2901.454834 6907.000000
2902.220703 6502.000000
2902.985107 7704.000000
2903.749512 7636.000000
2904.514160 8458.000000
2905.277832 6594.000000
2906.042236 8445.000000
2906.805908 6704.000000
2907.568848 8401.000000
2908.331543 6477.000000
2909.094727 8904.000000
2909.857422 7006.000000
2910.618896 6781.000000
2911.380859 6781.000000
