scanname Analyse062
timestamp 2017-02-10 21:22:41
ccdbias 894.745605
ccdgain 3.473401
sigmaread 8.960639
laserwavenum -0.649874
wavenumcorrection -0.126910
scancount 1
totalexposurems 10000
singleexposurems 10000
measurementstate Unknown
scanmode Manual
snr 297.985687 10.188230 8.675470
replacelist 5
672 52034.000000 30727.000000
754 50524.000000 19116.000000
858 44156.000000 15504.000000
889 41736.000000 20277.000000
948 38317.000000 19389.000000
peaks 69
278.638184 0.721183 0.000000 1.391739 0.000181
284.884064 0.721300 0.000000 0.876873 0.000065
294.386108 0.723543 0.000000 0.607433 0.000028
303.529968 0.724732 0.000000 0.145231 0.000022
334.557312 0.746157 0.000000 0.792213 0.000138
343.319702 0.745438 0.000000 0.694208 0.000032
350.944702 0.748924 0.000000 0.590621 0.000023
360.451141 0.752582 0.000000 0.769567 0.000065
386.117432 0.752298 0.000000 1.320902 0.000294
461.078613 0.767438 0.000000 0.182740 0.000037
487.554138 0.781208 0.000000 0.882523 0.000112
535.219849 0.783593 0.000000 0.487079 0.000130
559.815063 0.824314 0.000000 1.262410 0.000225
571.893433 0.831124 0.000000 0.454862 0.000136
580.520386 0.824345 0.000000 0.590613 0.000070
660.698242 0.856988 0.000000 1.244565 0.000120
673.321350 0.854605 0.000000 1.307968 0.000259
680.331055 0.854768 0.000000 0.401021 0.000045
715.818604 0.874320 0.000000 5.517951 0.001163
724.449036 0.856245 0.000000 1.272779 0.000054
742.811646 0.881763 0.000000 1.133917 0.000122
757.246033 0.906068 0.000000 6.031781 0.000692
779.268311 0.908223 0.000000 8.454843 0.001322
833.189087 0.909526 0.000000 1.064499 0.000178
843.676086 0.912949 0.000000 1.063646 0.000053
853.383484 0.938686 0.000000 1.129454 0.000290
869.036377 0.933865 0.000000 0.773372 0.000157
935.513489 1.005320 0.000000 0.764968 0.000416
954.361755 0.987363 0.000000 3.455966 0.001058
1013.746643 1.030348 0.000000 2.063605 0.000789
1020.568298 1.032607 0.000000 0.991026 0.000153
1027.138794 1.044059 0.000000 0.627974 0.000261
1034.528198 1.033937 0.000000 0.850659 0.000104
1044.359131 1.042034 0.000000 4.348620 0.001411
1104.347900 1.057976 0.000000 2.234645 0.000620
1117.806274 1.097336 0.000000 2.276690 0.000655
1134.691406 1.075533 0.000000 2.026163 0.000884
1150.198975 1.056621 0.000000 2.379420 0.000975
1174.541260 1.085091 0.000000 1.337017 0.000465
1186.547974 1.090008 0.000000 0.871512 0.000072
1211.449951 1.161103 0.000000 0.848410 0.000259
1222.745972 1.172476 0.000000 1.501779 0.000563
1232.334473 1.155579 0.000000 1.223009 0.000333
1260.025269 1.189904 0.000000 2.839021 0.001347
1282.182373 1.130448 0.000000 0.757409 0.000251
1313.736450 1.192436 0.000000 2.223637 0.001207
1328.198975 1.231605 0.000000 2.763859 0.001468
1348.196289 1.250287 0.000000 0.568253 0.000637
1388.174805 1.226049 0.000000 0.351273 0.000319
1415.011230 1.281973 0.000000 1.784539 0.000816
1434.214966 1.336871 0.000000 1.532996 0.000773
1447.181763 1.332756 0.000000 1.505668 0.000534
1459.555664 1.329980 0.000000 3.063764 0.001896
1489.912720 1.352214 0.000000 3.808388 0.002332
1511.130981 1.264649 0.000000 0.236193 0.000147
1532.282593 1.287139 0.000000 0.977548 0.000640
1558.141357 1.297551 0.000000 1.380426 0.000831
1578.192383 1.289316 0.000000 1.635337 0.001413
1616.266968 1.273728 0.000000 1.794207 0.001550
1639.828003 1.242961 0.000000 0.407229 0.000114
1668.435669 1.308271 0.000000 5.764963 0.004157
1701.151001 1.210728 0.000000 1.415553 0.001524
1710.985352 1.195480 0.000000 0.895901 0.000505
1756.268188 1.210582 0.000000 3.329281 0.002898
1778.633789 1.145877 0.000000 2.227898 0.002243
1795.818359 1.131530 0.000000 0.627236 0.000327
1812.577026 1.123988 0.000000 0.753615 0.000793
2326.293457 0.723707 0.000000 0.158991 0.000186
2341.072021 0.719969 0.000000 0.351616 0.001420
finalresult GLS_NoMatch 0
spectrum 2048
-96.951584 45217.000000
-94.324715 45217.000000
-91.699722 45965.000000
-89.076622 45979.000000
-86.455391 46790.000000
-83.836060 46602.000000
-81.218590 46901.000000
-78.602997 46726.000000
-75.989281 47015.000000
-73.377441 47443.000000
-70.767464 47232.000000
-68.159370 47422.000000
-65.553123 47459.000000
-62.948750 47427.000000
-60.346241 47329.000000
-57.745586 47836.000000
-55.146793 47228.000000
-52.549858 46579.000000
-49.954777 46979.000000
-47.361549 46859.000000
-44.770172 47144.000000
-42.180641 46656.000000
-39.592953 47519.000000
-37.007114 47342.000000
-34.423119 46969.000000
-31.840960 47708.000000
-29.260647 46975.000000
-26.682161 47654.000000
-24.105518 47151.000000
-21.530701 47017.000000
-18.957724 46760.000000
-16.386566 46738.000000
-13.817244 46523.000000
-11.249745 45437.000000
-8.684066 46829.000000
-6.120212 46541.000000
-3.558171 47005.000000
-0.997955 46998.000000
1.560453 46630.000000
4.117040 45634.000000
6.671822 45682.000000
9.224787 45926.000000
11.775951 44559.000000
14.325303 44115.000000
16.872860 43143.000000
19.418604 43137.000000
21.962555 42505.000000
24.504702 39758.000000
27.045052 37635.000000
29.583616 34826.000000
32.120384 31650.000000
34.655350 25142.000000
37.188538 15108.000000
39.719944 8935.000000
42.249557 8113.000000
44.777374 7580.000000
47.303432 6833.000000
49.827702 5924.000000
52.350201 5187.000000
54.870903 4886.000000
57.389851 5071.000000
59.907024 6050.000000
62.422421 7588.000000
64.936035 8309.000000
67.447899 8116.000000
69.958015 6326.000000
72.466339 4353.000000
74.972908 3761.000000
77.477730 3077.000000
79.980797 5012.000000
82.482086 24380.000000
84.981636 33334.000000
87.479431 35898.000000
89.975494 39179.000000
92.469780 40336.000000
94.962326 43668.000000
97.453156 43591.000000
99.942215 44044.000000
102.429527 45421.000000
104.915115 46044.000000
107.398964 46056.000000
109.881065 47022.000000
112.361443 46404.000000
114.840096 46845.000000
117.317024 46712.000000
119.792198 45983.000000
122.265663 46475.000000
124.737396 47444.000000
127.207420 46610.000000
129.675690 47105.000000
132.142288 47082.000000
134.607132 47759.000000
137.070282 47208.000000
139.531693 46189.000000
141.991409 46617.000000
144.449402 47144.000000
146.905701 47469.000000
149.360291 47615.000000
151.813156 46687.000000
154.264343 47093.000000
156.713837 46861.000000
159.161606 47474.000000
161.607666 47013.000000
164.052048 44770.000000
166.494751 47134.000000
168.935760 46735.000000
171.375061 47296.000000
173.812653 46370.000000
176.248611 46868.000000
178.682831 46656.000000
181.115372 46277.000000
183.546265 46849.000000
185.975433 46432.000000
188.402954 46819.000000
190.828796 47172.000000
193.252960 46818.000000
195.675461 46330.000000
198.096268 46156.000000
200.515411 46947.000000
202.932892 47453.000000
205.348679 45888.000000
207.762817 46432.000000
210.175323 47112.000000
212.586151 47415.000000
214.995300 47307.000000
217.402817 46051.000000
219.808624 47387.000000
222.212845 47008.000000
224.615356 46843.000000
227.016251 46589.000000
229.415497 47013.000000
231.813080 46691.000000
234.209000 46287.000000
236.603302 46951.000000
238.995941 47671.000000
241.386963 46690.000000
243.776321 46990.000000
246.164063 47209.000000
248.550156 46521.000000
250.934616 47486.000000
253.317429 45643.000000
255.698669 46897.000000
258.078217 46802.000000
260.456177 46978.000000
262.832458 46008.000000
265.207184 45942.000000
267.580261 45662.000000
269.951691 47276.000000
272.321472 47073.000000
274.689697 47565.000000
277.056274 47161.000000
279.421265 46824.000000
281.784637 47499.000000
284.146362 47306.000000
286.506500 46407.000000
288.865021 47562.000000
291.221954 46989.000000
293.577271 47062.000000
295.931000 47621.000000
298.283081 47578.000000
300.633606 47220.000000
302.982544 47167.000000
305.329834 46751.000000
307.675598 47103.000000
310.019684 47121.000000
312.362244 46128.000000
314.703186 45950.000000
317.042511 46407.000000
319.380280 46582.000000
321.716492 45414.000000
324.051056 47217.000000
326.384064 47040.000000
328.715515 47538.000000
331.045380 46880.000000
333.373657 47123.000000
335.700317 46273.000000
338.025482 47220.000000
340.349030 47236.000000
342.671021 47511.000000
344.991455 45969.000000
347.310272 45934.000000
349.627533 47528.000000
351.943268 47649.000000
354.257416 46559.000000
356.569977 47230.000000
358.880981 47315.000000
361.190460 46460.000000
363.498413 47151.000000
365.804749 47854.000000
368.109497 47121.000000
370.412781 47023.000000
372.714447 47224.000000
375.014618 47150.000000
377.313232 47215.000000
379.610291 47770.000000
381.905792 47495.000000
384.199768 47637.000000
386.492157 48300.000000
388.783051 47947.000000
391.072418 47324.000000
393.360199 47273.000000
395.646454 47021.000000
397.931213 46532.000000
400.214355 47474.000000
402.496063 47056.000000
404.776245 47318.000000
407.054840 46150.000000
409.331909 47045.000000
411.607452 46807.000000
413.881470 47084.000000
416.154053 47060.000000
418.425018 47187.000000
420.694489 47111.000000
422.962463 46390.000000
425.228882 46212.000000
427.493805 47280.000000
429.757263 47226.000000
432.019135 47082.000000
434.279541 47471.000000
436.538391 46824.000000
438.795776 47363.000000
441.051666 47780.000000
443.306061 47708.000000
445.558929 47998.000000
447.810242 46544.000000
450.060150 47373.000000
452.308472 47201.000000
454.555359 47796.000000
456.800781 46987.000000
459.044647 47025.000000
461.287018 46698.000000
463.527893 47863.000000
465.767365 46744.000000
468.005249 48033.000000
470.241699 47591.000000
472.476624 47492.000000
474.710083 46122.000000
476.942108 46772.000000
479.172607 47754.000000
481.401611 47006.000000
483.629150 47168.000000
485.855194 47496.000000
488.079803 46992.000000
490.302948 47635.000000
492.524628 47056.000000
494.744751 46783.000000
496.963470 47801.000000
499.180695 47252.000000
501.396545 47935.000000
503.610779 47329.000000
505.823700 46977.000000
508.035034 46998.000000
510.244934 46575.000000
512.453369 46982.000000
514.660461 46923.000000
516.865967 47121.000000
519.070068 46885.000000
521.272644 47291.000000
523.473816 46936.000000
525.673645 46866.000000
527.871948 46557.000000
530.068726 48102.000000
532.264160 47638.000000
534.458069 47849.000000
536.650635 45984.000000
538.841675 46850.000000
541.031311 47509.000000
543.219543 46600.000000
545.406250 46377.000000
547.591492 46717.000000
549.775452 47289.000000
551.957825 47162.000000
554.138855 47281.000000
556.318359 47454.000000
558.496582 47565.000000
560.673279 47518.000000
562.848572 47136.000000
565.022461 47018.000000
567.194885 47524.000000
569.365906 47379.000000
571.535461 47171.000000
573.703735 48171.000000
575.870483 47084.000000
578.035767 47259.000000
580.199646 47381.000000
582.362244 47685.000000
584.523315 47441.000000
586.682983 47851.000000
588.841309 47626.000000
590.998108 47363.000000
593.153564 46841.000000
595.307617 47709.000000
597.460327 47409.000000
599.611511 46176.000000
601.761353 46778.000000
603.909851 46842.000000
606.056763 47406.000000
608.202454 46957.000000
610.346741 47040.000000
612.489563 46437.000000
614.630920 47325.000000
616.771057 47016.000000
618.909668 45771.000000
621.046997 47683.000000
623.182861 46857.000000
625.317322 46650.000000
627.450317 46296.000000
629.582153 46829.000000
631.712524 46871.000000
633.841492 46621.000000
635.968994 47032.000000
638.095215 47180.000000
640.219910 46110.000000
642.343384 47082.000000
644.465515 46665.000000
646.586182 46631.000000
648.705505 46961.000000
650.823425 47868.000000
652.940002 47827.000000
655.055176 46957.000000
657.169006 47042.000000
659.281372 47563.000000
661.392517 47356.000000
663.502258 48086.000000
665.610535 47426.000000
667.717651 47229.000000
669.823303 46650.000000
671.927490 47593.000000
674.030457 47784.000000
676.132019 46521.000000
678.232239 48185.000000
680.331055 46684.000000
682.428528 47230.000000
684.524719 46556.000000
686.619446 47243.000000
688.712952 46378.000000
690.805115 46836.000000
692.895752 45521.000000
694.985168 46800.000000
697.073303 46981.000000
699.159973 47412.000000
701.245422 46805.000000
703.329346 48337.000000
705.412048 47517.000000
707.493469 47498.000000
709.573425 45881.000000
711.652161 47186.000000
713.729431 47878.000000
715.805420 46851.000000
717.880127 47308.000000
719.953552 46401.000000
722.025452 47127.000000
724.096191 46001.000000
726.165588 47639.000000
728.233582 46936.000000
730.300232 47018.000000
732.365662 46373.000000
734.429749 47626.000000
736.492493 47270.000000
738.553894 47124.000000
740.614014 46792.000000
742.672729 47422.000000
744.730225 46783.000000
746.786438 46944.000000
748.841248 46751.000000
750.894775 47033.000000
752.946899 45859.000000
754.997803 47678.000000
757.047485 46732.000000
759.095703 47051.000000
761.142700 47275.000000
763.188416 46418.000000
765.232727 48071.000000
767.275757 47656.000000
769.317566 38390.000000
771.358032 46494.000000
773.397095 47123.000000
775.434998 47323.000000
777.471558 47353.000000
779.506897 48033.000000
781.540894 47723.000000
783.573486 46474.000000
785.604919 47879.000000
787.634949 41269.000000
789.663696 47370.000000
791.691284 47125.000000
793.717529 47095.000000
795.742371 47593.000000
797.766113 47911.000000
799.788452 47044.000000
801.809570 47614.000000
803.829346 46782.000000
805.847839 48434.000000
807.865112 46786.000000
809.880981 46651.000000
811.895691 47661.000000
813.909058 47024.000000
815.921204 47208.000000
817.932129 47309.000000
819.941711 46854.000000
821.950073 48046.000000
823.957031 47720.000000
825.962769 47251.000000
827.967285 47543.000000
829.970520 47771.000000
831.972473 46892.000000
833.973145 47271.000000
835.972595 47502.000000
837.970703 46969.000000
839.967712 46369.000000
841.963318 47085.000000
843.957764 47390.000000
845.950867 47168.000000
847.942749 46562.000000
849.933289 47718.000000
851.922546 46614.000000
853.910767 47384.000000
855.897583 47664.000000
857.883179 46972.000000
859.867493 46101.000000
861.850708 47081.000000
863.832520 46932.000000
865.813110 47425.000000
867.792419 45684.000000
869.770569 46302.000000
871.747375 47143.000000
873.722900 47452.000000
875.697388 47213.000000
877.670410 47312.000000
879.642395 47921.000000
881.613037 46981.000000
883.582520 47283.000000
885.550659 47773.000000
887.517639 48180.000000
889.483276 47218.000000
891.447754 47538.000000
893.411011 47374.000000
895.373047 46870.000000
897.333801 47580.000000
899.293335 46936.000000
901.251587 46608.000000
903.208740 47016.000000
905.164734 47296.000000
907.119324 46472.000000
909.072693 46785.000000
911.024902 46841.000000
912.975891 46836.000000
914.925598 46196.000000
916.874146 46993.000000
918.821472 47098.000000
920.767517 47191.000000
922.712280 47259.000000
924.656006 46971.000000
926.598572 47331.000000
928.539856 47768.000000
930.479797 46838.000000
932.418640 47546.000000
934.356201 47707.000000
936.292542 47258.000000
938.227722 47408.000000
940.161621 47243.000000
942.094421 47392.000000
944.026001 46498.000000
945.956421 48109.000000
947.885620 46916.000000
949.813477 46234.000000
951.740295 46617.000000
953.665833 47300.000000
955.590088 47842.000000
957.513245 47284.000000
959.435242 46545.000000
961.355957 45982.000000
963.275513 46752.000000
965.193909 48012.000000
967.111267 46796.000000
969.027161 46915.000000
970.941956 47135.000000
972.855530 47281.000000
974.767944 46868.000000
976.679138 46769.000000
978.589172 47767.000000
980.497925 47014.000000
982.405640 47118.000000
984.312134 46905.000000
986.217407 47526.000000
988.121582 46373.000000
990.024536 46973.000000
991.926270 46376.000000
993.826843 46706.000000
995.726257 46537.000000
997.624451 47886.000000
999.521484 46621.000000
1001.417297 46661.000000
1003.311951 45492.000000
1005.205505 47593.000000
1007.097778 45996.000000
1008.989136 47078.000000
1010.879150 47741.000000
1012.767944 46568.000000
1014.655579 46850.000000
1016.542053 46288.000000
1018.427368 46403.000000
1020.311523 47207.000000
1022.194458 47336.000000
1024.076416 46980.000000
1025.957031 48000.000000
1027.836548 47298.000000
1029.715088 47114.000000
1031.592285 47797.000000
1033.468140 46964.000000
1035.343018 47201.000000
1037.216919 46588.000000
1039.089355 46196.000000
1040.960815 46445.000000
1042.830933 47629.000000
1044.700073 47642.000000
1046.567993 47748.000000
1048.434814 46116.000000
1050.300537 46458.000000
1052.165039 46697.000000
1054.028442 46708.000000
1055.890503 46660.000000
1057.751587 47292.000000
1059.611572 46604.000000
1061.470215 46558.000000
1063.327759 47400.000000
1065.184204 46387.000000
1067.039551 47227.000000
1068.893677 47340.000000
1070.746948 46865.000000
1072.598755 46775.000000
1074.449585 46946.000000
1076.299194 46941.000000
1078.147583 47340.000000
1079.995117 45126.000000
1081.841309 47526.000000
1083.686279 46916.000000
1085.530396 47750.000000
1087.373169 47569.000000
1089.214722 46575.000000
1091.055542 47584.000000
1092.894775 47297.000000
1094.733276 47051.000000
1096.570435 47054.000000
1098.406372 46178.000000
1100.241333 46475.000000
1102.075073 47566.000000
1103.907837 47294.000000
1105.739258 46791.000000
1107.569824 45712.000000
1109.399048 46370.000000
1111.227295 46528.000000
1113.054321 45777.000000
1114.880371 47570.000000
1116.705200 46637.000000
1118.528931 45788.000000
1120.351440 46828.000000
1122.172852 47074.000000
1123.993408 47028.000000
1125.812500 46386.000000
1127.630737 45884.000000
1129.447632 46148.000000
1131.263672 46328.000000
1133.078491 46433.000000
1134.892212 47301.000000
1136.704834 47228.000000
1138.516235 47336.000000
1140.326660 46780.000000
1142.135986 46254.000000
1143.943970 46022.000000
1145.751221 46989.000000
1147.557007 46956.000000
1149.361938 47472.000000
1151.165771 47448.000000
1152.968384 46736.000000
1154.770142 46682.000000
1156.570435 46776.000000
1158.369751 46741.000000
1160.168091 46992.000000
1161.965088 47315.000000
1163.761353 46923.000000
1165.556274 46728.000000
1167.350098 46487.000000
1169.143066 45039.000000
1170.934692 46978.000000
1172.725342 46187.000000
1174.515015 46729.000000
1176.303223 46886.000000
1178.090576 45158.000000
1179.876831 45908.000000
1181.661987 46998.000000
1183.446045 46754.000000
1185.229004 44996.000000
1187.010986 46804.000000
1188.791748 46800.000000
1190.571533 46303.000000
1192.350220 45684.000000
1194.127930 45928.000000
1195.904419 45445.000000
1197.679810 46064.000000
1199.454102 46010.000000
1201.227295 45855.000000
1202.999634 45967.000000
1204.770630 45834.000000
1206.540771 46856.000000
1208.309692 46428.000000
1210.077515 46118.000000
1211.844482 46739.000000
1213.610107 46563.000000
1215.374756 45520.000000
1217.138306 45944.000000
1218.900757 46460.000000
1220.662354 45754.000000
1222.422729 46582.000000
1224.182007 46224.000000
1225.940430 46452.000000
1227.697632 45448.000000
1229.453735 46068.000000
1231.208740 46988.000000
1232.962891 46468.000000
1234.715698 46739.000000
1236.467529 46496.000000
1238.218506 46504.000000
1239.968140 47548.000000
1241.716919 45512.000000
1243.464355 45978.000000
1245.211060 45841.000000
1246.956543 46025.000000
1248.701172 46056.000000
1250.444458 45721.000000
1252.186768 45757.000000
1253.927979 47106.000000
1255.668335 47366.000000
1257.407593 46596.000000
1259.145630 45818.000000
1260.882813 45302.000000
1262.618774 46216.000000
1264.353760 45960.000000
1266.087769 45132.000000
1267.820801 46400.000000
1269.552612 46268.000000
1271.283447 46016.000000
1273.013062 45168.000000
1274.741821 46540.000000
1276.469482 46796.000000
1278.196045 46853.000000
1279.921753 46796.000000
1281.646118 45884.000000
1283.369629 47163.000000
1285.092163 45516.000000
1286.813721 45726.000000
1288.534058 46064.000000
1290.253418 45643.000000
1291.971680 45022.000000
1293.688965 45863.000000
1295.405273 46480.000000
1297.120361 45844.000000
1298.834473 46045.000000
1300.547607 46412.000000
1302.259888 45682.000000
1303.970947 43759.000000
1305.681030 46840.000000
1307.390015 45810.000000
1309.097778 45391.000000
1310.804932 45104.000000
1312.510620 46298.000000
1314.215576 45347.000000
1315.919556 45964.000000
1317.622314 46126.000000
1319.324097 45585.000000
1321.025024 45977.000000
1322.724609 43150.000000
1324.423340 44825.000000
1326.121338 46500.000000
1327.817993 45422.000000
1329.513550 44613.000000
1331.208252 44832.000000
1332.901733 46007.000000
1334.594360 46335.000000
1336.286133 44507.000000
1337.976563 45401.000000
1339.666260 45145.000000
1341.354858 45598.000000
1343.042358 44113.000000
1344.728882 46045.000000
1346.414307 44905.000000
1348.098755 45765.000000
1349.782349 44449.000000
1351.464722 45390.000000
1353.146118 45855.000000
1354.826660 45287.000000
1356.505981 45089.000000
1358.184692 45875.000000
1359.862061 45177.000000
1361.538330 46034.000000
1363.213623 46270.000000
1364.888184 45287.000000
1366.561523 45295.000000
1368.233887 45026.000000
1369.905273 46631.000000
1371.575684 44988.000000
1373.244995 45562.000000
1374.913330 45994.000000
1376.580811 45665.000000
1378.247192 45091.000000
1379.912598 45461.000000
1381.577026 45700.000000
1383.240234 45621.000000
1384.902832 45814.000000
1386.564087 45045.000000
1388.224487 44834.000000
1389.883789 44985.000000
1391.542114 44862.000000
1393.199707 44484.000000
1394.856079 44934.000000
1396.511597 44307.000000
1398.165894 44951.000000
1399.819336 45365.000000
1401.471680 45052.000000
1403.123291 44731.000000
1404.773682 43895.000000
1406.422974 44881.000000
1408.071533 43558.000000
1409.718994 43019.000000
1411.365479 44706.000000
1413.011108 44574.000000
1414.655762 44835.000000
1416.299194 43764.000000
1417.941772 43571.000000
1419.583252 43844.000000
1421.223877 44203.000000
1422.863525 44151.000000
1424.502075 44641.000000
1426.139771 44023.000000
1427.776367 44304.000000
1429.411987 44665.000000
1431.046875 44278.000000
1432.680664 44674.000000
1434.313354 44503.000000
1435.945068 44964.000000
1437.575928 44497.000000
1439.205688 44552.000000
1440.834351 42885.000000
1442.462402 44671.000000
1444.089355 44499.000000
1445.715088 44514.000000
1447.340210 44544.000000
1448.964233 44251.000000
1450.587280 44649.000000
1452.209351 44718.000000
1453.830322 43225.000000
1455.450317 44372.000000
1457.069580 43846.000000
1458.687500 44958.000000
1460.304810 44971.500000
1461.921143 44985.000000
1463.536255 42997.000000
1465.150513 43823.000000
1466.763916 44856.000000
1468.376221 44391.000000
1469.987671 43686.000000
1471.598267 43518.000000
1473.207642 43825.000000
1474.816040 43689.000000
1476.423584 43390.000000
1478.030151 42888.000000
1479.635986 44101.000000
1481.240601 43077.000000
1482.844360 43743.000000
1484.446899 42416.000000
1486.048828 43487.000000
1487.649536 43529.000000
1489.249512 43369.000000
1490.848389 42706.000000
1492.446411 42585.000000
1494.043335 42382.000000
1495.639404 42718.000000
1497.234497 43019.000000
1498.828613 43508.000000
1500.421997 42342.000000
1502.014282 43388.000000
1503.605347 42487.000000
1505.195923 41869.000000
1506.785156 42004.000000
1508.373779 42168.000000
1509.961304 41615.000000
1511.547729 41166.000000
1513.133423 41749.000000
1514.718018 41132.000000
1516.301758 41300.000000
1517.884399 41341.000000
1519.466309 40639.000000
1521.047119 40469.000000
1522.627197 40836.000000
1524.206055 40381.000000
1525.784058 40058.000000
1527.361328 40067.000000
1528.937378 40554.000000
1530.512695 40240.000000
1532.086914 39770.000000
1533.660400 40444.000000
1535.232666 39922.000000
1536.804199 39517.000000
1538.374756 39340.000000
1539.944458 39288.000000
1541.512939 40115.000000
1543.080688 38917.000000
1544.647583 39839.000000
1546.213257 38591.000000
1547.778198 39321.000000
1549.342041 40142.000000
1550.905273 37715.000000
1552.467163 38902.000000
1554.028442 39154.000000
1555.588623 39387.000000
1557.148071 39229.000000
1558.706421 39085.000000
1560.264038 38724.000000
1561.820557 38047.000000
1563.375854 39190.000000
1564.930542 38614.000000
1566.484497 39390.000000
1568.037476 38720.000000
1569.589111 39382.000000
1571.140015 38984.000000
1572.690186 38812.000000
1574.239380 38592.000000
1575.787231 39175.000000
1577.334595 39380.000000
1578.880981 39176.000000
1580.426514 39788.000000
1581.971069 38299.000000
1583.514404 38561.000000
1585.057129 38259.000000
1586.598999 38400.000000
1588.139771 37973.000000
1589.679565 38806.000000
1591.218628 37926.000000
1592.756592 38659.000000
1594.294067 38359.000000
1595.830200 38643.000000
1597.365234 37784.000000
1598.899780 38205.000000
1600.433350 38334.000000
1601.966064 38290.000000
1603.497192 38073.000000
1605.028076 38116.000000
1606.558105 38598.000000
1608.086914 38157.000000
1609.614624 38108.000000
1611.141724 38326.000000
1612.668091 38525.000000
1614.193481 38001.000000
1615.718018 38446.000000
1617.241211 38419.000000
1618.763672 38621.000000
1620.285400 37615.000000
1621.806274 37266.000000
1623.325684 37531.500000
1624.844604 37797.000000
1626.362793 37355.000000
1627.880127 37402.000000
1629.396362 36871.000000
1630.911255 36148.000000
1632.425659 36281.000000
1633.939331 37122.000000
1635.451904 35908.000000
1636.963257 36698.000000
1638.474243 36036.000000
1639.984131 36198.000000
1641.493164 36189.000000
1643.000854 36596.000000
1644.508179 36040.000000
1646.014648 35024.000000
1647.520142 35768.000000
1649.024780 35038.000000
1650.527954 35617.000000
1652.030518 35131.000000
1653.532715 35208.000000
1655.033569 34792.000000
1656.533325 33668.000000
1658.032227 35079.000000
1659.530762 34518.000000
1661.028076 34736.000000
1662.524658 35004.000000
1664.019653 34347.000000
1665.514404 34690.000000
1667.008301 36025.000000
1668.501221 35807.000000
1669.992798 35070.000000
1671.483887 34333.000000
1672.974365 33093.000000
1674.463745 33147.000000
1675.951660 32213.000000
1677.439331 32261.000000
1678.926025 32842.000000
1680.411865 33353.000000
1681.896851 32447.000000
1683.380371 32258.000000
1684.863647 31939.000000
1686.346069 32347.000000
1687.827393 31959.000000
1689.307251 31858.000000
1690.786865 32599.000000
1692.265747 31473.000000
1693.743652 31942.000000
1695.220581 31790.000000
1696.696289 32117.000000
1698.171631 31766.000000
1699.645752 31534.000000
1701.119263 32364.000000
1702.591309 32396.000000
1704.063110 31227.000000
1705.533936 31709.000000
1707.003906 30927.000000
1708.472534 32744.000000
1709.940674 31976.000000
1711.408081 31510.000000
1712.874390 32363.000000
1714.340088 32149.000000
1715.804077 31836.000000
1717.267944 32028.000000
1718.730957 31016.000000
1720.192993 31730.000000
1721.653809 31293.000000
1723.114014 32241.000000
1724.573486 31447.000000
1726.032104 31653.000000
1727.489746 31780.000000
1728.946045 31442.000000
1730.402100 31711.000000
1731.857178 31234.000000
1733.311279 31599.000000
1734.764160 30697.000000
1736.216797 31528.000000
1737.668335 30673.000000
1739.119141 31297.000000
1740.568970 30671.000000
1742.017456 31282.000000
1743.465576 29952.000000
1744.912842 30605.000000
1746.359375 30306.000000
1747.804321 30222.000000
1749.249023 30764.000000
1750.692871 31161.000000
1752.135864 31678.000000
1753.577393 30992.000000
1755.018677 31615.000000
1756.459106 31410.000000
1757.898560 31205.000000
1759.337036 30392.000000
1760.774536 29619.000000
1762.211548 28230.000000
1763.647583 29792.000000
1765.082764 28473.000000
1766.516479 29247.000000
1767.950073 28862.000000
1769.382690 28540.000000
1770.814453 29216.000000
1772.245361 28918.000000
1773.675049 28087.000000
1775.104004 28059.000000
1776.532471 27645.000000
1777.959961 26931.000000
1779.386108 27137.000000
1780.812012 27998.000000
1782.236816 26955.000000
1783.661011 28235.000000
1785.083740 27126.000000
1786.505981 27234.000000
1787.927490 26655.000000
1789.348267 27354.000000
1790.768066 27249.000000
1792.186523 27031.000000
1793.604492 26367.000000
1795.021851 27467.000000
1796.438354 26904.000000
1797.853394 26555.000000
1799.268066 27191.000000
1800.682129 26453.000000
1802.094971 27218.000000
1803.507202 26321.000000
1804.918091 26127.000000
1806.328491 25406.000000
1807.738159 26335.000000
1809.146851 26600.000000
1810.554443 27109.000000
1811.961548 26406.000000
1813.367798 26527.000000
1814.773071 26238.000000
1816.177246 26792.000000
1817.581055 26786.000000
1818.983887 26559.000000
1820.385864 26710.000000
1821.787231 26892.000000
1823.187134 26484.000000
1824.586426 26508.000000
1825.985229 26475.000000
1827.383179 25547.000000
1828.779785 26969.000000
1830.175781 26040.000000
1831.571045 26871.000000
1832.965698 24862.000000
1834.359375 26619.000000
1835.751709 25702.000000
1837.143555 26000.000000
1838.534790 26422.000000
1839.925049 25309.000000
1841.314087 26030.000000
1842.702759 25953.000000
1844.090454 25933.000000
1845.477417 26105.000000
1846.863037 25151.000000
1848.248413 25924.000000
1849.632935 25457.000000
1851.016724 25313.000000
1852.399414 25054.000000
1853.780884 25506.000000
1855.161865 24613.000000
1856.542358 24566.000000
1857.921875 24798.000000
1859.299927 24827.000000
1860.677856 24879.000000
1862.054810 23665.000000
1863.431030 24520.000000
1864.806396 24175.000000
1866.180298 24326.000000
1867.554077 24258.000000
1868.927002 23790.000000
1870.298828 23908.000000
1871.669678 23282.000000
1873.040161 23764.000000
1874.409546 23553.000000
1875.778442 23584.000000
1877.145752 23059.000000
1878.512939 23244.000000
1879.879150 23291.000000
1881.244629 23150.000000
1882.609375 22672.000000
1883.972534 22998.000000
1885.335571 22841.000000
1886.697754 23026.000000
1888.059082 22844.000000
1889.419067 22712.000000
1890.778687 22604.000000
1892.137695 22734.000000
1893.495728 22639.000000
1894.852905 22191.000000
1896.208862 22519.000000
1897.564575 21961.000000
1898.919312 22548.000000
1900.273193 22541.000000
1901.625977 22465.000000
1902.978271 22502.000000
1904.329834 22625.000000
1905.680542 22375.000000
1907.030029 22650.000000
1908.379028 22454.000000
1909.727173 22441.000000
1911.074707 22293.000000
1912.421509 22210.000000
1913.766724 22248.000000
1915.111694 22329.000000
1916.455933 22698.000000
1917.799316 22250.000000
1919.141357 22524.000000
1920.483154 22220.000000
1921.824097 22118.000000
1923.164307 22388.000000
1924.503540 22288.000000
1925.841797 22196.000000
1927.179443 22435.000000
1928.516357 22077.000000
1929.852417 22009.000000
1931.187256 22468.000000
1932.521729 22001.000000
1933.855469 21794.000000
1935.188354 21779.000000
1936.519775 21893.000000
1937.851318 21605.000000
1939.181519 21390.000000
1940.511230 21795.000000
1941.840088 21769.000000
1943.167725 21833.000000
1944.494873 21794.000000
1945.821289 21677.000000
1947.146973 21415.000000
1948.471313 21355.000000
1949.795410 21167.000000
1951.118652 21159.000000
1952.441162 21079.000000
1953.762573 21253.000000
1955.083008 20787.000000
1956.402832 20963.000000
1957.722290 20991.000000
1959.040771 20645.000000
1960.357910 20754.000000
1961.674683 20566.000000
1962.990723 20354.000000
1964.306030 20426.000000
1965.619873 20407.000000
1966.933472 20472.000000
1968.246338 20205.000000
1969.558350 20300.000000
1970.869751 20209.000000
1972.179810 20061.000000
1973.489380 19937.000000
1974.798218 19762.000000
1976.106445 19704.000000
1977.413330 19583.000000
1978.719604 19425.000000
1980.025513 19759.000000
1981.330200 19652.000000
1982.634399 19560.000000
1983.937378 19478.000000
1985.239990 19483.000000
1986.541626 19423.000000
1987.842651 19011.000000
1989.142090 18988.000000
1990.441650 18932.000000
1991.740112 18930.000000
1993.038086 18718.000000
1994.334473 18662.000000
1995.630859 18600.000000
1996.926270 18552.000000
1998.220947 18409.000000
1999.514771 18304.000000
2000.807373 18203.000000
2002.099487 18331.000000
2003.391113 18111.000000
2004.682007 18098.000000
2005.971313 18048.000000
2007.260376 18063.000000
2008.548706 18082.000000
2009.836304 18113.000000
2011.123047 18128.000000
2012.408691 17957.000000
2013.693970 17817.000000
2014.978271 17968.000000
2016.261963 17917.000000
2017.544312 17780.000000
2018.826294 17723.000000
2020.107788 17678.000000
2021.388306 17756.000000
2022.668091 17599.000000
2023.946777 17548.000000
2025.224731 17630.000000
2026.502197 17513.000000
2027.779053 17696.000000
2029.054199 17954.000000
2030.329468 17900.000000
2031.603760 17840.000000
2032.877075 17835.000000
2034.149536 17899.000000
2035.421631 17979.000000
2036.692627 17873.000000
2037.963379 17809.000000
2039.232788 17814.000000
2040.501099 17799.000000
2041.769409 17662.000000
2043.036743 17690.000000
2044.303345 17702.000000
2045.568726 17681.000000
2046.833496 17806.000000
2048.097900 17511.000000
2049.361328 17487.000000
2050.624268 17361.000000
2051.885254 17341.000000
2053.146729 17061.000000
2054.406982 17002.000000
2055.666504 16977.000000
2056.925293 16839.000000
2058.183105 16911.000000
2059.440430 16915.000000
2060.697021 16967.000000
2061.952148 16839.000000
2063.207275 16871.000000
2064.461426 16714.000000
2065.714844 16846.000000
2066.967529 16770.000000
2068.218994 16665.000000
2069.470215 16561.000000
2070.720703 16728.000000
2071.970459 16788.000000
2073.218750 16857.000000
2074.467041 16358.000000
2075.714355 16334.000000
2076.960938 16220.000000
2078.206787 16072.000000
2079.451416 16043.000000
2080.695557 16067.000000
2081.939209 15989.000000
2083.181885 15868.000000
2084.423340 15840.000000
2085.664551 15959.000000
2086.905273 15843.000000
2088.145020 15665.000000
2089.383545 15648.000000
2090.621582 15488.000000
2091.858887 15530.000000
2093.095947 15395.000000
2094.331543 15471.000000
2095.566406 15380.000000
2096.801025 15471.000000
2098.034668 15563.000000
2099.267334 15443.000000
2100.499268 15246.000000
2101.730713 15247.000000
2102.961182 15157.000000
2104.190918 15163.000000
2105.420410 15033.000000
2106.647949 15089.000000
2107.875732 14799.000000
2109.102783 14713.000000
2110.328857 14854.000000
2111.553467 14682.000000
2112.778320 14626.000000
2114.001953 14670.000000
2115.225098 14746.000000
2116.447021 14507.000000
2117.668701 14795.000000
2118.889404 14707.000000
2120.109375 14863.000000
2121.328857 14839.000000
2122.546875 14861.000000
2123.764893 14758.000000
2124.981934 14834.000000
2126.198486 14719.000000
2127.413330 14595.000000
2128.628418 14683.000000
2129.842529 14736.000000
2131.055908 14637.000000
2132.268555 14414.000000
2133.479736 14517.000000
2134.691162 14706.000000
2135.901367 14509.000000
2137.111084 14538.000000
2138.319336 14629.000000
2139.527588 14530.000000
2140.735107 14364.000000
2141.941406 14169.000000
2143.146973 14388.000000
2144.352295 14342.000000
2145.556641 14307.000000
2146.760254 14323.000000
2147.963379 14253.000000
2149.165039 14232.000000
2150.366455 14136.000000
2151.567139 14134.000000
2152.767090 14121.000000
2153.965820 14038.000000
2155.164307 14000.000000
2156.362305 13960.000000
2157.559326 13819.000000
2158.755615 13649.000000
2159.950684 13708.000000
2161.145508 13468.000000
2162.339600 13433.000000
2163.532715 13499.000000
2164.724854 13270.000000
2165.916748 13272.000000
2167.107910 13223.000000
2168.298096 12965.000000
2169.487549 12942.000000
2170.676514 12825.000000
2171.864502 12820.000000
2173.052246 12714.000000
2174.238525 12555.000000
2175.424072 12435.000000
2176.609375 12379.000000
2177.794189 12432.000000
2178.977783 12507.000000
2180.160645 12339.000000
2181.342529 12542.000000
2182.524170 12538.000000
2183.705322 12467.000000
2184.885254 12398.000000
2186.064209 12502.000000
2187.242676 12176.000000
2188.420898 12143.000000
2189.597900 12254.000000
2190.773926 12192.000000
2191.949707 12360.000000
2193.125000 12309.000000
2194.298828 12306.000000
2195.472168 12336.000000
2196.645264 12260.000000
2197.817139 12323.000000
2198.988525 12286.000000
2200.159424 12223.000000
2201.328613 12323.000000
2202.497803 12364.000000
2203.666504 12330.000000
2204.834229 12348.000000
2206.000977 12133.000000
2207.166992 12258.000000
2208.332520 12135.000000
2209.497803 12172.000000
2210.661621 11976.000000
2211.824951 12129.000000
2212.987061 12053.000000
2214.149414 12062.000000
2215.310547 11897.000000
2216.470703 11897.000000
2217.630371 11859.000000
2218.789795 11931.000000
2219.947998 11767.000000
2221.105225 11821.000000
2222.262207 11806.000000
2223.418457 11697.000000
2224.573975 11683.000000
2225.728760 11670.000000
2226.882568 11614.000000
2228.035400 11521.000000
2229.188721 11331.000000
2230.340088 11481.000000
2231.491211 11303.000000
2232.641602 11295.000000
2233.791504 11269.000000
2234.940430 11194.000000
2236.088867 11289.000000
2237.235840 11158.000000
2238.383057 11170.000000
2239.529053 11019.000000
2240.674805 10955.000000
2241.818848 10833.000000
2242.963135 10767.000000
2244.106445 10712.000000
2245.249023 10694.000000
2246.390625 10694.000000
2247.531982 10557.000000
2248.672363 10511.000000
2249.812012 10493.000000
2250.951172 10523.000000
2252.089111 10252.000000
2253.227051 10318.000000
2254.364014 10411.000000
2255.500244 10234.000000
2256.635498 10323.000000
2257.770020 10328.000000
2258.904297 10233.000000
2260.038086 10522.000000
2261.170410 10555.000000
2262.302246 10310.000000
2263.433594 10164.000000
2264.563965 10010.000000
2265.694092 9776.000000
2266.822998 9850.000000
2267.951416 9649.000000
2269.079346 9917.000000
2270.206299 9827.000000
2271.332520 9836.000000
2272.457764 9695.000000
2273.583008 9755.000000
2274.707520 9786.000000
2275.830811 9866.000000
2276.953369 9876.000000
2278.075439 9811.000000
2279.197021 9765.000000
2280.317871 9756.000000
2281.437500 9681.000000
2282.556641 9692.000000
2283.675537 9398.000000
2284.793701 9378.000000
2285.910889 9444.000000
2287.027100 9439.000000
2288.143066 9580.000000
2289.258301 9561.000000
2290.372803 9535.000000
2291.486084 9568.000000
2292.599365 9547.000000
2293.711914 9533.000000
2294.823730 9626.000000
2295.934814 9522.000000
2297.044678 9708.000000
2298.154053 9689.000000
2299.263184 9534.000000
2300.371338 9715.000000
2301.478516 9556.000000
2302.585449 9564.000000
2303.691650 9537.000000
2304.797363 9564.000000
2305.901611 9517.000000
2307.005615 9444.000000
2308.109131 9416.000000
2309.212158 9258.000000
2310.313965 9260.000000
2311.415039 9086.000000
2312.515625 9220.000000
2313.615723 9164.000000
2314.715088 9197.000000
2315.812988 9108.000000
2316.911377 9053.000000
2318.008301 8912.000000
2319.104980 9032.000000
2320.201172 9042.000000
2321.295654 8919.000000
2322.390137 9034.000000
2323.483887 8840.000000
2324.577393 8759.000000
2325.669189 8779.000000
2326.760986 8902.000000
2327.852051 8956.000000
2328.942383 8833.000000
2330.031738 8838.000000
2331.121094 8717.000000
2332.209229 8739.000000
2333.296875 8819.000000
2334.384277 8725.000000
2335.469971 8479.000000
2336.555420 8455.000000
2337.640625 8423.000000
2338.724854 8253.000000
2339.808105 8493.000000
2340.891113 8359.000000
2341.973145 9090.000000
2343.054932 8149.000000
2344.135986 8114.000000
2345.215820 8142.000000
2346.295166 8233.000000
2347.374023 8076.000000
2348.452393 8081.000000
2349.529297 8055.000000
2350.605957 7908.000000
2351.682373 7930.000000
2352.757813 7920.000000
2353.832275 7922.000000
2354.906494 7870.000000
2355.979980 7917.000000
2357.052979 7804.000000
2358.124756 7711.000000
2359.196289 7724.000000
2360.266846 7553.000000
2361.337158 7570.000000
2362.406494 7581.000000
2363.474854 7726.000000
2364.542969 7505.000000
2365.610352 7562.000000
2366.677246 7615.000000
2367.743408 7518.000000
2368.808350 7496.000000
2369.873291 7422.000000
2370.937500 7300.000000
2372.000977 7390.000000
2373.063232 7355.000000
2374.125488 7480.000000
2375.186768 7403.000000
2376.247803 7324.000000
2377.307617 7380.000000
2378.366699 7285.000000
2379.425781 7464.000000
2380.483887 7322.000000
2381.541260 7355.000000
2382.597656 7269.000000
2383.653809 7174.000000
2384.709473 7320.000000
2385.764404 7179.000000
2386.817871 7151.000000
2387.871582 7042.000000
2388.924316 7120.000000
2389.976563 7113.000000
2391.028076 7267.000000
2392.078613 7282.000000
2393.128906 7244.000000
2394.178223 7189.000000
2395.227539 7166.000000
2396.275391 7010.000000
2397.322754 7021.000000
2398.369873 7032.000000
2399.416016 7135.000000
2400.461426 7057.000000
2401.506104 6931.000000
2402.550781 6875.000000
2403.593994 6849.000000
2404.637207 6982.000000
2405.678955 7079.000000
2406.720947 7053.000000
2407.762207 6961.000000
2408.802490 7034.000000
2409.842041 6983.000000
2410.880615 6953.000000
2411.919434 6837.000000
2412.957031 7046.000000
2413.994385 6971.000000
2415.030518 6931.000000
2416.066406 6973.000000
2417.101563 6998.000000
2418.136230 6905.000000
2419.169434 6879.000000
2420.202881 6825.000000
2421.235352 6771.000000
2422.267578 6763.000000
2423.298340 6798.000000
2424.329102 6735.000000
2425.359375 6730.000000
2426.388428 6621.000000
2427.417480 6602.000000
2428.444824 6639.000000
2429.472656 6562.000000
2430.499268 6540.000000
2431.525635 6506.000000
2432.550537 6381.000000
2433.575684 6331.000000
2434.599854 6420.000000
2435.623779 6408.000000
2436.646484 6340.000000
2437.668457 6259.000000
2438.690186 6254.000000
2439.711182 6265.000000
2440.731689 6188.000000
2441.750977 6163.000000
2442.770264 6181.000000
2443.788574 6013.000000
2444.806641 5978.000000
2445.823242 5948.000000
2446.839844 5966.000000
2447.855713 6039.000000
2448.871582 6050.000000
2449.885986 6057.000000
2450.899658 5927.000000
2451.912842 5853.000000
2452.925781 5977.000000
2453.937988 5892.000000
2454.949219 5877.000000
2455.960205 5911.000000
2456.970459 5854.000000
2457.980225 5762.000000
2458.989014 5812.000000
2459.997070 5806.000000
2461.005127 5722.000000
2462.011963 5548.000000
2463.018555 5641.000000
2464.023926 5640.000000
2465.029053 5571.000000
2466.033936 5609.000000
2467.037598 5703.000000
2468.041016 5658.000000
2469.043457 5604.000000
2470.045654 5635.000000
2471.047363 5654.000000
2472.048096 5486.000000
2473.047852 5476.000000
2474.047607 5520.000000
2475.046387 5511.000000
2476.044678 5443.000000
2477.041992 5519.000000
2478.039063 5432.000000
2479.036133 5495.000000
2480.031738 5474.000000
2481.027344 5329.000000
2482.021240 5443.000000
2483.015137 5360.000000
2484.008545 5449.000000
2485.001465 5513.000000
2485.993408 5466.000000
2486.984619 5423.000000
2487.975586 5452.000000
2488.966064 5378.000000
2489.955566 5538.000000
2490.944336 5497.000000
2491.933105 5455.000000
2492.920898 5360.000000
2493.907471 5405.000000
2494.894043 5200.000000
2495.880127 5422.000000
2496.865479 5279.000000
2497.849854 5480.000000
2498.833984 5414.000000
2499.818115 5368.000000
2500.800781 5355.000000
2501.782959 5201.000000
2502.764648 5284.000000
2503.745605 5284.000000
2504.726074 5299.000000
2505.706299 5291.000000
2506.685059 5271.000000
2507.663574 5137.000000
2508.641602 5284.000000
2509.619141 5142.000000
2510.595703 5257.000000
2511.572021 5185.000000
2512.547607 5190.000000
2513.522705 5161.000000
2514.497314 5105.000000
2515.470703 5111.000000
2516.443848 5050.000000
2517.416748 4995.000000
2518.388672 5030.000000
2519.359863 4962.000000
2520.330566 5007.000000
2521.301025 4905.000000
2522.270752 4914.000000
2523.239502 4729.000000
2524.207520 4845.000000
2525.175537 4885.000000
2526.142578 4786.000000
2527.109375 4823.000000
2528.074951 4741.000000
2529.040527 4807.000000
2530.005371 4750.000000
2530.969727 4808.000000
2531.932861 4670.000000
2532.896240 4682.000000
2533.858643 4782.000000
2534.820801 4731.000000
2535.781738 4779.000000
2536.741943 4720.000000
2537.702393 4664.000000
2538.661865 4776.000000
2539.620605 4741.000000
2540.578369 4646.000000
2541.536377 4713.000000
2542.493652 4591.000000
2543.449951 4600.000000
2544.406006 4466.000000
2545.360840 4436.000000
2546.315918 4406.000000
2547.270264 4503.000000
2548.223877 4447.000000
2549.176514 4317.000000
2550.128906 4483.000000
2551.080811 4268.000000
2552.031982 4310.000000
2552.982422 4494.000000
2553.932373 4370.000000
2554.882080 4330.000000
2555.831055 4328.000000
2556.779541 4312.000000
2557.726807 4248.000000
2558.674072 4341.000000
2559.620605 4181.000000
2560.566650 4160.000000
2561.511719 4199.000000
2562.456543 4139.000000
2563.400879 4257.000000
2564.344727 4083.000000
2565.288086 4232.000000
2566.229980 4154.000000
2567.172119 4141.000000
2568.113525 4174.000000
2569.054199 4146.000000
2569.994141 4009.000000
2570.934082 4155.000000
2571.873047 4103.000000
2572.811768 4064.000000
2573.749512 4096.000000
2574.687012 4187.000000
2575.623779 4150.000000
2576.559814 4102.000000
2577.495361 4135.000000
2578.430176 4080.000000
2579.364990 4070.000000
2580.298828 3993.000000
2581.232178 4100.000000
2582.164795 4075.000000
2583.097168 4056.000000
2584.028809 4032.000000
2584.959961 4178.000000
2585.890625 4047.000000
2586.820068 4093.000000
2587.749512 3995.000000
2588.678467 3997.000000
2589.607178 4003.000000
2590.534180 3938.000000
2591.461426 4037.000000
2592.388184 3987.000000
2593.314209 3799.000000
2594.239990 3986.000000
2595.164551 3896.000000
2596.088867 3987.000000
2597.012695 3942.000000
2597.936035 3907.000000
2598.858398 3967.000000
2599.780518 3944.000000
2600.702148 3954.000000
2601.623047 3997.000000
2602.543213 3830.000000
2603.463135 3981.000000
2604.382568 3857.000000
2605.301758 3791.000000
2606.219971 3865.000000
2607.136963 3825.000000
2608.054199 3767.000000
2608.971191 3650.000000
2609.887207 3782.000000
2610.802002 3714.000000
2611.717285 3727.000000
2612.631836 3619.000000
2613.545410 3676.000000
2614.458984 3832.000000
2615.371338 3564.000000
2616.283691 3649.000000
2617.195068 3710.000000
2618.106201 3564.000000
2619.016602 3596.000000
2619.926758 3624.000000
2620.836182 3607.000000
2621.745117 3673.000000
2622.653076 3640.000000
2623.561279 3507.000000
2624.468506 3572.000000
2625.375244 3606.000000
2626.281250 3530.000000
2627.187012 3541.000000
2628.092041 3555.000000
2628.996826 3427.000000
2629.900879 3392.000000
2630.803955 3416.000000
2631.707031 3425.000000
2632.609131 3334.000000
2633.511230 3466.000000
2634.413086 3420.000000
2635.313232 3315.000000
2636.213623 3438.000000
2637.113281 3336.000000
2638.012695 3391.000000
2638.910645 3403.000000
2639.809082 3302.000000
2640.707031 3335.000000
2641.604248 3317.000000
2642.500244 3222.000000
2643.396240 3406.000000
2644.291992 3284.000000
2645.187012 3190.000000
2646.081787 3171.000000
2646.975098 3184.000000
2647.868408 3144.000000
2648.761475 3125.000000
2649.654297 3209.000000
2650.545410 3097.000000
2651.436768 3240.000000
2652.327637 3161.000000
2653.217773 3113.000000
2654.107666 3075.000000
2654.996338 3065.000000
2655.885254 3005.000000
2656.773682 3121.000000
2657.661133 3090.000000
2658.547607 3067.000000
2659.434570 3077.000000
2660.320801 3097.000000
2661.206543 3058.000000
2662.091064 3101.000000
2662.975586 3046.000000
2663.859863 3165.000000
2664.743408 2955.000000
2665.626465 3008.000000
2666.508789 3073.000000
2667.390625 3137.000000
2668.271729 3009.000000
2669.153076 3093.000000
2670.032959 3127.000000
2670.913086 3122.000000
2671.792480 3050.000000
2672.671875 3094.000000
2673.550537 2994.000000
2674.427490 2929.000000
2675.305176 2975.000000
2676.182129 2977.000000
2677.058350 2968.000000
2677.934082 2984.000000
2678.809082 3078.000000
2679.684326 2902.000000
2680.558594 3037.000000
2681.432373 2773.000000
2682.305420 3007.000000
2683.178223 2881.000000
2684.050781 2888.000000
2684.922607 2857.000000
2685.793701 2822.000000
2686.664551 2851.000000
2687.534912 2911.000000
2688.405029 2973.000000
2689.273438 2814.000000
2690.142578 2868.000000
2691.010986 2810.000000
2691.879150 2821.000000
2692.746582 2750.000000
2693.612793 2880.000000
2694.479492 2771.000000
2695.345215 2712.000000
2696.210938 2789.000000
2697.075195 2740.000000
2697.940186 2737.000000
2698.803711 2721.000000
2699.667480 2780.000000
2700.529785 2749.000000
2701.392578 2627.000000
2702.254395 2835.000000
2703.115723 2634.000000
2703.977051 2680.000000
2704.837158 2606.000000
2705.697266 2614.000000
2706.556885 2657.000000
2707.416260 2620.000000
2708.273926 2695.000000
2709.131836 2644.000000
2709.990234 2615.000000
2710.847412 2661.000000
2711.703857 2580.000000
2712.559814 2707.000000
2713.415771 2664.000000
2714.270996 2554.000000
2715.125488 2723.000000
2715.979492 2555.000000
2716.833496 2562.000000
2717.686523 2488.000000
2718.539795 2591.000000
2719.391357 2627.000000
2720.243408 2579.000000
2721.095215 2485.000000
2721.945801 2576.000000
2722.796387 2478.000000
2723.646484 2482.000000
2724.495850 2442.000000
2725.345215 2502.000000
2726.193359 2468.000000
2727.041016 2448.000000
2727.889160 2525.000000
2728.736084 2540.000000
2729.583496 2533.000000
2730.429443 2471.000000
2731.274658 2413.000000
2732.120361 2366.000000
2732.965088 2363.000000
2733.809814 2498.000000
2734.653320 2426.000000
2735.497070 2517.000000
2736.340088 2453.000000
2737.182617 2447.000000
2738.024170 2447.000000
2738.866211 2475.000000
2739.707275 2282.000000
2740.548096 2462.000000
2741.388672 2486.000000
2742.228027 2441.000000
2743.067383 2426.000000
2743.906738 2376.000000
2744.744873 2343.000000
2745.582520 2444.000000
2746.420166 2410.000000
2747.257324 2411.000000
2748.094238 2404.000000
2748.930664 2441.000000
2749.765869 2373.000000
2750.601318 2371.000000
2751.436279 2362.000000
2752.270508 2280.000000
2753.104492 2299.000000
2753.937988 2341.000000
2754.771484 2270.000000
2755.604004 2295.000000
2756.436035 2300.000000
2757.267578 2319.000000
2758.099121 2306.000000
2758.929688 2267.000000
2759.760498 2302.000000
2760.590088 2332.000000
2761.419678 2251.000000
2762.249023 2280.000000
2763.077637 2217.000000
2763.905762 2225.000000
2764.733398 2204.000000
2765.561035 2226.000000
2766.388184 2197.000000
2767.214600 2234.000000
2768.040527 2169.000000
2768.865967 2131.000000
2769.691162 2245.000000
2770.516357 2222.000000
2771.340332 2132.000000
2772.164307 2247.000000
2772.988281 2130.000000
2773.811035 2115.000000
2774.634033 2020.000000
2775.455811 2068.000000
2776.277588 2078.000000
2777.099365 2096.000000
2777.920166 2049.000000
2778.740234 2100.000000
2779.560547 2001.000000
2780.380371 2145.000000
2781.200195 2020.000000
2782.018066 2034.000000
2782.837158 1953.000000
2783.655029 2029.000000
2784.472656 2011.000000
2785.289795 2061.000000
2786.106445 1935.000000
2786.922852 1978.000000
2787.738770 1985.000000
2788.554443 1962.000000
2789.369141 1969.000000
2790.184326 1942.000000
2790.998779 1904.000000
2791.812744 1909.000000
2792.626465 1963.000000
2793.438965 1886.000000
2794.251709 1936.000000
2795.063965 1881.000000
2795.875732 2002.000000
2796.686768 1886.000000
2797.498535 1815.000000
2798.309082 1913.000000
2799.119629 1850.000000
2799.928711 1884.000000
2800.738525 1916.000000
2801.547607 2026.000000
2802.356445 1830.000000
2803.164795 1881.000000
2803.972168 1839.000000
2804.780029 1895.000000
2805.587158 1996.000000
2806.394043 1844.000000
2807.199707 1913.000000
2808.005859 1853.000000
2808.811279 1910.000000
2809.616699 1868.000000
2810.421387 1921.000000
2811.225098 1898.000000
2812.029297 1949.000000
2812.833008 1872.000000
2813.636475 1728.000000
2814.438477 1811.000000
2815.241211 1847.000000
2816.043213 1798.000000
2816.844971 1753.000000
2817.646240 1836.000000
2818.447021 1723.000000
2819.247314 1779.000000
2820.047852 1792.000000
2820.847412 1731.000000
2821.646484 1745.000000
2822.445557 1806.000000
2823.244385 1810.000000
2824.042725 1744.000000
2824.840088 1817.000000
2825.637695 1806.000000
2826.434570 1740.000000
2827.231689 1784.000000
2828.028076 1783.000000
2828.823730 1818.000000
2829.619385 1800.000000
2830.414795 1752.000000
2831.209717 1720.000000
2832.003906 1813.000000
2832.798096 1836.000000
2833.592041 1732.000000
2834.385498 1716.000000
2835.178223 1715.000000
2835.970703 1686.000000
2836.763184 1647.000000
2837.555420 1771.000000
2838.347168 1791.000000
2839.137939 1722.000000
2839.928711 1669.000000
2840.719727 1802.000000
2841.509766 1709.000000
2842.299316 1719.000000
2843.089111 1680.000000
2843.877930 1671.000000
2844.666748 1676.000000
2845.455566 1594.000000
2846.243408 1593.000000
2847.030762 1728.000000
2847.818359 1767.000000
2848.605469 1677.000000
2849.391846 1676.000000
2850.178223 1653.000000
2850.964355 1677.000000
2851.750000 1663.000000
2852.534668 1625.000000
2853.319824 1691.000000
2854.104736 1637.000000
2854.888916 1738.000000
2855.673096 1703.000000
2856.456055 1662.000000
2857.239258 1713.000000
2858.022217 1614.000000
2858.804688 1504.000000
2859.586914 1606.000000
2860.368652 1568.000000
2861.150146 1671.000000
2861.931885 1591.000000
2862.712891 1644.000000
2863.493164 1684.000000
2864.273193 1665.000000
2865.053223 1554.000000
2865.833008 1721.000000
2866.611816 1595.000000
2867.390869 1673.000000
2868.169434 1806.000000
2868.947754 1733.000000
2869.725586 1686.000000
2870.503174 1785.000000
2871.280518 1734.000000
2872.057617 1777.000000
2872.834229 1810.000000
2873.610352 1791.000000
2874.386475 1847.000000
2875.162109 1781.000000
2875.937500 1785.000000
2876.712402 1968.000000
2877.487061 1841.000000
2878.261719 1835.000000
2879.036133 1766.000000
2879.809814 1805.000000
2880.582764 1868.000000
2881.356445 1857.000000
2882.129150 1899.000000
2882.901855 1892.000000
2883.673828 1818.000000
2884.445557 1897.000000
2885.217773 1801.000000
2885.988770 1859.000000
2886.759277 1768.000000
2887.530273 2005.000000
2888.301270 1798.000000
2889.071533 1810.000000
2889.840820 1842.000000
2890.610352 1896.000000
2891.379883 1753.000000
2892.148926 1800.000000
2892.917480 1807.000000
2893.686035 1868.000000
2894.453613 1711.000000
2895.221680 1750.000000
2895.989258 1648.000000
2896.756836 1734.000000
2897.523193 1741.000000
2898.290527 1654.000000
2899.056641 1663.000000
2899.822998 1593.000000
2900.587891 1639.000000
2901.353271 1618.000000
2902.119141 1677.000000
2902.883545 1635.000000
2903.647949 1693.000000
2904.412598 1610.000000
2905.176270 1696.000000
2905.940674 1725.000000
2906.704346 1597.000000
2907.467285 1554.000000
2908.229980 1609.000000
2908.993164 1677.000000
2909.755859 1630.000000
2910.517334 1706.000000
2911.279297 1706.000000
spectrumdark 2048
-96.951584 6183.000000
-94.324715 6183.000000
-91.699722 5986.000000
-89.076622 6405.000000
-86.455391 5813.000000
-83.836060 6233.000000
-81.218590 6091.000000
-78.602997 6365.000000
-75.989281 6186.000000
-73.377441 5783.000000
-70.767464 6066.000000
-68.159370 5950.000000
-65.553123 5915.000000
-62.948750 5976.000000
-60.346241 6103.000000
-57.745586 5592.000000
-55.146793 6208.000000
-52.549858 6842.000000
-49.954777 6424.000000
-47.361549 6522.000000
-44.770172 6236.000000
-42.180641 6692.000000
-39.592953 5876.000000
-37.007114 6033.000000
-34.423119 6409.000000
-31.840960 5649.000000
-29.260647 6305.000000
-26.682161 5652.000000
-24.105518 6111.000000
-21.530701 6243.000000
-18.957724 6446.000000
-16.386566 6471.000000
-13.817244 6689.000000
-11.249745 7755.000000
-8.684066 6283.000000
-6.120212 6444.000000
-3.558171 5914.000000
-0.997955 5791.000000
1.560453 6047.000000
4.117040 6886.000000
6.671822 6624.000000
9.224787 5960.000000
11.775951 6755.000000
14.325303 6467.000000
16.872860 6681.000000
19.418604 5988.000000
21.962555 5708.000000
24.504702 6714.000000
27.045052 6774.000000
29.583616 6838.000000
32.120384 6176.000000
34.655350 5732.000000
37.188538 7197.000000
39.719944 6340.000000
42.249557 7092.000000
44.777374 6460.000000
47.303432 7848.000000
49.827702 5642.000000
52.350201 6244.000000
54.870903 6712.000000
57.389851 6249.000000
59.907024 6417.000000
62.422421 6604.000000
64.936035 5653.000000
67.447899 5700.000000
69.958015 6559.000000
72.466339 6570.000000
74.972908 5824.000000
77.477730 6323.000000
79.980797 6384.000000
82.482086 6263.000000
84.981636 6116.000000
87.479431 6385.000000
89.975494 5730.000000
92.469780 7229.000000
94.962326 5794.000000
97.453156 6869.000000
99.942215 7159.000000
102.429527 6345.000000
104.915115 6158.000000
107.398964 6404.000000
109.881065 5738.000000
112.361443 6519.000000
114.840096 6183.000000
117.317024 6433.000000
119.792198 7201.000000
122.265663 6773.000000
124.737396 5858.000000
127.207420 6687.000000
129.675690 6278.000000
132.142288 6290.000000
134.607132 5642.000000
137.070282 6177.000000
139.531693 7250.000000
141.991409 6825.000000
144.449402 6353.000000
146.905701 5993.000000
149.360291 5807.000000
151.813156 6812.000000
154.264343 6371.000000
156.713837 6590.000000
159.161606 6002.000000
161.607666 6483.000000
164.052048 8708.000000
166.494751 6363.000000
168.935760 6752.000000
171.375061 6205.000000
173.812653 7143.000000
176.248611 6628.000000
178.682831 6867.000000
181.115372 7209.000000
183.546265 6666.000000
185.975433 7082.000000
188.402954 6673.000000
190.828796 6339.000000
193.252960 6667.000000
195.675461 7108.000000
198.096268 7353.000000
200.515411 6526.000000
202.932892 6054.000000
205.348679 7623.000000
207.762817 7052.000000
210.175323 6358.000000
212.586151 6068.000000
214.995300 6184.000000
217.402817 7383.000000
219.808624 6125.000000
222.212845 6468.000000
224.615356 6672.000000
227.016251 6945.000000
229.415497 6459.000000
231.813080 6810.000000
234.209000 7241.000000
236.603302 6544.000000
238.995941 5854.000000
241.386963 6819.000000
243.776321 6529.000000
246.164063 6299.000000
248.550156 6993.000000
250.934616 6049.000000
253.317429 7871.000000
255.698669 6610.000000
258.078217 6715.000000
260.456177 6514.000000
262.832458 7523.000000
265.207184 7547.000000
267.580261 7857.000000
269.951691 6194.000000
272.321472 6448.000000
274.689697 5934.000000
277.056274 6314.000000
279.421265 6706.000000
281.784637 6009.000000
284.146362 6213.000000
286.506500 7108.000000
288.865021 5961.000000
291.221954 6552.000000
293.577271 6422.000000
295.931000 5914.000000
298.283081 5937.000000
300.633606 6318.000000
302.982544 6328.000000
305.329834 6785.000000
307.675598 6424.000000
310.019684 6422.000000
312.362244 7369.000000
314.703186 7565.000000
317.042511 7110.000000
319.380280 6956.000000
321.716492 8105.000000
324.051056 6286.000000
326.384064 6466.000000
328.715515 5956.000000
331.045380 6645.000000
333.373657 6395.000000
335.700317 7233.000000
338.025482 6316.000000
340.349030 6233.000000
342.671021 5983.000000
344.991455 7543.000000
347.310272 7587.000000
349.627533 5996.000000
351.943268 5850.000000
354.257416 6970.000000
356.569977 6294.000000
358.880981 6199.000000
361.190460 7049.000000
363.498413 6344.000000
365.804749 5644.000000
368.109497 6388.000000
370.412781 6434.000000
372.714447 6246.000000
375.014618 6361.000000
377.313232 6305.000000
379.610291 5728.000000
381.905792 6020.000000
384.199768 5844.000000
386.492157 5235.000000
388.783051 5526.000000
391.072418 6184.000000
393.360199 6197.000000
395.646454 6457.000000
397.931213 6966.000000
400.214355 5985.000000
402.496063 6405.000000
404.776245 6134.000000
407.054840 7270.000000
409.331909 6416.000000
411.607452 6663.000000
413.881470 6399.000000
416.154053 6416.000000
418.425018 6309.000000
420.694489 6380.000000
422.962463 7083.000000
425.228882 7246.000000
427.493805 6221.000000
429.757263 6254.000000
432.019135 6404.000000
434.279541 6003.000000
436.538391 6641.000000
438.795776 6135.000000
441.051666 5656.000000
443.306061 5741.000000
445.558929 5466.000000
447.810242 6899.000000
450.060150 6107.000000
452.308472 6268.000000
454.555359 5690.000000
456.800781 6453.000000
459.044647 6430.000000
461.287018 6743.000000
463.527893 5584.000000
465.767365 6709.000000
468.005249 5427.000000
470.241699 5848.000000
472.476624 6010.000000
474.710083 7337.000000
476.942108 6703.000000
479.172607 5686.000000
481.401611 6456.000000
483.629150 6309.000000
485.855194 5975.000000
488.079803 6491.000000
490.302948 5849.000000
492.524628 6409.000000
494.744751 6679.000000
496.963470 5682.000000
499.180695 6219.000000
501.396545 5530.000000
503.610779 6146.000000
505.823700 6443.000000
508.035034 6453.000000
510.244934 6939.000000
512.453369 6497.000000
514.660461 6548.000000
516.865967 6387.000000
519.070068 6602.000000
521.272644 6126.000000
523.473816 6515.000000
525.673645 6633.000000
527.871948 6895.000000
530.068726 5365.000000
532.264160 5825.000000
534.458069 5598.000000
536.650635 7502.000000
538.841675 6639.000000
541.031311 5974.000000
543.219543 6906.000000
545.406250 7129.000000
547.591492 6772.000000
549.775452 6178.000000
551.957825 6332.000000
554.138855 6196.000000
556.318359 5999.000000
558.496582 5893.000000
560.673279 5952.000000
562.848572 6361.000000
565.022461 6449.000000
567.194885 5902.000000
569.365906 6054.000000
571.535461 6297.000000
573.703735 5267.000000
575.870483 6355.000000
578.035767 6217.000000
580.199646 6101.000000
582.362244 5723.000000
584.523315 6027.000000
586.682983 5611.000000
588.841309 5826.000000
590.998108 6110.000000
593.153564 6595.000000
595.307617 5727.000000
597.460327 6063.000000
599.611511 7309.000000
601.761353 6704.000000
603.909851 6622.000000
606.056763 6062.000000
608.202454 6535.000000
610.346741 6434.000000
612.489563 7000.000000
614.630920 6128.000000
616.771057 6444.000000
618.909668 7638.000000
621.046997 5761.000000
623.182861 6581.000000
625.317322 6824.000000
627.450317 7161.000000
629.582153 6597.000000
631.712524 6578.000000
633.841492 6839.000000
635.968994 6441.000000
638.095215 6246.000000
640.219910 7327.000000
642.343384 6372.000000
644.465515 6771.000000
646.586182 6799.000000
648.705505 6512.000000
650.823425 5607.000000
652.940002 5669.000000
655.055176 6499.000000
657.169006 6402.000000
659.281372 5860.000000
661.392517 6087.000000
663.502258 5355.000000
665.610535 6051.000000
667.717651 6224.000000
669.823303 6800.000000
671.927490 5850.000000
674.030457 5662.000000
676.132019 6934.000000
678.232239 5257.000000
680.331055 6768.000000
682.428528 6192.000000
684.524719 6904.000000
686.619446 6196.000000
688.712952 7046.000000
690.805115 6581.000000
692.895752 7912.000000
694.985168 6601.000000
697.073303 6425.000000
699.159973 5984.000000
701.245422 6606.000000
703.329346 5093.000000
705.412048 5914.000000
707.493469 5942.000000
709.573425 7548.000000
711.652161 6217.000000
713.729431 5534.000000
715.805420 6548.000000
717.880127 6121.000000
719.953552 7013.000000
722.025452 6291.000000
724.096191 7412.000000
726.165588 5784.000000
728.233582 6482.000000
730.300232 6398.000000
732.365662 7023.000000
734.429749 5753.000000
736.492493 6149.000000
738.553894 6260.000000
740.614014 6608.000000
742.672729 5979.000000
744.730225 6599.000000
746.786438 6454.000000
748.841248 6653.000000
750.894775 6332.000000
752.946899 7531.000000
754.997803 5747.000000
757.047485 6669.000000
759.095703 6334.000000
761.142700 6100.000000
763.188416 6983.000000
765.232727 5311.000000
767.275757 5751.000000
769.317566 15005.000000
771.358032 6885.000000
773.397095 6255.000000
775.434998 6042.000000
777.471558 6026.000000
779.506897 5386.000000
781.540894 5659.000000
783.573486 6906.000000
785.604919 5480.000000
787.634949 12133.000000
789.663696 6021.000000
791.691284 6263.000000
793.717529 6341.000000
795.742371 5797.000000
797.766113 5486.000000
799.788452 6347.000000
801.809570 5806.000000
803.829346 6594.000000
805.847839 4947.000000
807.865112 6616.000000
809.880981 6743.000000
811.895691 5720.000000
813.909058 6372.000000
815.921204 6167.000000
817.932129 6052.000000
819.941711 6530.000000
821.950073 5325.000000
823.957031 5640.000000
825.962769 6099.000000
827.967285 5792.000000
829.970520 5605.000000
831.972473 6451.000000
833.973145 6069.000000
835.972595 5830.000000
837.970703 6337.000000
839.967712 6939.000000
841.963318 6250.000000
843.957764 5955.000000
845.950867 6181.000000
847.942749 6795.000000
849.933289 5643.000000
851.922546 6712.000000
853.910767 6006.000000
855.897583 5723.000000
857.883179 6399.000000
859.867493 7250.000000
861.850708 6268.000000
863.832520 6372.000000
865.813110 5882.000000
867.792419 7691.000000
869.770569 7077.000000
871.747375 6204.000000
873.722900 5904.000000
875.697388 6097.000000
877.670410 6047.000000
879.642395 5438.000000
881.613037 6365.000000
883.582520 6053.000000
885.550659 5563.000000
887.517639 5179.000000
889.483276 6129.000000
891.447754 5790.000000
893.411011 5991.000000
895.373047 6439.000000
897.333801 5758.000000
899.293335 6379.000000
901.251587 6676.000000
903.208740 6295.000000
905.164734 5979.000000
907.119324 6828.000000
909.072693 6494.000000
911.024902 6440.000000
912.975891 6447.000000
914.925598 7091.000000
916.874146 6300.000000
918.821472 6173.000000
920.767517 6064.000000
922.712280 6015.000000
924.656006 6275.000000
926.598572 5936.000000
928.539856 5490.000000
930.479797 6429.000000
932.418640 5706.000000
934.356201 5526.000000
936.292542 5989.000000
938.227722 5824.000000
940.161621 6039.000000
942.094421 5865.000000
944.026001 6756.000000
945.956421 5178.000000
947.885620 6321.000000
949.813477 6999.000000
951.740295 6622.000000
953.665833 5937.000000
955.590088 5380.000000
957.513245 5975.000000
959.435242 6694.000000
961.355957 7260.000000
963.275513 6467.000000
965.193909 5213.000000
967.111267 6450.000000
969.027161 6324.000000
970.941956 6089.000000
972.855530 5954.000000
974.767944 6371.000000
976.679138 6496.000000
978.589172 5456.000000
980.497925 6210.000000
982.405640 6121.000000
984.312134 6318.000000
986.217407 5693.000000
988.121582 6817.000000
990.024536 6216.000000
991.926270 6802.000000
993.826843 6496.000000
995.726257 6590.000000
997.624451 5254.000000
999.521484 6537.000000
1001.417297 6492.000000
1003.311951 7641.000000
1005.205505 5521.000000
1007.097778 7137.000000
1008.989136 6062.000000
1010.879150 5389.000000
1012.767944 6599.000000
1014.655579 6295.000000
1016.542053 6878.000000
1018.427368 6733.000000
1020.311523 5930.000000
1022.194458 5814.000000
1024.076416 6178.000000
1025.957031 5141.000000
1027.836548 5827.000000
1029.715088 6048.000000
1031.592285 5336.000000
1033.468140 6137.000000
1035.343018 5926.000000
1037.216919 6571.000000
1039.089355 6936.000000
1040.960815 6629.000000
1042.830933 5502.000000
1044.700073 5509.000000
1046.567993 5395.000000
1048.434814 7037.000000
1050.300537 6699.000000
1052.165039 6421.000000
1054.028442 6451.000000
1055.890503 6442.000000
1057.751587 5847.000000
1059.611572 6511.000000
1061.470215 6566.000000
1063.327759 5754.000000
1065.184204 6757.000000
1067.039551 5915.000000
1068.893677 5803.000000
1070.746948 6200.000000
1072.598755 6341.000000
1074.449585 6143.000000
1076.299194 6127.000000
1078.147583 5742.000000
1079.995117 7957.000000
1081.841309 5578.000000
1083.686279 6182.000000
1085.530396 5370.000000
1087.373169 5512.000000
1089.214722 6463.000000
1091.055542 5468.000000
1092.894775 5752.000000
1094.733276 5965.000000
1096.570435 5968.000000
1098.406372 6822.000000
1100.241333 6533.000000
1102.075073 5417.000000
1103.907837 5670.000000
1105.739258 6169.000000
1107.569824 7244.000000
1109.399048 6543.000000
1111.227295 6403.000000
1113.054321 7136.000000
1114.880371 5351.000000
1116.705200 6288.000000
1118.528931 7134.000000
1120.351440 6083.000000
1122.172852 5832.000000
1123.993408 5915.000000
1125.812500 6577.000000
1127.630737 7033.000000
1129.447632 6822.000000
1131.263672 6660.000000
1133.078491 6494.000000
1134.892212 5646.000000
1136.704834 5719.000000
1138.516235 5597.000000
1140.326660 6120.000000
1142.135986 6672.000000
1143.943970 6900.000000
1145.751221 5934.000000
1147.557007 5922.000000
1149.361938 5413.000000
1151.165771 5404.000000
1152.968384 6101.000000
1154.770142 6169.000000
1156.570435 6044.000000
1158.369751 6098.000000
1160.168091 5817.000000
1161.965088 5507.000000
1163.761353 5871.000000
1165.556274 6053.000000
1167.350098 6304.000000
1169.143066 7703.000000
1170.934692 5723.000000
1172.725342 6538.000000
1174.515015 5982.000000
1176.303223 5768.000000
1178.090576 7559.000000
1179.876831 6783.000000
1181.661987 5688.000000
1183.446045 5925.000000
1185.229004 7668.000000
1187.010986 5831.000000
1188.791748 5862.000000
1190.571533 6309.000000
1192.350220 6926.000000
1194.127930 6668.000000
1195.904419 7162.000000
1197.679810 6516.000000
1199.454102 6494.000000
1201.227295 6677.000000
1202.999634 6565.000000
1204.770630 6692.000000
1206.540771 5653.000000
1208.309692 6077.000000
1210.077515 6354.000000
1211.844482 5774.000000
1213.610107 5949.000000
1215.374756 6938.000000
1217.138306 6519.000000
1218.900757 6008.000000
1220.662354 6725.000000
1222.422729 5903.000000
1224.182007 6292.000000
1225.940430 6050.000000
1227.697632 7057.000000
1229.453735 6451.000000
1231.208740 5522.000000
1232.962891 6008.000000
1234.715698 5765.000000
1236.467529 5999.000000
1238.218506 5975.000000
1239.968140 4932.000000
1241.716919 7004.000000
1243.464355 6474.000000
1245.211060 6638.000000
1246.956543 6438.000000
1248.701172 6413.000000
1250.444458 6720.000000
1252.186768 6664.000000
1253.927979 5336.000000
1255.668335 5069.000000
1257.407593 5786.000000
1259.145630 6573.000000
1260.882813 7101.000000
1262.618774 6149.000000
1264.353760 6435.000000
1266.087769 7245.000000
1267.820801 5994.000000
1269.552612 6158.000000
1271.283447 6343.000000
1273.013062 7242.000000
1274.741821 5871.000000
1276.469482 5596.000000
1278.196045 5528.000000
1279.921753 5551.000000
1281.646118 6480.000000
1283.369629 5187.000000
1285.092163 6824.000000
1286.813721 6581.000000
1288.534058 6210.000000
1290.253418 6657.000000
1291.971680 7235.000000
1293.688965 6421.000000
1295.405273 5750.000000
1297.120361 6360.000000
1298.834473 6123.000000
1300.547607 5759.000000
1302.259888 6458.000000
1303.970947 8345.000000
1305.681030 5253.000000
1307.390015 6270.000000
1309.097778 6683.000000
1310.804932 6988.000000
1312.510620 5783.000000
1314.215576 6787.000000
1315.919556 6125.000000
1317.622314 5975.000000
1319.324097 6504.000000
1321.025024 6098.000000
1322.724609 8939.000000
1324.423340 7232.500000
1326.121338 5526.000000
1327.817993 6448.000000
1329.513550 7125.000000
1331.208252 6863.000000
1332.901733 5666.000000
1334.594360 5341.000000
1336.286133 7189.000000
1337.976563 6283.000000
1339.666260 6558.000000
1341.354858 6069.000000
1343.042358 7567.000000
1344.728882 5651.000000
1346.414307 6759.000000
1348.098755 5929.000000
1349.782349 7278.000000
1351.464722 6327.000000
1353.146118 5914.000000
1354.826660 6494.000000
1356.505981 6695.000000
1358.184692 5904.000000
1359.862061 6598.000000
1361.538330 5768.000000
1363.213623 5537.000000
1364.888184 6494.000000
1366.561523 6456.000000
1368.233887 6708.000000
1369.905273 5141.000000
1371.575684 6718.000000
1373.244995 6128.000000
1374.913330 5664.000000
1376.580811 5960.000000
1378.247192 6518.000000
1379.912598 6084.000000
1381.577026 5841.000000
1383.240234 5880.000000
1384.902832 5676.000000
1386.564087 6405.000000
1388.224487 6604.000000
1389.883789 6386.000000
1391.542114 6516.000000
1393.199707 6812.000000
1394.856079 6395.000000
1396.511597 6969.000000
1398.165894 6276.000000
1399.819336 5816.000000
1401.471680 6092.000000
1403.123291 6427.000000
1404.773682 7198.000000
1406.422974 6181.000000
1408.071533 7392.000000
1409.718994 7877.000000
1411.365479 6135.000000
1413.011108 6245.000000
1414.655762 5938.000000
1416.299194 6996.000000
1417.941772 7106.000000
1419.583252 6871.000000
1421.223877 6463.000000
1422.863525 6516.000000
1424.502075 6020.000000
1426.139771 6596.000000
1427.776367 6322.000000
1429.411987 5943.000000
1431.046875 6337.000000
1432.680664 5929.000000
1434.313354 6080.000000
1435.945068 5645.000000
1437.575928 6119.000000
1439.205688 6023.000000
1440.834351 7766.000000
1442.462402 5992.000000
1444.089355 6143.000000
1445.715088 6159.000000
1447.340210 6118.000000
1448.964233 6456.000000
1450.587280 6061.000000
1452.209351 6006.000000
1453.830322 7474.000000
1455.450317 6272.000000
1457.069580 6809.000000
1458.687500 5655.000000
1460.304810 5568.000000
1461.921143 5481.000000
1463.536255 7260.000000
1465.150513 6271.000000
1466.763916 5146.000000
1468.376221 5585.000000
1469.987671 6227.000000
1471.598267 6324.000000
1473.207642 5955.000000
1474.816040 6012.000000
1476.423584 6230.000000
1478.030151 6675.000000
1479.635986 5296.000000
1481.240601 6263.000000
1482.844360 5456.000000
1484.446899 6700.000000
1486.048828 5527.000000
1487.649536 5461.000000
1489.249512 5607.000000
1490.848389 6269.000000
1492.446411 6428.000000
1494.043335 6634.000000
1495.639404 6322.000000
1497.234497 5982.000000
1498.828613 5454.000000
1500.421997 6537.000000
1502.014282 5424.000000
1503.605347 6185.000000
1505.195923 6705.000000
1506.785156 6477.000000
1508.373779 6183.000000
1509.961304 6553.000000
1511.547729 6862.000000
1513.133423 6159.000000
1514.718018 6602.000000
1516.301758 6271.000000
1517.884399 6099.000000
1519.466309 6609.000000
1521.047119 6631.000000
1522.627197 6032.000000
1524.206055 6218.000000
1525.784058 6391.000000
1527.361328 6274.000000
1528.937378 5654.000000
1530.512695 5857.000000
1532.086914 6257.000000
1533.660400 5463.000000
1535.232666 5956.000000
1536.804199 6308.000000
1538.374756 6390.000000
1539.944458 6326.000000
1541.512939 5427.000000
1543.080688 6548.000000
1544.647583 5592.000000
1546.213257 6733.000000
1547.778198 5980.000000
1549.342041 5046.000000
1550.905273 7480.000000
1552.467163 6300.000000
1554.028442 5935.000000
1555.588623 5648.000000
1557.148071 5764.000000
1558.706421 5949.000000
1560.264038 6320.000000
1561.820557 6995.000000
1563.375854 5844.000000
1564.930542 6336.000000
1566.484497 5606.000000
1568.037476 6269.000000
1569.589111 5634.000000
1571.140015 5968.000000
1572.690186 6133.000000
1574.239380 6361.000000
1575.787231 5763.000000
1577.334595 5508.000000
1578.880981 5720.000000
1580.426514 5091.000000
1581.971069 6587.000000
1583.514404 6359.000000
1585.057129 6593.000000
1586.598999 6408.000000
1588.139771 6750.000000
1589.679565 5846.000000
1591.218628 6671.000000
1592.756592 5894.000000
1594.294067 6125.000000
1595.830200 5828.000000
1597.365234 6668.000000
1598.899780 6250.000000
1600.433350 5984.000000
1601.966064 6067.000000
1603.497192 6281.000000
1605.028076 6217.000000
1606.558105 5737.000000
1608.086914 6092.000000
1609.614624 6166.000000
1611.141724 5971.000000
1612.668091 5782.000000
1614.193481 6270.000000
1615.718018 5796.000000
1617.241211 5757.000000
1618.763672 5598.000000
1620.285400 6596.000000
1621.806274 6953.000000
1623.325684 6556.000000
1624.844604 6159.000000
1626.362793 6032.000000
1627.880127 5861.000000
1629.396362 6351.000000
1630.911255 6997.000000
1632.425659 6763.000000
1633.939331 5756.000000
1635.451904 6862.000000
1636.963257 5958.000000
1638.474243 6495.000000
1639.984131 6282.000000
1641.493164 6160.000000
1643.000854 5653.000000
1644.508179 6116.000000
1646.014648 7091.000000
1647.520142 6260.000000
1649.024780 6868.000000
1650.527954 6134.000000
1652.030518 6513.000000
1653.532715 6343.000000
1655.033569 6644.000000
1656.533325 7588.000000
1658.032227 5972.000000
1659.530762 6442.000000
1661.028076 6183.000000
1662.524658 5860.000000
1664.019653 6605.000000
1665.514404 6317.000000
1667.008301 5164.000000
1668.501221 5727.000000
1669.992798 6105.000000
1671.483887 6483.000000
1672.974365 6106.000000
1674.463745 5984.000000
1675.951660 6947.000000
1677.439331 6847.000000
1678.926025 6047.000000
1680.411865 5321.000000
1681.896851 6040.000000
1683.380371 6123.000000
1684.863647 6262.000000
1686.346069 5835.000000
1687.827393 6230.000000
1689.307251 6220.000000
1690.786865 5427.000000
1692.265747 6581.000000
1693.743652 6011.000000
1695.220581 6108.000000
1696.696289 5724.000000
1698.171631 6035.000000
1699.645752 6291.000000
1701.119263 5438.000000
1702.591309 5505.000000
1704.063110 6884.000000
1705.533936 6342.000000
1707.003906 7075.000000
1708.472534 5108.000000
1709.940674 5807.000000
1711.408081 6356.000000
1712.874390 5444.000000
1714.340088 5735.000000
1715.804077 6140.000000
1717.267944 6010.000000
1718.730957 7056.000000
1720.192993 6308.000000
1721.653809 6599.000000
1723.114014 5496.000000
1724.573486 6337.000000
1726.032104 6116.000000
1727.489746 5940.000000
1728.946045 6267.000000
1730.402100 6004.000000
1731.857178 6447.000000
1733.311279 6024.000000
1734.764160 6904.000000
1736.216797 5951.000000
1737.668335 6729.000000
1739.119141 5966.000000
1740.568970 6532.000000
1742.017456 5940.000000
1743.465576 7262.000000
1744.912842 6539.000000
1746.359375 6692.000000
1747.804321 6701.000000
1749.249023 6120.000000
1750.692871 5728.000000
1752.135864 5446.000000
1753.577393 6549.000000
1755.018677 6315.000000
1756.459106 6296.000000
1757.898560 6277.000000
1759.337036 5232.000000
1760.774536 6059.000000
1762.211548 7506.000000
1763.647583 5839.000000
1765.082764 7099.000000
1766.516479 6201.000000
1767.950073 6463.000000
1769.382690 6640.000000
1770.814453 5718.000000
1772.245361 5755.000000
1773.675049 6382.000000
1775.104004 6095.000000
1776.532471 6224.000000
1777.959961 6669.000000
1779.386108 6254.000000
1780.812012 5588.000000
1782.236816 6906.000000
1783.661011 5552.000000
1785.083740 6627.000000
1786.505981 6481.000000
1787.927490 6901.000000
1789.348267 5909.000000
1790.768066 5953.000000
1792.186523 6183.000000
1793.604492 6863.000000
1795.021851 5506.000000
1796.438354 6051.000000
1797.853394 6490.000000
1799.268066 5822.000000
1800.682129 6639.000000
1802.094971 5964.000000
1803.507202 6962.000000
1804.918091 7156.000000
1806.328491 7809.000000
1807.738159 6482.000000
1809.146851 5965.000000
1810.554443 5393.000000
1811.961548 6377.000000
1813.367798 6407.000000
1814.773071 6676.000000
1816.177246 5950.000000
1817.581055 5954.000000
1818.983887 6207.000000
1820.385864 6026.000000
1821.787231 5864.000000
1823.187134 6365.000000
1824.586426 6512.000000
1825.985229 6550.000000
1827.383179 7449.000000
1828.779785 5696.000000
1830.175781 6715.000000
1831.571045 5925.000000
1832.965698 8097.000000
1834.359375 5986.000000
1835.751709 6809.000000
1837.143555 6342.000000
1838.534790 5823.000000
1839.925049 7038.000000
1841.314087 6000.000000
1842.702759 6002.000000
1844.090454 5916.000000
1845.477417 5770.000000
1846.863037 6856.000000
1848.248413 5824.000000
1849.632935 6309.000000
1851.016724 6321.000000
1852.399414 6337.000000
1853.780884 5433.000000
1855.161865 6536.000000
1856.542358 6330.000000
1857.921875 5691.000000
1859.299927 5979.000000
1860.677856 6291.000000
1862.054810 7841.000000
1863.431030 6044.000000
1864.806396 6099.000000
1866.180298 5587.000000
1867.554077 5646.000000
1868.927002 6206.000000
1870.298828 5937.000000
1871.669678 6947.000000
1873.040161 5378.000000
1874.409546 6036.000000
1875.778442 6096.000000
1877.145752 7123.000000
1878.512939 6015.000000
1879.879150 6017.000000
1881.244629 6752.000000
1882.609375 7508.000000
1883.972534 6755.000000
1885.335571 6922.000000
1886.697754 6314.000000
1888.059082 6441.000000
1889.419067 5629.000000
1890.778687 5815.000000
1892.137695 6077.000000
1893.495728 6605.000000
1894.852905 7223.000000
1896.208862 5955.000000
1897.564575 7626.000000
1898.919312 5827.000000
1900.273193 5551.000000
1901.625977 5911.000000
1902.978271 5846.000000
1904.329834 5917.000000
1905.680542 6855.000000
1907.030029 6467.000000
1908.379028 6638.000000
1909.727173 5804.000000
1911.074707 6119.000000
1912.421509 6282.000000
1913.766724 6762.000000
1915.111694 6060.000000
1916.455933 5393.000000
1917.799316 6494.000000
1919.141357 5965.000000
1920.483154 6696.000000
1921.824097 6980.000000
1923.164307 6127.000000
1924.503540 6284.000000
1925.841797 6294.000000
1927.179443 6409.000000
1928.516357 7040.000000
1929.852417 6722.000000
1931.187256 5580.000000
1932.521729 6620.000000
1933.855469 7190.000000
1935.188354 6196.000000
1936.519775 5757.000000
1937.851318 6344.000000
1939.181519 6652.000000
1940.511230 5697.000000
1941.840088 5993.000000
1943.167725 5835.000000
1944.494873 4957.000000
1945.821289 5860.000000
1947.146973 6530.000000
1948.471313 5730.000000
1949.795410 6686.000000
1951.118652 6335.000000
1952.441162 6420.000000
1953.762573 5817.000000
1955.083008 7400.000000
1956.402832 6028.000000
1957.722290 5458.000000
1959.040771 6813.000000
1960.357910 5834.000000
1961.674683 5761.000000
1962.990723 6576.000000
1964.306030 6565.000000
1965.619873 6234.000000
1966.933472 5657.000000
1968.246338 6222.000000
1969.558350 5992.000000
1970.869751 6014.000000
1972.179810 6245.000000
1973.489380 5834.000000
1974.798218 6200.000000
1976.106445 6553.000000
1977.413330 6128.000000
1978.719604 7235.000000
1980.025513 5544.000000
1981.330200 6401.000000
1982.634399 5878.000000
1983.937378 5688.000000
1985.239990 7546.000000
1986.541626 6124.000000
1987.842651 6859.000000
1989.142090 5985.000000
1990.441650 6553.000000
1991.740112 5257.000000
1993.038086 6084.000000
1994.334473 6095.000000
1995.630859 5774.000000
1996.926270 5574.000000
1998.220947 6494.000000
1999.514771 5736.000000
2000.807373 6539.000000
2002.099487 5705.000000
2003.391113 7149.000000
2004.682007 6353.000000
2005.971313 6176.000000
2007.260376 6774.000000
2008.548706 5983.000000
2009.836304 5947.000000
2011.123047 6614.000000
2012.408691 5636.000000
2013.693970 6329.000000
2014.978271 5955.000000
2016.261963 5543.000000
2017.544312 5976.000000
2018.826294 6444.000000
2020.107788 6735.000000
2021.388306 5878.000000
2022.668091 6066.000000
2023.946777 6841.000000
2025.224731 5845.000000
2026.502197 5958.000000
2027.779053 6240.000000
2029.054199 5764.000000
2030.329468 6543.000000
2031.603760 6087.000000
2032.877075 5976.000000
2034.149536 5917.000000
2035.421631 6129.000000
2036.692627 6834.000000
2037.963379 6542.000000
2039.232788 5956.000000
2040.501099 6778.000000
2041.769409 6594.000000
2043.036743 5917.000000
2044.303345 5945.000000
2045.568726 5684.000000
2046.833496 5505.000000
2048.097900 5397.000000
2049.361328 5799.000000
2050.624268 6378.000000
2051.885254 6157.000000
2053.146729 6098.000000
2054.406982 5875.000000
2055.666504 6427.000000
2056.925293 6280.000000
2058.183105 6938.000000
2059.440430 6188.000000
2060.697021 5935.000000
2061.952148 6502.000000
2063.207275 5660.000000
2064.461426 5628.000000
2065.714844 5656.000000
2066.967529 6786.000000
2068.218994 6249.000000
2069.470215 6237.000000
2070.720703 5597.000000
2071.970459 5388.000000
2073.218750 6156.000000
2074.467041 6535.000000
2075.714355 7402.000000
2076.960938 5591.000000
2078.206787 5993.000000
2079.451416 6996.000000
2080.695557 7551.000000
2081.939209 5484.000000
2083.181885 6014.000000
2084.423340 6934.000000
2085.664551 5932.000000
2086.905273 6386.000000
2088.145020 6797.000000
2089.383545 7033.000000
2090.621582 6165.000000
2091.858887 5769.000000
2093.095947 6624.000000
2094.331543 6082.000000
2095.566406 6210.000000
2096.801025 6087.000000
2098.034668 5563.000000
2099.267334 6068.000000
2100.499268 6833.000000
2101.730713 6365.000000
2102.961182 6771.000000
2104.190918 5978.000000
2105.420410 5941.000000
2106.647949 5926.000000
2107.875732 5986.000000
2109.102783 6215.000000
2110.328857 5441.000000
2111.553467 6434.000000
2112.778320 6948.000000
2114.001953 7004.000000
2115.225098 6175.000000
2116.447021 7507.000000
2117.668701 6049.000000
2118.889404 6821.000000
2120.109375 5969.000000
2121.328857 6135.000000
2122.546875 6571.000000
2123.764893 6954.000000
2124.981934 5690.000000
2126.198486 5774.000000
2127.413330 6618.000000
2128.628418 6322.000000
2129.842529 6981.000000
2131.055908 5628.000000
2132.268555 6036.000000
2133.479736 5805.000000
2134.691162 6469.000000
2135.901367 6746.000000
2137.111084 5960.000000
2138.319336 6072.000000
2139.527588 5630.000000
2140.735107 5878.000000
2141.941406 7633.000000
2143.146973 5829.000000
2144.352295 5665.000000
2145.556641 5485.000000
2146.760254 6269.000000
2147.963379 6243.000000
2149.165039 6619.000000
2150.366455 5363.000000
2151.567139 6287.000000
2152.767090 6003.000000
2153.965820 5978.000000
2155.164307 6942.000000
2156.362305 6134.000000
2157.559326 5939.000000
2158.755615 5127.000000
2159.950684 5256.000000
2161.145508 6160.000000
2162.339600 5564.000000
2163.532715 5998.000000
2164.724854 6878.000000
2165.916748 5873.000000
2167.107910 6285.000000
2168.298096 6305.000000
2169.487549 6440.000000
2170.676514 6816.000000
2171.864502 6007.000000
2173.052246 5694.000000
2174.238525 5918.000000
2175.424072 6553.000000
2176.609375 5964.000000
2177.794189 5818.000000
2178.977783 6373.000000
2180.160645 7472.000000
2181.342529 6282.000000
2182.524170 5893.000000
2183.705322 6537.000000
2184.885254 5687.000000
2186.064209 5492.000000
2187.242676 6345.000000
2188.420898 6919.000000
2189.597900 7195.000000
2190.773926 6718.000000
2191.949707 6016.000000
2193.125000 5626.000000
2194.298828 6647.000000
2195.472168 6126.000000
2196.645264 6180.000000
2197.817139 6349.000000
2198.988525 7101.000000
2200.159424 6343.000000
2201.328613 6869.000000
2202.497803 7520.000000
2203.666504 6262.000000
2204.834229 5879.000000
2206.000977 5675.000000
2207.166992 7091.000000
2208.332520 6629.000000
2209.497803 5932.000000
2210.661621 6754.000000
2211.824951 5347.000000
2212.987061 6154.000000
2214.149414 6110.000000
2215.310547 6676.000000
2216.470703 6636.000000
2217.630371 6270.000000
2218.789795 6600.000000
2219.947998 6357.000000
2221.105225 6281.000000
2222.262207 6753.000000
2223.418457 6569.000000
2224.573975 6724.000000
2225.728760 6250.000000
2226.882568 6395.000000
2228.035400 6002.000000
2229.188721 6966.000000
2230.340088 6177.000000
2231.491211 6185.000000
2232.641602 6535.000000
2233.791504 7677.000000
2234.940430 6289.000000
2236.088867 5211.000000
2237.235840 6847.000000
2238.383057 7034.000000
2239.529053 6114.000000
2240.674805 7195.000000
2241.818848 7291.000000
2242.963135 6723.000000
2244.106445 6172.000000
2245.249023 5996.000000
2246.390625 5774.000000
2247.531982 5803.000000
2248.672363 6350.000000
2249.812012 6424.000000
2250.951172 5749.000000
2252.089111 5844.000000
2253.227051 6151.000000
2254.364014 5264.000000
2255.500244 6308.000000
2256.635498 6106.000000
2257.770020 7209.000000
2258.904297 6406.000000
2260.038086 5376.000000
2261.170410 6097.000000
2262.302246 6728.000000
2263.433594 6254.000000
2264.563965 6425.000000
2265.694092 8080.000000
2266.822998 6695.000000
2267.951416 6136.000000
2269.079346 5448.000000
2270.206299 6059.000000
2271.332520 5936.000000
2272.457764 6767.000000
2273.583008 6496.000000
2274.707520 6421.000000
2275.830811 5883.000000
2276.953369 6373.000000
2278.075439 5914.000000
2279.197021 7385.000000
2280.317871 6346.000000
2281.437500 6414.000000
2282.556641 7118.000000
2283.675537 7657.000000
2284.793701 7183.000000
2285.910889 5924.000000
2287.027100 6424.000000
2288.143066 6948.000000
2289.258301 6902.000000
2290.372803 7387.000000
2291.486084 5761.000000
2292.599365 6348.000000
2293.711914 5968.000000
2294.823730 5361.000000
2295.934814 6755.000000
2297.044678 6359.000000
2298.154053 6145.000000
2299.263184 6736.000000
2300.371338 6287.000000
2301.478516 6718.000000
2302.585449 5890.000000
2303.691650 6255.000000
2304.797363 6520.000000
2305.901611 6539.000000
2307.005615 5445.000000
2308.109131 5717.000000
2309.212158 6550.000000
2310.313965 7428.000000
2311.415039 7339.000000
2312.515625 6570.000000
2313.615723 5515.000000
2314.715088 6332.000000
2315.812988 6533.000000
2316.911377 7066.000000
2318.008301 8248.000000
2319.104980 6863.000000
2320.201172 5821.000000
2321.295654 6819.000000
2322.390137 7405.000000
2323.483887 5849.000000
2324.577393 6059.000000
2325.669189 6395.000000
2326.760986 6894.000000
2327.852051 6015.000000
2328.942383 6266.000000
2330.031738 6871.000000
2331.121094 5991.000000
2332.209229 6297.000000
2333.296875 6759.000000
2334.384277 6465.000000
2335.469971 6795.000000
2336.555420 7746.000000
2337.640625 6298.000000
2338.724854 6755.000000
2339.808105 5799.000000
2340.891113 6414.000000
2341.973145 7108.000000
2343.054932 6037.000000
2344.135986 7471.000000
2345.215820 6591.000000
2346.295166 5653.000000
2347.374023 6753.000000
2348.452393 6559.000000
2349.529297 6239.000000
2350.605957 7007.000000
2351.682373 6011.000000
2352.757813 6383.000000
2353.832275 5886.000000
2354.906494 6271.000000
2355.979980 6602.000000
2357.052979 6222.000000
2358.124756 7043.000000
2359.196289 6212.000000
2360.266846 6802.000000
2361.337158 7485.000000
2362.406494 7580.000000
2363.474854 6771.000000
2364.542969 6708.000000
2365.610352 7028.000000
2366.677246 7031.000000
2367.743408 5993.000000
2368.808350 6859.000000
2369.873291 6961.000000
2370.937500 6361.000000
2372.000977 6883.000000
2373.063232 5755.000000
2374.125488 6339.000000
2375.186768 6331.000000
2376.247803 5919.000000
2377.307617 6267.000000
2378.366699 7911.000000
2379.425781 6339.000000
2380.483887 7598.000000
2381.541260 6867.000000
2382.597656 8030.000000
2383.653809 7779.000000
2384.709473 6171.000000
2385.764404 7053.000000
2386.817871 6742.000000
2387.871582 6521.000000
2388.924316 6262.000000
2389.976563 6726.000000
2391.028076 6122.000000
2392.078613 6565.000000
2393.128906 6414.000000
2394.178223 6172.000000
2395.227539 6157.000000
2396.275391 6920.000000
2397.322754 6918.000000
2398.369873 6297.000000
2399.416016 6764.000000
2400.461426 6170.000000
2401.506104 6745.000000
2402.550781 7740.000000
2403.593994 7478.000000
2404.637207 6537.000000
2405.678955 5680.000000
2406.720947 6643.000000
2407.762207 7093.000000
2408.802490 6093.000000
2409.842041 6367.000000
2410.880615 6321.000000
2411.919434 6075.000000
2412.957031 6434.000000
2413.994385 6859.000000
2415.030518 7322.000000
2416.066406 6139.000000
2417.101563 6258.000000
2418.136230 6844.000000
2419.169434 7154.000000
2420.202881 6461.000000
2421.235352 6718.000000
2422.267578 6809.000000
2423.298340 6972.000000
2424.329102 6292.000000
2425.359375 6866.000000
2426.388428 6817.000000
2427.417480 6574.000000
2428.444824 7361.000000
2429.472656 6668.000000
2430.499268 7252.000000
2431.525635 6934.000000
2432.550537 7772.000000
2433.575684 6578.000000
2434.599854 7080.000000
2435.623779 6652.000000
2436.646484 5828.000000
2437.668457 6288.000000
2438.690186 6601.000000
2439.711182 6668.000000
2440.731689 6013.000000
2441.750977 6449.000000
2442.770264 6513.000000
2443.788574 8450.000000
2444.806641 6192.000000
2445.823242 6499.000000
2446.839844 6551.000000
2447.855713 5966.000000
2448.871582 6980.000000
2449.885986 6820.000000
2450.899658 5571.000000
2451.912842 7198.000000
2452.925781 5909.000000
2453.937988 7157.000000
2454.949219 6653.000000
2455.960205 7630.000000
2456.970459 6360.000000
2457.980225 7606.000000
2458.989014 5867.000000
2459.997070 5907.000000
2461.005127 6305.000000
2462.011963 7360.000000
2463.018555 5396.000000
2464.023926 7343.000000
2465.029053 6935.000000
2466.033936 5826.000000
2467.037598 6449.000000
2468.041016 6325.000000
2469.043457 7595.000000
2470.045654 7310.000000
2471.047363 6881.000000
2472.048096 6635.000000
2473.047852 6979.000000
2474.047607 6690.000000
2475.046387 5684.000000
2476.044678 6619.000000
2477.041992 6975.000000
2478.039063 6070.000000
2479.036133 6949.000000
2480.031738 5829.000000
2481.027344 7159.000000
2482.021240 6662.000000
2483.015137 8056.000000
2484.008545 6879.000000
2485.001465 6714.000000
2485.993408 7522.000000
2486.984619 7160.000000
2487.975586 6729.000000
2488.966064 5822.000000
2489.955566 6516.000000
2490.944336 6476.000000
2491.933105 5592.000000
2492.920898 6826.000000
2493.907471 6540.000000
2494.894043 8105.000000
2495.880127 6688.000000
2496.865479 7064.000000
2497.849854 7961.000000
2498.833984 5981.000000
2499.818115 6879.000000
2500.800781 5761.000000
2501.782959 6989.000000
2502.764648 6842.000000
2503.745605 7239.000000
2504.726074 6483.000000
2505.706299 5698.000000
2506.685059 6338.000000
2507.663574 7624.000000
2508.641602 6662.000000
2509.619141 7087.000000
2510.595703 6033.000000
2511.572021 5941.000000
2512.547607 6385.000000
2513.522705 6192.000000
2514.497314 6498.000000
2515.470703 7510.000000
2516.443848 6803.000000
2517.416748 6919.000000
2518.388672 6085.000000
2519.359863 6789.000000
2520.330566 6912.000000
2521.301025 7794.000000
2522.270752 8007.000000
2523.239502 6134.000000
2524.207520 6118.000000
2525.175537 7793.000000
2526.142578 6296.000000
2527.109375 5455.000000
2528.074951 7269.000000
2529.040527 6948.000000
2530.005371 7746.000000
2530.969727 6288.000000
2531.932861 6363.000000
2532.896240 5871.000000
2533.858643 5940.000000
2534.820801 6653.000000
2535.781738 6329.000000
2536.741943 6138.000000
2537.702393 6102.000000
2538.661865 6680.000000
2539.620605 6767.000000
2540.578369 6702.000000
2541.536377 6148.000000
2542.493652 6761.000000
2543.449951 6040.000000
2544.406006 7047.000000
2545.360840 6196.000000
2546.315918 7772.000000
2547.270264 7010.000000
2548.223877 6757.000000
2549.176514 7266.000000
2550.128906 6697.000000
2551.080811 6965.000000
2552.031982 6400.000000
2552.982422 7566.000000
2553.932373 7260.000000
2554.882080 7375.000000
2555.831055 6614.000000
2556.779541 6256.000000
2557.726807 7064.000000
2558.674072 6264.000000
2559.620605 6494.000000
2560.566650 6693.000000
2561.511719 7437.000000
2562.456543 6721.000000
2563.400879 7033.000000
2564.344727 6836.000000
2565.288086 6602.000000
2566.229980 6571.000000
2567.172119 6531.000000
2568.113525 6122.000000
2569.054199 7088.000000
2569.994141 7304.000000
2570.934082 5679.000000
2571.873047 6158.000000
2572.811768 7561.000000
2573.749512 7169.000000
2574.687012 5428.000000
2575.623779 6950.000000
2576.559814 6816.000000
2577.495361 7491.000000
2578.430176 6274.000000
2579.364990 5953.000000
2580.298828 7068.000000
2581.232178 7137.000000
2582.164795 5814.000000
2583.097168 6893.000000
2584.028809 5411.000000
2584.959961 6940.000000
2585.890625 6971.000000
2586.820068 6849.000000
2587.749512 7199.000000
2588.678467 6430.000000
2589.607178 7461.000000
2590.534180 7291.000000
2591.461426 5907.000000
2592.388184 6762.000000
2593.314209 6340.000000
2594.239990 5611.000000
2595.164551 7615.000000
2596.088867 7566.000000
2597.012695 5321.000000
2597.936035 7248.000000
2598.858398 6211.000000
2599.780518 6790.000000
2600.702148 8288.000000
2601.623047 6342.000000
2602.543213 5780.000000
2603.463135 6283.000000
2604.382568 6384.000000
2605.301758 6409.000000
2606.219971 5781.000000
2607.136963 5936.000000
2608.054199 7258.000000
2608.971191 5873.000000
2609.887207 7542.000000
2610.802002 6610.000000
2611.717285 6568.000000
2612.631836 6540.000000
2613.545410 6566.000000
2614.458984 6092.000000
2615.371338 7669.000000
2616.283691 7009.000000
2617.195068 6684.000000
2618.106201 5693.000000
2619.016602 7168.000000
2619.926758 6618.000000
2620.836182 6170.000000
2621.745117 6532.000000
2622.653076 6211.000000
2623.561279 6821.000000
2624.468506 6601.000000
2625.375244 6968.000000
2626.281250 5965.000000
2627.187012 6530.000000
2628.092041 6458.000000
2628.996826 7811.000000
2629.900879 6465.000000
2630.803955 6395.000000
2631.707031 6377.000000
2632.609131 5620.000000
2633.511230 6670.000000
2634.413086 6966.000000
2635.313232 6735.000000
2636.213623 6379.000000
2637.113281 6381.000000
2638.012695 5985.000000
2638.910645 6845.000000
2639.809082 6710.000000
2640.707031 6323.000000
2641.604248 6098.000000
2642.500244 6159.000000
2643.396240 6674.000000
2644.291992 6069.000000
2645.187012 6455.000000
2646.081787 6652.000000
2646.975098 7103.000000
2647.868408 6296.000000
2648.761475 6798.000000
2649.654297 6442.000000
2650.545410 7473.000000
2651.436768 6394.000000
2652.327637 7564.000000
2653.217773 7293.000000
2654.107666 6548.000000
2654.996338 7291.000000
2655.885254 6636.000000
2656.773682 6549.000000
2657.661133 7307.000000
2658.547607 6436.000000
2659.434570 7083.000000
2660.320801 6793.000000
2661.206543 6806.000000
2662.091064 6478.000000
2662.975586 6361.000000
2663.859863 6155.000000
2664.743408 7114.000000
2665.626465 7792.000000
2666.508789 7217.000000
2667.390625 6174.000000
2668.271729 6627.000000
2669.153076 6073.000000
2670.032959 6569.000000
2670.913086 7330.000000
2671.792480 7160.000000
2672.671875 6167.000000
2673.550537 6135.000000
2674.427490 6515.000000
2675.305176 6781.000000
2676.182129 6376.000000
2677.058350 8091.000000
2677.934082 7142.000000
2678.809082 6222.000000
2679.684326 7735.000000
2680.558594 6873.000000
2681.432373 7366.000000
2682.305420 6957.000000
2683.178223 6188.000000
2684.050781 6091.000000
2684.922607 6887.000000
2685.793701 6552.000000
2686.664551 6846.000000
2687.534912 7124.000000
2688.405029 6598.000000
2689.273438 6279.000000
2690.142578 7312.000000
2691.010986 7108.000000
2691.879150 6665.000000
2692.746582 6917.000000
2693.612793 5767.000000
2694.479492 7141.000000
2695.345215 7425.000000
2696.210938 7195.000000
2697.075195 7891.000000
2697.940186 6542.000000
2698.803711 7199.000000
2699.667480 5854.000000
2700.529785 7399.000000
2701.392578 6819.000000
2702.254395 5836.000000
2703.115723 6918.000000
2703.977051 6761.000000
2704.837158 7443.000000
2705.697266 7326.000000
2706.556885 6521.000000
2707.416260 6864.000000
2708.273926 7107.000000
2709.131836 6858.000000
2709.990234 7253.000000
2710.847412 6675.000000
2711.703857 5961.000000
2712.559814 6842.000000
2713.415771 6061.000000
2714.270996 6907.000000
2715.125488 6070.000000
2715.979492 6839.000000
2716.833496 7301.000000
2717.686523 6246.000000
2718.539795 6571.000000
2719.391357 7648.000000
2720.243408 6706.000000
2721.095215 6302.000000
2721.945801 6464.000000
2722.796387 6462.000000
2723.646484 7121.000000
2724.495850 7041.000000
2725.345215 6964.000000
2726.193359 6565.000000
2727.041016 6536.000000
2727.889160 6966.000000
2728.736084 6830.000000
2729.583496 5504.000000
2730.429443 7495.000000
2731.274658 6984.000000
2732.120361 6420.000000
2732.965088 6953.000000
2733.809814 7285.000000
2734.653320 6890.000000
2735.497070 7721.000000
2736.340088 7116.000000
2737.182617 5994.000000
2738.024170 6215.000000
2738.866211 6721.000000
2739.707275 6970.000000
2740.548096 5768.000000
2741.388672 5856.000000
2742.228027 7711.000000
2743.067383 6827.000000
2743.906738 6905.000000
2744.744873 6793.000000
2745.582520 7805.000000
2746.420166 6274.000000
2747.257324 7099.000000
2748.094238 6186.000000
2748.930664 5947.000000
2749.765869 6622.000000
2750.601318 6281.000000
2751.436279 6323.000000
2752.270508 6233.000000
2753.104492 6878.000000
2753.937988 6793.000000
2754.771484 7971.000000
2755.604004 6767.000000
2756.436035 7231.000000
2757.267578 6776.000000
2758.099121 7054.000000
2758.929688 7227.000000
2759.760498 7198.000000
2760.590088 7227.000000
2761.419678 6632.000000
2762.249023 7233.000000
2763.077637 6859.000000
2763.905762 6756.000000
2764.733398 6895.000000
2765.561035 6625.000000
2766.388184 7898.000000
2767.214600 5746.000000
2768.040527 7437.000000
2768.865967 6875.000000
2769.691162 7686.000000
2770.516357 6980.000000
2771.340332 6753.000000
2772.164307 6398.000000
2772.988281 7682.000000
2773.811035 6568.000000
2774.634033 6928.000000
2775.455811 6890.000000
2776.277588 6944.000000
2777.099365 6456.000000
2777.920166 7905.000000
2778.740234 6517.000000
2779.560547 6964.000000
2780.380371 7224.000000
2781.200195 6465.000000
2782.018066 5939.000000
2782.837158 8062.000000
2783.655029 6501.000000
2784.472656 6768.000000
2785.289795 7218.000000
2786.106445 7267.000000
2786.922852 7157.000000
2787.738770 6235.000000
2788.554443 5881.000000
2789.369141 6361.000000
2790.184326 6966.000000
2790.998779 7210.000000
2791.812744 6575.000000
2792.626465 7379.000000
2793.438965 8811.000000
2794.251709 6952.000000
2795.063965 7464.000000
2795.875732 7194.000000
2796.686768 7379.000000
2797.498535 6527.000000
2798.309082 7188.000000
2799.119629 7009.000000
2799.928711 7400.000000
2800.738525 8211.000000
2801.547607 7735.000000
2802.356445 6664.000000
2803.164795 7186.000000
2803.972168 6173.000000
2804.780029 6495.000000
2805.587158 6871.000000
2806.394043 7009.000000
2807.199707 7133.000000
2808.005859 6619.000000
2808.811279 6419.000000
2809.616699 7319.000000
2810.421387 6142.000000
2811.225098 7638.000000
2812.029297 7395.000000
2812.833008 6270.000000
2813.636475 6122.000000
2814.438477 6572.000000
2815.241211 7285.000000
2816.043213 7795.000000
2816.844971 6136.000000
2817.646240 6469.000000
2818.447021 7268.000000
2819.247314 6506.000000
2820.047852 6642.000000
2820.847412 8048.000000
2821.646484 7178.000000
2822.445557 6429.000000
2823.244385 6813.000000
2824.042725 6336.000000
2824.840088 6981.000000
2825.637695 7017.000000
2826.434570 6678.000000
2827.231689 7335.000000
2828.028076 7893.000000
2828.823730 6982.000000
2829.619385 7331.000000
2830.414795 7552.000000
2831.209717 7443.000000
2832.003906 6603.000000
2832.798096 6753.000000
2833.592041 5614.000000
2834.385498 6828.000000
2835.178223 7127.000000
2835.970703 8142.000000
2836.763184 7723.000000
2837.555420 7445.000000
2838.347168 6405.000000
2839.137939 6770.000000
2839.928711 8872.000000
2840.719727 7386.000000
2841.509766 6199.000000
2842.299316 7638.000000
2843.089111 7164.000000
2843.877930 7336.000000
2844.666748 7764.000000
2845.455566 7726.000000
2846.243408 7533.000000
2847.030762 7144.000000
2847.818359 7440.000000
2848.605469 7268.000000
2849.391846 6612.000000
2850.178223 7455.000000
2850.964355 7200.000000
2851.750000 7412.000000
2852.534668 7177.000000
2853.319824 6937.000000
2854.104736 7471.000000
2854.888916 7069.000000
2855.673096 6912.000000
2856.456055 8279.000000
2857.239258 6771.000000
2858.022217 6706.000000
2858.804688 7878.000000
2859.586914 6252.000000
2860.368652 6627.000000
2861.150146 7550.000000
2861.931885 7465.000000
2862.712891 7632.000000
2863.493164 6533.000000
2864.273193 6742.000000
2865.053223 8213.000000
2865.833008 7435.000000
2866.611816 8117.000000
2867.390869 7606.000000
2868.169434 6696.000000
2868.947754 6954.000000
2869.725586 7218.000000
2870.503174 6919.000000
2871.280518 7465.000000
2872.057617 6892.000000
2872.834229 6421.000000
2873.610352 7441.000000
2874.386475 7186.000000
2875.162109 8374.000000
2875.937500 7217.000000
2876.712402 6538.000000
2877.487061 7975.000000
2878.261719 6728.000000
2879.036133 7841.000000
2879.809814 6791.000000
2880.582764 7229.000000
2881.356445 6751.000000
2882.129150 7576.000000
2882.901855 7823.000000
2883.673828 8238.000000
2884.445557 6206.000000
2885.217773 6823.000000
2885.988770 6880.000000
2886.759277 6159.000000
2887.530273 8216.000000
2888.301270 7369.000000
2889.071533 7998.000000
2889.840820 7628.000000
2890.610352 6915.000000
2891.379883 7257.000000
2892.148926 7338.000000
2892.917480 7881.000000
2893.686035 7636.000000
2894.453613 7051.000000
2895.221680 6607.000000
2895.989258 7477.000000
2896.756836 8303.000000
2897.523193 7384.000000
2898.290527 6531.000000
2899.056641 7239.000000
2899.822998 7026.000000
2900.587891 8307.000000
2901.353271 6980.000000
2902.119141 6510.000000
2902.883545 7786.000000
2903.647949 7717.000000
2904.412598 8426.000000
2905.176270 6653.000000
2905.940674 8425.000000
2906.704346 6741.000000
2907.467285 8475.000000
2908.229980 6496.000000
2908.993164 8926.000000
2909.755859 6971.000000
2910.517334 6730.000000
2911.279297 6730.000000
