scanname Analyse043
timestamp 2017-02-10 20:56:03
ccdbias 900.142578
ccdgain 3.473401
sigmaread 8.960639
laserwavenum -0.488564
wavenumcorrection 0.034400
scancount 1
totalexposurems 10000
singleexposurems 10000
measurementstate Unknown
scanmode Manual
snr 267.765747 7.974313 6.664884
replacelist 5
374 51877.000000 15009.000000
672 41519.000000 31320.000000
673 39963.000000 5580.000000
754 36341.000000 19241.000000
755 35334.000000 5568.000000
peaks 55
278.376678 0.714727 0.000000 1.399268 0.000181
284.861084 0.714674 0.000000 0.812018 0.000061
293.035187 0.716465 0.000000 0.661210 0.000030
302.502869 0.717284 0.000000 0.145696 0.000022
329.589661 0.733896 0.000000 0.947208 0.000151
349.536652 0.739480 0.000000 0.570321 0.000022
360.544220 0.744505 0.000000 0.845153 0.000069
386.121826 0.743918 0.000000 1.373848 0.000299
440.890350 0.759104 0.000000 0.191159 0.000026
448.999359 0.748667 0.000000 0.532546 0.000055
461.966125 0.757741 0.000000 0.787928 0.000029
487.160736 0.770643 0.000000 0.892133 0.000112
529.481750 0.768834 0.000000 0.582111 0.000138
559.335999 0.809162 0.000000 1.309860 0.000229
566.033752 0.814166 0.000000 1.221631 0.000106
571.554138 0.817168 0.000000 0.683811 0.000161
582.722473 0.809855 0.000000 0.616720 0.000102
660.558105 0.835664 0.000000 1.238554 0.000118
673.268738 0.833170 0.000000 1.391516 0.000267
680.169739 0.833707 0.000000 0.379603 0.000044
715.637573 0.849185 0.000000 5.530783 0.001151
723.785889 0.830474 0.000000 1.178686 0.000050
738.966187 0.850076 0.000000 1.126205 0.000169
751.781982 0.855183 0.000000 1.020250 0.000048
764.848206 0.870975 0.000000 1.389104 0.000452
777.215881 0.873161 0.000000 5.948628 0.000942
831.726318 0.869845 0.000000 0.374201 0.000157
842.932068 0.875373 0.000000 0.979259 0.000050
853.109680 0.900309 0.000000 1.106853 0.000282
868.837830 0.899201 0.000000 0.818886 0.000160
937.446167 0.933226 0.000000 0.619417 0.000372
954.218323 0.913838 0.000000 3.377584 0.001007
1005.044189 0.912293 0.000000 0.473838 0.000068
1012.937378 0.914151 0.000000 1.506112 0.000403
1028.597412 0.935449 0.000000 1.050689 0.000223
1044.252808 0.940321 0.000000 3.925314 0.001248
1102.808838 0.877630 0.000000 1.579728 0.000448
1119.264893 0.900243 0.000000 1.826883 0.000357
1126.749390 0.878125 0.000000 0.421824 0.000102
1134.656128 0.882819 0.000000 2.134239 0.000848
1149.615601 0.859850 0.000000 2.428671 0.000910
1172.989136 0.849271 0.000000 0.901221 0.000332
1210.780518 0.845789 0.000000 0.614598 0.000096
1234.960083 0.852262 0.000000 1.186061 0.000422
1260.472046 0.857621 0.000000 1.834470 0.000586
1278.275146 0.843298 0.000000 0.453342 0.000444
1317.566040 0.903380 0.000000 12.852659 0.003439
1348.286133 0.829331 0.000000 0.569893 0.000149
1385.505859 0.812616 0.000000 0.264066 0.000159
1415.323608 0.798427 0.000000 1.060284 0.000489
1454.037476 0.887135 0.000000 7.523385 0.002458
1491.171021 0.785706 0.000000 1.324277 0.000412
1616.265137 0.770648 0.000000 5.597494 0.002200
1664.841187 0.776201 0.000000 11.403334 0.006489
1749.635498 0.679375 0.000000 3.893528 0.001931
finalresult GLS_NoMatch 0
spectrum 2048
-97.112892 46195.000000
-94.486023 46195.000000
-91.861031 46610.000000
-89.237930 46380.000000
-86.616699 47214.000000
-83.997368 46865.000000
-81.379898 47055.000000
-78.764305 46856.000000
-76.150589 47096.000000
-73.538750 47492.000000
-70.928772 47261.000000
-68.320679 47443.000000
-65.714432 47400.000000
-63.110062 47491.000000
-60.507553 47267.000000
-57.906898 47782.000000
-55.308105 47245.000000
-52.711170 46568.000000
-50.116089 46859.000000
-47.522861 46841.000000
-44.931484 47112.000000
-42.341953 46682.000000
-39.754265 47476.000000
-37.168427 47374.000000
-34.584431 46861.000000
-32.002270 47728.000000
-29.421957 47051.000000
-26.843472 47651.000000
-24.266829 47156.000000
-21.692011 47047.000000
-19.119034 46776.000000
-16.547876 46741.000000
-13.978554 46471.000000
-11.411056 45448.000000
-8.845376 46849.000000
-6.281522 46648.000000
-3.719481 46995.000000
-1.159265 47175.000000
1.399143 46733.000000
3.955730 45886.000000
6.510512 45971.000000
9.063477 46486.000000
11.614641 45698.000000
14.163993 45558.000000
16.711550 44933.000000
19.257294 45202.000000
21.801245 44820.000000
24.343391 42703.000000
26.883741 40728.000000
29.422306 37357.000000
31.959074 33219.000000
34.494038 25417.000000
37.027225 15170.000000
39.558632 9897.000000
42.088245 9042.000000
44.616062 8758.000000
47.142120 8070.000000
49.666389 7189.000000
52.188889 6366.000000
54.709591 5809.000000
57.228539 6039.000000
59.745712 6883.000000
62.261108 8546.000000
64.774727 10348.000000
67.286591 10915.000000
69.796707 8261.000000
72.305031 5354.000000
74.811600 4093.000000
77.316422 3445.000000
79.819489 2903.000000
82.320778 2627.000000
84.820328 2437.000000
87.318123 2366.000000
89.814186 2677.000000
92.308472 3178.000000
94.801018 3643.000000
97.291847 3462.000000
99.780907 2916.000000
102.268219 2458.000000
104.753807 1868.000000
107.237656 1810.000000
109.719757 1748.000000
112.200134 1659.000000
114.678787 1604.000000
117.155716 1511.000000
119.630890 1620.000000
122.104355 1689.000000
124.576088 1789.000000
127.046112 1876.000000
129.514389 2122.000000
131.980988 2472.000000
134.445831 2758.000000
136.908981 3255.000000
139.370392 4009.000000
141.830109 4671.000000
144.288101 9120.000000
146.744400 25092.000000
149.198990 32195.000000
151.651855 35005.000000
154.103043 37478.000000
156.552536 39088.000000
159.000305 41641.000000
161.446365 42470.000000
163.890747 41022.000000
166.333450 43803.000000
168.774460 43820.000000
171.213760 44650.000000
173.651352 43880.000000
176.087311 44756.000000
178.521530 44607.000000
180.954071 44576.000000
183.384964 45267.000000
185.814133 44976.000000
188.241653 45484.000000
190.667496 46013.000000
193.091660 45716.000000
195.514160 45390.000000
197.934967 45200.000000
200.354111 46175.000000
202.771591 46633.000000
205.187378 45200.000000
207.601517 45843.000000
210.014023 46524.000000
212.424850 46875.000000
214.834000 46735.000000
217.241516 45576.000000
219.647324 46914.000000
222.051544 46645.000000
224.454056 46426.000000
226.854950 46173.000000
229.254196 46689.000000
231.651779 46296.000000
234.047699 45897.000000
236.442001 46679.000000
238.834641 47275.000000
241.225662 46329.000000
243.615021 46552.000000
246.002762 46829.000000
248.388855 46155.000000
250.773315 46945.000000
253.156128 45239.000000
255.537369 46485.000000
257.916901 46395.000000
260.294861 46738.000000
262.671143 45578.000000
265.045868 45557.000000
267.418945 45235.000000
269.790375 46918.000000
272.160156 46592.000000
274.528381 47228.000000
276.894958 46770.000000
279.259949 46354.000000
281.623322 47061.000000
283.985046 46808.000000
286.345184 46017.000000
288.703705 47096.000000
291.060638 46556.000000
293.415955 46694.000000
295.769684 47087.000000
298.121765 47111.000000
300.472290 46701.000000
302.821228 46635.000000
305.168518 46236.000000
307.514282 46686.000000
309.858368 46530.000000
312.200928 45745.000000
314.541870 45451.000000
316.881195 45857.000000
319.218964 46077.000000
321.555176 44967.000000
323.889740 46818.000000
326.222748 46518.000000
328.554199 47045.000000
330.884064 46374.000000
333.212341 46542.000000
335.539001 45729.000000
337.864166 46688.000000
340.187714 46831.000000
342.509705 46957.000000
344.830139 45483.000000
347.148956 45223.000000
349.466217 46997.000000
351.781952 47143.000000
354.096100 45946.000000
356.408661 46686.000000
358.719666 46842.000000
361.029144 45959.000000
363.337097 46678.000000
365.643433 47416.000000
367.948181 46589.000000
370.251465 46501.000000
372.553131 46683.000000
374.853302 46668.000000
377.151917 46736.000000
379.448975 47258.000000
381.744476 46934.000000
384.038452 47082.000000
386.330841 47765.000000
388.621735 47432.000000
390.911102 46808.000000
393.198883 46768.000000
395.485138 46504.000000
397.769897 46023.000000
400.053040 46917.000000
402.334747 46619.000000
404.614929 46884.000000
406.893524 45732.000000
409.170593 46622.000000
411.446136 46258.000000
413.720154 46426.000000
415.992737 46520.000000
418.263702 46651.000000
420.533173 46524.000000
422.801147 45908.000000
425.067566 45688.000000
427.332489 46623.000000
429.595947 46633.000000
431.857819 46528.000000
434.118225 46923.000000
436.377075 46681.000000
438.634460 46846.000000
440.890350 47281.000000
443.144745 47160.000000
445.397614 47470.000000
447.648926 46033.000000
449.898834 46728.000000
452.147156 46550.000000
454.394043 47204.000000
456.639465 46401.000000
458.883331 46367.000000
461.125702 46192.000000
463.366577 47285.000000
465.606049 46163.000000
467.843933 47438.000000
470.080383 47007.000000
472.315308 46829.000000
474.548767 45509.000000
476.780792 46089.000000
479.011292 47271.000000
481.240295 46383.000000
483.467834 46542.000000
485.693878 46830.000000
487.918488 46237.000000
490.141632 47029.000000
492.363312 46435.000000
494.583435 46159.000000
496.802155 47084.000000
499.019379 46523.000000
501.235229 47223.000000
503.449463 46713.000000
505.662384 46387.000000
507.873718 46447.000000
510.083618 45931.000000
512.292053 46350.000000
514.499146 46226.000000
516.704651 46377.000000
518.908752 46203.000000
521.111328 46603.000000
523.312500 46211.000000
525.512329 46108.000000
527.710632 45870.000000
529.907410 47414.000000
532.102844 46897.000000
534.296753 47073.000000
536.489319 45093.000000
538.680359 46003.000000
540.869995 46703.000000
543.058228 45758.000000
545.244934 45582.000000
547.430176 45890.000000
549.614136 46427.000000
551.796509 46218.000000
553.977539 46531.000000
556.157043 46676.000000
558.335266 46683.000000
560.511963 46606.000000
562.687256 46239.000000
564.861145 46146.000000
567.033569 46728.000000
569.204590 46631.000000
571.374146 46365.000000
573.542419 47329.000000
575.709167 46268.000000
577.874451 46324.000000
580.038330 46489.000000
582.200928 46886.000000
584.362000 46622.000000
586.521667 47132.000000
588.679993 46779.000000
590.836792 46501.000000
592.992249 46015.000000
595.146301 46864.000000
597.299011 46473.000000
599.450195 45461.000000
601.600037 45770.000000
603.748535 45842.000000
605.895447 46575.000000
608.041138 46035.000000
610.185425 46066.000000
612.328247 45496.000000
614.469604 46363.000000
616.609741 46085.000000
618.748352 44874.000000
620.885681 46789.000000
623.021545 45876.000000
625.156006 45629.000000
627.289001 45262.000000
629.420837 45776.000000
631.551208 45799.000000
633.680176 45621.000000
635.807678 45858.000000
637.933899 46099.000000
640.058594 45033.000000
642.182068 45979.000000
644.304199 45542.000000
646.424866 45372.000000
648.544189 45779.000000
650.662109 46631.000000
652.778687 46631.000000
654.893860 45887.000000
657.007690 45829.000000
659.120056 46418.000000
661.231201 46082.000000
663.340942 46923.000000
665.449219 46298.000000
667.556335 46003.000000
669.661987 45496.000000
671.766174 46376.000000
673.869141 46538.000000
675.970703 45340.000000
678.070923 46949.000000
680.169739 45568.000000
682.267212 46072.000000
684.363403 45252.000000
686.458130 46043.000000
688.551636 45210.000000
690.643799 45585.000000
692.734436 44320.000000
694.823853 45585.000000
696.911987 45731.000000
698.998657 46196.000000
701.084106 45490.000000
703.168030 47008.000000
705.250732 46183.000000
707.332153 46061.000000
709.412109 44553.000000
711.490845 45787.000000
713.568115 46509.000000
715.644104 45474.000000
717.718811 45971.000000
719.792236 45058.000000
721.864136 45686.000000
723.934875 44559.000000
726.004272 46232.000000
728.072266 45510.000000
730.138916 45584.000000
732.204346 44836.000000
734.268433 46182.000000
736.331177 45684.000000
738.392578 45353.000000
740.452698 45188.000000
742.511414 45817.000000
744.568909 45187.000000
746.625122 45389.000000
748.679932 45114.000000
750.733459 45523.000000
752.785583 44351.000000
754.836487 45978.000000
756.886169 45078.000000
758.934387 45464.000000
760.981384 45611.000000
763.027100 44827.000000
765.071411 46583.000000
767.114441 46109.000000
769.156250 45539.000000
771.196716 44969.000000
773.235779 45469.000000
775.273682 45759.000000
777.310242 45857.000000
779.345581 46421.000000
781.379578 46105.000000
783.412170 44995.000000
785.443604 46291.000000
787.473633 40257.000000
789.502380 45842.000000
791.529968 45559.000000
793.556213 45446.000000
795.581055 45985.000000
797.604797 46314.000000
799.627136 45508.000000
801.648254 45958.000000
803.668030 45181.000000
805.686523 46878.000000
807.703796 45004.000000
809.719666 44907.000000
811.734375 46031.000000
813.747742 45249.000000
815.759888 45388.000000
817.770813 45492.000000
819.780396 45029.000000
821.788757 46213.000000
823.795715 45843.000000
825.801453 45472.000000
827.805969 45744.000000
829.809204 45722.000000
831.811157 44963.000000
833.811829 45339.000000
835.811279 45513.000000
837.809387 45092.000000
839.806396 44429.000000
841.802002 45218.000000
843.796448 45454.000000
845.789551 45270.000000
847.781433 44632.000000
849.771973 45870.000000
851.761230 44652.000000
853.749451 45441.000000
855.736267 45720.000000
857.721863 45004.000000
859.706177 44208.000000
861.689392 45235.000000
863.671204 45221.000000
865.651794 45768.000000
867.631104 43849.000000
869.609253 44472.000000
871.586060 45407.000000
873.561584 45654.000000
875.536072 45488.000000
877.509094 45603.000000
879.481079 46168.000000
881.451721 45109.000000
883.421204 45368.000000
885.389343 45813.000000
887.356323 46071.000000
889.321960 45097.000000
891.286438 45303.000000
893.249695 45113.000000
895.211731 44421.000000
897.172485 45135.000000
899.132019 44533.000000
901.090271 44183.000000
903.047424 44434.000000
905.003418 44757.000000
906.958008 43735.000000
908.911377 44158.000000
910.863586 44082.000000
912.814575 44096.000000
914.764282 43290.000000
916.712830 43927.000000
918.660156 44028.000000
920.606201 43921.000000
922.550964 43897.000000
924.494690 43576.000000
926.437256 43822.000000
928.378540 44165.000000
930.318481 43313.000000
932.257324 44002.000000
934.194885 44252.000000
936.131226 43712.000000
938.066406 43851.000000
940.000305 43651.000000
941.933105 43823.000000
943.864685 42928.000000
945.795105 44548.000000
947.724304 43326.000000
949.652161 42785.000000
951.578979 43066.000000
953.504517 43779.000000
955.428772 44356.000000
957.351929 43716.000000
959.273926 43037.000000
961.194641 42512.000000
963.114197 43226.000000
965.032593 44360.000000
966.949951 43180.000000
968.865845 43213.000000
970.780640 43423.000000
972.694214 43536.000000
974.606628 43071.000000
976.517822 43016.000000
978.427856 43863.000000
980.336609 43093.000000
982.244324 43144.000000
984.150818 42861.000000
986.056091 43348.000000
987.960266 42317.000000
989.863220 42766.000000
991.764954 42192.000000
993.665527 42261.000000
995.564941 42196.000000
997.463135 43441.000000
999.360168 41919.000000
1001.255981 41959.000000
1003.150635 40695.000000
1005.044189 42741.000000
1006.936462 40874.000000
1008.827820 42031.000000
1010.717834 42621.000000
1012.606628 41290.000000
1014.494263 41689.000000
1016.380737 41092.000000
1018.266052 41319.000000
1020.150208 41999.000000
1022.033142 42179.000000
1023.915039 41861.000000
1025.795654 42948.000000
1027.675171 42314.000000
1029.553711 42215.000000
1031.430908 42985.000000
1033.306763 42246.000000
1035.181641 42632.000000
1037.055542 41983.000000
1038.927979 41630.000000
1040.799438 41923.000000
1042.669556 43079.000000
1044.538696 43073.000000
1046.406616 42866.000000
1048.273438 41712.000000
1050.139160 42042.000000
1052.003662 42149.000000
1053.867065 42114.000000
1055.729126 42149.000000
1057.590210 42536.000000
1059.450195 42016.000000
1061.308838 41814.000000
1063.166382 42556.000000
1065.022827 41581.000000
1066.878174 42379.000000
1068.732300 42439.000000
1070.585571 41960.000000
1072.437378 41759.000000
1074.288208 41897.000000
1076.137817 41799.000000
1077.986206 42050.000000
1079.833740 39825.000000
1081.679932 41905.000000
1083.524902 41009.000000
1085.369019 41669.000000
1087.211792 41252.000000
1089.053345 40010.000000
1090.894165 40910.000000
1092.733398 40222.000000
1094.571899 39834.000000
1096.409058 39644.000000
1098.244995 38679.000000
1100.079956 38688.000000
1101.913696 39675.000000
1103.746460 39243.000000
1105.577881 38732.000000
1107.408447 37623.000000
1109.237671 38275.000000
1111.065918 38127.000000
1112.892944 37450.000000
1114.718994 39124.000000
1116.543823 38231.000000
1118.367554 37403.000000
1120.190063 38461.000000
1122.011475 38628.000000
1123.832031 38585.000000
1125.651123 37938.000000
1127.469360 37541.000000
1129.286255 37698.000000
1131.102295 37885.000000
1132.917114 38155.000000
1134.730835 38888.000000
1136.543457 38625.000000
1138.354858 38845.000000
1140.165283 38298.000000
1141.974609 37727.000000
1143.782593 37416.000000
1145.589844 38370.000000
1147.395630 38166.000000
1149.200562 38721.000000
1151.004395 38602.000000
1152.807007 37763.000000
1154.608765 37776.000000
1156.409058 37609.000000
1158.208374 37491.000000
1160.006714 37676.000000
1161.803711 37950.000000
1163.599976 37352.000000
1165.394897 37059.000000
1167.188721 36786.000000
1168.981689 35209.000000
1170.773315 37071.000000
1172.563965 36171.000000
1174.353638 36569.000000
1176.141846 36696.000000
1177.929199 35082.000000
1179.715454 35755.000000
1181.500610 36547.000000
1183.284668 36257.000000
1185.067627 34491.000000
1186.849609 36192.000000
1188.630371 36055.000000
1190.410156 35543.000000
1192.188843 34894.000000
1193.966553 34962.000000
1195.743042 34189.000000
1197.518433 34503.000000
1199.292725 34174.000000
1201.065918 33840.000000
1202.838257 33828.000000
1204.609253 33494.000000
1206.379395 34298.000000
1208.148315 33796.000000
1209.916138 33577.000000
1211.683105 34056.000000
1213.448730 33945.000000
1215.213379 33052.000000
1216.976929 33359.000000
1218.739380 33842.000000
1220.500977 33036.000000
1222.261353 33787.000000
1224.020630 33411.000000
1225.779053 33767.000000
1227.536255 32916.000000
1229.292358 33548.000000
1231.047363 34387.000000
1232.801514 34041.000000
1234.554321 34351.000000
1236.306152 34335.000000
1238.057129 34431.000000
1239.806763 35650.000000
1241.555542 33798.000000
1243.302979 34371.000000
1245.049683 34098.000000
1246.795166 34070.000000
1248.539795 34137.000000
1250.283081 33536.000000
1252.025391 33354.000000
1253.766602 34220.000000
1255.506958 34360.000000
1257.246216 33549.000000
1258.984253 32884.000000
1260.721436 32439.000000
1262.457397 33661.000000
1264.192383 33728.000000
1265.926392 33114.000000
1267.659424 34492.000000
1269.391235 34385.000000
1271.122070 34238.000000
1272.851685 33508.000000
1274.580444 34692.000000
1276.308105 34747.000000
1278.034668 34857.000000
1279.760376 34885.000000
1281.484741 34040.000000
1283.208252 35035.000000
1284.930786 33401.000000
1286.652344 33635.000000
1288.372681 33877.000000
1290.092041 33277.000000
1291.810303 32642.000000
1293.527588 33229.000000
1295.243896 33729.000000
1296.958984 33062.000000
1298.673096 33129.000000
1300.386230 33428.000000
1302.098511 32634.000000
1303.809570 30710.000000
1305.519653 33421.000000
1307.228638 32314.000000
1308.936401 32124.000000
1310.643555 31767.000000
1312.349243 33007.000000
1314.054199 32238.000000
1315.758179 33285.000000
1317.460938 33941.000000
1319.162720 33899.000000
1320.863647 34958.000000
1322.563232 31544.000000
1324.261963 32963.500000
1325.959961 20250.000000
1327.656616 30301.000000
1329.352173 29652.000000
1331.046875 29780.000000
1332.740356 30678.000000
1334.432983 30902.000000
1336.124756 29247.000000
1337.815186 30193.000000
1339.504883 29864.000000
1341.193481 30320.000000
1342.880981 28905.000000
1344.567505 30766.000000
1346.252930 29618.000000
1347.937378 30564.000000
1349.620972 29412.000000
1351.303345 30390.000000
1352.984741 30871.000000
1354.665283 30485.000000
1356.344604 30492.000000
1358.023315 31296.000000
1359.700684 30644.000000
1361.376953 31457.000000
1363.052246 31714.000000
1364.726807 30816.000000
1366.400146 30876.000000
1368.072510 30389.000000
1369.743896 31865.000000
1371.414307 30184.000000
1373.083618 30855.000000
1374.751953 31137.000000
1376.419434 30774.000000
1378.085815 30266.000000
1379.751221 30476.000000
1381.415649 30546.000000
1383.078857 30338.000000
1384.741455 30529.000000
1386.402710 29908.000000
1388.063110 29612.000000
1389.722412 29725.000000
1391.380737 29572.000000
1393.038330 29214.000000
1394.694702 29576.000000
1396.350220 28987.000000
1398.004517 29474.000000
1399.657959 29828.000000
1401.310303 29559.000000
1402.961914 29143.000000
1404.612305 28270.000000
1406.261597 28883.000000
1407.910156 27353.000000
1409.557617 26775.000000
1411.204102 28150.000000
1412.849731 27747.000000
1414.494385 27950.000000
1416.137817 27007.000000
1417.780396 26887.000000
1419.421875 26920.000000
1421.062500 27127.000000
1422.702148 27055.000000
1424.340698 27358.000000
1425.978394 26706.000000
1427.614990 26863.000000
1429.250610 27094.000000
1430.885498 26639.000000
1432.519287 27113.000000
1434.151978 26852.000000
1435.783691 27409.000000
1437.414551 27196.000000
1439.044312 27570.000000
1440.672974 26113.000000
1442.301025 27821.000000
1443.927979 27693.000000
1445.553711 28047.000000
1447.178833 28344.000000
1448.802856 28266.000000
1450.425903 28978.000000
1452.047974 29254.000000
1453.668945 28147.000000
1455.288940 29472.000000
1456.908203 28967.000000
1458.526123 30340.000000
1460.143433 30053.000000
1461.759766 21785.500000
1463.374878 26471.000000
1464.989136 27166.000000
1466.602539 28016.000000
1468.214844 27736.000000
1469.826294 27168.000000
1471.436890 27097.000000
1473.046265 27333.000000
1474.654663 27312.000000
1476.262207 27088.000000
1477.868774 26451.000000
1479.474609 27482.000000
1481.079224 26457.000000
1482.682983 26736.000000
1484.285522 25177.000000
1485.887451 25534.000000
1487.488159 25472.000000
1489.088135 25333.000000
1490.687012 24996.000000
1492.285034 25062.000000
1493.881958 25068.000000
1495.478027 25652.000000
1497.073120 26131.000000
1498.667236 26480.000000
1500.260620 25576.000000
1501.852905 26319.000000
1503.443970 25833.000000
1505.034546 25270.000000
1506.623779 25253.000000
1508.212402 25349.000000
1509.799927 24970.000000
1511.386353 24634.000000
1512.972046 25048.000000
1514.556641 24630.000000
1516.140381 24810.000000
1517.723022 24855.000000
1519.304932 24624.000000
1520.885742 24469.000000
1522.465820 24653.000000
1524.044678 24129.000000
1525.622681 23807.000000
1527.199951 23641.000000
1528.776001 23870.000000
1530.351318 23641.000000
1531.925537 23349.000000
1533.499023 23542.000000
1535.071289 23527.000000
1536.642822 23348.000000
1538.213379 23302.000000
1539.783081 23065.000000
1541.351563 23449.000000
1542.919312 22925.000000
1544.486206 23217.000000
1546.051880 22756.000000
1547.616821 22770.000000
1549.180664 23311.000000
1550.743896 22242.000000
1552.305786 22694.000000
1553.867065 22699.000000
1555.427246 22524.000000
1556.986694 22595.000000
1558.545044 22607.000000
1560.102661 22381.000000
1561.659180 22218.000000
1563.214478 22488.000000
1564.769165 22390.000000
1566.323120 22723.000000
1567.876099 22430.000000
1569.427734 22719.000000
1570.978638 22740.000000
1572.528809 22568.000000
1574.078003 22462.000000
1575.625854 22792.000000
1577.173218 22678.000000
1578.719604 22625.000000
1580.265137 23041.000000
1581.809692 22589.000000
1583.353027 22764.000000
1584.895752 22649.000000
1586.437622 22653.000000
1587.978394 22403.000000
1589.518188 22909.000000
1591.057251 22385.000000
1592.595215 22378.000000
1594.132690 22405.000000
1595.668823 22850.000000
1597.203857 22471.000000
1598.738403 22150.000000
1600.271973 22144.000000
1601.804688 22393.000000
1603.335815 22412.000000
1604.866699 22455.000000
1606.396729 22455.000000
1607.925537 22253.000000
1609.453247 22145.000000
1610.980347 22311.000000
1612.506714 22609.000000
1614.032104 22377.000000
1615.556641 22407.000000
1617.079834 22394.000000
1618.602295 22830.000000
1620.124023 23426.000000
1621.644897 24710.000000
1623.164307 17437.000000
1624.683228 22307.000000
1626.201416 21995.000000
1627.718750 22100.000000
1629.234985 22048.000000
1630.749878 21579.000000
1632.264282 21637.000000
1633.777954 21782.000000
1635.290527 21400.000000
1636.801880 21429.000000
1638.312866 21390.000000
1639.822754 21285.000000
1641.331787 21419.000000
1642.839478 21239.000000
1644.346802 21150.000000
1645.853271 20980.000000
1647.358765 20966.000000
1648.863403 20749.000000
1650.366577 20803.000000
1651.869141 20771.000000
1653.371338 20620.000000
1654.872192 20367.000000
1656.371948 20139.000000
1657.870850 20162.000000
1659.369385 20267.000000
1660.866699 20264.000000
1662.363281 19971.000000
1663.858276 19902.000000
1665.353027 19784.000000
1666.846924 20681.000000
1668.339844 24743.000000
1669.831421 13259.000000
1671.322510 19229.000000
1672.812988 19191.000000
1674.302368 19102.000000
1675.790283 18965.000000
1677.277954 19086.000000
1678.764648 19273.000000
1680.250488 19122.000000
1681.735474 18872.000000
1683.218994 18751.000000
1684.702271 18648.000000
1686.184692 18589.000000
1687.666016 18504.000000
1689.145874 18591.000000
1690.625488 18575.000000
1692.104370 18387.000000
1693.582275 18374.000000
1695.059204 18455.000000
1696.534912 18514.000000
1698.010254 18246.000000
1699.484375 18238.000000
1700.957886 18256.000000
1702.429932 18254.000000
1703.901733 18273.000000
1705.372559 18271.000000
1706.842529 18091.000000
1708.311157 18268.000000
1709.779297 18320.000000
1711.246704 18249.000000
1712.713013 18185.000000
1714.178711 18010.000000
1715.642700 18252.000000
1717.106567 18303.000000
1718.569580 18270.000000
1720.031616 18147.000000
1721.492432 18135.000000
1722.952637 18131.000000
1724.412109 18123.000000
1725.870728 18224.000000
1727.328369 18062.000000
1728.784668 17950.000000
1730.240723 18102.000000
1731.695801 17971.000000
1733.149902 17876.000000
1734.602783 17828.000000
1736.055420 17823.000000
1737.506958 17508.000000
1738.957764 17678.000000
1740.407593 17616.000000
1741.856079 17695.000000
1743.304199 17325.000000
1744.751465 17320.000000
1746.197998 17199.000000
1747.642944 17076.000000
1749.087646 17303.000000
1750.531494 17133.000000
1751.974487 17196.000000
1753.416016 17082.000000
1754.857300 20463.000000
1756.297729 12647.000000
1757.737183 16895.000000
1759.175659 16828.000000
1760.613159 16536.000000
1762.050171 16391.000000
1763.486206 16550.000000
1764.921387 16510.000000
1766.355103 16455.000000
1767.788696 16819.000000
1769.221313 16638.000000
1770.653076 16853.000000
1772.083984 16708.000000
1773.513672 16498.000000
1774.942627 16131.000000
1776.371094 16016.000000
1777.798584 15439.000000
1779.224731 14740.000000
1780.650635 15620.000000
1782.075439 15774.000000
1783.499634 15720.000000
1784.922363 15571.000000
1786.344604 15417.000000
1787.766113 15344.000000
1789.186890 15179.000000
1790.606689 15136.000000
1792.025146 15169.000000
1793.443115 15182.000000
1794.860474 15268.000000
1796.276978 15157.000000
1797.692017 15183.000000
1799.106689 15046.000000
1800.520752 15009.000000
1801.933594 14964.000000
1803.345825 14937.000000
1804.756714 14709.000000
1806.167114 14709.000000
1807.576782 14813.000000
1808.985474 14809.000000
1810.393066 14946.000000
1811.800171 14987.000000
1813.206421 14886.000000
1814.611694 14794.000000
1816.015869 15039.000000
1817.419678 14924.000000
1818.822510 14942.000000
1820.224487 14912.000000
1821.625854 15003.000000
1823.025757 14786.000000
1824.425049 14751.000000
1825.823853 14913.000000
1827.221802 14757.000000
1828.618408 14855.000000
1830.014404 14795.000000
1831.409668 14910.000000
1832.804321 14678.000000
1834.197998 14609.000000
1835.590332 14585.000000
1836.982178 14634.000000
1838.373413 14480.000000
1839.763672 14472.000000
1841.152710 14609.000000
1842.541382 14509.000000
1843.929077 14501.000000
1845.316040 14383.000000
1846.701660 14280.000000
1848.087036 14311.000000
1849.471558 14427.000000
1850.855347 14385.000000
1852.238037 14225.000000
1853.619507 14189.000000
1855.000488 13949.000000
1856.380981 13910.000000
1857.760498 13897.000000
1859.138550 13886.000000
1860.516479 13895.000000
1861.893433 13782.000000
1863.269653 13581.000000
1864.645020 13634.000000
1866.018921 13532.000000
1867.392700 13409.000000
1868.765625 13397.000000
1870.137451 13249.000000
1871.508301 13217.000000
1872.878784 13289.000000
1874.248169 13281.000000
1875.617065 13078.000000
1876.984375 12986.000000
1878.351563 13062.000000
1879.717773 12931.000000
1881.083252 12758.000000
1882.447998 12851.000000
1883.811157 12872.000000
1885.174194 12839.000000
1886.536377 12794.000000
1887.897705 12793.000000
1889.257690 12622.000000
1890.617310 12664.000000
1891.976318 12590.000000
1893.334351 12556.000000
1894.691528 12275.000000
1896.047485 12488.000000
1897.403198 12549.000000
1898.757935 12535.000000
1900.111816 12616.000000
1901.464600 12474.000000
1902.816895 12504.000000
1904.168457 12509.000000
1905.519165 12569.000000
1906.868652 12659.000000
1908.217651 12568.000000
1909.565796 12557.000000
1910.913330 12435.000000
1912.260132 12326.000000
1913.605347 12490.000000
1914.950317 12521.000000
1916.294556 12503.000000
1917.637939 12518.000000
1918.979980 12696.000000
1920.321777 12521.000000
1921.662720 12307.000000
1923.002930 12414.000000
1924.342163 12241.000000
1925.680420 12463.000000
1927.018066 12498.000000
1928.354980 12374.000000
1929.691040 12343.000000
1931.025879 12453.000000
1932.360352 12189.000000
1933.694092 12103.000000
1935.026978 12181.000000
1936.358398 12039.000000
1937.689941 11958.000000
1939.020142 12022.000000
1940.349854 12126.000000
1941.678711 12166.000000
1943.006348 12137.000000
1944.333496 12095.000000
1945.659912 12180.000000
1946.985596 11951.000000
1948.309937 11952.000000
1949.634033 11953.000000
1950.957275 11973.000000
1952.279785 11796.000000
1953.601196 11774.000000
1954.921631 11756.000000
1956.241455 11702.000000
1957.560913 11705.000000
1958.879395 11545.000000
1960.196533 11556.000000
1961.513306 11443.000000
1962.829346 11408.000000
1964.144653 11361.000000
1965.458496 11494.000000
1966.772095 11449.000000
1968.084961 11466.000000
1969.396973 11453.000000
1970.708374 11347.000000
1972.018433 11312.000000
1973.328003 11057.000000
1974.636841 11041.000000
1975.945068 11081.000000
1977.251953 10850.000000
1978.558228 10935.000000
1979.864136 10950.000000
1981.168823 11010.000000
1982.473022 10874.000000
1983.776001 10835.000000
1985.078613 10822.000000
1986.380249 10888.000000
1987.681274 10645.000000
1988.980713 10532.000000
1990.280273 10559.000000
1991.578735 10448.000000
1992.876709 10368.000000
1994.173096 10314.000000
1995.469482 10396.000000
1996.764893 10465.000000
1998.059570 10256.000000
1999.353394 10299.000000
2000.645996 10181.000000
2001.938110 10199.000000
2003.229736 10058.000000
2004.520630 10101.000000
2005.809937 10110.000000
2007.098999 10105.000000
2008.387329 10154.000000
2009.674927 10184.000000
2010.961670 10058.000000
2012.247314 9988.000000
2013.532593 9846.000000
2014.816895 10012.000000
2016.100586 9973.000000
2017.382935 9856.000000
2018.664917 9876.000000
2019.946411 9860.000000
2021.226929 9812.000000
2022.506714 9817.000000
2023.785400 9680.000000
2025.063354 9616.000000
2026.340820 9813.000000
2027.617676 9884.000000
2028.892822 9973.000000
2030.168091 9983.000000
2031.442383 9981.000000
2032.715698 10098.000000
2033.988159 9916.000000
2035.260254 10005.000000
2036.531250 9905.000000
2037.802002 9878.000000
2039.071411 9940.000000
2040.339722 9813.000000
2041.608032 9994.000000
2042.875366 9918.000000
2044.141968 9955.000000
2045.407349 9804.000000
2046.672119 9806.000000
2047.936646 9756.000000
2049.199951 9764.000000
2050.462891 9874.000000
2051.723877 9660.000000
2052.985352 9576.000000
2054.245605 9441.000000
2055.505127 9380.000000
2056.763916 9488.000000
2058.021729 9236.000000
2059.279053 9444.000000
2060.535645 9419.000000
2061.790771 9355.000000
2063.045898 9417.000000
2064.300049 9335.000000
2065.553467 9323.000000
2066.806152 9218.000000
2068.057617 9226.000000
2069.308838 9269.000000
2070.559326 9290.000000
2071.809082 9359.000000
2073.057373 9579.000000
2074.305664 9124.000000
2075.552979 9122.000000
2076.799561 8905.000000
2078.045410 8974.000000
2079.290039 9098.000000
2080.534180 8979.000000
2081.777832 8920.000000
2083.020508 8966.000000
2084.261963 8937.000000
2085.503174 8797.000000
2086.743896 8810.000000
2087.983643 8871.000000
2089.222168 8877.000000
2090.460205 8806.000000
2091.697510 8766.000000
2092.934570 8728.000000
2094.170166 8559.000000
2095.405029 8647.000000
2096.639648 8741.000000
2097.873291 8723.000000
2099.105957 8533.000000
2100.337891 8454.000000
2101.569336 8455.000000
2102.799805 8502.000000
2104.029541 8495.000000
2105.259033 8449.000000
2106.486572 8220.000000
2107.714355 8306.000000
2108.941406 8305.000000
2110.167480 8306.000000
2111.392090 8257.000000
2112.616943 8161.000000
2113.840576 8116.000000
2115.063721 8126.000000
2116.285645 8264.000000
2117.507324 8190.000000
2118.728027 8211.000000
2119.947998 8341.000000
2121.167480 8240.000000
2122.385498 8215.000000
2123.603516 8187.000000
2124.820557 8243.000000
2126.037109 8342.000000
2127.251953 8132.000000
2128.467041 8230.000000
2129.681152 8209.000000
2130.894531 8090.000000
2132.107178 7987.000000
2133.318359 8187.000000
2134.529785 8141.000000
2135.739990 7822.000000
2136.949707 8073.000000
2138.157959 8147.000000
2139.366211 8123.000000
2140.573730 8049.000000
2141.780029 7968.000000
2142.985596 7910.000000
2144.190918 8041.000000
2145.395264 8006.000000
2146.598877 7990.000000
2147.802002 7851.000000
2149.003662 7897.000000
2150.205078 7971.000000
2151.405762 7871.000000
2152.605713 7788.000000
2153.804443 7970.000000
2155.002930 7722.000000
2156.200928 7798.000000
2157.397949 7766.000000
2158.594238 7592.000000
2159.789307 7643.000000
2160.984131 7540.000000
2162.178223 7463.000000
2163.371338 7444.000000
2164.563477 7369.000000
2165.755371 7461.000000
2166.946533 7369.000000
2168.136719 7254.000000
2169.326172 7248.000000
2170.515137 7126.000000
2171.703125 7086.000000
2172.890869 7102.000000
2174.077148 7053.000000
2175.262695 7072.000000
2176.447998 6852.000000
2177.632813 6876.000000
2178.816406 6931.000000
2179.999268 6965.000000
2181.181152 6897.000000
2182.362793 6893.000000
2183.543945 6953.000000
2184.723877 6937.000000
2185.902832 6975.000000
2187.081299 6715.000000
2188.259521 6777.000000
2189.436523 6854.000000
2190.612549 6767.000000
2191.788330 6894.000000
2192.963623 6894.000000
2194.137451 6718.000000
2195.310791 6827.000000
2196.483887 6769.000000
2197.655762 6820.000000
2198.827148 6893.000000
2199.998047 6801.000000
2201.167236 6966.000000
2202.336426 6805.000000
2203.505127 6840.000000
2204.672852 6790.000000
2205.839600 6795.000000
2207.005615 6776.000000
2208.171143 6777.000000
2209.336426 6804.000000
2210.500244 6671.000000
2211.663574 6750.000000
2212.825684 6751.000000
2213.988037 6710.000000
2215.149170 6743.000000
2216.309326 6566.000000
2217.468994 6635.000000
2218.628418 6683.000000
2219.786621 6539.000000
2220.943848 6577.000000
2222.100830 6527.000000
2223.257080 6449.000000
2224.412598 6670.000000
2225.567383 6510.000000
2226.721191 6353.000000
2227.874023 6439.000000
2229.027344 6235.000000
2230.178711 6481.000000
2231.329834 6312.000000
2232.480225 6315.000000
2233.630127 6255.000000
2234.779053 6353.000000
2235.927490 6285.000000
2237.074463 6276.000000
2238.221680 6255.000000
2239.367676 6270.000000
2240.513428 6134.000000
2241.657471 5938.000000
2242.801758 5984.000000
2243.945068 5953.000000
2245.087646 5960.000000
2246.229248 5851.000000
2247.370605 5980.000000
2248.510986 5899.000000
2249.650635 5798.000000
2250.789795 5797.000000
2251.927734 5822.000000
2253.065674 5648.000000
2254.202637 5731.000000
2255.338867 5783.000000
2256.474121 5671.000000
2257.608643 5716.000000
2258.742920 5660.000000
2259.876709 5933.000000
2261.009033 5979.000000
2262.140869 5793.000000
2263.272217 5532.000000
2264.402588 5676.000000
2265.532715 5359.000000
2266.661621 5491.000000
2267.790039 5502.000000
2268.917969 5397.000000
2270.044922 5479.000000
2271.171143 5382.000000
2272.296387 5362.000000
2273.421631 5499.000000
2274.546143 5571.000000
2275.669434 5430.000000
2276.791992 5488.000000
2277.914063 5509.000000
2279.035645 5523.000000
2280.156494 5470.000000
2281.276123 5389.000000
2282.395264 5420.000000
2283.514160 5229.000000
2284.632324 5122.000000
2285.749512 5176.000000
2286.865723 5215.000000
2287.981689 5295.000000
2289.096924 5343.000000
2290.211426 5272.000000
2291.324707 5335.000000
2292.437988 5161.000000
2293.550537 5185.000000
2294.662354 5358.000000
2295.773438 5421.000000
2296.883301 5446.000000
2297.992676 5387.000000
2299.101807 5401.000000
2300.209961 5312.000000
2301.317139 5350.000000
2302.424072 5284.000000
2303.530273 5270.000000
2304.635986 5258.000000
2305.740234 5327.000000
2306.844238 5257.000000
2307.947754 5236.000000
2309.050781 5120.000000
2310.152588 5201.000000
2311.253662 5251.000000
2312.354248 5190.000000
2313.454346 5109.000000
2314.553711 5148.000000
2315.651611 5071.000000
2316.750000 5046.000000
2317.846924 5052.000000
2318.943604 5078.000000
2320.039795 5075.000000
2321.134277 4951.000000
2322.228760 4924.000000
2323.322510 4936.000000
2324.416016 4999.000000
2325.507813 4859.000000
2326.599609 4719.000000
2327.690674 4975.000000
2328.781006 4963.000000
2329.870361 5001.000000
2330.959717 4905.000000
2332.047852 4999.000000
2333.135498 4982.000000
2334.222900 4822.000000
2335.308594 4797.000000
2336.394043 4634.000000
2337.479248 4721.000000
2338.563477 4576.000000
2339.646729 4676.000000
2340.729736 4638.000000
2341.811768 4208.000000
2342.893555 4627.000000
2343.974609 4484.000000
2345.054443 4664.000000
2346.133789 4499.000000
2347.212646 4489.000000
2348.291016 4531.000000
2349.367920 4571.000000
2350.444580 4379.000000
2351.520996 4350.000000
2352.596436 4482.000000
2353.670898 4262.000000
2354.745117 4423.000000
2355.818604 4327.000000
2356.891602 4417.000000
2357.963379 4248.000000
2359.034912 4328.000000
2360.105469 4243.000000
2361.175781 4226.000000
2362.245117 4337.000000
2363.313477 4315.000000
2364.381592 4215.000000
2365.448975 4079.000000
2366.515869 4139.000000
2367.582031 4159.000000
2368.646973 4093.000000
2369.711914 4022.000000
2370.776123 4149.000000
2371.839600 4165.000000
2372.901855 4127.000000
2373.964111 4090.000000
2375.025391 4112.000000
2376.086426 4066.000000
2377.146240 4055.000000
2378.205322 4138.000000
2379.264404 4008.000000
2380.322510 4027.000000
2381.379883 4005.000000
2382.436279 3923.000000
2383.492432 3940.000000
2384.548096 4047.000000
2385.603027 3927.000000
2386.656494 3949.000000
2387.710205 4017.000000
2388.762939 3948.000000
2389.815186 3866.000000
2390.866699 4006.000000
2391.917236 4029.000000
2392.967529 4045.000000
2394.016846 3857.000000
2395.066162 3944.000000
2396.114014 3989.000000
2397.161377 3966.000000
2398.208496 4057.000000
2399.254639 3978.000000
2400.300049 3920.000000
2401.344727 3859.000000
2402.389404 3876.000000
2403.432617 3975.000000
2404.475830 3909.000000
2405.517578 3928.000000
2406.559570 3874.000000
2407.600830 3864.000000
2408.641113 3917.000000
2409.680664 3926.000000
2410.719238 3903.000000
2411.758057 3884.000000
2412.795654 3855.000000
2413.833008 3838.000000
2414.869141 3940.000000
2415.905029 3881.000000
2416.940186 3920.000000
2417.974854 3961.000000
2419.008057 3832.000000
2420.041504 3805.000000
2421.073975 3877.000000
2422.106201 3837.000000
2423.136963 3729.000000
2424.167725 3812.000000
2425.197998 3851.000000
2426.227051 3717.000000
2427.256104 3751.000000
2428.283447 3653.000000
2429.311279 3584.000000
2430.337891 3650.000000
2431.364258 3659.000000
2432.389160 3538.000000
2433.414307 3542.000000
2434.438477 3540.000000
2435.462402 3560.000000
2436.485107 3529.000000
2437.507080 3488.000000
2438.528809 3535.000000
2439.549805 3555.000000
2440.570313 3416.000000
2441.589600 3542.000000
2442.608887 3351.000000
2443.627197 3265.000000
2444.645264 3446.000000
2445.661865 3308.000000
2446.678467 3272.000000
2447.694336 3307.000000
2448.710205 3375.000000
2449.724609 3376.000000
2450.738281 3368.000000
2451.751465 3316.000000
2452.764404 3359.000000
2453.776611 3213.000000
2454.787842 3292.000000
2455.798828 3277.000000
2456.809082 3280.000000
2457.818848 3178.000000
2458.827637 3167.000000
2459.835693 3120.000000
2460.843750 3254.000000
2461.850586 3168.000000
2462.857178 3240.000000
2463.862549 3129.000000
2464.867676 3065.000000
2465.872559 3160.000000
2466.876221 3059.000000
2467.879639 3048.000000
2468.882080 3077.000000
2469.884277 3173.000000
2470.885986 3140.000000
2471.886719 2997.000000
2472.886475 3152.000000
2473.886230 3051.000000
2474.885010 3133.000000
2475.883301 2972.000000
2476.880615 3133.000000
2477.877686 3124.000000
2478.874756 3007.000000
2479.870361 3033.000000
2480.865967 2931.000000
2481.859863 3021.000000
2482.853760 2967.000000
2483.847168 3046.000000
2484.840088 2917.000000
2485.832031 3037.000000
2486.823242 3022.000000
2487.814209 3065.000000
2488.804688 3032.000000
2489.794189 3099.000000
2490.782959 2977.000000
2491.771729 3035.000000
2492.759521 3049.000000
2493.746094 2964.000000
2494.732666 2974.000000
2495.718750 3073.000000
2496.704102 2961.000000
2497.688477 2922.000000
2498.672607 2984.000000
2499.656738 2988.000000
2500.639404 3006.000000
2501.621582 3011.000000
2502.603271 3016.000000
2503.584229 2953.000000
2504.564697 2996.000000
2505.544922 2913.000000
2506.523682 2858.000000
2507.502197 2885.000000
2508.480225 2961.000000
2509.457764 2781.000000
2510.434326 2962.000000
2511.410645 2855.000000
2512.386230 2946.000000
2513.361328 2822.000000
2514.335938 2966.000000
2515.309326 2921.000000
2516.282471 2791.000000
2517.255371 2817.000000
2518.227295 2773.000000
2519.198486 2717.000000
2520.169189 2790.000000
2521.139648 2722.000000
2522.109375 2881.000000
2523.078125 2710.000000
2524.046143 2722.000000
2525.014160 2775.000000
2525.981201 2617.000000
2526.947998 2630.000000
2527.913574 2688.000000
2528.879150 2623.000000
2529.843994 2691.000000
2530.808350 2630.000000
2531.771484 2600.000000
2532.734863 2644.000000
2533.697266 2731.000000
2534.659424 2562.000000
2535.620361 2673.000000
2536.580566 2679.000000
2537.541016 2624.000000
2538.500488 2677.000000
2539.459229 2636.000000
2540.416992 2661.000000
2541.375000 2594.000000
2542.332275 2479.000000
2543.288574 2602.000000
2544.244629 2472.000000
2545.199463 2495.000000
2546.154541 2413.000000
2547.108887 2466.000000
2548.062500 2399.000000
2549.015137 2484.000000
2549.967529 2455.000000
2550.919434 2497.000000
2551.870605 2416.000000
2552.821045 2434.000000
2553.770996 2428.000000
2554.720703 2514.000000
2555.669678 2414.000000
2556.618164 2376.000000
2557.565430 2345.000000
2558.512695 2400.000000
2559.459229 2385.000000
2560.405273 2256.000000
2561.350342 2432.000000
2562.295166 2390.000000
2563.239502 2488.000000
2564.183350 2355.000000
2565.126709 2340.000000
2566.068604 2287.000000
2567.010742 2307.000000
2567.952148 2332.000000
2568.892822 2238.000000
2569.832764 2332.000000
2570.772705 2350.000000
2571.711670 2307.000000
2572.650391 2240.000000
2573.588135 2225.000000
2574.525635 2260.000000
2575.462402 2344.000000
2576.398438 2301.000000
2577.333984 2344.000000
2578.268799 2246.000000
2579.203613 2291.000000
2580.137451 2372.000000
2581.070801 1999.000000
2582.003418 2219.000000
2582.935791 2185.000000
2583.867432 2345.000000
2584.798584 2301.000000
2585.729248 2165.000000
2586.658691 2349.000000
2587.588135 2170.000000
2588.517090 2261.000000
2589.445801 2086.000000
2590.372803 2209.000000
2591.300049 2321.000000
2592.226807 2264.000000
2593.152832 2287.000000
2594.078613 2199.000000
2595.003174 2221.000000
2595.927490 2187.000000
2596.851318 2216.000000
2597.774658 2135.000000
2598.697021 2199.000000
2599.619141 2267.000000
2600.540771 2163.000000
2601.461670 2165.000000
2602.381836 2138.000000
2603.301758 2139.000000
2604.221191 2170.000000
2605.140381 2207.000000
2606.058594 2150.000000
2606.975586 2111.000000
2607.892822 2142.000000
2608.809814 2115.000000
2609.725830 2078.000000
2610.640625 2104.000000
2611.555908 2070.000000
2612.470459 2052.000000
2613.384033 2025.000000
2614.297607 2111.000000
2615.209961 2040.000000
2616.122314 2012.000000
2617.033691 2084.000000
2617.944824 2083.000000
2618.855225 2305.000000
2619.765381 1960.000000
2620.674805 2024.000000
2621.583740 1932.000000
2622.491699 2089.000000
2623.399902 1975.000000
2624.307129 1971.000000
2625.213867 2013.000000
2626.119873 2000.000000
2627.025635 1981.000000
2627.930664 2062.000000
2628.835449 1922.000000
2629.739502 1910.000000
2630.642578 1944.000000
2631.545654 1929.000000
2632.447754 1940.000000
2633.349854 1924.000000
2634.251709 1891.000000
2635.151855 1916.000000
2636.052246 1905.000000
2636.951904 1888.000000
2637.851318 1848.000000
2638.749268 1811.000000
2639.647705 1916.000000
2640.545654 1805.000000
2641.442871 1864.000000
2642.338867 1812.000000
2643.234863 1925.000000
2644.130615 1832.000000
2645.025635 1827.000000
2645.920410 1768.000000
2646.813721 1879.000000
2647.707031 1710.000000
2648.600098 1656.000000
2649.492920 1738.000000
2650.384033 1768.000000
2651.275391 1746.000000
2652.166260 1752.000000
2653.056396 1688.000000
2653.946289 1745.000000
2654.834961 1680.000000
2655.723877 1732.000000
2656.612305 1848.000000
2657.499756 1664.000000
2658.386230 1709.000000
2659.273193 1708.000000
2660.159424 1640.000000
2661.045166 1720.000000
2661.929688 1772.000000
2662.814209 1771.000000
2663.698486 1720.000000
2664.582031 1796.000000
2665.465088 1736.000000
2666.347412 1724.000000
2667.229248 1703.000000
2668.110352 1732.000000
2668.991699 1807.000000
2669.871582 1789.000000
2670.751709 1716.000000
2671.631104 1773.000000
2672.510498 1665.000000
2673.389160 1642.000000
2674.266113 1741.000000
2675.143799 1673.000000
2676.020752 1759.000000
2676.896973 1741.000000
2677.772705 1737.000000
2678.647705 1625.000000
2679.522949 1681.000000
2680.397217 1662.000000
2681.270996 1647.000000
2682.144043 1663.000000
2683.016846 1594.000000
2683.889404 1617.000000
2684.761230 1664.000000
2685.632324 1610.000000
2686.503174 1673.000000
2687.373535 1648.000000
2688.243652 1582.000000
2689.112061 1608.000000
2689.981201 1660.000000
2690.849609 1609.000000
2691.717773 1611.000000
2692.585205 1572.000000
2693.451416 1652.000000
2694.318115 1568.000000
2695.183838 1642.000000
2696.049561 1637.000000
2696.913818 1479.000000
2697.778809 1561.000000
2698.642334 1596.000000
2699.506104 1532.000000
2700.368408 1558.000000
2701.231201 1597.000000
2702.093018 1510.000000
2702.954346 1583.000000
2703.815674 1548.000000
2704.675781 1520.000000
2705.535889 1570.000000
2706.395508 1504.000000
2707.254883 1566.000000
2708.112549 1399.000000
2708.970459 1504.000000
2709.828857 1424.000000
2710.686035 1517.000000
2711.542480 1480.000000
2712.398438 1541.000000
2713.254395 1476.000000
2714.109619 1476.000000
2714.964111 1545.000000
2715.818115 1532.000000
2716.672119 1554.000000
2717.525146 1508.000000
2718.378418 1479.000000
2719.229980 1501.000000
2720.082031 1464.000000
2720.933838 1409.000000
2721.784424 1461.000000
2722.635010 1457.000000
2723.485107 1439.000000
2724.334473 1404.000000
2725.183838 1423.000000
2726.031982 1455.000000
2726.879639 1446.000000
2727.727783 1525.000000
2728.574707 1425.000000
2729.422119 1451.000000
2730.268066 1501.000000
2731.113281 1401.000000
2731.958984 1362.000000
2732.803711 1415.000000
2733.648438 1358.000000
2734.491943 1378.000000
2735.335693 1441.000000
2736.178711 1265.000000
2737.021240 1426.000000
2737.862793 1453.000000
2738.704834 1337.000000
2739.545898 1391.000000
2740.386719 1338.000000
2741.227295 1413.000000
2742.066650 1306.000000
2742.906006 1421.000000
2743.745361 1390.000000
2744.583496 1365.000000
2745.421143 1295.000000
2746.258789 1351.000000
2747.095947 1426.000000
2747.932861 1323.000000
2748.769287 1402.000000
2749.604492 1335.000000
2750.439941 1338.000000
2751.274902 1355.000000
2752.109131 1310.000000
2752.943115 1364.000000
2753.776611 1350.000000
2754.610107 1308.000000
2755.442627 1354.000000
2756.274658 1257.000000
2757.106201 1287.000000
2757.937744 1460.000000
2758.768311 1296.000000
2759.599121 1292.000000
2760.428711 1353.000000
2761.258301 1342.000000
2762.087646 1331.000000
2762.916260 1231.000000
2763.744385 1157.000000
2764.572021 1339.000000
2765.399658 1296.000000
2766.226807 1270.000000
2767.053223 1242.000000
2767.879150 1342.000000
2768.704590 1201.000000
2769.529785 1252.000000
2770.354980 1187.000000
2771.178955 1301.000000
2772.002930 1133.000000
2772.826904 1213.000000
2773.649658 1183.000000
2774.472656 1041.000000
2775.294434 1203.000000
2776.116211 1301.000000
2776.937988 1222.000000
2777.758789 1186.000000
2778.578857 1271.000000
2779.399170 1130.000000
2780.218994 1158.000000
2781.038818 1116.000000
2781.856689 1204.000000
2782.675781 1009.000000
2783.493652 1257.000000
2784.311279 1233.000000
2785.128418 1060.000000
2785.945068 1159.000000
2786.761475 1091.000000
2787.577393 1286.000000
2788.393066 1147.000000
2789.207764 1056.000000
2790.022949 1214.000000
2790.837402 966.000000
2791.651367 1123.000000
2792.465088 1145.000000
2793.277588 1053.000000
2794.090332 1060.000000
2794.902588 1148.000000
2795.714355 1194.000000
2796.525391 1117.000000
2797.337158 1182.000000
2798.147705 1100.000000
2798.958252 1072.000000
2799.767334 1164.000000
2800.577148 1066.000000
2801.386230 1156.000000
2802.195068 1112.000000
2803.003418 1137.000000
2803.810791 1161.000000
2804.618652 997.000000
2805.425781 1019.000000
2806.232666 1020.000000
2807.038330 1014.000000
2807.844482 981.000000
2808.649902 1033.000000
2809.455322 1054.000000
2810.260010 1101.000000
2811.063721 949.000000
2811.867920 1167.000000
2812.671631 1054.000000
2813.475098 1052.000000
2814.277100 1199.000000
2815.079834 1066.000000
2815.881836 986.000000
2816.683594 1196.000000
2817.484863 1060.000000
2818.285645 1142.000000
2819.085938 1108.000000
2819.886475 1128.000000
2820.686035 1120.000000
2821.485107 1112.000000
2822.284180 1060.000000
2823.083008 985.000000
2823.881348 1077.000000
2824.678711 1041.000000
2825.476318 872.000000
2826.273193 1071.000000
2827.070313 1179.000000
2827.866699 1047.000000
2828.662354 1098.000000
2829.458008 995.000000
2830.253418 1210.000000
2831.048340 1003.000000
2831.842529 1070.000000
2832.636719 1012.000000
2833.430664 1155.000000
2834.224121 1047.000000
2835.016846 934.000000
2835.809326 1073.000000
2836.601807 1061.000000
2837.394043 1006.000000
2838.185791 1017.000000
2838.976563 1033.000000
2839.767334 942.000000
2840.558350 1013.000000
2841.348389 1153.000000
2842.137939 958.000000
2842.927734 1050.000000
2843.716553 1024.000000
2844.505371 967.000000
2845.294189 946.000000
2846.082031 1131.000000
2846.869385 1016.000000
2847.656982 1045.000000
2848.444092 965.000000
2849.230469 1011.000000
2850.016846 951.000000
2850.802979 1052.000000
2851.588623 1023.000000
2852.373291 961.000000
2853.158447 993.000000
2853.943359 1018.000000
2854.727539 1059.000000
2855.511719 1050.000000
2856.294678 925.000000
2857.077881 1013.000000
2857.860840 993.000000
2858.643311 1046.000000
2859.425537 979.000000
2860.207275 1002.000000
2860.988770 1065.000000
2861.770508 1017.000000
2862.551514 984.000000
2863.331787 1005.000000
2864.111816 1104.000000
2864.891846 1102.000000
2865.671631 1070.000000
2866.450439 1092.000000
2867.229492 1083.000000
2868.008057 1147.000000
2868.786377 1085.000000
2869.564209 1052.000000
2870.341797 1153.000000
2871.119141 1190.000000
2871.896240 1101.000000
2872.672852 1254.000000
2873.448975 1256.000000
2874.225098 1154.000000
2875.000732 1160.000000
2875.776123 1227.000000
2876.551025 1311.000000
2877.325684 1205.000000
2878.100342 1263.000000
2878.874756 1316.000000
2879.648438 1265.000000
2880.421387 1322.000000
2881.195068 1337.000000
2881.967773 1273.000000
2882.740479 1271.000000
2883.512451 1287.000000
2884.284180 1403.000000
2885.056396 1285.000000
2885.827393 1305.000000
2886.597900 1346.000000
2887.368896 1330.000000
2888.139893 1190.000000
2888.910156 1362.000000
2889.679443 1295.000000
2890.448975 1256.000000
2891.218506 1281.000000
2891.987549 1323.000000
2892.756104 1264.000000
2893.524658 1339.000000
2894.292236 1355.000000
2895.060303 1203.000000
2895.827881 1274.000000
2896.595459 1248.000000
2897.361816 1158.000000
2898.129150 1262.000000
2898.895264 1295.000000
2899.661621 1168.000000
2900.426514 1245.000000
2901.191895 1308.000000
2901.957764 1329.000000
2902.722168 1186.000000
2903.486572 1173.000000
2904.251221 1126.000000
2905.014893 1139.000000
2905.779297 1117.000000
2906.542969 1180.000000
2907.305908 1227.000000
2908.068604 1185.000000
2908.831787 1269.000000
2909.594482 1149.000000
2910.355957 1164.000000
2911.117920 1164.000000
spectrumdark 2048
-97.112892 6194.000000
-94.486023 6194.000000
-91.861031 6053.000000
-89.237930 6480.000000
-86.616699 5780.000000
-83.997368 6216.000000
-81.379898 6124.000000
-78.764305 6371.000000
-76.150589 6200.000000
-73.538750 5841.000000
-70.928772 6093.000000
-68.320679 5928.000000
-65.714432 5994.000000
-63.110062 5929.000000
-60.507553 6151.000000
-57.906898 5662.000000
-55.308105 6181.000000
-52.711170 6836.000000
-50.116089 6510.000000
-47.522861 6539.000000
-44.931484 6265.000000
-42.341953 6726.000000
-39.754265 5916.000000
-37.168427 6004.000000
-34.584431 6495.000000
-32.002270 5671.000000
-29.421957 6297.000000
-26.843472 5677.000000
-24.266829 6164.000000
-21.692011 6290.000000
-19.119034 6466.000000
-16.547876 6475.000000
-13.978554 6738.000000
-11.411056 7777.000000
-8.845376 6289.000000
-6.281522 6472.000000
-3.719481 6022.000000
-1.159265 5800.000000
1.399143 6166.000000
3.955730 6910.000000
6.510512 6677.000000
9.063477 6024.000000
11.614641 6681.000000
14.163993 6464.000000
16.711550 6740.000000
19.257294 5971.000000
21.801245 5709.000000
24.343391 6691.000000
26.883741 6700.000000
29.422306 6841.000000
31.959074 6195.000000
34.494038 5718.000000
37.027225 7251.000000
39.558632 6284.000000
42.088245 7095.000000
44.616062 6474.000000
47.142120 7820.000000
49.666389 5690.000000
52.188889 6180.000000
54.709591 6754.000000
57.228539 6257.000000
59.745712 6389.000000
62.261108 6641.000000
64.774727 5660.000000
67.286591 5664.000000
69.796707 6547.000000
72.305031 6531.000000
74.811600 5942.000000
77.316422 6296.000000
79.819489 6460.000000
82.320778 6258.000000
84.820328 6130.000000
87.318123 6368.000000
89.814186 5761.000000
92.308472 7196.000000
94.801018 5780.000000
97.291847 6912.000000
99.780907 7156.000000
102.268219 6335.000000
104.753807 6272.000000
107.237656 6377.000000
109.719757 5768.000000
112.200134 6605.000000
114.678787 6158.000000
117.155716 6469.000000
119.630890 7219.000000
122.104355 6796.000000
124.576088 5835.000000
127.046112 6792.000000
129.514389 6267.000000
131.980988 6259.000000
134.445831 5684.000000
136.908981 6150.000000
139.370392 7208.000000
141.830109 7043.000000
144.288101 6343.000000
146.744400 5977.000000
149.198990 5804.000000
151.651855 6801.000000
154.103043 6374.000000
156.552536 6611.000000
159.000305 5990.000000
161.446365 6577.000000
163.890747 8679.000000
166.333450 6437.000000
168.774460 6799.000000
171.213760 6244.000000
173.651352 7271.000000
176.087311 6578.000000
178.521530 6938.000000
180.954071 7147.000000
183.384964 6649.000000
185.814133 7090.000000
188.241653 6732.000000
190.667496 6281.000000
193.091660 6666.000000
195.514160 7119.000000
197.934967 7392.000000
200.354111 6465.000000
202.771591 6047.000000
205.187378 7628.000000
207.601517 7007.000000
210.014023 6356.000000
212.424850 6082.000000
214.834000 6226.000000
217.241516 7408.000000
219.647324 6127.000000
222.051544 6468.000000
224.454056 6688.000000
226.854950 6941.000000
229.254196 6436.000000
231.651779 6803.000000
234.047699 7265.000000
236.442001 6469.000000
238.834641 5830.000000
241.225662 6797.000000
243.615021 6535.000000
246.002762 6327.000000
248.388855 6990.000000
250.773315 6125.000000
253.156128 7886.000000
255.537369 6630.000000
257.916901 6674.000000
260.294861 6388.000000
262.671143 7518.000000
265.045868 7553.000000
267.418945 7876.000000
269.790375 6201.000000
272.160156 6472.000000
274.528381 5885.000000
276.894958 6358.000000
279.259949 6764.000000
281.623322 5990.000000
283.985046 6237.000000
286.345184 7086.000000
288.703705 5953.000000
291.060638 6521.000000
293.415955 6380.000000
295.769684 5939.000000
298.121765 5924.000000
300.472290 6338.000000
302.821228 6403.000000
305.168518 6800.000000
307.514282 6371.000000
309.858368 6517.000000
312.200928 7333.000000
314.541870 7562.000000
316.881195 7196.000000
319.218964 6974.000000
321.555176 8087.000000
323.889740 6238.000000
326.222748 6505.000000
328.554199 5945.000000
330.884064 6617.000000
333.212341 6435.000000
335.539001 7244.000000
337.864166 6302.000000
340.187714 6154.000000
342.509705 6034.000000
344.830139 7491.000000
347.148956 7760.000000
349.466217 6008.000000
351.781952 5832.000000
354.096100 7008.000000
356.408661 6319.000000
358.719666 6153.000000
361.029144 7056.000000
363.337097 6340.000000
365.643433 5601.000000
367.948181 6414.000000
370.251465 6450.000000
372.553131 6272.000000
374.853302 6341.000000
377.151917 6263.000000
379.448975 5708.000000
381.744476 6060.000000
384.038452 5925.000000
386.330841 5234.000000
388.621735 5590.000000
390.911102 6189.000000
393.198883 6241.000000
395.485138 6503.000000
397.769897 6996.000000
400.053040 6080.000000
402.334747 6399.000000
404.614929 6159.000000
406.893524 7251.000000
409.170593 6388.000000
411.446136 6776.000000
413.720154 6527.000000
415.992737 6454.000000
418.263702 6299.000000
420.533173 6440.000000
422.801147 7076.000000
425.067566 7294.000000
427.332489 6313.000000
429.595947 6307.000000
431.857819 6428.000000
434.118225 5993.000000
436.377075 6240.000000
438.634460 6059.000000
440.890350 5655.000000
443.144745 5769.000000
445.397614 5422.000000
447.648926 6877.000000
449.898834 6147.000000
452.147156 6298.000000
454.394043 5630.000000
456.639465 6444.000000
458.883331 6462.000000
461.125702 6674.000000
463.366577 5608.000000
465.606049 6697.000000
467.843933 5445.000000
470.080383 5812.000000
472.315308 5996.000000
474.548767 7369.000000
476.780792 6755.000000
479.011292 5599.000000
481.240295 6452.000000
483.467834 6321.000000
485.693878 5983.000000
487.918488 6595.000000
490.141632 5807.000000
492.363312 6368.000000
494.583435 6683.000000
496.802155 5695.000000
499.019379 6290.000000
501.235229 5578.000000
503.449463 6081.000000
505.662384 6434.000000
507.873718 6347.000000
510.083618 6876.000000
512.292053 6493.000000
514.499146 6582.000000
516.704651 6429.000000
518.908752 6590.000000
521.111328 6188.000000
523.312500 6579.000000
525.512329 6661.000000
527.710632 6895.000000
529.907410 5361.000000
532.102844 5857.000000
534.296753 5619.000000
536.489319 7630.000000
538.680359 6723.000000
540.869995 5959.000000
543.058228 6906.000000
545.244934 7103.000000
547.430176 6792.000000
549.614136 6270.000000
551.796509 6399.000000
553.977539 6101.000000
556.157043 5955.000000
558.335266 5921.000000
560.511963 6024.000000
562.687256 6423.000000
564.861145 6502.000000
567.033569 5898.000000
569.204590 6014.000000
571.374146 6268.000000
573.542419 5247.000000
575.709167 6377.000000
577.874451 6296.000000
580.038330 6129.000000
582.200928 5725.000000
584.362000 6010.000000
586.521667 5543.000000
588.679993 5829.000000
590.836792 6123.000000
592.992249 6619.000000
595.146301 5761.000000
597.299011 6130.000000
599.450195 7135.000000
601.600037 6822.000000
603.748535 6723.000000
605.895447 6027.000000
608.041138 6504.000000
610.185425 6463.000000
612.328247 7037.000000
614.469604 6159.000000
616.609741 6443.000000
618.748352 7652.000000
620.885681 5714.000000
623.021545 6602.000000
625.156006 6827.000000
627.289001 7210.000000
629.420837 6660.000000
631.551208 6568.000000
633.680176 6720.000000
635.807678 6478.000000
637.933899 6261.000000
640.058594 7300.000000
642.182068 6360.000000
644.304199 6757.000000
646.424866 6900.000000
648.544189 6510.000000
650.662109 5632.000000
652.778687 5668.000000
654.893860 6391.000000
657.007690 6432.000000
659.120056 5824.000000
661.231201 6144.000000
663.340942 5360.000000
665.449219 6026.000000
667.556335 6264.000000
669.661987 6780.000000
671.766174 5877.000000
673.869141 5709.000000
675.970703 6925.000000
678.070923 5309.000000
680.169739 6720.000000
682.267212 6198.000000
684.363403 7022.000000
686.458130 6199.000000
688.551636 7051.000000
690.643799 6656.000000
692.734436 7908.000000
694.823853 6628.000000
696.911987 6470.000000
698.998657 6011.000000
701.084106 6677.000000
703.168030 5117.000000
705.250732 5900.000000
707.332153 5985.000000
709.412109 7526.000000
711.490845 6247.000000
713.568115 5538.000000
715.644104 6561.000000
717.718811 6058.000000
719.792236 6989.000000
721.864136 6326.000000
723.934875 7464.000000
726.004272 5739.000000
728.072266 6444.000000
730.138916 6338.000000
732.204346 7088.000000
734.268433 5741.000000
736.331177 6191.000000
738.392578 6508.000000
740.452698 6689.000000
742.511414 6028.000000
744.568909 6635.000000
746.625122 6442.000000
748.679932 6713.000000
750.733459 6323.000000
752.785583 7440.000000
754.836487 5827.000000
756.886169 6732.000000
758.934387 6342.000000
760.981384 6174.000000
763.027100 7004.000000
765.071411 5307.000000
767.114441 5732.000000
769.156250 6318.500000
771.196716 6905.000000
773.235779 6393.000000
775.273682 6038.000000
777.310242 5969.000000
779.345581 5394.000000
781.379578 5747.000000
783.412170 6866.000000
785.443604 5548.000000
787.473633 11583.000000
789.502380 6033.000000
791.529968 6302.000000
793.556213 6348.000000
795.581055 5825.000000
797.604797 5511.000000
799.627136 6326.000000
801.648254 5825.000000
803.668030 6632.000000
805.686523 4906.000000
807.703796 6726.000000
809.719666 6841.000000
811.734375 5695.000000
813.747742 6385.000000
815.759888 6265.000000
817.770813 6104.000000
819.780396 6563.000000
821.788757 5327.000000
823.795715 5666.000000
825.801453 6010.000000
827.805969 5721.000000
829.809204 5719.000000
831.811157 6494.000000
833.811829 6116.000000
835.811279 5940.000000
837.809387 6386.000000
839.806396 7006.000000
841.802002 6209.000000
843.796448 5961.000000
845.789551 6176.000000
847.781433 6777.000000
849.771973 5580.000000
851.761230 6738.000000
853.749451 5926.000000
855.736267 5709.000000
857.721863 6455.000000
859.706177 7256.000000
861.689392 6289.000000
863.671204 6377.000000
865.651794 5818.000000
867.631104 7714.000000
869.609253 7169.000000
871.586060 6206.000000
873.561584 5947.000000
875.536072 6160.000000
877.509094 6040.000000
879.481079 5443.000000
881.451721 6413.000000
883.421204 6115.000000
885.389343 5592.000000
887.356323 5224.000000
889.321960 6110.000000
891.286438 5842.000000
893.249695 5950.000000
895.211731 6541.000000
897.172485 5824.000000
899.132019 6373.000000
901.090271 6688.000000
903.047424 6333.000000
905.003418 5991.000000
906.958008 6888.000000
908.911377 6458.000000
910.863586 6461.000000
912.814575 6362.000000
914.764282 7047.000000
916.712830 6316.000000
918.660156 6100.000000
920.606201 6138.000000
922.550964 6044.000000
924.494690 6283.000000
926.437256 5953.000000
928.378540 5584.000000
930.318481 6405.000000
932.257324 5701.000000
934.194885 5435.000000
936.131226 5946.000000
938.066406 5860.000000
940.000305 6050.000000
941.933105 5863.000000
943.864685 6750.000000
945.795105 5217.000000
947.724304 6377.000000
949.652161 6969.000000
951.578979 6667.000000
953.504517 5977.000000
955.428772 5378.000000
957.351929 6050.000000
959.273926 6715.000000
961.194641 7219.000000
963.114197 6482.000000
965.032593 5292.000000
966.949951 6436.000000
968.865845 6423.000000
970.780640 6147.000000
972.694214 5984.000000
974.606628 6389.000000
976.517822 6416.000000
978.427856 5478.000000
980.336609 6239.000000
982.244324 6080.000000
984.150818 6347.000000
986.056091 5740.000000
987.960266 6745.000000
989.863220 6203.000000
991.764954 6729.000000
993.665527 6567.000000
995.564941 6529.000000
997.463135 5207.000000
999.360168 6639.000000
1001.255981 6503.000000
1003.150635 7650.000000
1005.044189 5526.000000
1006.936462 7227.000000
1008.827820 6034.000000
1010.717834 5335.000000
1012.606628 6612.000000
1014.494263 6269.000000
1016.380737 6875.000000
1018.266052 6660.000000
1020.150208 5954.000000
1022.033142 5825.000000
1023.915039 6243.000000
1025.795654 5175.000000
1027.675171 5865.000000
1029.553711 6092.000000
1031.430908 5395.000000
1033.306763 6170.000000
1035.181641 5874.000000
1037.055542 6583.000000
1038.927979 6984.000000
1040.799438 6654.000000
1042.669556 5521.000000
1044.538696 5524.000000
1046.406616 5762.000000
1048.273438 6937.000000
1050.139160 6637.000000
1052.003662 6451.000000
1053.867065 6449.000000
1055.729126 6396.000000
1057.590210 5923.000000
1059.450195 6434.000000
1061.308838 6614.000000
1063.166382 5795.000000
1065.022827 6729.000000
1066.878174 5959.000000
1068.732300 5777.000000
1070.585571 6217.000000
1072.437378 6335.000000
1074.288208 6131.000000
1076.137817 6110.000000
1077.986206 5719.000000
1079.833740 7854.000000
1081.679932 5595.000000
1083.524902 6187.000000
1085.369019 5361.000000
1087.211792 5534.000000
1089.053345 6557.000000
1090.894165 5434.000000
1092.733398 5831.000000
1094.571899 6019.000000
1096.409058 6060.000000
1098.244995 6791.000000
1100.079956 6561.000000
1101.913696 5391.000000
1103.746460 5691.000000
1105.577881 6152.000000
1107.408447 7282.000000
1109.237671 6515.000000
1111.065918 6458.000000
1112.892944 7066.000000
1114.718994 5377.000000
1116.543823 6288.000000
1118.367554 7146.000000
1120.190063 6053.000000
1122.011475 5845.000000
1123.832031 5926.000000
1125.651123 6624.000000
1127.469360 7037.000000
1129.286255 6898.000000
1131.102295 6642.000000
1132.917114 6376.000000
1134.730835 5596.000000
1136.543457 5859.000000
1138.354858 5628.000000
1140.165283 6160.000000
1141.974609 6728.000000
1143.782593 6952.000000
1145.589844 5890.000000
1147.395630 5952.000000
1149.200562 5344.000000
1151.004395 5361.000000
1152.807007 6113.000000
1154.608765 6104.000000
1156.409058 6112.000000
1158.208374 6144.000000
1160.006714 5866.000000
1161.803711 5423.000000
1163.599976 5929.000000
1165.394897 6092.000000
1167.188721 6325.000000
1168.981689 7736.000000
1170.773315 5747.000000
1172.563965 6459.000000
1174.353638 5981.000000
1176.141846 5814.000000
1177.929199 7444.000000
1179.715454 6706.000000
1181.500610 5726.000000
1183.284668 5923.000000
1185.067627 7681.000000
1186.849609 5853.000000
1188.630371 5852.000000
1190.410156 6296.000000
1192.188843 6934.000000
1193.966553 6663.000000
1195.743042 7150.000000
1197.518433 6536.000000
1199.292725 6516.000000
1201.065918 6689.000000
1202.838257 6503.000000
1204.609253 6673.000000
1206.379395 5685.000000
1208.148315 6133.000000
1209.916138 6310.000000
1211.683105 5775.000000
1213.448730 5910.000000
1215.213379 6930.000000
1216.976929 6531.000000
1218.739380 5912.000000
1220.500977 6707.000000
1222.261353 5856.000000
1224.020630 6273.000000
1225.779053 6062.000000
1227.536255 7092.000000
1229.292358 6435.000000
1231.047363 5536.000000
1232.801514 5983.000000
1234.554321 5836.000000
1236.306152 6049.000000
1238.057129 6043.000000
1239.806763 4909.000000
1241.555542 7010.000000
1243.302979 6468.000000
1245.049683 6611.000000
1246.795166 6522.000000
1248.539795 6326.000000
1250.283081 6777.000000
1252.025391 6632.000000
1253.766602 5395.000000
1255.506958 5025.000000
1257.246216 5805.000000
1258.984253 6594.000000
1260.721436 7145.000000
1262.457397 6106.000000
1264.192383 6378.000000
1265.926392 7294.000000
1267.659424 5940.000000
1269.391235 6191.000000
1271.122070 6433.000000
1272.851685 7252.000000
1274.580444 5868.000000
1276.308105 5657.000000
1278.034668 5519.000000
1279.760376 5482.000000
1281.484741 6377.000000
1283.208252 5193.000000
1284.930786 6935.000000
1286.652344 6618.000000
1288.372681 6189.000000
1290.092041 6702.000000
1291.810303 7239.000000
1293.527588 6427.000000
1295.243896 5761.000000
1296.958984 6359.000000
1298.673096 6137.000000
1300.386230 5679.000000
1302.098511 6426.000000
1303.809570 8307.000000
1305.519653 5238.000000
1307.228638 6323.000000
1308.936401 6630.000000
1310.643555 7057.000000
1312.349243 5783.000000
1314.054199 6860.000000
1315.758179 6134.000000
1317.460938 5940.000000
1319.162720 6570.000000
1320.863647 6026.000000
1322.563232 9945.000000
1324.261963 7762.500000
1325.959961 18904.500000
1327.656616 6489.000000
1329.352173 7153.000000
1331.046875 6814.000000
1332.740356 5736.000000
1334.432983 5453.000000
1336.124756 7266.000000
1337.815186 6298.000000
1339.504883 6569.000000
1341.193481 6164.000000
1342.880981 7570.000000
1344.567505 5612.000000
1346.252930 6780.000000
1347.937378 5943.000000
1349.620972 7276.000000
1351.303345 6293.000000
1352.984741 5933.000000
1354.665283 6512.000000
1356.344604 6678.000000
1358.023315 5884.000000
1359.700684 6587.000000
1361.376953 5787.000000
1363.052246 5557.000000
1364.726807 6549.000000
1366.400146 6472.000000
1368.072510 6790.000000
1369.743896 5171.000000
1371.414307 6830.000000
1373.083618 6103.000000
1374.751953 5656.000000
1376.419434 5932.000000
1378.085815 6458.000000
1379.751221 6121.000000
1381.415649 5878.000000
1383.078857 5961.000000
1384.741455 5680.000000
1386.402710 6301.000000
1388.063110 6546.000000
1389.722412 6392.000000
1391.380737 6490.000000
1393.038330 6816.000000
1394.694702 6450.000000
1396.350220 6997.000000
1398.004517 6333.000000
1399.657959 5857.000000
1401.310303 6125.000000
1402.961914 6469.000000
1404.612305 7207.000000
1406.261597 6235.000000
1407.910156 7478.000000
1409.557617 7886.000000
1411.204102 6175.000000
1412.849731 6279.000000
1414.494385 6026.000000
1416.137817 6988.000000
1417.780396 7116.000000
1419.421875 6907.000000
1421.062500 6522.000000
1422.702148 6441.000000
1424.340698 6025.000000
1425.978394 6569.000000
1427.614990 6307.000000
1429.250610 5984.000000
1430.885498 6366.000000
1432.519287 5802.000000
1434.151978 6139.000000
1435.783691 5679.000000
1437.414551 6116.000000
1439.044312 6017.000000
1440.672974 7713.000000
1442.301025 6010.000000
1443.927979 6243.000000
1445.553711 6177.000000
1447.178833 6106.000000
1448.802856 6514.000000
1450.425903 6056.000000
1452.047974 6050.000000
1453.668945 7478.000000
1455.288940 6289.000000
1456.908203 6853.000000
1458.526123 5645.000000
1460.143433 5606.500000
1461.759766 13218.000000
1463.374878 7195.000000
1464.989136 6315.000000
1466.602539 5218.000000
1468.214844 5599.000000
1469.826294 6284.000000
1471.436890 6343.000000
1473.046265 5986.000000
1474.654663 5992.000000
1476.262207 6207.000000
1477.868774 6725.000000
1479.474609 5334.000000
1481.079224 6213.000000
1482.682983 5504.000000
1484.285522 6846.000000
1485.887451 5535.000000
1487.488159 5481.000000
1489.088135 5611.000000
1490.687012 6244.000000
1492.285034 6460.000000
1493.881958 6650.000000
1495.478027 6334.000000
1497.073120 5938.000000
1498.667236 5468.000000
1500.260620 6468.000000
1501.852905 5573.000000
1503.443970 6140.000000
1505.034546 6724.000000
1506.623779 6440.000000
1508.212402 6196.000000
1509.799927 6519.000000
1511.386353 6820.000000
1512.972046 6113.000000
1514.556641 6616.000000
1516.140381 6292.000000
1517.723022 6191.000000
1519.304932 6645.000000
1520.885742 6622.000000
1522.465820 5976.000000
1524.044678 6268.000000
1525.622681 6366.000000
1527.199951 6250.000000
1528.776001 5596.000000
1530.351318 5829.000000
1531.925537 6305.000000
1533.499023 5485.000000
1535.071289 5932.000000
1536.642822 6412.000000
1538.213379 6454.000000
1539.783081 6319.000000
1541.351563 5398.000000
1542.919312 6577.000000
1544.486206 5636.000000
1546.051880 6825.000000
1547.616821 5942.000000
1549.180664 5004.000000
1550.743896 7502.000000
1552.305786 6324.000000
1553.867065 5967.000000
1555.427246 5685.000000
1556.986694 5732.000000
1558.545044 5833.000000
1560.102661 6252.000000
1561.659180 7047.000000
1563.214478 5842.000000
1564.769165 6329.000000
1566.323120 5654.000000
1567.876099 6329.000000
1569.427734 5627.000000
1570.978638 5840.000000
1572.528809 6183.000000
1574.078003 6376.000000
1575.625854 5739.000000
1577.173218 5490.000000
1578.719604 5768.000000
1580.265137 5070.000000
1581.809692 6692.000000
1583.353027 6347.000000
1584.895752 6556.000000
1586.437622 6429.000000
1587.978394 6684.000000
1589.518188 5789.000000
1591.057251 6666.000000
1592.595215 5924.000000
1594.132690 6131.000000
1595.668823 5829.000000
1597.203857 6674.000000
1598.738403 6220.000000
1600.271973 5953.000000
1601.804688 6035.000000
1603.335815 6254.000000
1604.866699 6256.000000
1606.396729 5777.000000
1607.925537 6106.000000
1609.453247 6123.000000
1610.980347 5981.000000
1612.506714 5821.000000
1614.032104 6211.000000
1615.556641 5776.000000
1617.079834 5770.000000
1618.602295 5638.000000
1620.124023 6571.000000
1621.644897 6886.000000
1623.164307 15525.000000
1624.683228 6197.000000
1626.201416 6121.000000
1627.718750 5903.000000
1629.234985 6364.000000
1630.749878 6974.000000
1632.264282 6775.000000
1633.777954 5702.000000
1635.290527 6811.000000
1636.801880 5920.000000
1638.312866 6384.000000
1639.822754 6299.000000
1641.331787 6129.000000
1642.839478 5631.000000
1644.346802 6141.000000
1645.853271 7072.000000
1647.358765 6255.000000
1648.863403 6807.000000
1650.366577 6130.000000
1651.869141 6523.000000
1653.371338 6356.000000
1654.872192 6659.000000
1656.371948 7574.000000
1657.870850 5920.000000
1659.369385 6498.000000
1660.866699 6228.000000
1662.363281 5962.000000
1663.858276 6448.000000
1665.353027 6284.000000
1666.846924 5189.000000
1668.339844 5717.000000
1669.831421 20172.000000
1671.322510 6488.000000
1672.812988 6073.000000
1674.302368 6003.000000
1675.790283 6959.000000
1677.277954 6845.000000
1678.764648 6033.000000
1680.250488 5363.000000
1681.735474 6059.000000
1683.218994 6122.000000
1684.702271 6219.000000
1686.184692 5827.000000
1687.666016 6263.000000
1689.145874 6155.000000
1690.625488 5600.000000
1692.104370 6547.000000
1693.582275 5986.000000
1695.059204 6139.000000
1696.534912 5734.000000
1698.010254 6061.000000
1699.484375 6310.000000
1700.957886 5461.000000
1702.429932 5598.000000
1703.901733 6812.000000
1705.372559 6339.000000
1706.842529 7069.000000
1708.311157 5123.000000
1709.779297 5781.000000
1711.246704 6333.000000
1712.713013 5503.000000
1714.178711 5799.000000
1715.642700 6147.000000
1717.106567 5903.000000
1718.569580 6987.000000
1720.031616 6330.000000
1721.492432 6579.000000
1722.952637 5515.000000
1724.412109 6374.000000
1725.870728 6151.000000
1727.328369 6024.000000
1728.784668 6266.000000
1730.240723 6042.000000
1731.695801 6432.000000
1733.149902 6007.000000
1734.602783 6864.000000
1736.055420 5945.000000
1737.506958 6897.000000
1738.957764 5941.000000
1740.407593 6546.000000
1741.856079 5889.000000
1743.304199 7327.000000
1744.751465 6594.000000
1746.197998 6719.000000
1747.642944 6637.000000
1749.087646 6074.000000
1750.531494 5819.000000
1751.974487 5593.000000
1753.416016 6586.000000
1754.857300 6339.000000
1756.297729 19424.000000
1757.737183 6254.000000
1759.175659 5239.000000
1760.613159 6129.000000
1762.050171 7530.000000
1763.486206 5864.000000
1764.921387 7164.000000
1766.355103 6203.000000
1767.788696 6455.000000
1769.221313 6632.000000
1770.653076 5784.000000
1772.083984 5713.000000
1773.513672 6390.000000
1774.942627 6182.000000
1776.371094 6228.000000
1777.798584 6648.000000
1779.224731 6266.000000
1780.650635 5557.000000
1782.075439 6884.000000
1783.499634 5500.000000
1784.922363 6628.000000
1786.344604 6536.000000
1787.766113 6914.000000
1789.186890 5913.000000
1790.606689 5956.000000
1792.025146 6109.000000
1793.443115 6844.000000
1794.860474 5448.000000
1796.276978 6059.000000
1797.692017 6461.000000
1799.106689 5839.000000
1800.520752 6608.000000
1801.933594 5985.000000
1803.345825 6935.000000
1804.756714 7187.000000
1806.167114 7818.000000
1807.576782 6361.000000
1808.985474 5926.000000
1810.393066 5383.000000
1811.800171 6410.000000
1813.206421 6373.000000
1814.611694 6774.000000
1816.015869 5920.000000
1817.419678 5970.000000
1818.822510 6185.000000
1820.224487 5999.000000
1821.625854 5825.000000
1823.025757 6340.000000
1824.425049 6497.000000
1825.823853 6546.000000
1827.221802 7406.000000
1828.618408 5698.000000
1830.014404 6729.000000
1831.409668 5842.000000
1832.804321 8124.000000
1834.197998 6061.000000
1835.590332 6801.000000
1836.982178 6350.000000
1838.373413 5849.000000
1839.763672 7117.000000
1841.152710 6031.000000
1842.541382 6091.000000
1843.929077 6032.000000
1845.316040 5827.000000
1846.701660 6894.000000
1848.087036 5834.000000
1849.471558 6370.000000
1850.855347 6305.000000
1852.238037 6359.000000
1853.619507 5352.000000
1855.000488 6493.000000
1856.380981 6289.000000
1857.760498 5703.000000
1859.138550 5999.000000
1860.516479 6216.000000
1861.893433 7826.000000
1863.269653 6110.000000
1864.645020 6050.000000
1866.018921 5587.000000
1867.392700 5729.000000
1868.765625 6160.000000
1870.137451 5937.000000
1871.508301 6892.000000
1872.878784 5438.000000
1874.248169 5907.000000
1875.617065 6080.000000
1876.984375 7206.000000
1878.351563 6028.000000
1879.717773 5964.000000
1881.083252 6759.000000
1882.447998 7521.000000
1883.811157 6701.000000
1885.174194 6937.000000
1886.536377 6385.000000
1887.897705 6402.000000
1889.257690 5631.000000
1890.617310 5807.000000
1891.976318 6166.000000
1893.334351 6627.000000
1894.691528 7304.000000
1896.047485 5967.000000
1897.403198 7590.000000
1898.757935 5805.000000
1900.111816 5507.000000
1901.464600 5976.000000
1902.816895 5934.000000
1904.168457 5961.000000
1905.519165 6827.000000
1906.868652 6495.000000
1908.217651 6649.000000
1909.565796 5812.000000
1910.913330 6162.000000
1912.260132 6302.000000
1913.605347 6863.000000
1914.950317 6062.000000
1916.294556 5420.000000
1917.637939 6541.000000
1918.979980 5976.000000
1920.321777 6674.000000
1921.662720 7040.000000
1923.002930 6172.000000
1924.342163 6314.000000
1925.680420 6313.000000
1927.018066 6412.000000
1928.354980 7029.000000
1929.691040 6761.000000
1931.025879 5553.000000
1932.360352 6779.000000
1933.694092 7285.000000
1935.026978 6246.000000
1936.358398 5790.000000
1937.689941 6375.000000
1939.020142 6626.000000
1940.349854 5794.000000
1941.678711 6101.000000
1943.006348 5821.000000
1944.333496 4979.000000
1945.659912 5784.000000
1946.985596 6473.000000
1948.309937 5786.000000
1949.634033 6719.000000
1950.957275 6279.000000
1952.279785 6401.000000
1953.601196 5770.000000
1954.921631 7412.000000
1956.241455 6050.000000
1957.560913 5575.000000
1958.879395 6862.000000
1960.196533 5893.000000
1961.513306 5825.000000
1962.829346 6508.000000
1964.144653 6587.000000
1965.458496 6241.000000
1966.772095 5638.000000
1968.084961 6270.000000
1969.396973 6044.000000
1970.708374 6014.000000
1972.018433 6279.000000
1973.328003 5869.000000
1974.636841 6176.000000
1975.945068 6541.000000
1977.251953 6053.000000
1978.558228 7219.000000
1979.864136 5503.000000
1981.168823 6396.000000
1982.473022 5927.000000
1983.776001 5655.000000
1985.078613 7566.000000
1986.380249 6090.000000
1987.681274 6812.000000
1988.980713 6043.000000
1990.280273 6602.000000
1991.578735 5345.000000
1992.876709 6069.000000
1994.173096 6148.000000
1995.469482 5750.000000
1996.764893 5533.000000
1998.059570 6498.000000
1999.353394 5707.000000
2000.645996 6588.000000
2001.938110 5725.000000
2003.229736 7182.000000
2004.520630 6400.000000
2005.809937 6275.000000
2007.098999 6813.000000
2008.387329 5942.000000
2009.674927 5989.000000
2010.961670 6613.000000
2012.247314 5646.000000
2013.532593 6394.000000
2014.816895 5981.000000
2016.100586 5570.000000
2017.382935 6015.000000
2018.664917 6484.000000
2019.946411 6773.000000
2021.226929 5903.000000
2022.506714 6073.000000
2023.785400 6759.000000
2025.063354 5889.000000
2026.340820 5894.000000
2027.617676 6294.000000
2028.892822 5715.000000
2030.168091 6563.000000
2031.442383 6058.000000
2032.715698 5952.000000
2033.988159 5977.000000
2035.260254 6119.000000
2036.531250 6939.000000
2037.802002 6569.000000
2039.071411 5977.000000
2040.339722 6770.000000
2041.608032 6543.000000
2042.875366 5879.000000
2044.141968 5927.000000
2045.407349 5634.000000
2046.672119 5509.000000
2047.936646 5418.000000
2049.199951 5878.000000
2050.462891 6342.000000
2051.723877 6136.000000
2052.985352 6054.000000
2054.245605 5868.000000
2055.505127 6472.000000
2056.763916 6204.000000
2058.021729 7049.000000
2059.279053 6109.000000
2060.535645 6000.000000
2061.790771 6501.000000
2063.045898 5660.000000
2064.300049 5655.000000
2065.553467 5619.000000
2066.806152 6932.000000
2068.057617 6255.000000
2069.308838 6377.000000
2070.559326 5590.000000
2071.809082 5442.000000
2073.057373 6125.000000
2074.305664 6490.000000
2075.552979 7358.000000
2076.799561 5656.000000
2078.045410 6072.000000
2079.290039 7027.000000
2080.534180 7569.000000
2081.777832 5421.000000
2083.020508 5960.000000
2084.261963 6980.000000
2085.503174 5954.000000
2086.743896 6367.000000
2087.983643 6727.000000
2089.222168 7024.000000
2090.460205 6137.000000
2091.697510 5756.000000
2092.934570 6570.000000
2094.170166 6102.000000
2095.405029 6264.000000
2096.639648 6006.000000
2097.873291 5633.000000
2099.105957 6140.000000
2100.337891 6844.000000
2101.569336 6436.000000
2102.799805 6761.000000
2104.029541 6006.000000
2105.259033 6001.000000
2106.486572 6104.000000
2107.714355 5993.000000
2108.941406 6282.000000
2110.167480 5448.000000
2111.392090 6387.000000
2112.616943 6944.000000
2113.840576 7095.000000
2115.063721 6208.000000
2116.285645 7473.000000
2117.507324 6007.000000
2118.728027 6788.000000
2119.947998 5958.000000
2121.167480 6137.000000
2122.385498 6587.000000
2123.603516 7075.000000
2124.820557 5748.000000
2126.037109 5764.000000
2127.251953 6530.000000
2128.467041 6374.000000
2129.681152 6955.000000
2130.894531 5661.000000
2132.107178 6049.000000
2133.318359 5805.000000
2134.529785 6540.000000
2135.739990 6827.000000
2136.949707 5926.000000
2138.157959 6150.000000
2139.366211 5610.000000
2140.573730 5889.000000
2141.780029 7698.000000
2142.985596 5965.000000
2144.190918 5661.000000
2145.395264 5569.000000
2146.598877 6315.000000
2147.802002 6257.000000
2149.003662 6398.000000
2150.205078 5326.000000
2151.405762 6247.000000
2152.605713 6118.000000
2153.804443 5938.000000
2155.002930 6944.000000
2156.200928 6209.000000
2157.397949 6059.000000
2158.594238 5189.000000
2159.789307 5253.000000
2160.984131 6145.000000
2162.178223 5571.000000
2163.371338 6083.000000
2164.563477 6870.000000
2165.755371 5911.000000
2166.946533 6346.000000
2168.136719 6247.000000
2169.326172 6514.000000
2170.515137 6812.000000
2171.703125 6034.000000
2172.890869 5756.000000
2174.077148 5934.000000
2175.262695 6472.000000
2176.447998 6020.000000
2177.632813 5852.000000
2178.816406 6397.000000
2179.999268 7509.000000
2181.181152 6324.000000
2182.362793 5952.000000
2183.543945 6528.000000
2184.723877 5723.000000
2185.902832 5518.000000
2187.081299 6336.000000
2188.259521 6857.000000
2189.436523 7140.000000
2190.612549 6726.000000
2191.788330 6073.000000
2192.963623 5592.000000
2194.137451 6715.000000
2195.310791 6165.000000
2196.483887 6165.000000
2197.655762 6407.000000
2198.827148 7068.000000
2199.998047 6354.000000
2201.167236 6822.000000
2202.336426 7639.000000
2203.505127 6219.000000
2204.672852 5909.000000
2205.839600 5628.000000
2207.005615 7208.000000
2208.171143 6623.000000
2209.336426 5970.000000
2210.500244 6771.000000
2211.663574 5420.000000
2212.825684 6173.000000
2213.988037 6135.000000
2215.149170 6633.000000
2216.309326 6678.000000
2217.468994 6333.000000
2218.628418 6530.000000
2219.786621 6359.000000
2220.943848 6275.000000
2222.100830 6801.000000
2223.257080 6619.000000
2224.412598 6709.000000
2225.567383 6283.000000
2226.721191 6475.000000
2227.874023 6162.000000
2229.027344 6950.000000
2230.178711 6194.000000
2231.329834 6174.000000
2232.480225 6562.000000
2233.630127 7664.000000
2234.779053 6253.000000
2235.927490 5177.000000
2237.074463 6760.000000
2238.221680 6916.000000
2239.367676 6045.000000
2240.513428 7255.000000
2241.657471 7390.000000
2242.801758 6793.000000
2243.945068 6261.000000
2245.087646 5995.000000
2246.229248 5807.000000
2247.370605 5776.000000
2248.510986 6355.000000
2249.650635 6471.000000
2250.789795 5798.000000
2251.927734 5827.000000
2253.065674 6277.000000
2254.202637 5338.000000
2255.338867 6359.000000
2256.474121 6088.000000
2257.608643 7247.000000
2258.742920 6438.000000
2259.876709 5385.000000
2261.009033 6046.000000
2262.140869 6745.000000
2263.272217 6259.000000
2264.402588 6464.000000
2265.532715 8146.000000
2266.661621 6680.000000
2267.790039 6058.000000
2268.917969 5582.000000
2270.044922 6133.000000
2271.171143 5936.000000
2272.296387 6756.000000
2273.421631 6533.000000
2274.546143 6300.000000
2275.669434 5931.000000
2276.791992 6273.000000
2277.914063 5928.000000
2279.035645 7318.000000
2280.156494 6393.000000
2281.276123 6418.000000
2282.395264 7107.000000
2283.514160 7653.000000
2284.632324 7317.000000
2285.749512 5943.000000
2286.865723 6400.000000
2287.981689 6947.000000
2289.096924 6842.000000
2290.211426 7422.000000
2291.324707 5803.000000
2292.437988 6365.000000
2293.550537 6067.000000
2294.662354 5320.000000
2295.773438 6752.000000
2296.883301 6406.000000
2297.992676 6174.000000
2299.101807 6671.000000
2300.209961 6357.000000
2301.317139 6776.000000
2302.424072 5880.000000
2303.530273 6225.000000
2304.635986 6626.000000
2305.740234 6615.000000
2306.844238 5428.000000
2307.947754 5724.000000
2309.050781 6530.000000
2310.152588 7336.000000
2311.253662 7234.000000
2312.354248 6552.000000
2313.454346 5560.000000
2314.553711 6321.000000
2315.651611 6560.000000
2316.750000 7009.000000
2317.846924 8180.000000
2318.943604 6848.000000
2320.039795 5771.000000
2321.134277 6848.000000
2322.228760 7599.000000
2323.322510 5836.000000
2324.416016 5993.000000
2325.507813 6470.000000
2326.599609 7092.000000
2327.690674 6071.000000
2328.781006 6253.000000
2329.870361 6927.000000
2330.959717 5961.000000
2332.047852 6272.000000
2333.135498 6771.000000
2334.222900 6498.000000
2335.308594 6623.000000
2336.394043 7782.000000
2337.479248 6361.000000
2338.563477 6742.000000
2339.646729 5885.000000
2340.729736 6430.000000
2341.811768 7444.000000
2342.893555 5958.000000
2343.974609 7496.000000
2345.054443 6563.000000
2346.133789 5753.000000
2347.212646 6792.000000
2348.291016 6524.000000
2349.367920 6309.000000
2350.444580 6979.000000
2351.520996 6166.000000
2352.596436 6408.000000
2353.670898 6004.000000
2354.745117 6302.000000
2355.818604 6734.000000
2356.891602 6252.000000
2357.963379 7036.000000
2359.034912 6261.000000
2360.105469 6796.000000
2361.175781 7525.000000
2362.245117 7493.000000
2363.313477 6773.000000
2364.381592 6711.000000
2365.448975 7160.000000
2366.515869 7127.000000
2367.582031 6090.000000
2368.646973 6923.000000
2369.711914 7034.000000
2370.776123 6285.000000
2371.839600 6863.000000
2372.901855 5792.000000
2373.964111 6314.000000
2375.025391 6348.000000
2376.086426 5906.000000
2377.146240 6278.000000
2378.205322 7857.000000
2379.264404 6481.000000
2380.322510 7553.000000
2381.379883 6908.000000
2382.436279 8080.000000
2383.492432 7810.000000
2384.548096 6239.000000
2385.603027 7070.000000
2386.656494 6817.000000
2387.710205 6561.000000
2388.762939 6320.000000
2389.815186 6799.000000
2390.866699 6133.000000
2391.917236 6611.000000
2392.967529 6427.000000
2394.016846 6204.000000
2395.066162 6223.000000
2396.114014 6878.000000
2397.161377 6982.000000
2398.208496 6311.000000
2399.254639 6665.000000
2400.300049 6115.000000
2401.344727 6768.000000
2402.389404 7736.000000
2403.432617 7422.000000
2404.475830 6618.000000
2405.517578 5762.000000
2406.559570 6704.000000
2407.600830 7145.000000
2408.641113 6109.000000
2409.680664 6369.000000
2410.719238 6333.000000
2411.758057 5928.000000
2412.795654 6491.000000
2413.833008 6863.000000
2414.869141 7351.000000
2415.905029 6183.000000
2416.940186 6265.000000
2417.974854 6563.000000
2419.008057 7179.000000
2420.041504 6466.000000
2421.073975 6659.000000
2422.106201 6798.000000
2423.136963 7063.000000
2424.167725 6331.000000
2425.197998 6764.000000
2426.227051 6839.000000
2427.256104 6600.000000
2428.283447 7471.000000
2429.311279 6710.000000
2430.337891 7217.000000
2431.364258 6894.000000
2432.389160 7757.000000
2433.414307 6571.000000
2434.438477 7124.000000
2435.462402 6707.000000
2436.485107 5809.000000
2437.507080 6343.000000
2438.528809 6611.000000
2439.549805 6581.000000
2440.570313 6003.000000
2441.589600 6439.000000
2442.608887 6559.000000
2443.627197 8523.000000
2444.645264 6211.000000
2445.661865 6466.000000
2446.678467 6555.000000
2447.694336 6022.000000
2448.710205 7030.000000
2449.724609 6823.000000
2450.738281 5493.000000
2451.751465 7234.000000
2452.764404 5952.000000
2453.776611 7281.000000
2454.787842 6667.000000
2455.798828 7666.000000
2456.809082 6368.000000
2457.818848 7641.000000
2458.827637 5938.000000
2459.835693 5967.000000
2460.843750 6237.000000
2461.850586 7316.000000
2462.857178 5383.000000
2463.862549 7393.000000
2464.867676 6950.000000
2465.872559 5827.000000
2466.876221 6541.000000
2467.879639 6382.000000
2468.882080 7619.000000
2469.884277 7325.000000
2470.885986 6863.000000
2471.886719 6627.000000
2472.886475 6960.000000
2473.886230 6734.000000
2474.885010 5583.000000
2475.883301 6610.000000
2476.880615 6987.000000
2477.877686 6072.000000
2478.874756 6996.000000
2479.870361 5835.000000
2480.865967 7157.000000
2481.859863 6699.000000
2482.853760 8105.000000
2483.847168 6896.000000
2484.840088 6951.000000
2485.832031 7487.000000
2486.823242 7211.000000
2487.814209 6735.000000
2488.804688 5817.000000
2489.794189 6522.000000
2490.782959 6571.000000
2491.771729 5627.000000
2492.759521 6791.000000
2493.746094 6599.000000
2494.732666 8069.000000
2495.718750 6687.000000
2496.704102 7043.000000
2497.688477 8078.000000
2498.672607 6002.000000
2499.656738 6835.000000
2500.639404 5763.000000
2501.621582 6998.000000
2502.603271 6812.000000
2503.584229 7200.000000
2504.564697 6514.000000
2505.544922 5718.000000
2506.523682 6300.000000
2507.502197 7568.000000
2508.480225 6693.000000
2509.457764 7120.000000
2510.434326 6028.000000
2511.410645 5973.000000
2512.386230 6376.000000
2513.361328 6202.000000
2514.335938 6420.000000
2515.309326 7504.000000
2516.282471 6806.000000
2517.255371 6896.000000
2518.227295 6080.000000
2519.198486 6804.000000
2520.169189 6880.000000
2521.139648 7836.000000
2522.109375 7941.000000
2523.078125 6097.000000
2524.046143 6140.000000
2525.014160 7649.000000
2525.981201 6300.000000
2526.947998 5519.000000
2527.913574 7234.000000
2528.879150 7053.000000
2529.843994 7738.000000
2530.808350 6313.000000
2531.771484 6262.000000
2532.734863 5848.000000
2533.697266 5886.000000
2534.659424 6805.000000
2535.620361 6362.000000
2536.580566 6137.000000
2537.541016 6140.000000
2538.500488 6713.000000
2539.459229 6834.000000
2540.416992 6693.000000
2541.375000 6186.000000
2542.332275 6781.000000
2543.288574 6050.000000
2544.244629 7069.000000
2545.199463 6242.000000
2546.154541 7728.000000
2547.108887 7055.000000
2548.062500 6925.000000
2549.015137 7226.000000
2549.967529 6664.000000
2550.919434 6913.000000
2551.870605 6399.000000
2552.821045 7826.000000
2553.770996 7300.000000
2554.720703 7293.000000
2555.669678 6599.000000
2556.618164 6215.000000
2557.565430 7068.000000
2558.512695 6285.000000
2559.459229 6554.000000
2560.405273 6762.000000
2561.350342 7378.000000
2562.295166 6692.000000
2563.239502 7127.000000
2564.183350 6828.000000
2565.126709 6569.000000
2566.068604 6621.000000
2567.010742 6541.000000
2567.952148 6103.000000
2568.892822 7144.000000
2569.832764 7230.000000
2570.772705 5707.000000
2571.711670 6142.000000
2572.650391 7571.000000
2573.588135 7208.000000
2574.525635 5432.000000
2575.462402 7007.000000
2576.398438 6789.000000
2577.333984 7479.000000
2578.268799 6389.000000
2579.203613 6017.000000
2580.137451 7011.000000
2581.070801 7194.000000
2582.003418 5891.000000
2582.935791 6958.000000
2583.867432 5391.000000
2584.798584 7010.000000
2585.729248 7081.000000
2586.658691 6819.000000
2587.588135 7233.000000
2588.517090 6463.000000
2589.445801 7577.000000
2590.372803 7311.000000
2591.300049 5823.000000
2592.226807 6786.000000
2593.152832 6258.000000
2594.078613 5615.000000
2595.003174 7623.000000
2595.927490 7582.000000
2596.851318 5348.000000
2597.774658 7292.000000
2598.697021 6222.000000
2599.619141 6854.000000
2600.540771 8288.000000
2601.461670 6364.000000
2602.381836 5788.000000
2603.301758 6380.000000
2604.221191 6345.000000
2605.140381 6372.000000
2606.058594 5837.000000
2606.975586 5949.000000
2607.892822 7253.000000
2608.809814 5923.000000
2609.725830 7565.000000
2610.640625 6603.000000
2611.555908 6619.000000
2612.470459 6551.000000
2613.384033 6543.000000
2614.297607 6067.000000
2615.209961 7562.000000
2616.122314 7086.000000
2617.033691 6763.000000
2617.944824 5686.000000
2618.855225 7203.000000
2619.765381 6652.000000
2620.674805 6185.000000
2621.583740 6658.000000
2622.491699 6205.000000
2623.399902 6866.000000
2624.307129 6629.000000
2625.213867 7018.000000
2626.119873 5949.000000
2627.025635 6599.000000
2627.930664 6405.000000
2628.835449 7795.000000
2629.739502 6509.000000
2630.642578 6379.000000
2631.545654 6407.000000
2632.447754 5583.000000
2633.349854 6679.000000
2634.251709 6995.000000
2635.151855 6659.000000
2636.052246 6439.000000
2636.951904 6439.000000
2637.851318 6022.000000
2638.749268 6898.000000
2639.647705 6675.000000
2640.545654 6395.000000
2641.442871 6090.000000
2642.338867 6180.000000
2643.234863 6673.000000
2644.130615 6031.000000
2645.025635 6402.000000
2645.920410 6624.000000
2646.813721 7093.000000
2647.707031 6291.000000
2648.600098 6826.000000
2649.492920 6501.000000
2650.384033 7477.000000
2651.275391 6382.000000
2652.166260 7619.000000
2653.056396 7357.000000
2653.946289 6530.000000
2654.834961 7295.000000
2655.723877 6641.000000
2656.612305 6574.000000
2657.499756 7355.000000
2658.386230 6469.000000
2659.273193 7122.000000
2660.159424 6882.000000
2661.045166 6784.000000
2661.929688 6450.000000
2662.814209 6342.000000
2663.698486 6177.000000
2664.582031 7073.000000
2665.465088 7764.000000
2666.347412 7245.000000
2667.229248 6208.000000
2668.110352 6615.000000
2668.991699 6035.000000
2669.871582 6532.000000
2670.751709 7378.000000
2671.631104 7181.000000
2672.510498 6390.000000
2673.389160 6163.000000
2674.266113 6437.000000
2675.143799 6752.000000
2676.020752 6382.000000
2676.896973 8109.000000
2677.772705 7122.000000
2678.647705 6283.000000
2679.522949 7705.000000
2680.397217 6980.000000
2681.270996 7386.000000
2682.144043 7080.000000
2683.016846 6203.000000
2683.889404 6079.000000
2684.761230 6897.000000
2685.632324 6533.000000
2686.503174 6853.000000
2687.373535 7070.000000
2688.243652 6695.000000
2689.112061 6270.000000
2689.981201 7366.000000
2690.849609 7095.000000
2691.717773 6649.000000
2692.585205 6915.000000
2693.451416 5829.000000
2694.318115 7116.000000
2695.183838 7359.000000
2696.049561 7167.000000
2696.913818 7963.000000
2697.778809 6562.000000
2698.642334 7193.000000
2699.506104 5862.000000
2700.368408 7426.000000
2701.231201 6727.000000
2702.093018 5893.000000
2702.954346 6855.000000
2703.815674 6764.000000
2704.675781 7421.000000
2705.535889 7291.000000
2706.395508 6522.000000
2707.254883 6851.000000
2708.112549 7185.000000
2708.970459 6819.000000
2709.828857 7347.000000
2710.686035 6768.000000
2711.542480 5986.000000
2712.398438 6839.000000
2713.254395 6082.000000
2714.109619 6958.000000
2714.964111 6081.000000
2715.818115 6753.000000
2716.672119 7222.000000
2717.525146 6245.000000
2718.378418 6601.000000
2719.229980 7695.000000
2720.082031 6795.000000
2720.933838 6276.000000
2721.784424 6474.000000
2722.635010 6423.000000
2723.485107 7098.000000
2724.334473 7030.000000
2725.183838 6984.000000
2726.031982 6596.000000
2726.879639 6518.000000
2727.727783 6961.000000
2728.574707 6860.000000
2729.422119 5560.000000
2730.268066 7473.000000
2731.113281 6992.000000
2731.958984 6483.000000
2732.803711 7000.000000
2733.648438 7368.000000
2734.491943 6882.000000
2735.335693 7773.000000
2736.178711 7154.000000
2737.021240 6016.000000
2737.862793 6216.000000
2738.704834 6852.000000
2739.545898 6914.000000
2740.386719 5792.000000
2741.227295 5880.000000
2742.066650 7785.000000
2742.906006 6813.000000
2743.745361 6916.000000
2744.583496 6820.000000
2745.421143 7860.000000
2746.258789 6287.000000
2747.095947 7119.000000
2747.932861 6245.000000
2748.769287 5997.000000
2749.604492 6664.000000
2750.439941 6286.000000
2751.274902 6323.000000
2752.109131 6283.000000
2752.943115 6874.000000
2753.776611 6812.000000
2754.610107 7968.000000
2755.442627 6787.000000
2756.274658 7326.000000
2757.106201 6829.000000
2757.937744 7052.000000
2758.768311 7197.000000
2759.599121 7254.000000
2760.428711 7237.000000
2761.258301 6662.000000
2762.087646 7265.000000
2762.916260 6887.000000
2763.744385 6776.000000
2764.572021 6798.000000
2765.399658 6604.000000
2766.226807 7907.000000
2767.053223 5834.000000
2767.879150 7460.000000
2768.704590 6905.000000
2769.529785 7784.000000
2770.354980 7059.000000
2771.178955 6724.000000
2772.002930 6512.000000
2772.826904 7619.000000
2773.649658 6625.000000
2774.472656 6903.000000
2775.294434 6852.000000
2776.116211 6917.000000
2776.937988 6462.000000
2777.758789 7982.000000
2778.578857 6502.000000
2779.399170 7048.000000
2780.218994 7279.000000
2781.038818 6428.000000
2781.856689 5961.000000
2782.675781 8097.000000
2783.493652 6480.000000
2784.311279 6694.000000
2785.128418 7288.000000
2785.945068 7235.000000
2786.761475 7214.000000
2787.577393 6153.000000
2788.393066 5964.000000
2789.207764 6464.000000
2790.022949 6930.000000
2790.837402 7160.000000
2791.651367 6563.000000
2792.465088 7461.000000
2793.277588 8796.000000
2794.090332 7005.000000
2794.902588 7441.000000
2795.714355 7123.000000
2796.525391 7363.000000
2797.337158 6476.000000
2798.147705 7174.000000
2798.958252 7046.000000
2799.767334 7379.000000
2800.577148 8142.000000
2801.386230 7769.000000
2802.195068 6601.000000
2803.003418 7124.000000
2803.810791 6118.000000
2804.618652 6468.000000
2805.425781 6931.000000
2806.232666 7018.000000
2807.038330 7249.000000
2807.844482 6709.000000
2808.649902 6453.000000
2809.455322 7326.000000
2810.260010 6192.000000
2811.063721 7662.000000
2811.867920 7458.000000
2812.671631 6306.000000
2813.475098 6101.000000
2814.277100 6268.000000
2815.079834 7316.000000
2815.881836 7817.000000
2816.683594 6084.000000
2817.484863 6531.000000
2818.285645 7236.000000
2819.085938 6513.000000
2819.886475 6647.000000
2820.686035 8045.000000
2821.485107 7199.000000
2822.284180 6461.000000
2823.083008 6882.000000
2823.881348 6318.000000
2824.678711 7058.000000
2825.476318 7210.000000
2826.273193 6659.000000
2827.070313 7288.000000
2827.866699 7928.000000
2828.662354 6993.000000
2829.458008 7401.000000
2830.253418 7571.000000
2831.048340 7424.000000
2831.842529 6632.000000
2832.636719 6862.000000
2833.430664 5626.000000
2834.224121 6863.000000
2835.016846 7205.000000
2835.809326 8176.000000
2836.601807 7592.000000
2837.394043 7481.000000
2838.185791 6467.000000
2838.976563 6838.000000
2839.767334 8873.000000
2840.558350 7469.000000
2841.348389 6166.000000
2842.137939 7699.000000
2842.927734 7136.000000
2843.716553 7347.000000
2844.505371 7838.000000
2845.294189 7741.000000
2846.082031 7427.000000
2846.869385 7257.000000
2847.656982 7410.000000
2848.444092 7305.000000
2849.230469 6619.000000
2850.016846 7410.000000
2850.802979 7178.000000
2851.588623 7500.000000
2852.373291 7239.000000
2853.158447 6883.000000
2853.943359 7500.000000
2854.727539 7105.000000
2855.511719 6880.000000
2856.294678 8323.000000
2857.077881 6843.000000
2857.860840 6760.000000
2858.643311 7722.000000
2859.425537 6249.000000
2860.207275 6606.000000
2860.988770 7571.000000
2861.770508 7441.000000
2862.551514 7637.000000
2863.331787 6607.000000
2864.111816 6704.000000
2864.891846 8143.000000
2865.671631 7495.000000
2866.450439 8118.000000
2867.229492 7698.000000
2868.008057 6773.000000
2868.786377 6878.000000
2869.564209 7243.000000
2870.341797 6948.000000
2871.119141 7433.000000
2871.896240 7011.000000
2872.672852 6396.000000
2873.448975 7466.000000
2874.225098 7229.000000
2875.000732 8339.000000
2875.776123 7186.000000
2876.551025 6601.000000
2877.325684 8112.000000
2878.100342 6655.000000
2878.874756 7815.000000
2879.648438 6769.000000
2880.421387 7171.000000
2881.195068 6725.000000
2881.967773 7639.000000
2882.740479 7847.000000
2883.512451 8258.000000
2884.284180 6167.000000
2885.056396 6823.000000
2885.827393 6899.000000
2886.597900 6150.000000
2887.368896 8377.000000
2888.139893 7374.000000
2888.910156 7914.000000
2889.679443 7610.000000
2890.448975 6956.000000
2891.218506 7226.000000
2891.987549 7389.000000
2892.756104 7933.000000
2893.524658 7664.000000
2894.292236 6973.000000
2895.060303 6604.000000
2895.827881 7410.000000
2896.595459 8482.000000
2897.361816 7432.000000
2898.129150 6494.000000
2898.895264 7188.000000
2899.661621 6996.000000
2900.426514 8236.000000
2901.191895 6932.000000
2901.957764 6408.000000
2902.722168 7761.000000
2903.486572 7704.000000
2904.251221 8512.000000
2905.014893 6633.000000
2905.779297 8493.000000
2906.542969 6630.000000
2907.305908 8308.000000
2908.068604 6496.000000
2908.831787 8987.000000
2909.594482 6983.000000
2910.355957 6809.000000
2911.117920 6809.000000
