scanname Analyse108
timestamp 2017-02-10 22:50:39
ccdbias 953.675781
ccdgain 3.473401
sigmaread 8.960639
laserwavenum -0.497675
wavenumcorrection 0.025289
scancount 1
totalexposurems 10000
singleexposurems 10000
measurementstate Unknown
scanmode Manual
snr 5.208576 0.032610 -0.010163
replacelist 2
671 10655.000000 9128.000000
905 6311.000000 5501.000000
peaks 0
finalresult GLS_Multiple 90
A0117	High-density polyethylene	6.355540e-001
A0151	Low-density polyethylene	6.351559e-001
A0237	Gasoline	6.345676e-001
A0189	Butyl acrylate	6.339447e-001
A0271	OOPS Multi-Purpose Remover	6.338410e-001
A0124	2-Octanol	6.332183e-001
A0013	Potassium dichromate	6.330281e-001
A0143	1-Dodecanol	6.329417e-001
A0195	DL-Malic acid	6.328551e-001
A0321	Naphthalene	6.327688e-001
A0094	Ortho-Klor (Termite && Carpenter Ant Killer Concentrate)	6.325786e-001
A0037	Sugar	6.325442e-001
A0217	Formaldehyde solution	6.325442e-001
A0165	Heptane	6.324750e-001
A0315	Acrylamide	6.324575e-001
A0206	Diphenyl ether	6.324230e-001
A0273	Denatured Solvent Alcohol	6.321465e-001
A0144	Glycolic acid	6.321291e-001
A0141	Isobutylbenzene	6.321118e-001
A0145	2-Heptanone	6.320601e-001
A0159	Acrylic Acid	6.320255e-001
A0243	Acrylonitrile	6.319737e-001
A0121	2,4-Dinitrotoluene	6.319045e-001
A0029	Trichloroethylene	6.318181e-001
A0333	2-Nitrotoluene	6.316798e-001
A0205	Dimethyl malonate	6.316625e-001
A0337	Thioglycolic acid	6.316625e-001
A0169	Tetradecane	6.316452e-001
A0127	2-Picoline	6.316277e-001
A0221	Formic acid	6.315588e-001
A0025	Nyquil	6.314895e-001
A0208	Fumaric acid	6.313686e-001
A0016	Malathion Plus (insect spray)	6.313514e-001
A0227	Potassium acetate	6.313342e-001
A0269	Acetonitrile	6.313170e-001
A0140	Sulfanilic acid	6.312996e-001
A0133	5-Ethyl-2-methylpyridine	6.312823e-001
A0229	Heptanoic acid	6.312478e-001
A0040	Silver nitrate	6.311787e-001
A0291	Tetrachloroethylene	6.311615e-001
A0219	Diphenylamine	6.311615e-001
A0113	Hydrogen peroxide	6.311268e-001
A0225	Tricresyl phosphate	6.311268e-001
A0330	Tris(2,3-epoxypropyl) isocyanurate	6.311268e-001
A0191	Lindane	6.311095e-001
A0299	Isobutyl acrylate	6.310923e-001
A0175	2-Naphthol	6.310750e-001
A0310	Glass, borosilicate	6.310578e-001
A0319	Benzyl chloride	6.310578e-001
A0235	Acetaminophen	6.310578e-001
A0278	Diesel #2	6.310578e-001
A0138	Dibutyl ether	6.310405e-001
A0011	Stearic acid (lot A)	6.309714e-001
A0136	Valeraldehyde	6.309714e-001
A0264	Methyl acrylate	6.309367e-001
A0280	Kerosene	6.308678e-001
A0167	Nylon	6.308678e-001
A0187	(+/-)-2-Methyl-2,4-pentanediol	6.308504e-001
A0284	Chlorobenzene	6.308331e-001
A0304	4-Methylanisole	6.308160e-001
A0317	Phenyl isocyanate	6.306950e-001
A0155	Isobutyl methacrylate	6.306950e-001
A0014	Methanol	6.306604e-001
A0203	Sorbic acid	6.305568e-001
A0199	Isobutyric acid	6.305395e-001
A0185	2,6-Di-tert-butyl-4-methylphenol	6.305395e-001
A0209	6-Caprolactone monomer	6.305223e-001
A0297	2-(Dimethylamino)ethyl methacrylate	6.304703e-001
A0207	Ethylenediamine	6.304358e-001
A0293	Turpentine oil	6.304358e-001
A0338	m-Toluidine	6.302978e-001
A0171	Hexachloroethane	6.302803e-001
A0173	Isopropyl acetate	6.302459e-001
A0197	Nicotinamide	6.301596e-001
A0153	Poly(tetrafluoroethylene)	6.301421e-001
A0045	Corn starch	6.300903e-001
A0301	1-Hexanol	6.300385e-001
A0328	4,4'-Diaminodiphenylmethane	6.299868e-001
A0006	Caffeine	6.296588e-001
A0312	Benzenesulfonyl chloride	6.296414e-001
A0289	Hexane (isomer mixture)	6.292961e-001
A0215	Sodium formate	6.291753e-001
A0286	m-Xylene	6.291407e-001
A0147	1,2,4-Trichlorobenzene	6.290370e-001
A0324	Sodium azide	6.290198e-001
A0295	Allyl chloride	6.289337e-001
A0212	4-Nitrophenol	6.288818e-001
A0251	Ethylamine	6.288474e-001
A0161	Anthracene	6.288474e-001
A0201	Thiourea	6.281914e-001
spectrum 2048
-97.103783 44754.000000
-94.476913 44754.000000
-91.851921 45489.000000
-89.228821 45543.000000
-86.607590 46473.000000
-83.988258 46264.000000
-81.370789 46640.000000
-78.755196 46363.000000
-76.141479 46605.000000
-73.529640 47066.000000
-70.919662 46881.000000
-68.311569 47088.000000
-65.705322 47141.000000
-63.100948 47177.000000
-60.498440 47040.000000
-57.897785 47519.000000
-55.298992 46928.000000
-52.702057 46326.000000
-50.106976 46682.000000
-47.513748 46649.000000
-44.922371 46894.000000
-42.332840 46429.000000
-39.745152 47265.000000
-37.159313 47063.000000
-34.575317 46599.000000
-31.993160 47423.000000
-29.412848 46747.000000
-26.834362 47358.000000
-24.257719 46914.000000
-21.682901 46730.000000
-19.109924 46526.000000
-16.538767 46478.000000
-13.969442 46049.000000
-11.401944 45135.000000
-8.836265 46452.000000
-6.272411 46108.000000
-3.710371 46507.000000
-1.150154 46557.000000
1.408254 46041.000000
3.964840 44929.000000
6.519623 44744.000000
9.072588 44585.000000
11.623753 42697.000000
14.173104 41318.000000
16.720659 39366.000000
19.266403 38863.000000
21.810354 37785.000000
24.352501 34653.000000
26.892851 32180.000000
29.431416 29844.000000
31.968184 25742.000000
34.503151 18235.000000
37.036339 12322.000000
39.567745 7420.000000
42.097359 6469.000000
44.625175 6232.000000
47.151234 5934.000000
49.675503 5020.000000
52.198002 4409.000000
54.718704 4026.000000
57.237652 4064.000000
59.754826 4780.000000
62.270222 5909.000000
64.783836 6781.000000
67.295700 7079.000000
69.805817 5599.000000
72.314140 3572.000000
74.820709 2654.000000
77.325531 2279.000000
79.828598 1858.000000
82.329887 1769.000000
84.829437 1724.000000
87.327232 1525.000000
89.823296 1677.000000
92.317581 1892.000000
94.810127 2199.000000
97.300957 2120.000000
99.790016 2042.000000
102.277328 1581.000000
104.762917 1263.000000
107.246765 1174.000000
109.728867 1137.000000
112.209244 975.000000
114.687897 927.000000
117.164825 937.000000
119.639999 755.000000
122.113464 905.000000
124.585197 798.000000
127.055222 758.000000
129.523499 822.000000
131.990097 743.000000
134.454941 774.000000
136.918091 764.000000
139.379501 728.000000
141.839218 708.000000
144.297211 777.000000
146.753510 772.000000
149.208099 791.000000
151.660965 772.000000
154.112152 608.000000
156.561646 746.000000
159.009415 868.000000
161.455475 806.000000
163.899857 821.000000
166.342560 845.000000
168.783569 904.000000
171.222870 924.000000
173.660461 900.000000
176.096420 899.000000
178.530640 901.000000
180.963181 921.000000
183.394073 764.000000
185.823242 845.000000
188.250763 895.000000
190.676605 850.000000
193.100769 814.000000
195.523270 817.000000
197.944077 726.000000
200.363220 838.000000
202.780701 827.000000
205.196487 877.000000
207.610626 886.000000
210.023132 904.000000
212.433960 889.000000
214.843109 926.000000
217.250626 914.000000
219.656433 903.000000
222.060654 1084.000000
224.463165 989.000000
226.864059 1184.000000
229.263306 1228.000000
231.660889 1141.000000
234.056808 992.000000
236.451111 1143.000000
238.843750 1104.000000
241.234772 1149.000000
243.624130 1153.000000
246.011871 1153.000000
248.397964 1078.000000
250.782425 1045.000000
253.165237 1107.000000
255.546478 1011.000000
257.925995 1077.000000
260.303955 1065.000000
262.680237 1042.000000
265.054962 1094.000000
267.428040 1025.000000
269.799469 1102.000000
272.169250 1041.000000
274.537476 967.000000
276.904053 1176.000000
279.269043 1106.000000
281.632416 1075.000000
283.994141 1041.000000
286.354279 1058.000000
288.712799 1043.000000
291.069733 1068.000000
293.425049 1098.000000
295.778778 1082.000000
298.130859 1040.000000
300.481384 1033.000000
302.830322 997.000000
305.177612 1029.000000
307.523376 987.000000
309.867462 976.000000
312.210022 970.000000
314.550964 998.000000
316.890289 933.000000
319.228058 1007.000000
321.564270 1124.000000
323.898834 913.000000
326.231842 944.000000
328.563293 922.000000
330.893158 1050.000000
333.221436 949.000000
335.548096 906.000000
337.873260 924.000000
340.196808 976.000000
342.518799 853.000000
344.839233 850.000000
347.158051 957.000000
349.475311 897.000000
351.791046 896.000000
354.105194 805.000000
356.417755 873.000000
358.728760 807.000000
361.038239 742.000000
363.346191 940.000000
365.652527 854.000000
367.957275 850.000000
370.260559 862.000000
372.562225 800.000000
374.862396 829.000000
377.161011 825.000000
379.458069 832.000000
381.753571 860.000000
384.047546 819.000000
386.339935 850.000000
388.630829 754.000000
390.920197 764.000000
393.207977 836.000000
395.494232 774.000000
397.778992 720.000000
400.062134 837.000000
402.343842 880.000000
404.624023 773.000000
406.902618 812.000000
409.179688 744.000000
411.455231 770.000000
413.729248 837.000000
416.001831 849.000000
418.272797 792.000000
420.542267 885.000000
422.810242 805.000000
425.076660 850.000000
427.341583 823.000000
429.605042 733.000000
431.866913 757.000000
434.127319 746.000000
436.386169 765.000000
438.643555 721.000000
440.899445 693.000000
443.153839 689.000000
445.406708 717.000000
447.658020 703.000000
449.907928 737.000000
452.156250 607.000000
454.403137 679.000000
456.648560 610.000000
458.892426 639.000000
461.134796 646.000000
463.375671 706.000000
465.615143 629.000000
467.853027 680.000000
470.089478 669.000000
472.324402 700.000000
474.557861 764.000000
476.789886 642.000000
479.020386 497.000000
481.249390 678.000000
483.476929 711.000000
485.702972 692.000000
487.927582 623.000000
490.150726 717.000000
492.372406 681.000000
494.592529 650.000000
496.811249 664.000000
499.028473 682.000000
501.244324 631.000000
503.458557 631.000000
505.671478 605.000000
507.882813 680.000000
510.092712 688.000000
512.301208 669.000000
514.508301 623.000000
516.713806 614.000000
518.917908 641.000000
521.120483 700.000000
523.321655 586.000000
525.521484 662.000000
527.719788 628.000000
529.916565 726.000000
532.112000 616.000000
534.305908 599.000000
536.498474 604.000000
538.689514 659.000000
540.879150 607.000000
543.067383 583.000000
545.254089 638.000000
547.439331 604.000000
549.623291 569.000000
551.805664 538.000000
553.986694 582.000000
556.166199 540.000000
558.344421 489.000000
560.521118 543.000000
562.696411 608.000000
564.870300 585.000000
567.042725 616.000000
569.213745 541.000000
571.383301 615.000000
573.551575 571.000000
575.718323 567.000000
577.883606 631.000000
580.047485 615.000000
582.210083 581.000000
584.371155 541.000000
586.530823 527.000000
588.689148 654.000000
590.845947 569.000000
593.001404 518.000000
595.155457 605.000000
597.308167 570.000000
599.459351 660.000000
601.609192 543.000000
603.757690 639.000000
605.904602 634.000000
608.050293 545.000000
610.194580 565.000000
612.337402 613.000000
614.478760 510.000000
616.618896 551.000000
618.757507 538.000000
620.894836 642.000000
623.030701 538.000000
625.165161 547.000000
627.298157 639.000000
629.429993 645.000000
631.560364 636.000000
633.689331 620.000000
635.816833 698.000000
637.943054 573.000000
640.067749 591.000000
642.191223 600.000000
644.313354 448.000000
646.434021 643.000000
648.553345 475.000000
650.671265 606.000000
652.787842 561.000000
654.903015 564.000000
657.016846 577.000000
659.129211 553.000000
661.240356 569.000000
663.350098 566.000000
665.458374 560.000000
667.565491 591.000000
669.671143 579.000000
671.775330 534.000000
673.878296 631.000000
675.979858 597.000000
678.080078 579.000000
680.178894 674.000000
682.276367 664.000000
684.372559 619.000000
686.467285 590.000000
688.560791 522.000000
690.652954 544.000000
692.743591 559.000000
694.833008 586.000000
696.921143 600.000000
699.007813 536.000000
701.093262 625.000000
703.177185 598.000000
705.259888 625.000000
707.341309 589.000000
709.421265 557.000000
711.500000 490.000000
713.577271 536.000000
715.653259 597.000000
717.727966 602.000000
719.801392 519.000000
721.873291 492.000000
723.944031 488.000000
726.013428 602.000000
728.081421 535.000000
730.148071 543.000000
732.213501 632.000000
734.277588 615.000000
736.340332 556.000000
738.401733 570.000000
740.461853 571.000000
742.520569 580.000000
744.578064 579.000000
746.634277 633.000000
748.689087 504.000000
750.742615 527.000000
752.794739 460.000000
754.845642 582.000000
756.895325 590.000000
758.943542 573.000000
760.990540 617.000000
763.036255 552.000000
765.080566 597.000000
767.123596 552.000000
769.165405 642.000000
771.205872 470.000000
773.244934 616.000000
775.282837 542.000000
777.319397 544.000000
779.354736 589.000000
781.388733 529.000000
783.421326 484.000000
785.452759 604.000000
787.482788 549.000000
789.511536 502.000000
791.539124 597.000000
793.565369 487.000000
795.590210 545.000000
797.613953 566.000000
799.636292 575.000000
801.657410 666.000000
803.677185 618.000000
805.695679 603.000000
807.712952 500.000000
809.728821 605.000000
811.743530 600.000000
813.756897 632.000000
815.769043 590.000000
817.779968 608.000000
819.789551 510.000000
821.797913 628.000000
823.804871 560.000000
825.810608 516.000000
827.815125 572.000000
829.818359 629.000000
831.820313 555.000000
833.820984 572.000000
835.820435 559.000000
837.818542 508.000000
839.815552 510.000000
841.811157 566.000000
843.805603 409.000000
845.798706 589.000000
847.790588 520.000000
849.781128 556.000000
851.770386 543.000000
853.758606 558.000000
855.745422 465.000000
857.731018 575.000000
859.715332 599.000000
861.698547 523.000000
863.680359 593.000000
865.660950 571.000000
867.640259 593.000000
869.618408 645.000000
871.595215 497.000000
873.570740 537.000000
875.545227 599.000000
877.518250 597.000000
879.490234 606.000000
881.460876 550.000000
883.430359 563.000000
885.398499 583.000000
887.365479 590.000000
889.331116 507.000000
891.295593 609.000000
893.258850 591.000000
895.220886 582.000000
897.181641 595.000000
899.141174 525.000000
901.099426 429.000000
903.056580 577.000000
905.012573 440.000000
906.967163 454.000000
908.920532 490.000000
910.872742 419.000000
912.823730 523.000000
914.773438 565.000000
916.721985 432.000000
918.669312 484.000000
920.615356 470.000000
922.560120 455.000000
924.503845 493.000000
926.446411 521.000000
928.387695 507.000000
930.327637 469.000000
932.266479 466.000000
934.204041 506.000000
936.140381 499.000000
938.075562 453.000000
940.009460 361.000000
941.942261 368.000000
943.873840 399.000000
945.804260 438.000000
947.733459 321.000000
949.661316 470.000000
951.588135 415.000000
953.513672 429.000000
955.437927 452.000000
957.361084 457.000000
959.283081 396.000000
961.203796 399.000000
963.123352 486.000000
965.041748 392.000000
966.959106 425.000000
968.875000 328.000000
970.789795 419.000000
972.703369 472.000000
974.615784 513.000000
976.526978 326.000000
978.437012 313.000000
980.345764 435.000000
982.253479 388.000000
984.159973 406.000000
986.065247 400.000000
987.969421 353.000000
989.872375 466.000000
991.774109 413.000000
993.674683 363.000000
995.574097 391.000000
997.472290 367.000000
999.369324 412.000000
1001.265137 402.000000
1003.159790 399.000000
1005.053345 405.000000
1006.945618 358.000000
1008.836975 376.000000
1010.726990 393.000000
1012.615784 430.000000
1014.503418 417.000000
1016.389893 405.000000
1018.275208 463.000000
1020.159363 329.000000
1022.042297 364.000000
1023.924194 387.000000
1025.804810 350.000000
1027.684326 403.000000
1029.562866 383.000000
1031.440063 408.000000
1033.315918 325.000000
1035.190796 380.000000
1037.064697 286.000000
1038.937134 482.000000
1040.808594 309.000000
1042.678711 431.000000
1044.547852 347.000000
1046.415771 373.000000
1048.282593 545.000000
1050.148315 294.000000
1052.012817 382.000000
1053.876221 349.000000
1055.738281 442.000000
1057.599365 289.000000
1059.459351 365.000000
1061.317993 385.000000
1063.175537 390.000000
1065.031982 356.000000
1066.887329 394.000000
1068.741455 438.000000
1070.594727 393.000000
1072.446533 420.000000
1074.297363 459.000000
1076.146973 348.000000
1077.995361 360.000000
1079.842896 358.000000
1081.689087 348.000000
1083.534058 370.000000
1085.378174 376.000000
1087.220947 13.000000
1089.062500 337.000000
1090.903320 361.000000
1092.742554 336.000000
1094.581055 340.000000
1096.418213 373.000000
1098.254150 358.000000
1100.089111 297.000000
1101.922852 353.000000
1103.755615 333.000000
1105.587036 402.000000
1107.417603 400.000000
1109.246826 397.000000
1111.075073 254.000000
1112.902100 354.000000
1114.728149 381.000000
1116.552979 323.000000
1118.376709 354.000000
1120.199219 356.000000
1122.020630 509.000000
1123.841187 354.000000
1125.660278 306.000000
1127.478516 269.000000
1129.295410 404.000000
1131.111450 366.000000
1132.926270 456.000000
1134.739990 353.000000
1136.552612 339.000000
1138.364014 460.000000
1140.174438 361.000000
1141.983765 404.000000
1143.791748 434.000000
1145.598999 422.000000
1147.404785 323.000000
1149.209717 349.000000
1151.013550 296.000000
1152.816162 295.000000
1154.617920 412.000000
1156.418213 410.000000
1158.217529 331.000000
1160.015869 389.000000
1161.812866 377.000000
1163.609131 335.000000
1165.404053 331.000000
1167.197876 402.000000
1168.990845 269.000000
1170.782471 419.000000
1172.573120 405.000000
1174.362793 429.000000
1176.151001 389.000000
1177.938354 369.000000
1179.724609 526.000000
1181.509766 358.000000
1183.293823 209.000000
1185.076782 369.000000
1186.858765 322.000000
1188.639526 373.000000
1190.419312 369.000000
1192.197998 347.000000
1193.975708 354.000000
1195.752197 441.000000
1197.527588 362.000000
1199.301880 426.000000
1201.075073 383.000000
1202.847412 351.000000
1204.618408 317.000000
1206.388550 292.000000
1208.157471 332.000000
1209.925293 446.000000
1211.692261 442.000000
1213.457886 417.000000
1215.222534 445.000000
1216.986084 359.000000
1218.748535 528.000000
1220.510132 368.000000
1222.270508 418.000000
1224.029785 454.000000
1225.788208 402.000000
1227.545410 411.000000
1229.301514 421.000000
1231.056519 496.000000
1232.810669 480.000000
1234.563477 468.000000
1236.315308 381.000000
1238.066284 438.000000
1239.815918 413.000000
1241.564697 437.000000
1243.312134 424.000000
1245.058838 442.000000
1246.804321 420.000000
1248.548950 411.000000
1250.292236 438.000000
1252.034546 424.000000
1253.775757 385.000000
1255.516113 376.000000
1257.255371 463.000000
1258.993408 412.000000
1260.730591 405.000000
1262.466553 359.000000
1264.201538 452.000000
1265.935547 391.000000
1267.668579 523.000000
1269.400391 494.000000
1271.131226 494.000000
1272.860840 548.000000
1274.589600 474.000000
1276.317261 434.000000
1278.043823 476.000000
1279.769531 453.000000
1281.493896 544.000000
1283.217407 555.000000
1284.939941 528.000000
1286.661499 476.000000
1288.381836 473.000000
1290.101196 476.000000
1291.819458 445.000000
1293.536743 553.000000
1295.253052 532.000000
1296.968140 534.000000
1298.682251 483.000000
1300.395386 523.000000
1302.107666 470.000000
1303.818726 548.000000
1305.528809 592.000000
1307.237793 578.000000
1308.945557 437.000000
1310.652710 543.000000
1312.358398 492.000000
1314.063354 505.000000
1315.767334 573.000000
1317.470093 518.000000
1319.171875 523.000000
1320.872803 467.000000
1322.572388 541.000000
1324.271118 615.000000
1325.969116 604.000000
1327.665771 467.000000
1329.361328 533.000000
1331.056030 505.000000
1332.749512 433.000000
1334.442139 548.000000
1336.133911 582.000000
1337.824341 617.000000
1339.514038 530.000000
1341.202637 519.000000
1342.890137 528.000000
1344.576660 528.000000
1346.262085 545.000000
1347.946533 600.000000
1349.630127 474.000000
1351.312500 472.000000
1352.993896 533.000000
1354.674438 614.000000
1356.353760 625.000000
1358.032471 516.000000
1359.709839 532.000000
1361.386108 614.000000
1363.061401 627.000000
1364.735962 535.000000
1366.409302 581.000000
1368.081665 591.000000
1369.753052 692.000000
1371.423462 594.000000
1373.092773 546.000000
1374.761108 553.000000
1376.428589 618.000000
1378.094971 644.000000
1379.760376 556.000000
1381.424805 576.000000
1383.088013 621.000000
1384.750610 580.000000
1386.411865 528.000000
1388.072266 516.000000
1389.731567 532.000000
1391.389893 538.000000
1393.047485 468.000000
1394.703857 569.000000
1396.359375 548.000000
1398.013672 557.000000
1399.667114 521.000000
1401.319458 520.000000
1402.971069 511.000000
1404.621460 500.000000
1406.270752 549.000000
1407.919312 402.000000
1409.566772 557.000000
1411.213257 473.000000
1412.858887 436.000000
1414.503540 383.000000
1416.146973 500.000000
1417.789551 438.000000
1419.431030 585.000000
1421.071655 596.000000
1422.711304 534.000000
1424.349854 484.000000
1425.987549 548.000000
1427.624146 518.000000
1429.259766 520.000000
1430.894653 380.000000
1432.528442 520.000000
1434.161133 484.000000
1435.792847 447.000000
1437.423706 528.000000
1439.053467 425.000000
1440.682129 452.000000
1442.310181 480.000000
1443.937134 366.000000
1445.562866 524.000000
1447.187988 511.000000
1448.812012 412.000000
1450.435059 465.000000
1452.057129 440.000000
1453.678101 484.000000
1455.298096 466.000000
1456.917358 356.000000
1458.535278 442.000000
1460.152588 367.000000
1461.768921 500.000000
1463.384033 476.000000
1464.998291 515.000000
1466.611694 460.000000
1468.223999 494.000000
1469.835449 411.000000
1471.446045 556.000000
1473.055420 470.000000
1474.663818 399.000000
1476.271362 441.000000
1477.877930 550.000000
1479.483765 504.000000
1481.088379 483.000000
1482.692139 442.000000
1484.294678 402.000000
1485.896606 455.000000
1487.497314 467.000000
1489.097290 438.000000
1490.696167 472.000000
1492.294189 429.000000
1493.891113 406.000000
1495.487183 466.000000
1497.082275 443.000000
1498.676392 420.000000
1500.269775 475.000000
1501.862061 461.000000
1503.453125 460.000000
1505.043701 382.000000
1506.632935 473.000000
1508.221558 358.000000
1509.809082 399.000000
1511.395508 499.000000
1512.981201 544.000000
1514.565796 418.000000
1516.149536 452.000000
1517.732178 470.000000
1519.314087 462.000000
1520.894897 457.000000
1522.474976 424.000000
1524.053833 376.000000
1525.631836 416.000000
1527.209106 407.000000
1528.785156 434.000000
1530.360474 376.000000
1531.934692 384.000000
1533.508179 376.000000
1535.080444 410.000000
1536.651978 337.000000
1538.222534 508.000000
1539.792236 351.000000
1541.360718 428.000000
1542.928467 416.000000
1544.495361 467.000000
1546.061035 393.000000
1547.625977 334.000000
1549.189819 440.000000
1550.753052 512.000000
1552.314941 458.000000
1553.876221 362.000000
1555.436401 520.000000
1556.995850 492.000000
1558.554199 384.000000
1560.111816 425.000000
1561.668335 344.000000
1563.223633 340.000000
1564.778320 371.000000
1566.332275 371.000000
1567.885254 334.000000
1569.436890 395.000000
1570.987793 289.000000
1572.537964 390.000000
1574.087158 447.000000
1575.635010 340.000000
1577.182373 358.000000
1578.728760 378.000000
1580.274292 352.000000
1581.818848 342.000000
1583.362183 415.000000
1584.904907 381.000000
1586.446777 328.000000
1587.987549 419.000000
1589.527344 387.000000
1591.066406 450.000000
1592.604370 323.000000
1594.141846 375.000000
1595.677979 386.000000
1597.213013 397.000000
1598.747559 416.000000
1600.281128 366.000000
1601.813843 461.000000
1603.344971 397.000000
1604.875854 379.000000
1606.405884 359.000000
1607.934692 312.000000
1609.462402 346.000000
1610.989502 417.000000
1612.515869 381.000000
1614.041260 354.000000
1615.565796 377.000000
1617.088989 325.000000
1618.611450 410.000000
1620.133179 383.000000
1621.654053 388.000000
1623.173462 319.000000
1624.692383 299.000000
1626.210571 405.000000
1627.727905 406.000000
1629.244141 359.000000
1630.759033 390.000000
1632.273438 411.000000
1633.787109 395.000000
1635.299683 347.000000
1636.811035 353.000000
1638.322021 379.000000
1639.831909 358.000000
1641.340942 310.000000
1642.848633 354.000000
1644.355957 365.000000
1645.862427 306.000000
1647.367920 340.000000
1648.872559 240.000000
1650.375732 315.000000
1651.878296 366.000000
1653.380493 313.000000
1654.881348 320.000000
1656.381104 236.000000
1657.880005 414.000000
1659.378540 292.000000
1660.875854 337.000000
1662.372437 297.000000
1663.867432 345.000000
1665.362183 277.000000
1666.856079 264.000000
1668.348999 339.000000
1669.840576 294.000000
1671.331665 229.000000
1672.822144 294.000000
1674.311523 323.000000
1675.799438 314.000000
1677.287109 260.000000
1678.773804 287.000000
1680.259644 300.000000
1681.744629 383.000000
1683.228149 341.000000
1684.711426 292.000000
1686.193848 283.000000
1687.675171 296.000000
1689.155029 330.000000
1690.634644 314.000000
1692.113525 304.000000
1693.591431 304.000000
1695.068359 304.000000
1696.544067 308.000000
1698.019409 255.000000
1699.493530 269.000000
1700.967041 241.000000
1702.439087 292.000000
1703.910889 263.000000
1705.381714 366.000000
1706.851685 318.000000
1708.320313 302.000000
1709.788452 332.000000
1711.255859 299.000000
1712.722168 364.000000
1714.187866 260.000000
1715.651855 364.000000
1717.115723 376.000000
1718.578735 319.000000
1720.040771 313.000000
1721.501587 288.000000
1722.961792 316.000000
1724.421265 347.000000
1725.879883 242.000000
1727.337524 278.000000
1728.793823 255.000000
1730.249878 256.000000
1731.704956 370.000000
1733.159058 267.000000
1734.611938 351.000000
1736.064575 351.000000
1737.516113 464.000000
1738.966919 345.000000
1740.416748 290.000000
1741.865234 222.000000
1743.313354 273.000000
1744.760620 244.000000
1746.207153 366.000000
1747.652100 268.000000
1749.096802 212.000000
1750.540649 198.000000
1751.983643 312.000000
1753.425171 332.000000
1754.866455 285.000000
1756.306885 355.000000
1757.746338 244.000000
1759.184814 277.000000
1760.622314 288.000000
1762.059326 238.000000
1763.495361 227.000000
1764.930542 123.000000
1766.364258 318.000000
1767.797852 221.000000
1769.230469 304.000000
1770.662231 235.000000
1772.093140 234.000000
1773.522827 320.000000
1774.951782 238.000000
1776.380249 264.000000
1777.807739 294.000000
1779.233887 191.000000
1780.659790 256.000000
1782.084595 232.000000
1783.508789 245.000000
1784.931519 160.000000
1786.353760 362.000000
1787.775269 59.000000
1789.196045 228.000000
1790.615845 167.000000
1792.034302 240.000000
1793.452271 224.000000
1794.869629 318.000000
1796.286133 212.000000
1797.701172 262.000000
1799.115845 157.000000
1800.529907 227.000000
1801.942749 192.000000
1803.354980 268.000000
1804.765869 211.000000
1806.176270 239.000000
1807.585938 254.000000
1808.994629 185.000000
1810.402222 249.000000
1811.809326 150.000000
1813.215576 187.000000
1814.620850 300.000000
1816.025024 258.000000
1817.428833 263.000000
1818.831665 199.000000
1820.233643 246.000000
1821.635010 245.000000
1823.034912 280.000000
1824.434204 146.000000
1825.833008 186.000000
1827.230957 220.000000
1828.627563 190.000000
1830.023560 208.000000
1831.418823 136.000000
1832.813477 232.000000
1834.207153 289.000000
1835.599487 151.000000
1836.991333 252.000000
1838.382568 245.000000
1839.772827 192.000000
1841.161865 107.000000
1842.550537 295.000000
1843.938232 237.000000
1845.325195 278.000000
1846.710815 191.000000
1848.096191 254.000000
1849.480713 270.000000
1850.864502 167.000000
1852.247192 237.000000
1853.628662 215.000000
1855.009644 221.000000
1856.390137 256.000000
1857.769653 247.000000
1859.147705 189.000000
1860.525635 250.000000
1861.902588 123.000000
1863.278809 301.000000
1864.654175 134.000000
1866.028076 191.000000
1867.401855 197.000000
1868.774780 279.000000
1870.146606 222.000000
1871.517456 53.000000
1872.887939 310.000000
1874.257324 198.000000
1875.626221 210.000000
1876.993530 201.000000
1878.360718 245.000000
1879.726929 172.000000
1881.092407 208.000000
1882.457153 155.000000
1883.820313 222.000000
1885.183350 189.000000
1886.545532 112.000000
1887.906860 147.000000
1889.266846 158.000000
1890.626465 196.000000
1891.985474 218.000000
1893.343506 137.000000
1894.700684 278.000000
1896.056641 231.000000
1897.412354 364.000000
1898.767090 184.000000
1900.120972 246.000000
1901.473755 221.000000
1902.826050 165.000000
1904.177612 100.000000
1905.528320 192.000000
1906.877808 155.000000
1908.226807 226.000000
1909.574951 194.000000
1910.922485 192.000000
1912.269287 213.000000
1913.614502 130.000000
1914.959473 208.000000
1916.303711 252.000000
1917.647095 208.000000
1918.989136 141.000000
1920.330933 220.000000
1921.671875 193.000000
1923.012085 177.000000
1924.351318 196.000000
1925.689575 153.000000
1927.027222 132.000000
1928.364136 150.000000
1929.700195 182.000000
1931.035034 116.000000
1932.369507 42.000000
1933.703247 184.000000
1935.036133 97.000000
1936.367554 173.000000
1937.699097 184.000000
1939.029297 157.000000
1940.359009 144.000000
1941.687866 74.000000
1943.015503 235.000000
1944.342651 144.000000
1945.669067 55.000000
1946.994751 65.000000
1948.319092 120.000000
1949.643188 213.000000
1950.966431 143.000000
1952.288940 213.000000
1953.610352 189.000000
1954.930786 88.000000
1956.250610 266.000000
1957.570068 123.000000
1958.888550 107.000000
1960.205688 134.000000
1961.522461 157.000000
1962.838501 81.000000
1964.153809 254.000000
1965.467651 89.000000
1966.781250 187.000000
1968.094116 101.000000
1969.406128 90.000000
1970.717529 177.000000
1972.027588 102.000000
1973.337158 82.000000
1974.645996 183.000000
1975.954224 131.000000
1977.261108 170.000000
1978.567383 196.000000
1979.873291 148.000000
1981.177979 190.000000
1982.482178 153.000000
1983.785156 141.000000
1985.087769 75.000000
1986.389404 128.000000
1987.690430 183.000000
1988.989868 143.000000
1990.289429 203.000000
1991.587891 90.000000
1992.885864 159.000000
1994.182251 170.000000
1995.478638 161.000000
1996.774048 191.000000
1998.068726 187.000000
1999.362549 146.000000
2000.655151 156.000000
2001.947266 99.000000
2003.238892 19.000000
2004.529785 142.000000
2005.819092 173.000000
2007.108154 156.000000
2008.396484 113.000000
2009.684082 51.000000
2010.970825 104.000000
2012.256470 167.000000
2013.541748 65.000000
2014.826050 89.000000
2016.109741 98.000000
2017.392090 124.000000
2018.674072 129.000000
2019.955566 77.000000
2021.236084 113.000000
2022.515869 120.000000
2023.794556 109.000000
2025.072510 122.000000
2026.349976 62.000000
2027.626831 186.000000
2028.901978 101.000000
2030.177246 111.000000
2031.451538 128.000000
2032.724854 63.000000
2033.997314 88.000000
2035.269409 121.000000
2036.540405 125.000000
2037.811157 121.000000
2039.080566 145.000000
2040.348877 8.000000
2041.617188 54.000000
2042.884521 89.000000
2044.151123 71.000000
2045.416504 67.000000
2046.681274 392.000000
2047.945801 101.000000
2049.208984 181.000000
2050.471924 81.000000
2051.732910 50.000000
2052.994385 84.000000
2054.254639 143.000000
2055.514160 121.000000
2056.772949 130.000000
2058.030762 115.000000
2059.288086 105.000000
2060.544678 87.000000
2061.799805 86.000000
2063.054932 131.000000
2064.309082 170.000000
2065.562500 174.000000
2066.815186 110.000000
2068.066650 33.000000
2069.317871 105.000000
2070.568359 139.000000
2071.818115 97.000000
2073.066406 463.000000
2074.314697 146.000000
2075.562012 102.000000
2076.808594 94.000000
2078.054443 106.000000
2079.299072 43.000000
2080.543213 157.000000
2081.786865 31.000000
2083.029541 171.000000
2084.270996 65.000000
2085.512207 94.000000
2086.752930 106.000000
2087.992676 67.000000
2089.231201 51.000000
2090.469238 135.000000
2091.706543 160.000000
2092.943604 103.000000
2094.179199 94.000000
2095.414063 114.000000
2096.648682 87.000000
2097.882324 144.000000
2099.114990 125.000000
2100.346924 32.000000
2101.578369 173.000000
2102.808838 82.000000
2104.038574 137.000000
2105.268066 111.000000
2106.495605 132.000000
2107.723389 65.000000
2108.950439 33.000000
2110.176514 101.000000
2111.401123 34.000000
2112.625977 128.000000
2113.849609 122.000000
2115.072754 -15.000000
2116.294678 86.000000
2117.516357 56.000000
2118.737061 72.000000
2119.957031 69.000000
2121.176514 15.000000
2122.394531 76.000000
2123.612549 16.000000
2124.829590 151.000000
2126.046143 106.000000
2127.260986 49.000000
2128.476074 205.000000
2129.690186 99.000000
2130.903564 127.000000
2132.116211 60.000000
2133.327393 159.000000
2134.538818 62.000000
2135.749023 63.000000
2136.958740 77.000000
2138.166992 71.000000
2139.375244 70.000000
2140.582764 124.000000
2141.789063 43.000000
2142.994629 74.000000
2144.199951 62.000000
2145.404297 116.000000
2146.607910 84.000000
2147.811035 26.000000
2149.012695 84.000000
2150.214111 103.000000
2151.414795 37.000000
2152.614746 120.000000
2153.813477 97.000000
2155.011963 64.000000
2156.209961 62.000000
2157.406982 138.000000
2158.603271 47.000000
2159.798340 31.000000
2160.993164 51.000000
2162.187256 35.000000
2163.380371 92.000000
2164.572510 105.000000
2165.764404 102.000000
2166.955566 65.000000
2168.145752 30.000000
2169.335205 60.000000
2170.524170 133.000000
2171.712158 57.000000
2172.899902 74.000000
2174.086182 35.000000
2175.271729 31.000000
2176.457031 106.000000
2177.641846 77.000000
2178.825439 83.000000
2180.008301 139.000000
2181.190186 6.000000
2182.371826 153.000000
2183.552979 102.000000
2184.732910 62.000000
2185.911865 -23.000000
2187.090332 44.000000
2188.268555 105.000000
2189.445557 16.000000
2190.621582 117.000000
2191.797363 194.000000
2192.972656 108.000000
2194.146484 142.000000
2195.319824 56.000000
2196.492920 -13.000000
2197.664795 104.000000
2198.836182 40.000000
2200.007080 128.000000
2201.176270 119.000000
2202.345459 42.000000
2203.514160 73.000000
2204.681885 108.000000
2205.848633 40.000000
2207.014648 54.000000
2208.180176 15.000000
2209.345459 81.000000
2210.509277 124.000000
2211.672607 52.000000
2212.834717 15.000000
2213.997070 186.000000
2215.158203 103.000000
2216.318359 145.000000
2217.478027 175.000000
2218.637451 17.000000
2219.795654 196.000000
2220.952881 21.000000
2222.109863 139.000000
2223.266113 66.000000
2224.421631 79.000000
2225.576416 56.000000
2226.730225 114.000000
2227.883057 135.000000
2229.036377 60.000000
2230.187744 57.000000
2231.338867 37.000000
2232.489258 43.000000
2233.639160 109.000000
2234.788086 -9.000000
2235.936523 127.000000
2237.083496 90.000000
2238.230713 138.000000
2239.376709 107.000000
2240.522461 86.000000
2241.666504 37.000000
2242.810791 113.000000
2243.954102 67.000000
2245.096680 42.000000
2246.238281 36.000000
2247.379639 126.000000
2248.520020 70.000000
2249.659668 115.000000
2250.798828 57.000000
2251.936768 84.000000
2253.074707 68.000000
2254.211670 105.000000
2255.347900 54.000000
2256.483154 67.000000
2257.617676 39.000000
2258.751953 103.000000
2259.885742 14.000000
2261.018066 96.000000
2262.149902 122.000000
2263.281250 89.000000
2264.411621 147.000000
2265.541748 -28.000000
2266.670654 23.000000
2267.799072 32.000000
2268.927002 94.000000
2270.053955 26.000000
2271.180176 77.000000
2272.305420 27.000000
2273.430664 -4.000000
2274.555176 115.000000
2275.678467 85.000000
2276.801025 102.000000
2277.923096 78.000000
2279.044678 44.000000
2280.165527 102.000000
2281.285156 46.000000
2282.404297 -23.000000
2283.523193 112.000000
2284.641357 119.000000
2285.758545 24.000000
2286.874756 -5.000000
2287.990723 33.000000
2289.105957 128.000000
2290.220459 37.000000
2291.333740 -56.000000
2292.447021 -35.000000
2293.559570 81.000000
2294.671387 -13.000000
2295.782471 85.000000
2296.892334 49.000000
2298.001709 1.000000
2299.110840 162.000000
2300.218994 102.000000
2301.326172 75.000000
2302.433105 123.000000
2303.539307 115.000000
2304.645020 81.000000
2305.749268 79.000000
2306.853271 11.000000
2307.956787 27.000000
2309.059814 107.000000
2310.161621 46.000000
2311.262695 75.000000
2312.363281 2.000000
2313.463379 58.000000
2314.562744 74.000000
2315.660645 17.000000
2316.759033 14.000000
2317.855957 25.000000
2318.952637 101.000000
2320.048828 107.000000
2321.143311 10.000000
2322.237793 92.000000
2323.331543 18.000000
2324.425049 133.000000
2325.516846 151.000000
2326.608643 304.000000
2327.699707 119.000000
2328.790039 136.000000
2329.879395 125.000000
2330.968750 198.000000
2332.056885 153.000000
2333.144531 170.000000
2334.231934 59.000000
2335.317627 114.000000
2336.403076 73.000000
2337.488281 1.000000
2338.572510 81.000000
2339.655762 1.000000
2340.738770 1.000000
2341.820801 293.000000
2342.902588 -70.000000
2343.983643 91.000000
2345.063477 -30.000000
2346.142822 93.000000
2347.221680 90.000000
2348.300049 176.000000
2349.376953 -49.000000
2350.453613 16.000000
2351.530029 61.000000
2352.605469 -4.000000
2353.679932 108.000000
2354.754150 42.000000
2355.827637 60.000000
2356.900635 29.000000
2357.972412 20.000000
2359.043945 105.000000
2360.114502 31.000000
2361.184814 45.000000
2362.254150 95.000000
2363.322510 -4.000000
2364.390625 62.000000
2365.458008 58.000000
2366.524902 47.000000
2367.591064 93.000000
2368.656006 103.000000
2369.720947 -61.000000
2370.785156 -16.000000
2371.848633 71.000000
2372.910889 74.000000
2373.973145 106.000000
2375.034424 19.000000
2376.095459 57.000000
2377.155273 86.000000
2378.214355 8.000000
2379.273438 33.000000
2380.331543 78.000000
2381.388916 134.000000
2382.445313 13.000000
2383.501465 109.000000
2384.557129 -2.000000
2385.612061 -36.000000
2386.665527 128.000000
2387.719238 67.000000
2388.771973 27.000000
2389.824219 140.000000
2390.875732 111.000000
2391.926270 45.000000
2392.976563 23.000000
2394.025879 -54.000000
2395.075195 -8.000000
2396.123047 22.000000
2397.170410 102.000000
2398.217529 -27.000000
2399.263672 68.000000
2400.309082 0.000000
2401.353760 -16.000000
2402.398438 -1.000000
2403.441650 -118.000000
2404.484863 72.000000
2405.526611 136.000000
2406.568604 120.000000
2407.609863 -38.000000
2408.650146 71.000000
2409.689697 -61.000000
2410.728271 12.000000
2411.767090 31.000000
2412.804688 101.000000
2413.842041 41.000000
2414.878174 6.000000
2415.914063 5.000000
2416.949219 -2.000000
2417.983887 -95.000000
2419.017090 -14.000000
2420.050537 96.000000
2421.083008 19.000000
2422.115234 -40.000000
2423.145996 126.000000
2424.176758 76.000000
2425.207031 -12.000000
2426.236084 50.000000
2427.265137 -20.000000
2428.292480 99.000000
2429.320313 40.000000
2430.346924 -24.000000
2431.373291 61.000000
2432.398193 16.000000
2433.423340 50.000000
2434.447510 -12.000000
2435.471436 101.000000
2436.494141 54.000000
2437.516113 65.000000
2438.537842 16.000000
2439.558838 43.000000
2440.579346 13.000000
2441.598633 -7.000000
2442.617920 65.000000
2443.636230 44.000000
2444.654297 -29.000000
2445.670898 33.000000
2446.687500 -25.000000
2447.703369 57.000000
2448.719238 21.000000
2449.733643 -3.000000
2450.747314 73.000000
2451.760498 59.000000
2452.773438 45.000000
2453.785645 -26.000000
2454.796875 7.000000
2455.807861 -83.000000
2456.818115 31.000000
2457.827881 9.000000
2458.836670 77.000000
2459.844727 -47.000000
2460.852783 50.000000
2461.859619 -61.000000
2462.866211 122.000000
2463.871582 -18.000000
2464.876709 86.000000
2465.881592 45.000000
2466.885254 13.000000
2467.888672 41.000000
2468.891113 61.000000
2469.893311 20.000000
2470.895020 66.000000
2471.895752 38.000000
2472.895508 -45.000000
2473.895264 69.000000
2474.894043 55.000000
2475.892334 132.000000
2476.889648 24.000000
2477.886719 -6.000000
2478.883789 -30.000000
2479.879395 89.000000
2480.875000 23.000000
2481.868896 -25.000000
2482.862793 52.000000
2483.856201 52.000000
2484.849121 2.000000
2485.841064 -22.000000
2486.832275 -3.000000
2487.823242 0.000000
2488.813721 56.000000
2489.803223 25.000000
2490.791992 -93.000000
2491.780762 -39.000000
2492.768555 20.000000
2493.755127 24.000000
2494.741699 43.000000
2495.727783 6.000000
2496.713135 -38.000000
2497.697510 20.000000
2498.681641 45.000000
2499.665771 -9.000000
2500.648438 44.000000
2501.630615 47.000000
2502.612305 49.000000
2503.593262 2.000000
2504.573730 94.000000
2505.553955 52.000000
2506.532715 121.000000
2507.511230 -86.000000
2508.489258 24.000000
2509.466797 -41.000000
2510.443359 -40.000000
2511.419678 1.000000
2512.395264 -47.000000
2513.370361 8.000000
2514.344971 2.000000
2515.318359 -44.000000
2516.291504 15.000000
2517.264404 22.000000
2518.236328 64.000000
2519.207520 32.000000
2520.178223 64.000000
2521.148682 10.000000
2522.118408 64.000000
2523.087158 21.000000
2524.055176 -53.000000
2525.023193 80.000000
2525.990234 56.000000
2526.957031 60.000000
2527.922607 106.000000
2528.888184 38.000000
2529.853027 -88.000000
2530.817383 -3.000000
2531.780518 32.000000
2532.743896 -24.000000
2533.706299 -40.000000
2534.668457 -16.000000
2535.629395 -23.000000
2536.589600 75.000000
2537.550049 16.000000
2538.509521 81.000000
2539.468262 -15.000000
2540.426025 89.000000
2541.384033 13.000000
2542.341309 33.000000
2543.297607 21.000000
2544.253662 41.000000
2545.208496 9.000000
2546.163574 29.000000
2547.117920 10.000000
2548.071533 -106.000000
2549.024170 3.000000
2549.976563 -10.000000
2550.928467 -38.000000
2551.879639 75.000000
2552.830078 -212.000000
2553.780029 62.000000
2554.729736 -28.000000
2555.678711 -8.000000
2556.627197 14.000000
2557.574463 112.000000
2558.521729 12.000000
2559.468262 53.000000
2560.414307 -21.000000
2561.359375 44.000000
2562.304199 4.000000
2563.248535 24.000000
2564.192383 35.000000
2565.135742 29.000000
2566.077637 7.000000
2567.019775 -36.000000
2567.961182 -20.000000
2568.901855 -42.000000
2569.841797 -33.000000
2570.781738 34.000000
2571.720703 -32.000000
2572.659424 -112.000000
2573.597168 68.000000
2574.534668 18.000000
2575.471436 -1.000000
2576.407471 -4.000000
2577.343018 156.000000
2578.277832 125.000000
2579.212646 -28.000000
2580.146484 -30.000000
2581.079834 -179.000000
2582.012451 0.000000
2582.944824 -23.000000
2583.876465 0.000000
2584.807617 16.000000
2585.738281 5.000000
2586.667725 12.000000
2587.597168 -87.000000
2588.526123 -24.000000
2589.454834 91.000000
2590.381836 43.000000
2591.309082 -4.000000
2592.235840 41.000000
2593.161865 64.000000
2594.087646 -42.000000
2595.012207 -67.000000
2595.936523 44.000000
2596.860352 -14.000000
2597.783691 -83.000000
2598.706055 -17.000000
2599.628174 98.000000
2600.549805 1.000000
2601.470703 40.000000
2602.390869 -22.000000
2603.310791 -19.000000
2604.230225 39.000000
2605.149414 2.000000
2606.067627 48.000000
2606.984619 53.000000
2607.901855 30.000000
2608.818848 37.000000
2609.734863 81.000000
2610.649658 -91.000000
2611.564941 -15.000000
2612.479492 -108.000000
2613.393066 6.000000
2614.306641 45.000000
2615.218994 -49.000000
2616.131348 -6.000000
2617.042725 1.000000
2617.953857 -4.000000
2618.864258 -74.000000
2619.774414 43.000000
2620.683838 -57.000000
2621.592773 -15.000000
2622.500732 1.000000
2623.408936 -20.000000
2624.316162 19.000000
2625.222900 -5.000000
2626.128906 -33.000000
2627.034668 -34.000000
2627.939697 -19.000000
2628.844482 19.000000
2629.748535 -91.000000
2630.651611 21.000000
2631.554688 20.000000
2632.456787 18.000000
2633.358887 -34.000000
2634.260742 3.000000
2635.160889 6.000000
2636.061279 44.000000
2636.960938 40.000000
2637.860352 117.000000
2638.758301 -6.000000
2639.656738 -33.000000
2640.554688 -25.000000
2641.451904 -68.000000
2642.347900 2.000000
2643.243896 28.000000
2644.139648 31.000000
2645.034668 -63.000000
2645.929443 16.000000
2646.822754 -56.000000
2647.716064 32.000000
2648.609131 -63.000000
2649.501953 38.000000
2650.393066 -1.000000
2651.284424 12.000000
2652.175293 -67.000000
2653.065430 -70.000000
2653.955322 -28.000000
2654.843994 -31.000000
2655.732910 12.000000
2656.621338 15.000000
2657.508789 23.000000
2658.395264 8.000000
2659.282227 93.000000
2660.168457 40.000000
2661.054199 -86.000000
2661.938721 78.000000
2662.823242 29.000000
2663.707520 -14.000000
2664.591064 -8.000000
2665.474121 9.000000
2666.356445 5.000000
2667.238281 31.000000
2668.119385 -29.000000
2669.000732 -23.000000
2669.880615 -39.000000
2670.760742 -6.000000
2671.640137 81.000000
2672.519531 50.000000
2673.398193 -18.000000
2674.275146 18.000000
2675.152832 -28.000000
2676.029785 26.000000
2676.906006 -67.000000
2677.781738 8.000000
2678.656738 -21.000000
2679.531982 28.000000
2680.406250 56.000000
2681.280029 34.000000
2682.153076 12.000000
2683.025879 66.000000
2683.898438 36.000000
2684.770264 -11.000000
2685.641357 -92.000000
2686.512207 24.000000
2687.382568 16.000000
2688.252686 5.000000
2689.121094 -95.000000
2689.990234 -65.000000
2690.858643 -60.000000
2691.726807 92.000000
2692.594238 -35.000000
2693.460449 17.000000
2694.327148 14.000000
2695.192871 -7.000000
2696.058594 37.000000
2696.922852 22.000000
2697.787842 69.000000
2698.651367 -32.000000
2699.515137 18.000000
2700.377441 -14.000000
2701.240234 8.000000
2702.102051 -34.000000
2702.963379 40.000000
2703.824707 32.000000
2704.684814 0.000000
2705.544922 64.000000
2706.404541 -77.000000
2707.263916 -36.000000
2708.121582 -36.000000
2708.979492 -9.000000
2709.837891 -7.000000
2710.695068 -53.000000
2711.551514 20.000000
2712.407471 13.000000
2713.263428 -13.000000
2714.118652 21.000000
2714.973145 -6.000000
2715.827148 -55.000000
2716.681152 6.000000
2717.534180 -51.000000
2718.387451 31.000000
2719.239014 -27.000000
2720.091064 -27.000000
2720.942871 -21.000000
2721.793457 23.000000
2722.644043 -21.000000
2723.494141 -31.000000
2724.343506 35.000000
2725.192871 -71.000000
2726.041016 -11.000000
2726.888672 -49.000000
2727.736816 46.000000
2728.583740 -11.000000
2729.431152 29.000000
2730.277100 -19.000000
2731.122314 22.000000
2731.968018 -4.000000
2732.812744 21.000000
2733.657471 -23.000000
2734.500977 -51.000000
2735.344727 -36.000000
2736.187744 -67.000000
2737.030273 -6.000000
2737.871826 6.000000
2738.713867 6.000000
2739.554932 -53.000000
2740.395752 -39.000000
2741.236328 -55.000000
2742.075684 28.000000
2742.915039 16.000000
2743.754395 -22.000000
2744.592529 45.000000
2745.430176 105.000000
2746.267822 39.000000
2747.104980 -32.000000
2747.941895 8.000000
2748.778320 -23.000000
2749.613525 -11.000000
2750.448975 -9.000000
2751.283936 -36.000000
2752.118164 -15.000000
2752.952148 -55.000000
2753.785645 37.000000
2754.619141 26.000000
2755.451660 -92.000000
2756.283691 -11.000000
2757.115234 -67.000000
2757.946777 14.000000
2758.777344 5.000000
2759.608154 -31.000000
2760.437744 -129.000000
2761.267334 -38.000000
2762.096680 -28.000000
2762.925293 55.000000
2763.753418 18.000000
2764.581055 -54.000000
2765.408691 0.000000
2766.235840 47.000000
2767.062256 -3.000000
2767.888184 -140.000000
2768.713623 45.000000
2769.538818 -52.000000
2770.364014 -25.000000
2771.187988 -18.000000
2772.011963 -4.000000
2772.835938 -50.000000
2773.658691 -25.000000
2774.481689 -155.000000
2775.303467 56.000000
2776.125244 55.000000
2776.947021 -4.000000
2777.767822 -1.000000
2778.587891 -25.000000
2779.408203 5.000000
2780.228027 -26.000000
2781.047852 -12.000000
2781.865723 -75.000000
2782.684814 -42.000000
2783.502686 -73.000000
2784.320313 -61.000000
2785.137451 -64.000000
2785.954102 -91.000000
2786.770508 -36.000000
2787.586426 -71.000000
2788.402100 3.000000
2789.216797 21.000000
2790.031982 -39.000000
2790.846436 -32.000000
2791.660400 31.000000
2792.474121 69.000000
2793.286621 -58.000000
2794.099365 46.000000
2794.911621 92.000000
2795.723389 70.000000
2796.534424 11.000000
2797.346191 -84.000000
2798.156738 -9.000000
2798.967285 -76.000000
2799.776367 1.000000
2800.586182 -3.000000
2801.395264 -56.000000
2802.204102 54.000000
2803.012451 -5.000000
2803.819824 -73.000000
2804.627686 -29.000000
2805.434814 47.000000
2806.241699 -24.000000
2807.047363 -85.000000
2807.853516 -22.000000
2808.658936 21.000000
2809.464355 -94.000000
2810.269043 -5.000000
2811.072754 -7.000000
2811.876953 -35.000000
2812.680664 -78.000000
2813.484131 83.000000
2814.286133 -59.000000
2815.088867 -2.000000
2815.890869 47.000000
2816.692627 36.000000
2817.493896 -66.000000
2818.294678 -78.000000
2819.094971 -40.000000
2819.895508 -65.000000
2820.695068 -7.000000
2821.494141 -104.000000
2822.293213 -49.000000
2823.092041 -116.000000
2823.890381 -83.000000
2824.687744 -58.000000
2825.485352 -47.000000
2826.282227 -17.000000
2827.079346 -5.000000
2827.875732 -93.000000
2828.671387 -16.000000
2829.467041 -35.000000
2830.262451 10.000000
2831.057373 -9.000000
2831.851563 2.000000
2832.645752 28.000000
2833.439697 126.000000
2834.233154 -47.000000
2835.025879 -50.000000
2835.818359 -69.000000
2836.610840 -81.000000
2837.403076 -48.000000
2838.194824 -53.000000
2838.985596 -59.000000
2839.776367 -47.000000
2840.567383 22.000000
2841.357422 47.000000
2842.146973 22.000000
2842.936768 -150.000000
2843.725586 -10.000000
2844.514404 -20.000000
2845.303223 -39.000000
2846.091064 -15.000000
2846.878418 61.000000
2847.666016 -140.000000
2848.453125 39.000000
2849.239502 -70.000000
2850.025879 -6.000000
2850.812012 -14.000000
2851.597656 -16.000000
2852.382324 6.000000
2853.167480 -40.000000
2853.952393 -27.000000
2854.736572 120.000000
2855.520752 7.000000
2856.303711 -52.000000
2857.086914 16.000000
2857.869873 -14.000000
2858.652344 71.000000
2859.434570 27.000000
2860.216309 -40.000000
2860.997803 40.000000
2861.779541 -71.000000
2862.560547 -66.000000
2863.340820 -46.000000
2864.120850 59.000000
2864.900879 -85.000000
2865.680664 -57.000000
2866.459473 -24.000000
2867.238525 -43.000000
2868.017090 -102.000000
2868.795410 2.000000
2869.573242 3.000000
2870.350830 16.000000
2871.128174 -94.000000
2871.905273 -81.000000
2872.681885 36.000000
2873.458008 -33.000000
2874.234131 -61.000000
2875.009766 -25.000000
2875.785156 -23.000000
2876.560059 -63.000000
2877.334717 -1.000000
2878.109375 -74.000000
2878.883789 -14.000000
2879.657471 25.000000
2880.430420 66.000000
2881.204102 -141.000000
2881.976807 -29.000000
2882.749512 -128.000000
2883.521484 10.000000
2884.293213 -76.000000
2885.065430 15.000000
2885.836426 -18.000000
2886.606934 25.000000
2887.377930 11.000000
2888.148926 -44.000000
2888.919189 46.000000
2889.688477 -73.000000
2890.458008 10.000000
2891.227539 -47.000000
2891.996582 -1.000000
2892.765137 29.000000
2893.533691 38.000000
2894.301270 -4.000000
2895.069336 -6.000000
2895.836914 -101.000000
2896.604492 19.000000
2897.370850 -72.000000
2898.138184 -19.000000
2898.904297 -68.000000
2899.670654 -18.000000
2900.435547 -50.000000
2901.200928 -3.000000
2901.966797 -2.000000
2902.731201 44.000000
2903.495605 -19.000000
2904.260254 23.000000
2905.023926 -66.000000
2905.788330 -136.000000
2906.552002 12.000000
2907.314941 -54.000000
2908.077637 18.000000
2908.840820 3.000000
2909.603516 -64.000000
2910.364990 23.000000
2911.126953 23.000000
spectrumdark 2048
-97.103783 6204.000000
-94.476913 6204.000000
-91.851921 6038.000000
-89.228821 6422.000000
-86.607590 5802.000000
-83.988258 6237.000000
-81.370789 6020.000000
-78.755196 6416.000000
-76.141479 6257.000000
-73.529640 5889.000000
-70.919662 6138.000000
-68.311569 5981.000000
-65.705322 5929.000000
-63.100948 5983.000000
-60.498440 6122.000000
-57.897785 5648.000000
-55.298992 6259.000000
-52.702057 6846.000000
-50.106976 6499.000000
-47.513748 6508.000000
-44.922371 6261.000000
-42.332840 6726.000000
-39.745152 5904.000000
-37.159313 6075.000000
-34.575317 6496.000000
-31.993160 5655.000000
-29.412848 6328.000000
-26.834362 5701.000000
-24.257719 6150.000000
-21.682901 6289.000000
-19.109924 6467.000000
-16.538767 6493.000000
-13.969442 6842.000000
-11.401944 7753.000000
-8.836265 6327.000000
-6.272411 6547.000000
-3.710371 6039.000000
-1.150154 5837.000000
1.408254 6187.000000
3.964840 6942.000000
6.519623 6650.000000
9.072588 6019.000000
11.623753 6771.000000
14.173104 6498.000000
16.720659 6568.000000
19.266403 6057.000000
21.810354 5703.000000
24.352501 6703.000000
26.892851 6757.000000
29.431416 6816.000000
31.968184 6211.000000
34.503151 5786.000000
37.036339 7246.000000
39.567745 6394.000000
42.097359 7132.000000
44.625175 6530.000000
47.151234 7848.000000
49.675503 5713.000000
52.198002 6228.000000
54.718704 6732.000000
57.237652 6261.000000
59.754826 6448.000000
62.270222 6646.000000
64.783836 5625.000000
67.295700 5701.000000
69.805817 6531.000000
72.314140 6537.000000
74.820709 6005.000000
77.325531 6318.000000
79.828598 6494.000000
82.329887 6287.000000
84.829437 6118.000000
87.327232 6374.000000
89.823296 5741.000000
92.317581 7317.000000
94.810127 5778.000000
97.300957 6912.000000
99.790016 7164.000000
102.277328 6423.000000
104.762917 6251.000000
107.246765 6421.000000
109.728867 5720.000000
112.209244 6597.000000
114.687897 6250.000000
117.164825 6447.000000
119.639999 7331.000000
122.113464 6797.000000
124.585197 5950.000000
127.055222 6773.000000
129.523499 6311.000000
131.990097 6282.000000
134.454941 5739.000000
136.918091 6161.000000
139.379501 7303.000000
141.839218 6866.000000
144.297211 6425.000000
146.753510 6022.000000
149.208099 5815.000000
151.660965 6827.000000
154.112152 6464.000000
156.561646 6510.000000
159.009415 6048.000000
161.455475 6623.000000
163.899857 8722.000000
166.342560 6484.000000
168.783569 6781.000000
171.222870 6193.000000
173.660461 7210.000000
176.096420 6584.000000
178.530640 6921.000000
180.963181 7090.000000
183.394073 6746.000000
185.823242 6788.000000
188.250763 6680.000000
190.676605 6318.000000
193.100769 6705.000000
195.523270 7168.000000
197.944077 7376.000000
200.363220 6489.000000
202.780701 6077.000000
205.196487 7562.000000
207.610626 7020.000000
210.023132 6333.000000
212.433960 6042.000000
214.843109 6275.000000
217.250626 7444.000000
219.656433 6217.000000
222.060654 6507.000000
224.463165 6709.000000
226.864059 6878.000000
229.263306 6401.000000
231.660889 6847.000000
234.056808 7327.000000
236.451111 6482.000000
238.843750 5841.000000
241.234772 6806.000000
243.624130 6615.000000
246.011871 6346.000000
248.397964 6957.000000
250.782425 6122.000000
253.165237 7820.000000
255.546478 6666.000000
257.925995 6721.000000
260.303955 6546.000000
262.680237 7536.000000
265.054962 7580.000000
267.428040 7873.000000
269.799469 6190.000000
272.169250 6421.000000
274.537476 5945.000000
276.904053 6265.000000
279.269043 6703.000000
281.632416 5989.000000
283.994141 6287.000000
286.354279 7114.000000
288.712799 5935.000000
291.069733 6523.000000
293.425049 6346.000000
295.778778 5986.000000
298.130859 5949.000000
300.481384 6319.000000
302.830322 6382.000000
305.177612 6788.000000
307.523376 6429.000000
309.867462 6483.000000
312.210022 7363.000000
314.550964 7488.000000
316.890289 7169.000000
319.228058 6886.000000
321.564270 7955.000000
323.898834 6298.000000
326.231842 6492.000000
328.563293 5966.000000
330.893158 6596.000000
333.221436 6358.000000
335.548096 7240.000000
337.873260 6324.000000
340.196808 6180.000000
342.518799 5996.000000
344.839233 7517.000000
347.158051 7700.000000
349.475311 5984.000000
351.791046 5832.000000
354.105194 6965.000000
356.417755 6330.000000
358.728760 6484.000000
361.038239 7120.000000
363.346191 6365.000000
365.652527 5646.000000
367.957275 6428.000000
370.260559 6409.000000
372.562225 6285.000000
374.862396 6398.000000
377.161011 6320.000000
379.458069 5969.000000
381.753571 6111.000000
384.047546 5831.000000
386.339935 5200.000000
388.630829 5652.000000
390.920197 6194.000000
393.207977 6247.000000
395.494232 6499.000000
397.778992 6981.000000
400.062134 6000.000000
402.343842 6353.000000
404.624023 6066.000000
406.902618 7223.000000
409.179688 6434.000000
411.455231 6672.000000
413.729248 6298.000000
416.001831 6197.000000
418.272797 6175.000000
420.542267 6300.000000
422.810242 7104.000000
425.076660 7188.000000
427.341583 6282.000000
429.605042 6254.000000
431.866913 6489.000000
434.127319 5949.000000
436.386169 6572.000000
438.643555 6145.000000
440.899445 5693.000000
443.153839 5791.000000
445.406708 5454.000000
447.658020 6908.000000
449.907928 6051.000000
452.156250 6298.000000
454.403137 5686.000000
456.648560 6520.000000
458.892426 6484.000000
461.134796 6827.000000
463.375671 5600.000000
465.615143 6725.000000
467.853027 5472.000000
470.089478 5873.000000
472.324402 6075.000000
474.557861 7232.000000
476.789886 6706.000000
479.020386 5796.000000
481.249390 6467.000000
483.476929 6271.000000
485.702972 5937.000000
487.927582 6545.000000
490.150726 5833.000000
492.372406 6346.000000
494.592529 6679.000000
496.811249 5683.000000
499.028473 6214.000000
501.244324 5566.000000
503.458557 6164.000000
505.671478 6506.000000
507.882813 6403.000000
510.092712 6853.000000
512.301208 6457.000000
514.508301 6560.000000
516.713806 6449.000000
518.917908 6554.000000
521.120483 6162.000000
523.321655 6606.000000
525.521484 6636.000000
527.719788 6934.000000
529.916565 5285.000000
532.112000 5829.000000
534.305908 5529.000000
536.498474 7545.000000
538.689514 6701.000000
540.879150 6019.000000
543.067383 6927.000000
545.254089 7099.000000
547.439331 6814.000000
549.623291 6195.000000
551.805664 6439.000000
553.986694 6203.000000
556.166199 6070.000000
558.344421 5944.000000
560.521118 6010.000000
562.696411 6362.000000
564.870300 6414.000000
567.042725 5840.000000
569.213745 6041.000000
571.383301 6316.000000
573.551575 5265.000000
575.718323 6440.000000
577.883606 6265.000000
580.047485 6134.000000
582.210083 5753.000000
584.371155 6023.000000
586.530823 5704.000000
588.689148 5787.000000
590.845947 6113.000000
593.001404 6614.000000
595.155457 5735.000000
597.308167 6225.000000
599.459351 7230.000000
601.609192 6774.000000
603.757690 6621.000000
605.904602 6026.000000
608.050293 6498.000000
610.194580 6456.000000
612.337402 6985.000000
614.478760 6219.000000
616.618896 6457.000000
618.757507 7604.000000
620.894836 5700.000000
623.030701 6623.000000
625.165161 6923.000000
627.298157 7182.000000
629.429993 6616.000000
631.560364 6561.000000
633.689331 6723.000000
635.816833 6438.000000
637.943054 6157.000000
640.067749 7272.000000
642.191223 6330.000000
644.313354 6823.000000
646.434021 6881.000000
648.553345 6610.000000
650.671265 5693.000000
652.787842 5656.000000
654.903015 6451.000000
657.016846 6439.000000
659.129211 5809.000000
661.240356 6098.000000
663.350098 5440.000000
665.458374 6019.000000
667.565491 6274.000000
669.671143 6766.000000
671.775330 5648.000000
673.878296 5657.000000
675.979858 6958.000000
678.080078 5344.000000
680.178894 6688.000000
682.276367 6173.000000
684.372559 6938.000000
686.467285 6196.000000
688.560791 6964.000000
690.652954 6580.000000
692.743591 7875.000000
694.833008 6625.000000
696.921143 6440.000000
699.007813 6073.000000
701.093262 6672.000000
703.177185 5134.000000
705.259888 5886.000000
707.341309 5960.000000
709.421265 7566.000000
711.500000 6296.000000
713.577271 5609.000000
715.653259 6553.000000
717.727966 6076.000000
719.801392 6916.000000
721.873291 6324.000000
723.944031 7447.000000
726.013428 5750.000000
728.081421 6493.000000
730.148071 6340.000000
732.213501 7005.000000
734.277588 5775.000000
736.340332 6185.000000
738.401733 6494.000000
740.461853 6560.000000
742.520569 6006.000000
744.578064 6634.000000
746.634277 6430.000000
748.689087 6689.000000
750.742615 6384.000000
752.794739 7489.000000
754.845642 5764.000000
756.895325 6609.000000
758.943542 6330.000000
760.990540 6097.000000
763.036255 7026.000000
765.080566 5312.000000
767.123596 5779.000000
769.165405 14957.000000
771.205872 6999.000000
773.244934 6356.000000
775.282837 6065.000000
777.319397 5938.000000
779.354736 5358.000000
781.388733 5818.000000
783.421326 6888.000000
785.452759 5498.000000
787.482788 12092.000000
789.511536 6041.000000
791.539124 6313.000000
793.565369 6385.000000
795.590210 5836.000000
797.613953 5588.000000
799.636292 6371.000000
801.657410 5775.000000
803.677185 6626.000000
805.695679 4896.000000
807.712952 6717.000000
809.728821 6831.000000
811.743530 5710.000000
813.756897 6400.000000
815.769043 6220.000000
817.779968 6078.000000
819.789551 6662.000000
821.797913 5292.000000
823.804871 5669.000000
825.810608 6032.000000
827.815125 5733.000000
829.818359 5604.000000
831.820313 6473.000000
833.820984 5978.000000
835.820435 5949.000000
837.818542 6394.000000
839.815552 6940.000000
841.811157 6227.000000
843.805603 6104.000000
845.798706 6131.000000
847.790588 6820.000000
849.781128 5560.000000
851.770386 6743.000000
853.758606 5965.000000
855.745422 5715.000000
857.731018 6413.000000
859.715332 7277.000000
861.698547 6306.000000
863.680359 6366.000000
865.660950 5814.000000
867.640259 7727.000000
869.618408 6999.000000
871.595215 6225.000000
873.570740 5889.000000
875.545227 6164.000000
877.518250 5999.000000
879.490234 5386.000000
881.460876 6378.000000
883.430359 6094.000000
885.398499 5588.000000
887.365479 5163.000000
889.331116 6121.000000
891.295593 5768.000000
893.258850 6012.000000
895.220886 6449.000000
897.181641 5823.000000
899.141174 6375.000000
901.099426 6713.000000
903.056580 6313.000000
905.012573 6091.000000
906.967163 6891.000000
908.920532 6539.000000
910.872742 6438.000000
912.823730 6438.000000
914.773438 7074.000000
916.721985 6354.000000
918.669312 6166.000000
920.615356 6112.000000
922.560120 6048.000000
924.503845 6237.000000
926.446411 5904.000000
928.387695 5549.000000
930.327637 6444.000000
932.266479 5681.000000
934.204041 5466.000000
936.140381 5908.000000
938.075562 5847.000000
940.009460 6149.000000
941.942261 5931.000000
943.873840 6785.000000
945.804260 5201.000000
947.733459 6411.000000
949.661316 6983.000000
951.588135 6667.000000
953.513672 5951.000000
955.437927 5343.000000
957.361084 5991.000000
959.283081 6742.000000
961.203796 7294.000000
963.123352 6470.000000
965.041748 5335.000000
966.959106 6443.000000
968.875000 6501.000000
970.789795 6116.000000
972.703369 5945.000000
974.615784 6354.000000
976.526978 6474.000000
978.437012 5550.000000
980.345764 6192.000000
982.253479 6167.000000
984.159973 6309.000000
986.065247 5760.000000
987.969421 6793.000000
989.872375 6113.000000
991.774109 6826.000000
993.674683 6671.000000
995.574097 6577.000000
997.472290 5282.000000
999.369324 6455.000000
1001.265137 6525.000000
1003.159790 7694.000000
1005.053345 5555.000000
1006.945618 7136.000000
1008.836975 6083.000000
1010.726990 5342.000000
1012.615784 6604.000000
1014.503418 6275.000000
1016.389893 6812.000000
1018.275208 6615.000000
1020.159363 5997.000000
1022.042297 5857.000000
1023.924194 6234.000000
1025.804810 5208.000000
1027.684326 5834.000000
1029.562866 6074.000000
1031.440063 5418.000000
1033.315918 6217.000000
1035.190796 5912.000000
1037.064697 6656.000000
1038.937134 6992.000000
1040.808594 6752.000000
1042.678711 5454.000000
1044.547852 5509.000000
1046.415771 5768.000000
1048.282593 7060.000000
1050.148315 6792.000000
1052.012817 6480.000000
1053.876221 6475.000000
1055.738281 6432.000000
1057.599365 5973.000000
1059.459351 6472.000000
1061.317993 6600.000000
1063.175537 5806.000000
1065.031982 6716.000000
1066.887329 5902.000000
1068.741455 5764.000000
1070.594727 6249.000000
1072.446533 6261.000000
1074.297363 6137.000000
1076.146973 6144.000000
1077.995361 5768.000000
1079.842896 7935.000000
1081.689087 5639.000000
1083.534058 6203.000000
1085.378174 5444.000000
1087.220947 5920.000000
1089.062500 6550.000000
1090.903320 5462.000000
1092.742554 5803.000000
1094.581055 6077.000000
1096.418213 6041.000000
1098.254150 6788.000000
1100.089111 6605.000000
1101.922852 5418.000000
1103.755615 5490.000000
1105.587036 6190.000000
1107.417603 7241.000000
1109.246826 6499.000000
1111.075073 6497.000000
1112.902100 7104.000000
1114.728149 5420.000000
1116.552979 6311.000000
1118.376709 7150.000000
1120.199219 6058.000000
1122.020630 5772.000000
1123.841187 5921.000000
1125.660278 6570.000000
1127.478516 7092.000000
1129.295410 6809.000000
1131.111450 6581.000000
1132.926270 6447.000000
1134.739990 5608.000000
1136.552612 5812.000000
1138.364014 5647.000000
1140.174438 6122.000000
1141.983765 6722.000000
1143.791748 6892.000000
1145.598999 5908.000000
1147.404785 5967.000000
1149.209717 5397.000000
1151.013550 5429.000000
1152.816162 6173.000000
1154.617920 6097.000000
1156.418213 6035.000000
1158.217529 6122.000000
1160.015869 5870.000000
1161.812866 5459.000000
1163.609131 5903.000000
1165.404053 6051.000000
1167.197876 6328.000000
1168.990845 7745.000000
1170.782471 5742.000000
1172.573120 6491.000000
1174.362793 5971.000000
1176.151001 5900.000000
1177.938354 7487.000000
1179.724609 6744.000000
1181.509766 5743.000000
1183.293823 6051.000000
1185.076782 7669.000000
1186.858765 5862.000000
1188.639526 5924.000000
1190.419312 6310.000000
1192.197998 6890.000000
1193.975708 6710.000000
1195.752197 7136.000000
1197.527588 6572.000000
1199.301880 6500.000000
1201.075073 6688.000000
1202.847412 6453.000000
1204.618408 6721.000000
1206.388550 5768.000000
1208.157471 6141.000000
1209.925293 6285.000000
1211.692261 5715.000000
1213.457886 5863.000000
1215.222534 6916.000000
1216.986084 6551.000000
1218.748535 5883.000000
1220.510132 6771.000000
1222.270508 5907.000000
1224.029785 6228.000000
1225.788208 6067.000000
1227.545410 7055.000000
1229.301514 6406.000000
1231.056519 5522.000000
1232.810669 5984.000000
1234.563477 5803.000000
1236.315308 6007.000000
1238.066284 5941.000000
1239.815918 4928.000000
1241.564697 7004.000000
1243.312134 6478.000000
1245.058838 6603.000000
1246.804321 6458.000000
1248.548950 6404.000000
1250.292236 6724.000000
1252.034546 6716.000000
1253.775757 5382.000000
1255.516113 5064.000000
1257.255371 5792.000000
1258.993408 6601.000000
1260.730591 7076.000000
1262.466553 6172.000000
1264.201538 6457.000000
1265.935547 7272.000000
1267.668579 5887.000000
1269.400391 6173.000000
1271.131226 6400.000000
1272.860840 7222.000000
1274.589600 5920.000000
1276.317261 5695.000000
1278.043823 5538.000000
1279.769531 5544.000000
1281.493896 6409.000000
1283.217407 5173.000000
1284.939941 6887.000000
1286.661499 6536.000000
1288.381836 6225.000000
1290.101196 6662.000000
1291.819458 7231.000000
1293.536743 6410.000000
1295.253052 5737.000000
1296.968140 6382.000000
1298.682251 6145.000000
1300.395386 5758.000000
1302.107666 6456.000000
1303.818726 8274.000000
1305.528809 5573.000000
1307.237793 6270.000000
1308.945557 6705.000000
1310.652710 6993.000000
1312.358398 5824.000000
1314.063354 6902.000000
1315.767334 6164.000000
1317.470093 5951.000000
1319.171875 6522.000000
1320.872803 6053.000000
1322.572388 18452.500000
1324.271118 30852.000000
1325.969116 5543.000000
1327.665771 6532.000000
1329.361328 7151.000000
1331.056030 6813.000000
1332.749512 5761.000000
1334.442139 5375.000000
1336.133911 7064.000000
1337.824341 6191.000000
1339.514038 6558.000000
1341.202637 6102.000000
1342.890137 7598.000000
1344.576660 5609.000000
1346.262085 6683.000000
1347.946533 5856.000000
1349.630127 7248.000000
1351.312500 6381.000000
1352.993896 5942.000000
1354.674438 6539.000000
1356.353760 6664.000000
1358.032471 5825.000000
1359.709839 6515.000000
1361.386108 5757.000000
1363.061401 5539.000000
1364.735962 6576.000000
1366.409302 6462.000000
1368.081665 6815.000000
1369.753052 5091.000000
1371.423462 6710.000000
1373.092773 6189.000000
1374.761108 5741.000000
1376.428589 5954.000000
1378.094971 6470.000000
1379.760376 6069.000000
1381.424805 5871.000000
1383.088013 5903.000000
1384.750610 5676.000000
1386.411865 6393.000000
1388.072266 6567.000000
1389.731567 6447.000000
1391.389893 6470.000000
1393.047485 6869.000000
1394.703857 6434.000000
1396.359375 7002.000000
1398.013672 6310.000000
1399.667114 5796.000000
1401.319458 6094.000000
1402.971069 6492.000000
1404.621460 7188.000000
1406.270752 6261.000000
1407.919312 7557.000000
1409.566772 7868.000000
1411.213257 6157.000000
1412.858887 6260.000000
1414.503540 6062.000000
1416.146973 7051.000000
1417.789551 7185.000000
1419.431030 6807.000000
1421.071655 6389.000000
1422.711304 6469.000000
1424.349854 6079.000000
1425.987549 6606.000000
1427.624146 6323.000000
1429.259766 5999.000000
1430.894653 6382.000000
1432.528442 5830.000000
1434.161133 6109.000000
1435.792847 5643.000000
1437.423706 6083.000000
1439.053467 6096.000000
1440.682129 7780.000000
1442.310181 5978.000000
1443.937134 6179.000000
1445.562866 6163.000000
1447.187988 6140.000000
1448.812012 6525.000000
1450.435059 6060.000000
1452.057129 6034.000000
1453.678101 7310.000000
1455.298096 6277.000000
1456.917358 6930.000000
1458.535278 5664.000000
1460.152588 14405.000000
1461.768921 5540.000000
1463.384033 7218.000000
1464.998291 6229.000000
1466.611694 5205.000000
1468.223999 5638.000000
1469.835449 6209.000000
1471.446045 6332.000000
1473.055420 5983.000000
1474.663818 6011.000000
1476.271362 6240.000000
1477.877930 6679.000000
1479.483765 5224.000000
1481.088379 6267.000000
1482.692139 5502.000000
1484.294678 6776.000000
1485.896606 5531.000000
1487.497314 5501.000000
1489.097290 5654.000000
1490.696167 6224.000000
1492.294189 6448.000000
1493.891113 6687.000000
1495.487183 6338.000000
1497.082275 6013.000000
1498.676392 5532.000000
1500.269775 6544.000000
1501.862061 5506.000000
1503.453125 5965.000000
1505.043701 6758.000000
1506.632935 6400.000000
1508.221558 6160.000000
1509.809082 6528.000000
1511.395508 6823.000000
1512.981201 6168.000000
1514.565796 6644.000000
1516.149536 6176.000000
1517.732178 6240.000000
1519.314087 6551.000000
1520.894897 6612.000000
1522.474976 6037.000000
1524.053833 6236.000000
1525.631836 6368.000000
1527.209106 6279.000000
1528.785156 5649.000000
1530.360474 5951.000000
1531.934692 6336.000000
1533.508179 5465.000000
1535.080444 5898.000000
1536.651978 6398.000000
1538.222534 6334.000000
1539.792236 6305.000000
1541.360718 5435.000000
1542.928467 6484.000000
1544.495361 5540.000000
1546.061035 6756.000000
1547.625977 5971.000000
1549.189819 5039.000000
1550.753052 7412.000000
1552.314941 6248.000000
1553.876221 6012.000000
1555.436401 5683.000000
1556.995850 5759.000000
1558.554199 5920.000000
1560.111816 6268.000000
1561.668335 7041.000000
1563.223633 5891.000000
1564.778320 6347.000000
1566.332275 5601.000000
1567.885254 6125.000000
1569.436890 5639.000000
1570.987793 5958.000000
1572.537964 6183.000000
1574.087158 6306.000000
1575.635010 5855.000000
1577.182373 5534.000000
1578.728760 5676.000000
1580.274292 5059.000000
1581.818848 6617.000000
1583.362183 6323.000000
1584.904907 6568.000000
1586.446777 6465.000000
1587.987549 6695.000000
1589.527344 5811.000000
1591.066406 6662.000000
1592.604370 5908.000000
1594.141846 6127.000000
1595.677979 5882.000000
1597.213013 6687.000000
1598.747559 6192.000000
1600.281128 5956.000000
1601.813843 5727.000000
1603.344971 6232.000000
1604.875854 6270.000000
1606.405884 5765.000000
1607.934692 6160.000000
1609.462402 6171.000000
1610.989502 5973.000000
1612.515869 5845.000000
1614.041260 6227.000000
1615.565796 5844.000000
1617.088989 5782.000000
1618.611450 5591.000000
1620.133179 6566.000000
1621.654053 6974.000000
1623.173462 15572.000000
1624.692383 6132.000000
1626.210571 6018.000000
1627.727905 5864.000000
1629.244141 6401.000000
1630.759033 6981.000000
1632.273438 6660.000000
1633.787109 5760.000000
1635.299683 6829.000000
1636.811035 5903.000000
1638.322021 6395.000000
1639.831909 6241.000000
1641.340942 6208.000000
1642.848633 5638.000000
1644.355957 6075.000000
1645.862427 7107.000000
1647.367920 6298.000000
1648.872559 6921.000000
1650.375732 6189.000000
1651.878296 6550.000000
1653.380493 6346.000000
1654.881348 6616.000000
1656.381104 7522.000000
1657.880005 5899.000000
1659.378540 6537.000000
1660.875854 6177.000000
1662.372437 5896.000000
1663.867432 6408.000000
1665.362183 6350.000000
1666.856079 5242.000000
1668.348999 5586.000000
1669.840576 21001.000000
1671.331665 6497.000000
1672.822144 6108.000000
1674.311523 5957.000000
1675.799438 6933.000000
1677.287109 6842.000000
1678.773804 6014.000000
1680.259644 5364.000000
1681.744629 6050.000000
1683.228149 6166.000000
1684.711426 6205.000000
1686.193848 5868.000000
1687.675171 6236.000000
1689.155029 6164.000000
1690.634644 5545.000000
1692.113525 6563.000000
1693.591431 6340.000000
1695.068359 6117.000000
1696.544067 5721.000000
1698.019409 6015.000000
1699.493530 6310.000000
1700.967041 5478.000000
1702.439087 5606.000000
1703.910889 6859.000000
1705.381714 6339.000000
1706.851685 7068.000000
1708.320313 5169.000000
1709.788452 5840.000000
1711.255859 6386.000000
1712.722168 5439.000000
1714.187866 5761.000000
1715.651855 6175.000000
1717.115723 5960.000000
1718.578735 6944.000000
1720.040771 6330.000000
1721.501587 6550.000000
1722.961792 5419.000000
1724.421265 5629.000000
1725.879883 6145.000000
1727.337524 5981.000000
1728.793823 6261.000000
1730.249878 6059.000000
1731.704956 6403.000000
1733.159058 6007.000000
1734.611938 6815.000000
1736.064575 5870.000000
1737.516113 6682.000000
1738.966919 5910.000000
1740.416748 6542.000000
1741.865234 5930.000000
1743.313354 7305.000000
1744.760620 6580.000000
1746.207153 6565.000000
1747.652100 6688.000000
1749.096802 6216.000000
1750.540649 5867.000000
1751.983643 5504.000000
1753.425171 6475.000000
1754.866455 6348.000000
1756.306885 19301.000000
1757.746338 6286.000000
1759.184814 5284.000000
1760.622314 6043.000000
1762.059326 7548.000000
1763.495361 5854.000000
1764.930542 7221.000000
1766.364258 6132.000000
1767.797852 6438.000000
1769.230469 6669.000000
1770.662231 5888.000000
1772.093140 5711.000000
1773.522827 6296.000000
1774.951782 6157.000000
1776.380249 6198.000000
1777.807739 6689.000000
1779.233887 6275.000000
1780.659790 5621.000000
1782.084595 6895.000000
1783.508789 5600.000000
1784.931519 6662.000000
1786.353760 6527.000000
1787.775269 6931.000000
1789.196045 5926.000000
1790.615845 6180.000000
1792.034302 6137.000000
1793.452271 6855.000000
1794.869629 5475.000000
1796.286133 6045.000000
1797.701172 6512.000000
1799.115845 5882.000000
1800.529907 6595.000000
1801.942749 6023.000000
1803.354980 6907.000000
1804.765869 7141.000000
1806.176270 7792.000000
1807.585938 6487.000000
1808.994629 5938.000000
1810.402222 5406.000000
1811.809326 6462.000000
1813.215576 6368.000000
1814.620850 6666.000000
1816.025024 5948.000000
1817.428833 5956.000000
1818.831665 6205.000000
1820.233643 6029.000000
1821.635010 5840.000000
1823.034912 6333.000000
1824.434204 6472.000000
1825.833008 6547.000000
1827.230957 7403.000000
1828.627563 5772.000000
1830.023560 6767.000000
1831.418823 5937.000000
1832.813477 8119.000000
1834.207153 5998.000000
1835.599487 6833.000000
1836.991333 6419.000000
1838.382568 5882.000000
1839.772827 7087.000000
1841.161865 6104.000000
1842.550537 6042.000000
1843.938232 5982.000000
1845.325195 5729.000000
1846.710815 6907.000000
1848.096191 5825.000000
1849.480713 6332.000000
1850.864502 6304.000000
1852.247192 6410.000000
1853.628662 5422.000000
1855.009644 6542.000000
1856.390137 6285.000000
1857.769653 5668.000000
1859.147705 5949.000000
1860.525635 6213.000000
1861.902588 7916.000000
1863.278809 6034.000000
1864.654175 6093.000000
1866.028076 5638.000000
1867.401855 5686.000000
1868.774780 6144.000000
1870.146606 5936.000000
1871.517456 6978.000000
1872.887939 5369.000000
1874.257324 6036.000000
1875.626221 6113.000000
1876.993530 7112.000000
1878.360718 5993.000000
1879.726929 5995.000000
1881.092407 6804.000000
1882.457153 7447.000000
1883.820313 6760.000000
1885.183350 6911.000000
1886.545532 6414.000000
1887.906860 6445.000000
1889.266846 5622.000000
1890.626465 5768.000000
1891.985474 6146.000000
1893.343506 6640.000000
1894.700684 7206.000000
1896.056641 5893.000000
1897.412354 7577.000000
1898.767090 5852.000000
1900.120972 5508.000000
1901.473755 5928.000000
1902.826050 6007.000000
1904.177612 5955.000000
1905.528320 6853.000000
1906.877808 6525.000000
1908.226807 6652.000000
1909.574951 5755.000000
1910.922485 6154.000000
1912.269287 6286.000000
1913.614502 6847.000000
1914.959473 6037.000000
1916.303711 5378.000000
1917.647095 6464.000000
1918.989136 6049.000000
1920.330933 6635.000000
1921.671875 6966.000000
1923.012085 6152.000000
1924.351318 6244.000000
1925.689575 6271.000000
1927.027222 6483.000000
1928.364136 6981.000000
1929.700195 6733.000000
1931.035034 5589.000000
1932.369507 6750.000000
1933.703247 7274.000000
1935.036133 6294.000000
1936.367554 5778.000000
1937.699097 6362.000000
1939.029297 6600.000000
1940.359009 5812.000000
1941.687866 6133.000000
1943.015503 5780.000000
1944.342651 5033.000000
1945.669067 5856.000000
1946.994751 6572.000000
1948.319092 5735.000000
1949.643188 6605.000000
1950.966431 6303.000000
1952.288940 6381.000000
1953.610352 5781.000000
1954.930786 7442.000000
1956.250610 5934.000000
1957.570068 5570.000000
1958.888550 6834.000000
1960.205688 5946.000000
1961.522461 5816.000000
1962.838501 6540.000000
1964.153809 6536.000000
1965.467651 6269.000000
1966.781250 5669.000000
1968.094116 6233.000000
1969.406128 6028.000000
1970.717529 5992.000000
1972.027588 6306.000000
1973.337158 5863.000000
1974.645996 6146.000000
1975.954224 6581.000000
1977.261108 6105.000000
1978.567383 7165.000000
1979.873291 5574.000000
1981.177979 6397.000000
1982.482178 5919.000000
1983.785156 5702.000000
1985.087769 7603.000000
1986.389404 6125.000000
1987.690430 6675.000000
1988.989868 6098.000000
1990.289429 6620.000000
1991.587891 5294.000000
1992.885864 6039.000000
1994.182251 6115.000000
1995.478638 5745.000000
1996.774048 5552.000000
1998.068726 6449.000000
1999.362549 5683.000000
2000.655151 6514.000000
2001.947266 5686.000000
2003.238892 7208.000000
2004.529785 6431.000000
2005.819092 6226.000000
2007.108154 6789.000000
2008.396484 5937.000000
2009.684082 6084.000000
2010.970825 6843.000000
2012.256470 5656.000000
2013.541748 6402.000000
2014.826050 6023.000000
2016.109741 5613.000000
2017.392090 6034.000000
2018.674072 6457.000000
2019.955566 6757.000000
2021.236084 5879.000000
2022.515869 6094.000000
2023.794556 6760.000000
2025.072510 5819.000000
2026.349976 5930.000000
2027.626831 6282.000000
2028.901978 5756.000000
2030.177246 6584.000000
2031.451538 6058.000000
2032.724854 5925.000000
2033.997314 5989.000000
2035.269409 6093.000000
2036.540405 6949.000000
2037.811157 6588.000000
2039.080566 5979.000000
2040.348877 6767.000000
2041.617188 6631.000000
2042.884521 5959.000000
2044.151123 5984.000000
2045.416504 5634.000000
2046.681274 5575.000000
2047.945801 5430.000000
2049.208984 5803.000000
2050.471924 6397.000000
2051.732910 6184.000000
2052.994385 6131.000000
2054.254639 5896.000000
2055.514160 6431.000000
2056.772949 6287.000000
2058.030762 6849.000000
2059.288086 6190.000000
2060.544678 5996.000000
2061.799805 6498.000000
2063.054932 5631.000000
2064.309082 5582.000000
2065.562500 5580.000000
2066.815186 6837.000000
2068.066650 6252.000000
2069.317871 6255.000000
2070.568359 5577.000000
2071.818115 5400.000000
2073.066406 6151.000000
2074.314697 6473.000000
2075.562012 7491.000000
2076.808594 5594.000000
2078.054443 6041.000000
2079.299072 7046.000000
2080.543213 7570.000000
2081.786865 5523.000000
2083.029541 6057.000000
2084.270996 6962.000000
2085.512207 5952.000000
2086.752930 6317.000000
2087.992676 6754.000000
2089.231201 7078.000000
2090.469238 6152.000000
2091.706543 5773.000000
2092.943604 6623.000000
2094.179199 6064.000000
2095.414063 6176.000000
2096.648682 6036.000000
2097.882324 5538.000000
2099.114990 6075.000000
2100.346924 6880.000000
2101.578369 6396.000000
2102.808838 6768.000000
2104.038574 5936.000000
2105.268066 5966.000000
2106.495605 5972.000000
2107.723389 5977.000000
2108.950439 6308.000000
2110.176514 5445.000000
2111.401123 6448.000000
2112.625977 6888.000000
2113.849609 6999.000000
2115.072754 6277.000000
2116.294678 7491.000000
2117.516357 6005.000000
2118.737061 6828.000000
2119.957031 6026.000000
2121.176514 6162.000000
2122.394531 6570.000000
2123.612549 7046.000000
2124.829590 5765.000000
2126.046143 5789.000000
2127.260986 6613.000000
2128.476074 6312.000000
2129.690186 6745.000000
2130.903564 5694.000000
2132.116211 6115.000000
2133.327393 5802.000000
2134.538818 6569.000000
2135.749023 6670.000000
2136.958740 5929.000000
2138.166992 6179.000000
2139.375244 5653.000000
2140.582764 5907.000000
2141.789063 7604.000000
2142.994629 5918.000000
2144.199951 5675.000000
2145.404297 5498.000000
2146.607910 6310.000000
2147.811035 6261.000000
2149.012695 6541.000000
2150.214111 5295.000000
2151.414795 6336.000000
2152.614746 6008.000000
2153.813477 6058.000000
2155.011963 6950.000000
2156.209961 6210.000000
2157.406982 5984.000000
2158.603271 5197.000000
2159.798340 5292.000000
2160.993164 6169.000000
2162.187256 5573.000000
2163.380371 6001.000000
2164.572510 6867.000000
2165.764404 5892.000000
2166.955566 6291.000000
2168.145752 6343.000000
2169.335205 6474.000000
2170.524170 6771.000000
2171.712158 6016.000000
2172.899902 5751.000000
2174.086182 5951.000000
2175.271729 6585.000000
2176.457031 5938.000000
2177.641846 5805.000000
2178.825439 6391.000000
2180.008301 7478.000000
2181.190186 6342.000000
2182.371826 6020.000000
2183.552979 6575.000000
2184.732910 5699.000000
2185.911865 5609.000000
2187.090332 6380.000000
2188.268555 6865.000000
2189.445557 7254.000000
2190.621582 6638.000000
2191.797363 6015.000000
2192.972656 5592.000000
2194.146484 6646.000000
2195.319824 6136.000000
2196.492920 6176.000000
2197.664795 6378.000000
2198.836182 7113.000000
2200.007080 6320.000000
2201.176270 6869.000000
2202.345459 7561.000000
2203.514160 6296.000000
2204.681885 5847.000000
2205.848633 5688.000000
2207.014648 7134.000000
2208.180176 6727.000000
2209.345459 6005.000000
2210.509277 6743.000000
2211.672607 5424.000000
2212.834717 6209.000000
2213.997070 6103.000000
2215.158203 6670.000000
2216.318359 6606.000000
2217.478027 6233.000000
2218.637451 6631.000000
2219.795654 6279.000000
2220.952881 6381.000000
2222.109863 6724.000000
2223.266113 6574.000000
2224.421631 6798.000000
2225.576416 6259.000000
2226.730225 6343.000000
2227.883057 5984.000000
2229.036377 6916.000000
2230.187744 6197.000000
2231.338867 6206.000000
2232.489258 6527.000000
2233.639160 7645.000000
2234.788086 6361.000000
2235.936523 5178.000000
2237.083496 6737.000000
2238.230713 6979.000000
2239.376709 6062.000000
2240.522461 7274.000000
2241.666504 7365.000000
2242.810791 6698.000000
2243.954102 6135.000000
2245.096680 6016.000000
2246.238281 5804.000000
2247.379639 5811.000000
2248.520020 6384.000000
2249.659668 6430.000000
2250.798828 5808.000000
2251.936768 5829.000000
2253.074707 6203.000000
2254.211670 5296.000000
2255.347900 6353.000000
2256.483154 6112.000000
2257.617676 7251.000000
2258.751953 6363.000000
2259.885742 5461.000000
2261.018066 6175.000000
2262.149902 6785.000000
2263.281250 6323.000000
2264.411621 6430.000000
2265.541748 8139.000000
2266.670654 6695.000000
2267.799072 6071.000000
2268.927002 5514.000000
2270.053955 6169.000000
2271.180176 5954.000000
2272.305420 6734.000000
2273.430664 6546.000000
2274.555176 6385.000000
2275.678467 5954.000000
2276.801025 6269.000000
2277.923096 5968.000000
2279.044678 7373.000000
2280.165527 6359.000000
2281.285156 6428.000000
2282.404297 7142.000000
2283.523193 7601.000000
2284.641357 7207.000000
2285.758545 5922.000000
2286.874756 6485.000000
2287.990723 7009.000000
2289.105957 6818.000000
2290.220459 7411.000000
2291.333740 5853.000000
2292.447021 6407.000000
2293.559570 5987.000000
2294.671387 5409.000000
2295.782471 6779.000000
2296.892334 6422.000000
2298.001709 6199.000000
2299.110840 6610.000000
2300.218994 6343.000000
2301.326172 6734.000000
2302.433105 5860.000000
2303.539307 6246.000000
2304.645020 6540.000000
2305.749268 6551.000000
2306.853271 5484.000000
2307.956787 5780.000000
2309.059814 6536.000000
2310.161621 7425.000000
2311.262695 7326.000000
2312.363281 6600.000000
2313.463379 5548.000000
2314.562744 6384.000000
2315.660645 6582.000000
2316.759033 6989.000000
2317.855957 8184.000000
2318.952637 6896.000000
2320.048828 5785.000000
2321.143311 6880.000000
2322.237793 7566.000000
2323.331543 5837.000000
2324.425049 6013.000000
2325.516846 6422.000000
2326.608643 6832.000000
2327.699707 6117.000000
2328.790039 6323.000000
2329.879395 6935.000000
2330.968750 5984.000000
2332.056885 6292.000000
2333.144531 6871.000000
2334.231934 6563.000000
2335.317627 6667.000000
2336.403076 7720.000000
2337.488281 6329.000000
2338.572510 6742.000000
2339.655762 5915.000000
2340.738770 6482.000000
2341.820801 7145.000000
2342.902588 6050.000000
2343.983643 7380.000000
2345.063477 6618.000000
2346.142822 5673.000000
2347.221680 6782.000000
2348.300049 6461.000000
2349.376953 6336.000000
2350.453613 6956.000000
2351.530029 6071.000000
2352.605469 6433.000000
2353.679932 5883.000000
2354.754150 6349.000000
2355.827637 6741.000000
2356.900635 6251.000000
2357.972412 7038.000000
2359.043945 6226.000000
2360.114502 6791.000000
2361.184814 7522.000000
2362.254150 7482.000000
2363.322510 6832.000000
2364.390625 6728.000000
2365.458008 7071.000000
2366.524902 7104.000000
2367.591064 6033.000000
2368.656006 6801.000000
2369.720947 6989.000000
2370.785156 6366.000000
2371.848633 6896.000000
2372.910889 5683.000000
2373.973145 6303.000000
2375.034424 6370.000000
2376.095459 5956.000000
2377.155273 6256.000000
2378.214355 7970.000000
2379.273438 6482.000000
2380.331543 7584.000000
2381.388916 6844.000000
2382.445313 8016.000000
2383.501465 7764.000000
2384.557129 6241.000000
2385.612061 7029.000000
2386.665527 6764.000000
2387.719238 6596.000000
2388.771973 6328.000000
2389.824219 6679.000000
2390.875732 6127.000000
2391.926270 6640.000000
2392.976563 6508.000000
2394.025879 6245.000000
2395.075195 6194.000000
2396.123047 6914.000000
2397.170410 6984.000000
2398.217529 6353.000000
2399.263672 6642.000000
2400.309082 6152.000000
2401.353760 6772.000000
2402.398438 7721.000000
2403.441650 7587.000000
2404.484863 6581.000000
2405.526611 5728.000000
2406.568604 6640.000000
2407.609863 7206.000000
2408.650146 6091.000000
2409.689697 6415.000000
2410.728271 6392.000000
2411.767090 6069.000000
2412.804688 6548.000000
2413.842041 6871.000000
2414.878174 7278.000000
2415.914063 6264.000000
2416.949219 6303.000000
2417.983887 6689.000000
2419.017090 7215.000000
2420.050537 6425.000000
2421.083008 6672.000000
2422.115234 6914.000000
2423.145996 7034.000000
2424.176758 6338.000000
2425.207031 6875.000000
2426.236084 6845.000000
2427.265137 6705.000000
2428.292480 6901.000000
2429.320313 6733.000000
2430.346924 7283.000000
2431.373291 6930.000000
2432.398193 7774.000000
2433.423340 6566.000000
2434.447510 7146.000000
2435.471436 6630.000000
2436.494141 5861.000000
2437.516113 6296.000000
2438.537842 6701.000000
2439.558838 6677.000000
2440.579346 5993.000000
2441.598633 6502.000000
2442.617920 6541.000000
2443.636230 8439.000000
2444.654297 6294.000000
2445.670898 6463.000000
2446.687500 6592.000000
2447.703369 6007.000000
2448.719238 7006.000000
2449.733643 6881.000000
2450.747314 5543.000000
2451.760498 7244.000000
2452.773438 5955.000000
2453.785645 7237.000000
2454.796875 6666.000000
2455.807861 7723.000000
2456.818115 6356.000000
2457.827881 7551.000000
2458.836670 5946.000000
2459.844727 5961.000000
2460.852783 6294.000000
2461.859619 7440.000000
2462.866211 5366.000000
2463.871582 7412.000000
2464.876709 6918.000000
2465.881592 5836.000000
2466.885254 6601.000000
2467.888672 6360.000000
2468.891113 7544.000000
2469.893311 7408.000000
2470.895020 6808.000000
2471.895752 6619.000000
2472.895508 6948.000000
2473.895264 6717.000000
2474.894043 5673.000000
2475.892334 6516.000000
2476.889648 7034.000000
2477.886719 6113.000000
2478.883789 6850.000000
2479.879395 5803.000000
2480.875000 7121.000000
2481.868896 6713.000000
2482.862793 8107.000000
2483.856201 6856.000000
2484.849121 6743.000000
2485.841064 7526.000000
2486.832275 7263.000000
2487.823242 6734.000000
2488.813721 5789.000000
2489.803223 6590.000000
2490.791992 6581.000000
2491.780762 5663.000000
2492.768555 6801.000000
2493.755127 6578.000000
2494.741699 7948.000000
2495.727783 6738.000000
2496.713135 7086.000000
2497.697510 8383.000000
2498.681641 5996.000000
2499.665771 6864.000000
2500.648438 5756.000000
2501.630615 6981.000000
2502.612305 6874.000000
2503.593262 7245.000000
2504.573730 6453.000000
2505.553955 5712.000000
2506.532715 6295.000000
2507.511230 7653.000000
2508.489258 6735.000000
2509.466797 7091.000000
2510.443359 6096.000000
2511.419678 5983.000000
2512.395264 6470.000000
2513.370361 6238.000000
2514.344971 6518.000000
2515.318359 7540.000000
2516.291504 6762.000000
2517.264404 6808.000000
2518.236328 6109.000000
2519.207520 6801.000000
2520.178223 6885.000000
2521.148682 7772.000000
2522.118408 8069.000000
2523.087158 6114.000000
2524.055176 6131.000000
2525.023193 7734.000000
2525.990234 6308.000000
2526.957031 5526.000000
2527.922607 7188.000000
2528.888184 6986.000000
2529.853027 7797.000000
2530.817383 6340.000000
2531.780518 6360.000000
2532.743896 5913.000000
2533.706299 5988.000000
2534.668457 6711.000000
2535.629395 6433.000000
2536.589600 6133.000000
2537.550049 6158.000000
2538.509521 6708.000000
2539.468262 6862.000000
2540.426025 6679.000000
2541.384033 6243.000000
2542.341309 6776.000000
2543.297607 6065.000000
2544.253662 7057.000000
2545.208496 6251.000000
2546.163574 7775.000000
2547.117920 7012.000000
2548.071533 7067.000000
2549.024170 7230.000000
2549.976563 6747.000000
2550.928467 7010.000000
2551.879639 6429.000000
2552.830078 7798.000000
2553.780029 7228.000000
2554.729736 7398.000000
2555.678711 6661.000000
2556.627197 6266.000000
2557.574463 7073.000000
2558.521729 6289.000000
2559.468262 6528.000000
2560.414307 6767.000000
2561.359375 7416.000000
2562.304199 6699.000000
2563.248535 7210.000000
2564.192383 6792.000000
2565.135742 6647.000000
2566.077637 6545.000000
2567.019775 6574.000000
2567.961182 6185.000000
2568.901855 7153.000000
2569.841797 7290.000000
2570.781738 5714.000000
2571.720703 6177.000000
2572.659424 7555.000000
2573.597168 7178.000000
2574.534668 5484.000000
2575.471436 6981.000000
2576.407471 6807.000000
2577.343018 7431.000000
2578.277832 6320.000000
2579.212646 5941.000000
2580.146484 7094.000000
2581.079834 7246.000000
2582.012451 5879.000000
2582.944824 6981.000000
2583.876465 5422.000000
2584.807617 7048.000000
2585.738281 7001.000000
2586.667725 6839.000000
2587.597168 7267.000000
2588.526123 6485.000000
2589.454834 7317.000000
2590.381836 7318.000000
2591.309082 5895.000000
2592.235840 6799.000000
2593.161865 6243.000000
2594.087646 5642.000000
2595.012207 7677.000000
2595.936523 7591.000000
2596.860352 5411.000000
2597.783691 7302.000000
2598.706055 6273.000000
2599.628174 6779.000000
2600.549805 8254.000000
2601.470703 6402.000000
2602.390869 5981.000000
2603.310791 6347.000000
2604.230225 6411.000000
2605.149414 6429.000000
2606.067627 5841.000000
2606.984619 5978.000000
2607.901855 7278.000000
2608.818848 5903.000000
2609.734863 7518.000000
2610.649658 6714.000000
2611.564941 6601.000000
2612.479492 6616.000000
2613.393066 6567.000000
2614.306641 6153.000000
2615.218994 7648.000000
2616.131348 6971.000000
2617.042725 6756.000000
2617.953857 5670.000000
2618.864258 7263.000000
2619.774414 6624.000000
2620.683838 6195.000000
2621.592773 6625.000000
2622.500732 6296.000000
2623.408936 6806.000000
2624.316162 6644.000000
2625.222900 7062.000000
2626.128906 6086.000000
2627.034668 6644.000000
2627.939697 6488.000000
2628.844482 7768.000000
2629.748535 6561.000000
2630.651611 6369.000000
2631.554688 6376.000000
2632.456787 5668.000000
2633.358887 6772.000000
2634.260742 6950.000000
2635.160889 6707.000000
2636.061279 6396.000000
2636.960938 6400.000000
2637.860352 5960.000000
2638.758301 6888.000000
2639.656738 6803.000000
2640.554688 6421.000000
2641.451904 6156.000000
2642.347900 6164.000000
2643.243896 6793.000000
2644.139648 6102.000000
2645.034668 6507.000000
2645.929443 6600.000000
2646.822754 7093.000000
2647.716064 6318.000000
2648.609131 6797.000000
2649.501953 6438.000000
2650.393066 7425.000000
2651.284424 6418.000000
2652.175293 7668.000000
2653.065430 7343.000000
2653.955322 6581.000000
2654.843994 7295.000000
2655.732910 6640.000000
2656.621338 6600.000000
2657.508789 7255.000000
2658.395264 6507.000000
2659.282227 7103.000000
2660.168457 6824.000000
2661.054199 6864.000000
2661.938721 6435.000000
2662.823242 6394.000000
2663.707520 6227.000000
2664.591064 7080.000000
2665.474121 7756.000000
2666.356445 7266.000000
2667.238281 6160.000000
2668.119385 6607.000000
2669.000732 6080.000000
2669.880615 6561.000000
2670.760742 7341.000000
2671.640137 7133.000000
2672.519531 6203.000000
2673.398193 6152.000000
2674.275146 6450.000000
2675.152832 6787.000000
2676.029785 6402.000000
2676.906006 8142.000000
2677.781738 7204.000000
2678.656738 6293.000000
2679.531982 7750.000000
2680.406250 6956.000000
2681.280029 7317.000000
2682.153076 6945.000000
2683.025879 6187.000000
2683.898438 6101.000000
2684.770264 6952.000000
2685.641357 6619.000000
2686.512207 6854.000000
2687.382568 7107.000000
2688.252686 6742.000000
2689.121094 6345.000000
2689.990234 7407.000000
2690.858643 7101.000000
2691.726807 6619.000000
2692.594238 6857.000000
2693.460449 5891.000000
2694.327148 7151.000000
2695.192871 7370.000000
2696.058594 7190.000000
2696.922852 7911.000000
2697.787842 6599.000000
2698.651367 7235.000000
2699.515137 5828.000000
2700.377441 7425.000000
2701.240234 6742.000000
2702.102051 5995.000000
2702.963379 6863.000000
2703.824707 6720.000000
2704.684814 7423.000000
2705.544922 7241.000000
2706.404541 6643.000000
2707.263916 6871.000000
2708.121582 7188.000000
2708.979492 6875.000000
2709.837891 7338.000000
2710.695068 6774.000000
2711.551514 5931.000000
2712.407471 6868.000000
2713.263428 6130.000000
2714.118652 6901.000000
2714.973145 6124.000000
2715.827148 6810.000000
2716.681152 7312.000000
2717.534180 6313.000000
2718.387451 6470.000000
2719.239014 7772.000000
2720.091064 6761.000000
2720.942871 6289.000000
2721.793457 6418.000000
2722.644043 6452.000000
2723.494141 7137.000000
2724.343506 7010.000000
2725.192871 7087.000000
2726.041016 6673.000000
2726.888672 6604.000000
2727.736816 6975.000000
2728.583740 6817.000000
2729.431152 5587.000000
2730.277100 7471.000000
2731.122314 7012.000000
2731.968018 6406.000000
2732.812744 6983.000000
2733.657471 7371.000000
2734.500977 6891.000000
2735.344727 7853.000000
2736.187744 7188.000000
2737.030273 6078.000000
2737.871826 6254.000000
2738.713867 6822.000000
2739.554932 6931.000000
2740.395752 5833.000000
2741.236328 5948.000000
2742.075684 7753.000000
2742.915039 6816.000000
2743.754395 6923.000000
2744.592529 6783.000000
2745.430176 7661.000000
2746.267822 6391.000000
2747.104980 7141.000000
2747.941895 6242.000000
2748.778320 5979.000000
2749.613525 6659.000000
2750.448975 6282.000000
2751.283936 6319.000000
2752.118164 6260.000000
2752.952148 6927.000000
2753.785645 6775.000000
2754.619141 7980.000000
2755.451660 6895.000000
2756.283691 7273.000000
2757.115234 6823.000000
2757.946777 7102.000000
2758.777344 7248.000000
2759.608154 7290.000000
2760.437744 7386.000000
2761.267334 6682.000000
2762.096680 7293.000000
2762.925293 6816.000000
2763.753418 6777.000000
2764.581055 6949.000000
2765.408691 6688.000000
2766.235840 7859.000000
2767.062256 5813.000000
2767.888184 7534.000000
2768.713623 6862.000000
2769.538818 7813.000000
2770.364014 7070.000000
2771.187988 6791.000000
2772.011963 6533.000000
2772.835938 7645.000000
2773.658691 6435.000000
2774.481689 6933.000000
2775.303467 6894.000000
2776.125244 6923.000000
2776.947021 6527.000000
2777.767822 7950.000000
2778.587891 6570.000000
2779.408203 6996.000000
2780.228027 7259.000000
2781.047852 6467.000000
2781.865723 6029.000000
2782.684814 8057.000000
2783.502686 6576.000000
2784.320313 6767.000000
2785.137451 7159.000000
2785.954102 7291.000000
2786.770508 7183.000000
2787.586426 6361.000000
2788.402100 5910.000000
2789.216797 6382.000000
2790.031982 7027.000000
2790.846436 7147.000000
2791.660400 6590.000000
2792.474121 7393.000000
2793.286621 8749.000000
2794.099365 6958.000000
2794.911621 7407.000000
2795.723389 7192.000000
2796.534424 7386.000000
2797.346191 6591.000000
2798.156738 7205.000000
2798.967285 7047.000000
2799.776367 7364.000000
2800.586182 8181.000000
2801.395264 7815.000000
2802.204102 6586.000000
2803.012451 7187.000000
2803.819824 6228.000000
2804.627686 6490.000000
2805.434814 6927.000000
2806.241699 6876.000000
2807.047363 7274.000000
2807.853516 6625.000000
2808.658936 6489.000000
2809.464355 7399.000000
2810.269043 6229.000000
2811.072754 7617.000000
2811.876953 7450.000000
2812.680664 6363.000000
2813.484131 6079.000000
2814.286133 6315.000000
2815.088867 7359.000000
2815.890869 7776.000000
2816.692627 6134.000000
2817.493896 6531.000000
2818.294678 7294.000000
2819.094971 6538.000000
2819.895508 6720.000000
2820.695068 8036.000000
2821.494141 7242.000000
2822.293213 6469.000000
2823.092041 7028.000000
2823.890381 6389.000000
2824.687744 7040.000000
2825.485352 7032.000000
2826.282227 6662.000000
2827.079346 7337.000000
2827.875732 8018.000000
2828.671387 6996.000000
2829.467041 7425.000000
2830.262451 7684.000000
2831.057373 7446.000000
2831.851563 6648.000000
2832.645752 6828.000000
2833.439697 5690.000000
2834.233154 6852.000000
2835.025879 7164.000000
2835.818359 8169.000000
2836.610840 7717.000000
2837.403076 7508.000000
2838.194824 6496.000000
2838.985596 6816.000000
2839.776367 8871.000000
2840.567383 7399.000000
2841.357422 6221.000000
2842.146973 7645.000000
2842.936768 7244.000000
2843.725586 7339.000000
2844.514404 7774.000000
2845.303223 7719.000000
2846.091064 7462.000000
2846.878418 7180.000000
2847.666016 7522.000000
2848.453125 7301.000000
2849.239502 6666.000000
2850.025879 7445.000000
2850.812012 7220.000000
2851.597656 7553.000000
2852.382324 7222.000000
2853.167480 6885.000000
2853.952393 7454.000000
2854.736572 7041.000000
2855.520752 6939.000000
2856.303711 8280.000000
2857.086914 6794.000000
2857.869873 6764.000000
2858.652344 7779.000000
2859.434570 6226.000000
2860.216309 6636.000000
2860.997803 7569.000000
2861.779541 7484.000000
2862.560547 7687.000000
2863.340820 6581.000000
2864.120850 6641.000000
2864.900879 8243.000000
2865.680664 7512.000000
2866.459473 8134.000000
2867.238525 7674.000000
2868.017090 6858.000000
2868.795410 6851.000000
2869.573242 7272.000000
2870.350830 6933.000000
2871.128174 7509.000000
2871.905273 6961.000000
2872.681885 6399.000000
2873.458008 7468.000000
2874.234131 7163.000000
2875.009766 8231.000000
2875.785156 7127.000000
2876.560059 6554.000000
2877.334717 7928.000000
2878.109375 6539.000000
2878.883789 7707.000000
2879.657471 6687.000000
2880.430420 6993.000000
2881.204102 6756.000000
2881.976807 7595.000000
2882.749512 7859.000000
2883.521484 8182.000000
2884.293213 6235.000000
2885.065430 6696.000000
2885.836426 6907.000000
2886.606934 6134.000000
2887.377930 8281.000000
2888.148926 7359.000000
2888.919189 7925.000000
2889.688477 7639.000000
2890.458008 6965.000000
2891.227539 7267.000000
2891.996582 7331.000000
2892.765137 7834.000000
2893.533691 7895.000000
2894.301270 6991.000000
2895.069336 6578.000000
2895.836914 7458.000000
2896.604492 8292.000000
2897.370850 7362.000000
2898.138184 6506.000000
2898.904297 7236.000000
2899.670654 7040.000000
2900.435547 8345.000000
2901.200928 6944.000000
2901.966797 6512.000000
2902.731201 7672.000000
2903.495605 7768.000000
2904.260254 8459.000000
2905.023926 6648.000000
2905.788330 8557.000000
2906.552002 6669.000000
2907.314941 8384.000000
2908.077637 6523.000000
2908.840820 8989.000000
2909.603516 7026.000000
2910.364990 6759.000000
2911.126953 6759.000000
