scanname Analyse032
timestamp 2017-02-10 20:40:02
ccdbias 901.844727
ccdgain 3.473401
sigmaread 8.960639
laserwavenum -0.930103
wavenumcorrection -0.407139
scancount 1
totalexposurems 10000
singleexposurems 10000
measurementstate Unknown
scanmode Manual
snr 280.447235 9.010370 7.648464
replacelist 6
374 52744.000000 15020.000000
672 44926.000000 30832.000000
673 44684.000000 5599.000000
754 40414.000000 14223.000000
858 35121.000000 15584.000000
889 34636.000000 21039.000000
peaks 60
278.704803 0.717336 0.000000 1.502684 0.000190
285.180939 0.716862 0.000000 0.824085 0.000062
294.956116 0.719199 0.000000 0.565349 0.000027
303.614868 0.720672 0.000000 0.257419 0.000026
332.569519 0.739516 0.000000 0.795430 0.000138
342.953217 0.740761 0.000000 0.730680 0.000033
349.678375 0.743894 0.000000 0.663955 0.000024
360.302765 0.745058 0.000000 0.326310 0.000017
386.615082 0.747527 0.000000 1.430710 0.000307
460.392212 0.762086 0.000000 0.258216 0.000041
487.786896 0.775712 0.000000 0.907771 0.000114
535.161011 0.777398 0.000000 0.659796 0.000148
560.010010 0.816706 0.000000 1.296031 0.000228
573.891479 0.822526 0.000000 0.295658 0.000074
583.430237 0.817530 0.000000 0.700315 0.000109
660.889099 0.847709 0.000000 1.319602 0.000124
673.825928 0.845232 0.000000 1.408668 0.000271
680.611328 0.845374 0.000000 0.395980 0.000045
716.067810 0.864186 0.000000 5.590075 0.001170
724.430298 0.845996 0.000000 1.272874 0.000054
742.289978 0.868017 0.000000 1.064032 0.000116
752.456177 0.872924 0.000000 1.081295 0.000050
764.884277 0.887766 0.000000 1.604133 0.000498
777.754395 0.890828 0.000000 6.463705 0.001024
831.834473 0.889622 0.000000 0.437261 0.000167
842.930237 0.896002 0.000000 1.105892 0.000054
853.602295 0.919424 0.000000 1.060863 0.000277
869.286499 0.914966 0.000000 0.751692 0.000153
938.104919 0.979020 0.000000 0.658848 0.000388
954.747498 0.961007 0.000000 3.603193 0.001081
1013.922729 0.991604 0.000000 2.120295 0.000792
1020.487122 0.992415 0.000000 0.897764 0.000141
1027.912476 1.003217 0.000000 0.419088 0.000216
1044.611938 1.001385 0.000000 4.136005 0.001336
1104.358887 1.003860 0.000000 2.135452 0.000586
1119.976318 1.038885 0.000000 2.046404 0.000412
1134.995483 1.017747 0.000000 1.999517 0.000859
1150.251587 0.997834 0.000000 2.615445 0.001018
1173.789063 1.002122 0.000000 1.384857 0.000462
1181.234741 0.999440 0.000000 0.730761 0.000081
1211.052246 1.034227 0.000000 0.407854 0.000170
1233.727417 1.036479 0.000000 1.580104 0.000382
1260.405151 1.048425 0.000000 2.310685 0.001106
1277.135254 0.995678 0.000000 0.243009 0.000404
1312.215088 1.004700 0.000000 1.588787 0.000413
1339.450073 1.035196 0.000000 7.450575 0.001184
1349.733276 1.014530 0.000000 1.353284 0.000392
1386.387329 0.980287 0.000000 0.220944 0.000256
1415.681396 0.967271 0.000000 1.049328 0.000520
1421.626099 0.962017 0.000000 0.284393 0.000067
1450.384277 0.990282 0.000000 1.220756 0.000410
1459.296753 1.016134 0.000000 5.139751 0.002570
1490.895386 0.980756 0.000000 2.445935 0.001483
1532.714355 0.937586 0.000000 0.728630 0.000483
1578.880981 0.932076 0.000000 1.473808 0.001173
1619.891968 0.929359 0.000000 1.020555 0.000638
1640.853271 0.890576 0.000000 0.452261 0.000082
1668.490845 0.976238 0.000000 8.971537 0.005451
1750.132080 0.891465 0.000000 8.193993 0.004028
2329.144775 0.529756 0.000000 0.047521 0.000257
finalresult GLS_NoMatch 0
spectrum 2048
-96.671349 46137.000000
-94.044479 46137.000000
-91.419487 46550.000000
-88.796387 46477.000000
-86.175156 47206.000000
-83.555824 46859.000000
-80.938354 47138.000000
-78.322762 46813.000000
-75.709045 47094.000000
-73.097206 47493.000000
-70.487228 47322.000000
-67.879135 47384.000000
-65.272888 47451.000000
-62.668522 47447.000000
-60.066013 47362.000000
-57.465359 47812.000000
-54.866566 47136.000000
-52.269630 46541.000000
-49.674549 47010.000000
-47.081322 46851.000000
-44.489944 47089.000000
-41.900414 46644.000000
-39.312725 47418.000000
-36.726887 47300.000000
-34.142891 46973.000000
-31.560732 47675.000000
-28.980419 47043.000000
-26.401934 47617.000000
-23.825291 47176.000000
-21.250473 47099.000000
-18.677496 46786.000000
-16.106339 46742.000000
-13.537015 46446.000000
-10.969517 45464.000000
-8.403837 46915.000000
-5.839983 46740.000000
-3.277943 47096.000000
-0.717727 47192.000000
1.840681 46639.000000
4.397268 45894.000000
6.952051 46112.000000
9.505015 46651.000000
12.056180 45751.000000
14.605532 45870.000000
17.153088 45300.000000
19.698832 45420.000000
22.242783 44790.000000
24.784929 42634.000000
27.325279 40332.000000
29.863844 36925.000000
32.400612 33299.000000
34.935577 28167.000000
37.468765 16640.000000
40.000172 10321.000000
42.529785 9818.000000
45.057602 9226.000000
47.583660 7911.000000
50.107929 6676.000000
52.630428 5990.000000
55.151131 5712.000000
57.670078 5904.000000
60.187252 7506.000000
62.702648 9556.000000
65.216270 10425.000000
67.728134 10256.000000
70.238251 7976.000000
72.746574 5452.000000
75.253143 4643.000000
77.757965 3634.000000
80.261032 2896.000000
82.762321 2521.000000
85.261871 2324.000000
87.759666 2310.000000
90.255730 2457.000000
92.750015 2949.000000
95.242561 3261.000000
97.733391 3604.000000
100.222450 3529.000000
102.709763 2586.000000
105.195351 1982.000000
107.679199 1887.000000
110.161301 1755.000000
112.641678 1622.000000
115.120331 1583.000000
117.597260 1587.000000
120.072433 1602.000000
122.545898 1541.000000
125.017632 1807.000000
127.487656 1875.000000
129.955917 2045.000000
132.422516 2253.000000
134.887360 2573.000000
137.350510 3118.000000
139.811920 3685.000000
142.271637 4487.000000
144.729630 6423.000000
147.185928 22689.000000
149.640518 30557.000000
152.093384 34742.000000
154.544571 36994.000000
156.994064 38654.000000
159.441833 41214.000000
161.887894 42345.000000
164.332275 41024.000000
166.774979 43848.000000
169.215988 43904.000000
171.655289 44739.000000
174.092880 44074.000000
176.528839 44861.000000
178.963058 44876.000000
181.395599 44860.000000
183.826492 45510.000000
186.255661 45219.000000
188.683182 45719.000000
191.109024 46265.000000
193.533188 45940.000000
195.955688 45552.000000
198.376495 45391.000000
200.795639 46259.000000
203.213120 46925.000000
205.628906 45352.000000
208.043045 45784.000000
210.455551 46630.000000
212.866379 47066.000000
215.275528 46898.000000
217.683044 45756.000000
220.088852 46984.000000
222.493073 46699.000000
224.895584 46444.000000
227.296478 46260.000000
229.695724 46893.000000
232.093307 46335.000000
234.489227 46022.000000
236.883530 46756.000000
239.276169 47143.000000
241.667191 46534.000000
244.056549 46650.000000
246.444290 46924.000000
248.830383 46249.000000
251.214844 47201.000000
253.597656 45388.000000
255.978897 46619.000000
258.358429 46604.000000
260.736389 46817.000000
263.112671 45730.000000
265.487396 45688.000000
267.860474 45395.000000
270.231903 47044.000000
272.601685 46742.000000
274.969910 47393.000000
277.336487 46948.000000
279.701477 46522.000000
282.064850 47236.000000
284.426575 46976.000000
286.786713 46094.000000
289.145233 47135.000000
291.502167 46701.000000
293.857483 46892.000000
296.211212 47299.000000
298.563293 47308.000000
300.913818 46962.000000
303.262756 46991.000000
305.610046 46400.000000
307.955811 46847.000000
310.299896 46756.000000
312.642456 45888.000000
314.983398 45674.000000
317.322723 46088.000000
319.660492 46329.000000
321.996704 45148.000000
324.331268 46952.000000
326.664276 46752.000000
328.995728 47244.000000
331.325592 46626.000000
333.653870 46851.000000
335.980530 46028.000000
338.305695 46824.000000
340.629242 47081.000000
342.951233 47248.000000
345.271667 45646.000000
347.590485 45552.000000
349.907745 47245.000000
352.223480 47378.000000
354.537628 46229.000000
356.850189 46939.000000
359.161194 46832.000000
361.470673 46118.000000
363.778625 46861.000000
366.084961 47539.000000
368.389709 46846.000000
370.692993 46801.000000
372.994659 46915.000000
375.294830 46906.000000
377.593445 46894.000000
379.890503 47473.000000
382.186005 47142.000000
384.479980 47294.000000
386.772369 48025.000000
389.063263 47668.000000
391.352631 47009.000000
393.640411 46991.000000
395.926666 46720.000000
398.211426 46138.000000
400.494568 47191.000000
402.776276 46750.000000
405.056458 47034.000000
407.335052 45916.000000
409.612122 46672.000000
411.887665 46347.000000
414.161682 46601.000000
416.434265 46656.000000
418.705231 46841.000000
420.974701 46788.000000
423.242676 46079.000000
425.509094 45849.000000
427.774017 46937.000000
430.037476 46818.000000
432.299347 46621.000000
434.559753 47193.000000
436.818604 46485.000000
439.075989 47015.000000
441.331879 47455.000000
443.586273 47306.000000
445.839142 47683.000000
448.090454 46274.000000
450.340363 47063.000000
452.588684 46951.000000
454.835571 47456.000000
457.080994 46662.000000
459.324860 46721.000000
461.567230 46326.000000
463.808105 47454.000000
466.047577 46453.000000
468.285461 47695.000000
470.521912 47355.000000
472.756836 47149.000000
474.990295 45760.000000
477.222321 46399.000000
479.452820 47430.000000
481.681824 46739.000000
483.909363 46842.000000
486.135406 47276.000000
488.360016 46550.000000
490.583160 47243.000000
492.804840 46659.000000
495.024963 46489.000000
497.243683 47476.000000
499.460907 46863.000000
501.676758 47598.000000
503.890991 46950.000000
506.103912 46706.000000
508.315247 46657.000000
510.525146 46258.000000
512.733643 46636.000000
514.940735 46620.000000
517.146240 46652.000000
519.350342 46534.000000
521.552917 46901.000000
523.754089 46635.000000
525.953918 46409.000000
528.152222 46212.000000
530.348999 47721.000000
532.544434 47266.000000
534.738342 47522.000000
536.930908 45550.000000
539.121948 46436.000000
541.311584 47042.000000
543.499817 46132.000000
545.686523 45955.000000
547.871765 46287.000000
550.055725 46821.000000
552.238098 46563.000000
554.419128 46924.000000
556.598633 47063.000000
558.776855 47197.000000
560.953552 47066.000000
563.128845 46650.000000
565.302734 46557.000000
567.475159 47134.000000
569.646179 47018.000000
571.815735 46717.000000
573.984009 47832.000000
576.150757 46615.000000
578.316040 46720.000000
580.479919 46967.000000
582.642517 47355.000000
584.803589 47039.000000
586.963257 47433.000000
589.121582 47353.000000
591.278381 46925.000000
593.433838 46445.000000
595.587891 47289.000000
597.740601 46965.000000
599.891785 45774.000000
602.041626 46262.000000
604.190125 46394.000000
606.337036 46957.000000
608.482727 46562.000000
610.627014 46511.000000
612.769836 46040.000000
614.911194 46872.000000
617.051331 46577.000000
619.189941 45317.000000
621.327271 47270.000000
623.463135 46347.000000
625.597595 46176.000000
627.730591 45766.000000
629.862427 46370.000000
631.992798 46412.000000
634.121765 46179.000000
636.249268 46559.000000
638.375488 46789.000000
640.500183 45624.000000
642.623657 46536.000000
644.745789 46102.000000
646.866455 46079.000000
648.985779 46419.000000
651.103699 47309.000000
653.220276 47297.000000
655.335449 46473.000000
657.449280 46469.000000
659.561646 47106.000000
661.672791 46831.000000
663.782532 47542.000000
665.890808 46962.000000
667.997925 46649.000000
670.103577 46107.000000
672.207764 47069.000000
674.310730 47259.000000
676.412292 45980.000000
678.512512 47661.000000
680.611328 46223.000000
682.708801 46734.000000
684.804993 45983.000000
686.899719 46596.000000
688.993225 45987.000000
691.085388 46278.000000
693.176025 44988.000000
695.265442 46269.000000
697.353577 46464.000000
699.440247 46869.000000
701.525696 46264.000000
703.609619 47823.000000
705.692322 47006.000000
707.773743 46967.000000
709.853699 45294.000000
711.932434 46704.000000
714.009705 47322.000000
716.085693 46260.000000
718.160400 46746.000000
720.233826 45853.000000
722.305725 46503.000000
724.376465 45501.000000
726.445862 47032.000000
728.513855 46391.000000
730.580505 46458.000000
732.645935 45693.000000
734.710022 46991.000000
736.772766 46575.000000
738.834167 46353.000000
740.894287 46192.000000
742.953003 46749.000000
745.010498 46131.000000
747.066711 46253.000000
749.121521 46027.000000
751.175049 46396.000000
753.227173 45319.000000
755.278076 47014.000000
757.327759 46034.000000
759.375977 46354.000000
761.422974 46620.000000
763.468689 45718.000000
765.513000 47400.000000
767.556030 46964.000000
769.597839 46290.500000
771.638306 45617.000000
773.677368 46421.000000
775.715271 46647.000000
777.751831 46755.000000
779.787170 47392.000000
781.821167 46955.000000
783.853760 45794.000000
785.885193 47205.000000
787.915222 40786.000000
789.943970 46763.000000
791.971558 46397.000000
793.997803 46365.000000
796.022644 46866.000000
798.046387 47224.000000
800.068726 46274.000000
802.089844 46826.000000
804.109619 46007.000000
806.128113 47776.000000
808.145386 46048.000000
810.161255 45811.000000
812.175964 46936.000000
814.189331 46218.000000
816.201477 46291.000000
818.212402 46412.000000
820.221985 46070.000000
822.230347 47264.000000
824.237305 46883.000000
826.243042 46523.000000
828.247559 46809.000000
830.250793 46845.000000
832.252747 46080.000000
834.253418 46459.000000
836.252869 46626.000000
838.250977 46194.000000
840.247986 45494.000000
842.243591 46237.000000
844.238037 46465.000000
846.231140 46272.000000
848.223022 45541.000000
850.213562 46787.000000
852.202820 45694.000000
854.191040 46386.000000
856.177856 46689.000000
858.163452 46002.000000
860.147766 45161.000000
862.130981 46161.000000
864.112793 45964.000000
866.093384 46562.000000
868.072693 44711.000000
870.050842 45302.000000
872.027649 46190.000000
874.003174 46512.000000
875.977661 46215.000000
877.950684 46433.000000
879.922668 46993.000000
881.893311 45959.000000
883.862793 46336.000000
885.830933 46841.000000
887.797913 47211.000000
889.763550 46278.000000
891.728027 46542.000000
893.691284 46296.000000
895.653320 45802.000000
897.614075 46497.000000
899.573608 45929.000000
901.531860 45480.000000
903.489014 45923.000000
905.445007 46244.000000
907.399597 45278.000000
909.352966 45666.000000
911.305176 45717.000000
913.256165 45698.000000
915.205872 44932.000000
917.154419 45688.000000
919.101746 45868.000000
921.047791 45906.000000
922.992554 45884.000000
924.936279 45653.000000
926.878845 45957.000000
928.820129 46227.000000
930.760071 45388.000000
932.698914 46107.000000
934.636475 46394.000000
936.572815 45873.000000
938.507996 46029.000000
940.441895 45748.000000
942.374695 46039.000000
944.306274 45103.000000
946.236694 46683.000000
948.165894 45470.000000
950.093750 44919.000000
952.020569 45294.000000
953.946106 46018.000000
955.870361 46597.000000
957.793518 46048.000000
959.715515 45275.000000
961.636230 44711.000000
963.555786 45496.000000
965.474182 46601.000000
967.391541 45609.000000
969.307434 45534.000000
971.222229 45835.000000
973.135803 46064.000000
975.048218 45527.000000
976.959412 45450.000000
978.869446 46520.000000
980.778198 45710.000000
982.685913 45792.000000
984.592407 45531.000000
986.497681 46109.000000
988.401855 45028.000000
990.304810 45532.000000
992.206543 44972.000000
994.107117 45187.000000
996.006531 45058.000000
997.904724 46305.000000
999.801758 45011.000000
1001.697571 45068.000000
1003.592224 43882.000000
1005.485779 45913.000000
1007.378052 44191.000000
1009.269409 45323.000000
1011.159424 46111.000000
1013.048218 44788.000000
1014.935852 44986.000000
1016.822327 44465.000000
1018.707642 44657.000000
1020.591797 45414.000000
1022.474731 45452.000000
1024.356567 45089.000000
1026.237183 46078.000000
1028.116699 45518.000000
1029.995239 45255.000000
1031.872437 46035.000000
1033.748291 45195.000000
1035.623169 45515.000000
1037.497070 44767.000000
1039.369507 44357.000000
1041.240967 44702.000000
1043.111084 45901.000000
1044.980225 45874.000000
1046.848145 45603.000000
1048.714966 44357.000000
1050.580688 44720.000000
1052.445190 44998.000000
1054.308594 44988.000000
1056.170654 44959.000000
1058.031738 45573.000000
1059.891724 44960.000000
1061.750366 44733.000000
1063.607910 45636.000000
1065.464355 44633.000000
1067.319702 45431.000000
1069.173828 45524.000000
1071.027100 45034.000000
1072.878906 44943.000000
1074.729736 45110.000000
1076.579346 45079.000000
1078.427734 45440.000000
1080.275269 43231.000000
1082.121460 45598.000000
1083.966431 44771.000000
1085.810547 45674.000000
1087.653320 45444.000000
1089.494873 44466.000000
1091.335693 45452.000000
1093.174927 45095.000000
1095.013428 44823.000000
1096.850586 44708.000000
1098.686523 43913.000000
1100.521484 44117.000000
1102.355225 45229.000000
1104.187988 44894.000000
1106.019409 44365.000000
1107.849976 43278.000000
1109.679199 43954.000000
1111.507446 44002.000000
1113.334473 43351.000000
1115.160522 45030.000000
1116.985352 44040.000000
1118.809082 43224.000000
1120.631592 44320.000000
1122.453003 44507.000000
1124.273560 44568.000000
1126.092651 43917.000000
1127.910889 43303.000000
1129.727783 43591.000000
1131.543823 43787.000000
1133.358643 43987.000000
1135.172363 44797.000000
1136.984985 44621.000000
1138.796387 44738.000000
1140.606812 44330.000000
1142.416138 43699.000000
1144.224121 43393.000000
1146.031372 44395.000000
1147.837158 44384.000000
1149.642090 44881.000000
1151.445923 44742.000000
1153.248535 43990.000000
1155.050293 43937.000000
1156.850586 43900.000000
1158.649902 43765.000000
1160.448242 43927.000000
1162.245239 44184.000000
1164.041504 43681.000000
1165.836426 43453.000000
1167.630249 43129.000000
1169.423218 41629.000000
1171.214844 43540.000000
1173.005493 42726.000000
1174.795166 43094.000000
1176.583374 43315.000000
1178.370728 41501.000000
1180.156982 42087.000000
1181.942139 43120.000000
1183.726196 42805.000000
1185.509155 41053.000000
1187.291138 42837.000000
1189.071899 42802.000000
1190.851685 42300.000000
1192.630371 41579.000000
1194.408081 41701.000000
1196.184570 41054.000000
1197.959961 41445.000000
1199.734253 41516.000000
1201.507446 41066.000000
1203.279785 41262.000000
1205.050781 40851.000000
1206.820923 41822.000000
1208.589844 41329.000000
1210.357666 41204.000000
1212.124634 41661.000000
1213.890259 41602.000000
1215.654907 40540.000000
1217.418457 41047.000000
1219.180908 41484.000000
1220.942505 40713.000000
1222.702881 41592.000000
1224.462158 41233.000000
1226.220581 41447.000000
1227.977783 40451.000000
1229.733887 41242.000000
1231.488892 42172.000000
1233.243042 41675.000000
1234.995850 41830.000000
1236.747681 41769.000000
1238.498657 41776.000000
1240.248291 42796.000000
1241.997070 40774.000000
1243.744507 41196.000000
1245.491211 40970.000000
1247.236694 40968.000000
1248.981323 40933.000000
1250.724609 40604.000000
1252.466919 40429.000000
1254.208130 41631.000000
1255.948486 41773.000000
1257.687744 41101.000000
1259.425781 40273.000000
1261.162964 39846.000000
1262.898926 40871.000000
1264.633911 40666.000000
1266.367920 39866.000000
1268.100952 41326.000000
1269.832764 41031.000000
1271.563599 40763.000000
1273.293213 39984.000000
1275.021973 41181.000000
1276.749634 41284.000000
1278.476196 41346.000000
1280.201904 41218.000000
1281.926270 40364.000000
1283.649780 41502.000000
1285.372314 39772.000000
1287.093872 39928.000000
1288.814209 39972.000000
1290.533569 39576.000000
1292.251831 38929.000000
1293.969116 39540.000000
1295.685425 39993.000000
1297.400513 39280.000000
1299.114624 39467.000000
1300.827759 39730.000000
1302.540039 38931.000000
1304.251099 37013.000000
1305.961182 40007.000000
1307.670166 38747.000000
1309.377930 38529.000000
1311.085083 38113.000000
1312.790771 39318.000000
1314.495728 38106.000000
1316.199707 38891.000000
1317.902466 39073.000000
1319.604248 38530.000000
1321.305176 38951.000000
1323.004761 35893.000000
1324.703491 37489.000000
1326.401489 25443.500000
1328.098145 36793.000000
1329.793701 35978.000000
1331.488403 36251.000000
1333.181885 37213.000000
1334.874512 37473.000000
1336.566284 35573.000000
1338.256714 36748.000000
1339.946411 36399.000000
1341.635010 36950.000000
1343.322510 35446.000000
1345.009033 37478.000000
1346.694458 36423.000000
1348.378906 37259.000000
1350.062500 36103.000000
1351.744873 37060.000000
1353.426270 37572.000000
1355.106812 36959.000000
1356.786133 36878.000000
1358.464844 37717.000000
1360.142212 37100.000000
1361.818481 37816.000000
1363.493774 37938.000000
1365.168335 36951.000000
1366.841675 37058.000000
1368.514038 36567.000000
1370.185425 38144.000000
1371.855835 36464.000000
1373.525146 36962.000000
1375.193481 37299.000000
1376.860962 36955.000000
1378.527344 36413.000000
1380.192749 36699.000000
1381.857178 36796.000000
1383.520386 36655.000000
1385.182983 36775.000000
1386.844238 35974.000000
1388.504639 35766.000000
1390.163940 35828.000000
1391.822266 35683.000000
1393.479858 35310.000000
1395.136230 35616.000000
1396.791748 35052.000000
1398.446045 35684.000000
1400.099487 36031.000000
1401.751831 35620.000000
1403.403442 35180.000000
1405.053833 34261.000000
1406.703125 34745.000000
1408.351685 33270.000000
1409.999146 32696.000000
1411.645630 34003.000000
1413.291260 33634.000000
1414.935913 33810.000000
1416.579346 32776.000000
1418.221924 32639.000000
1419.863403 32655.000000
1421.504028 32883.000000
1423.143677 32723.000000
1424.782227 33008.000000
1426.419922 32350.000000
1428.056519 32359.000000
1429.692139 32678.000000
1431.327026 32186.000000
1432.960815 32600.000000
1434.593506 32420.000000
1436.225220 32918.000000
1437.856079 32584.000000
1439.485840 32784.000000
1441.114502 31173.000000
1442.742554 32868.000000
1444.369507 32628.000000
1445.995239 32756.000000
1447.620361 32955.000000
1449.244385 32834.000000
1450.867432 33396.000000
1452.489502 33656.000000
1454.110474 32404.000000
1455.730469 33598.000000
1457.349731 33140.000000
1458.967651 34521.000000
1460.584961 34310.000000
1462.201294 34099.000000
1463.816406 31704.000000
1465.430664 32523.000000
1467.044067 33627.000000
1468.656372 33337.000000
1470.267822 32743.000000
1471.878418 32699.000000
1473.487793 32845.000000
1475.096191 32817.000000
1476.703735 32613.000000
1478.310303 31797.000000
1479.916138 32993.000000
1481.520752 31678.000000
1483.124512 32115.000000
1484.727051 30509.000000
1486.328979 31466.000000
1487.929688 31386.000000
1489.529663 31387.000000
1491.128540 31034.000000
1492.726563 31018.000000
1494.323486 31141.000000
1495.919556 31600.000000
1497.514648 32170.000000
1499.108765 32612.000000
1500.702148 31541.000000
1502.294434 32467.000000
1503.885498 31680.000000
1505.476074 31044.000000
1507.065308 31144.000000
1508.653931 31247.000000
1510.241455 30713.000000
1511.827881 30339.000000
1513.413574 30980.000000
1514.998169 30264.000000
1516.581909 30514.000000
1518.164551 30495.000000
1519.746460 29941.000000
1521.327271 29704.000000
1522.907349 30040.000000
1524.486206 29556.000000
1526.064209 29198.000000
1527.641479 29050.000000
1529.217529 29575.000000
1530.792847 29236.000000
1532.367065 28880.000000
1533.940552 29584.000000
1535.512817 29156.000000
1537.084351 28770.000000
1538.654907 28628.000000
1540.224609 28519.000000
1541.793091 29295.000000
1543.360840 28068.000000
1544.927734 28981.000000
1546.493408 27675.000000
1548.058350 28499.000000
1549.622192 29162.000000
1551.185425 26936.000000
1552.747314 27953.000000
1554.308594 28050.000000
1555.868774 28234.000000
1557.428223 28136.000000
1558.986572 28113.000000
1560.544189 27762.000000
1562.100708 27020.000000
1563.656006 28077.000000
1565.210693 27572.000000
1566.764648 28226.000000
1568.317627 27596.000000
1569.869263 28312.000000
1571.420166 27998.000000
1572.970337 27796.000000
1574.519531 27704.000000
1576.067383 28240.000000
1577.614746 28396.000000
1579.161133 28275.000000
1580.706665 29001.000000
1582.251221 27548.000000
1583.794556 27948.000000
1585.337280 27672.000000
1586.879150 27701.000000
1588.419922 27266.000000
1589.959717 28128.000000
1591.498779 27212.000000
1593.036743 27800.000000
1594.574219 27558.000000
1596.110352 27732.000000
1597.645386 26979.000000
1599.179932 27288.000000
1600.713501 27592.000000
1602.246216 27524.000000
1603.777344 27340.000000
1605.308228 27258.000000
1606.838257 27700.000000
1608.367065 27396.000000
1609.894775 27356.000000
1611.421875 27520.000000
1612.948242 27680.000000
1614.473633 27448.000000
1615.998169 27924.000000
1617.521362 28035.000000
1619.043823 28411.000000
1620.565552 27828.000000
1622.086426 27801.000000
1623.605835 27787.000000
1625.124756 27773.000000
1626.642944 26795.000000
1628.160278 26967.000000
1629.676514 26549.000000
1631.191406 25913.000000
1632.705811 25859.000000
1634.219482 26619.000000
1635.732056 25646.000000
1637.243408 26339.000000
1638.754395 25823.000000
1640.264282 25926.000000
1641.773315 25861.000000
1643.281006 26217.000000
1644.788330 25870.000000
1646.294800 25065.000000
1647.800293 25801.000000
1649.304932 25138.000000
1650.808105 25581.000000
1652.310669 25215.000000
1653.812866 25302.000000
1655.313721 24994.000000
1656.813477 24084.000000
1658.312378 24934.000000
1659.810913 24471.000000
1661.308228 24693.000000
1662.804810 24991.000000
1664.299805 24696.000000
1665.794556 25164.000000
1667.288452 26934.000000
1668.781372 27529.000000
1670.272949 25701.000000
1671.764038 23873.000000
1673.254517 23619.000000
1674.743896 23856.000000
1676.231812 23322.000000
1677.719482 23447.000000
1679.206177 23803.000000
1680.692017 23875.000000
1682.177002 23471.000000
1683.660522 23176.000000
1685.143799 23090.000000
1686.626221 23159.000000
1688.107544 23015.000000
1689.587402 22909.000000
1691.067017 23261.000000
1692.545898 22781.000000
1694.023804 22733.000000
1695.500732 22903.000000
1696.976440 23086.000000
1698.451782 22734.000000
1699.925903 22598.000000
1701.399414 22890.000000
1702.871460 23070.000000
1704.343262 22728.000000
1705.814087 22967.000000
1707.284058 22339.000000
1708.752686 23011.000000
1710.220825 23128.000000
1711.688232 22809.000000
1713.154541 23117.000000
1714.620239 22979.000000
1716.084229 22946.000000
1717.548096 23152.000000
1719.011108 22670.000000
1720.473145 22894.000000
1721.933960 22586.000000
1723.394165 23111.000000
1724.853638 23071.000000
1726.312256 22977.000000
1727.769897 23008.000000
1729.226196 22680.000000
1730.682251 22978.000000
1732.137329 22609.000000
1733.591431 22850.000000
1735.044312 22508.000000
1736.496948 22745.000000
1737.948486 22396.000000
1739.399292 22582.000000
1740.849121 22243.000000
1742.297607 22693.000000
1743.745728 21877.000000
1745.192993 22192.000000
1746.639526 22017.000000
1748.084473 21966.000000
1749.529175 22033.000000
1750.973022 21810.000000
1752.416016 22640.000000
1753.857544 23635.000000
1755.298828 25696.000000
1756.739258 14266.000000
1758.178711 21647.000000
1759.617188 21601.000000
1761.054688 21557.000000
1762.491699 20968.000000
1763.927734 21311.000000
1765.362915 20907.000000
1766.796631 21242.000000
1768.230225 21438.000000
1769.662842 21207.000000
1771.094604 21630.000000
1772.525513 21515.000000
1773.955200 21137.000000
1775.384155 20772.000000
1776.812622 20514.000000
1778.240112 19560.000000
1779.666260 19053.000000
1781.092163 20194.000000
1782.516968 19805.000000
1783.941162 20229.000000
1785.363892 19865.000000
1786.786133 19923.000000
1788.207642 19879.000000
1789.628418 19866.000000
1791.048218 19581.000000
1792.466675 19553.000000
1793.884644 19477.000000
1795.302002 19446.000000
1796.718506 19548.000000
1798.133545 19363.000000
1799.548218 19247.000000
1800.962280 19287.000000
1802.375122 19621.000000
1803.787354 19217.000000
1805.198242 19186.000000
1806.608643 18819.000000
1808.018311 19114.000000
1809.427002 19241.000000
1810.834595 19307.000000
1812.241699 19300.000000
1813.647949 19117.000000
1815.053223 19308.000000
1816.457397 19266.000000
1817.861206 19342.000000
1819.264038 19251.000000
1820.666016 19319.000000
1822.067383 19271.000000
1823.467285 19324.000000
1824.866577 19133.000000
1826.265381 19146.000000
1827.663330 18877.000000
1829.059937 19118.000000
1830.455933 19068.000000
1831.851196 19157.000000
1833.245850 18639.000000
1834.639526 19085.000000
1836.031860 18924.000000
1837.423706 18972.000000
1838.814941 18958.000000
1840.205200 18822.000000
1841.594238 18761.000000
1842.982910 18768.000000
1844.370605 18667.000000
1845.757568 18860.000000
1847.143188 18488.000000
1848.528564 18526.000000
1849.913086 18540.000000
1851.296875 18446.000000
1852.679565 18424.000000
1854.061035 18339.000000
1855.442017 18125.000000
1856.822510 18165.000000
1858.202026 18059.000000
1859.580078 17936.000000
1860.958008 18131.000000
1862.334961 17798.000000
1863.711182 17734.000000
1865.086548 17765.000000
1866.460449 17627.000000
1867.834229 17495.000000
1869.207153 17288.000000
1870.578979 17189.000000
1871.949829 17293.000000
1873.320313 17274.000000
1874.689697 17059.000000
1876.058594 17000.000000
1877.425903 16858.000000
1878.793091 16778.000000
1880.159302 16864.000000
1881.524780 16718.000000
1882.889526 16616.000000
1884.252686 16656.000000
1885.615723 16756.000000
1886.977905 16664.000000
1888.339233 16417.000000
1889.699219 16521.000000
1891.058838 16557.000000
1892.417847 16408.000000
1893.775879 16353.000000
1895.133057 16186.000000
1896.489014 16310.000000
1897.844727 16137.000000
1899.199463 16399.000000
1900.553345 16267.000000
1901.906128 16360.000000
1903.258423 16423.000000
1904.609985 16206.000000
1905.960693 16251.000000
1907.310181 16379.000000
1908.659180 16329.000000
1910.007324 16307.000000
1911.354858 16281.000000
1912.701660 16109.000000
1914.046875 16253.000000
1915.391846 16383.000000
1916.736084 16411.000000
1918.079468 16323.000000
1919.421509 16435.000000
1920.763306 16207.000000
1922.104248 16214.000000
1923.444458 16398.000000
1924.783691 16190.000000
1926.121948 16186.000000
1927.459595 16167.000000
1928.796509 16180.000000
1930.132568 16208.000000
1931.467407 16212.000000
1932.801880 16259.000000
1934.135620 16075.000000
1935.468506 16028.000000
1936.799927 15856.000000
1938.131470 15861.000000
1939.461670 15619.000000
1940.791382 15751.000000
1942.120239 15784.000000
1943.447876 15780.000000
1944.775024 15658.000000
1946.101440 15697.000000
1947.427124 15637.000000
1948.751465 15505.000000
1950.075562 15496.000000
1951.398804 15592.000000
1952.721313 15466.000000
1954.042725 15421.000000
1955.363159 15102.000000
1956.682983 15352.000000
1958.002441 15395.000000
1959.320923 15156.000000
1960.638062 15267.000000
1961.954834 14959.000000
1963.270874 15072.000000
1964.586182 14949.000000
1965.900024 15012.000000
1967.213623 14827.000000
1968.526489 14753.000000
1969.838501 14900.000000
1971.149902 14806.000000
1972.459961 14708.000000
1973.769531 14563.000000
1975.078369 14482.000000
1976.386597 14384.000000
1977.693481 14285.000000
1978.999756 14215.000000
1980.305664 14331.000000
1981.610352 14368.000000
1982.914551 14277.000000
1984.217529 14229.000000
1985.520142 14158.000000
1986.821777 14078.000000
1988.122803 13765.000000
1989.422241 13790.000000
1990.721802 13871.000000
1992.020264 13677.000000
1993.318237 13733.000000
1994.614624 13666.000000
1995.911011 13549.000000
1997.206421 13630.000000
1998.501099 13426.000000
1999.794922 13338.000000
2001.087524 13209.000000
2002.379639 13210.000000
2003.671265 13216.000000
2004.962158 13383.000000
2006.251465 13127.000000
2007.540527 13110.000000
2008.828857 13213.000000
2010.116455 13292.000000
2011.403198 13109.000000
2012.688843 12978.000000
2013.974121 12964.000000
2015.258423 13006.000000
2016.542114 12959.000000
2017.824463 12814.000000
2019.106445 12848.000000
2020.387939 12912.000000
2021.668457 12980.000000
2022.948242 12859.000000
2024.226929 12783.000000
2025.504883 12747.000000
2026.782349 12811.000000
2028.059204 12712.000000
2029.334351 12887.000000
2030.609619 13007.000000
2031.883911 12982.000000
2033.157227 12978.000000
2034.429688 13015.000000
2035.701782 12990.000000
2036.972778 12977.000000
2038.243530 12932.000000
2039.512939 12968.000000
2040.781250 12946.000000
2042.049561 12880.000000
2043.316895 12787.000000
2044.583496 12828.000000
2045.848877 12828.000000
2047.113647 12759.000000
2048.378174 12733.000000
2049.641602 12746.000000
2050.904541 12767.000000
2052.165527 12603.000000
2053.427002 12478.000000
2054.687256 12446.000000
2055.946777 12380.000000
2057.205566 12357.000000
2058.463379 12327.000000
2059.720703 12260.000000
2060.977295 12272.000000
2062.232422 12312.000000
2063.487549 12170.000000
2064.741699 12218.000000
2065.995117 12119.000000
2067.247803 12016.000000
2068.499268 12101.000000
2069.750488 11979.000000
2071.000977 12120.000000
2072.250732 12253.000000
2073.499023 11629.000000
2074.747314 12059.000000
2075.994629 11879.000000
2077.241211 11801.000000
2078.487061 11758.000000
2079.731689 11722.000000
2080.975830 11645.000000
2082.219482 11695.000000
2083.462158 11709.000000
2084.703613 11495.000000
2085.944824 11555.000000
2087.185547 11385.000000
2088.425293 11382.000000
2089.663818 11486.000000
2090.901855 11287.000000
2092.139160 11346.000000
2093.376221 11206.000000
2094.611816 11185.000000
2095.846680 11416.000000
2097.081299 11235.000000
2098.314941 11371.000000
2099.547607 11109.000000
2100.779541 11142.000000
2102.010986 11131.000000
2103.241455 11070.000000
2104.471191 11097.000000
2105.700684 10942.000000
2106.928223 10911.000000
2108.156006 10858.000000
2109.383057 10604.000000
2110.609131 10761.000000
2111.833740 10561.000000
2113.058594 10579.000000
2114.282227 10528.000000
2115.505371 10504.000000
2116.727295 10418.000000
2117.948975 10621.000000
2119.169678 10710.000000
2120.389648 10588.000000
2121.609131 10732.000000
2122.827148 10740.000000
2124.045166 10718.000000
2125.262207 10763.000000
2126.478760 10796.000000
2127.693604 10791.000000
2128.908691 10768.000000
2130.122803 10613.000000
2131.336182 10507.000000
2132.548828 10255.000000
2133.760010 10509.000000
2134.971436 10616.000000
2136.181641 10755.000000
2137.391357 10486.000000
2138.599609 10502.000000
2139.807861 10471.000000
2141.015381 10419.000000
2142.221680 10311.000000
2143.427246 10316.000000
2144.632568 10407.000000
2145.836914 10409.000000
2147.040527 10370.000000
2148.243652 10410.000000
2149.445313 10317.000000
2150.646729 10310.000000
2151.847412 10066.000000
2153.047363 10233.000000
2154.246094 10164.000000
2155.444580 10239.000000
2156.642578 10193.000000
2157.839600 10071.000000
2159.035889 9931.000000
2160.230957 9920.000000
2161.425781 9782.000000
2162.619873 9666.000000
2163.812988 9653.000000
2165.005127 9566.000000
2166.197021 9651.000000
2167.388184 9707.000000
2168.578369 9400.000000
2169.767822 9346.000000
2170.956787 9228.000000
2172.144775 9171.000000
2173.332520 9226.000000
2174.518799 9107.000000
2175.704346 8996.000000
2176.889648 8956.000000
2178.074463 9005.000000
2179.258057 8983.000000
2180.440918 8966.000000
2181.622803 8925.000000
2182.804443 8932.000000
2183.985596 8978.000000
2185.165527 8942.000000
2186.344482 8919.000000
2187.522949 8807.000000
2188.701172 8765.000000
2189.878174 8875.000000
2191.054199 8759.000000
2192.229980 8809.000000
2193.405273 8870.000000
2194.579102 8753.000000
2195.752441 8850.000000
2196.925537 8825.000000
2198.097412 8809.000000
2199.268799 8864.000000
2200.439697 8985.000000
2201.608887 8952.000000
2202.778076 8938.000000
2203.946777 8866.000000
2205.114502 8976.000000
2206.281250 8826.000000
2207.447266 8715.000000
2208.612793 8847.000000
2209.778076 8860.000000
2210.941895 8804.000000
2212.105225 8801.000000
2213.267334 8706.000000
2214.429688 8738.000000
2215.590820 8744.000000
2216.750977 8653.000000
2217.910645 8589.000000
2219.070068 8737.000000
2220.228271 8480.000000
2221.385498 8548.000000
2222.542480 8575.000000
2223.698730 8399.000000
2224.854248 8474.000000
2226.009033 8472.000000
2227.162842 8476.000000
2228.315674 8218.000000
2229.468994 8207.000000
2230.620361 8348.000000
2231.771484 8116.000000
2232.921875 8177.000000
2234.071777 8160.000000
2235.220703 8206.000000
2236.369141 8228.000000
2237.516113 8115.000000
2238.663330 8038.000000
2239.809326 7988.000000
2240.955078 7936.000000
2242.099121 7828.000000
2243.243408 7826.000000
2244.386719 7752.000000
2245.529297 7669.000000
2246.670898 7709.000000
2247.812256 7637.000000
2248.952637 7583.000000
2250.092285 7553.000000
2251.231445 7458.000000
2252.369385 7550.000000
2253.507324 7347.000000
2254.644287 7402.000000
2255.780518 7358.000000
2256.915771 7359.000000
2258.050293 7307.000000
2259.184570 7390.000000
2260.318359 7609.000000
2261.450684 7764.000000
2262.582520 7466.000000
2263.713867 7293.000000
2264.844238 7092.000000
2265.974365 7069.000000
2267.103271 7083.000000
2268.231689 7068.000000
2269.359619 7071.000000
2270.486572 6979.000000
2271.612793 7166.000000
2272.738037 7063.000000
2273.863281 7040.000000
2274.987793 7025.000000
2276.111084 7014.000000
2277.233643 6953.000000
2278.355713 7022.000000
2279.477295 7048.000000
2280.598145 7165.000000
2281.717773 6979.000000
2282.836914 6802.000000
2283.955811 6743.000000
2285.073975 6720.000000
2286.191162 6687.000000
2287.307373 6821.000000
2288.423340 6937.000000
2289.538574 6845.000000
2290.653076 6883.000000
2291.766357 6870.000000
2292.879639 6833.000000
2293.992188 6950.000000
2295.104004 6947.000000
2296.215088 6957.000000
2297.324951 6977.000000
2298.434326 7002.000000
2299.543457 6985.000000
2300.651611 6906.000000
2301.758789 7018.000000
2302.865723 6922.000000
2303.971924 6912.000000
2305.077637 6831.000000
2306.181885 6900.000000
2307.285889 6764.000000
2308.389404 6844.000000
2309.492432 6699.000000
2310.594238 6706.000000
2311.695313 6701.000000
2312.795898 6755.000000
2313.895996 6567.000000
2314.995361 6666.000000
2316.093262 6532.000000
2317.191650 6634.000000
2318.288574 6547.000000
2319.385254 6654.000000
2320.481445 6523.000000
2321.575928 6453.000000
2322.670410 6469.000000
2323.764160 6486.000000
2324.857666 6248.000000
2325.949463 6345.000000
2327.041260 6571.000000
2328.132324 6506.000000
2329.222656 6491.000000
2330.312012 6463.000000
2331.401367 6454.000000
2332.489502 6490.000000
2333.577148 6475.000000
2334.664551 6354.000000
2335.750244 6170.000000
2336.835693 6200.000000
2337.920898 6240.000000
2339.005127 6099.000000
2340.088379 6175.000000
2341.171387 6069.000000
2342.253418 6607.000000
2343.335205 6017.000000
2344.416260 6023.000000
2345.496094 5906.000000
2346.575439 5931.000000
2347.654297 5870.000000
2348.732666 5869.000000
2349.809570 5830.000000
2350.886230 5892.000000
2351.962646 5741.000000
2353.038086 5787.000000
2354.112549 5833.000000
2355.186768 5711.000000
2356.260254 5856.000000
2357.333252 5762.000000
2358.405029 5629.000000
2359.476563 5646.000000
2360.547119 5585.000000
2361.617432 5555.000000
2362.686768 5604.000000
2363.755127 5545.000000
2364.823242 5509.000000
2365.890625 5413.000000
2366.957520 5550.000000
2368.023682 5412.000000
2369.088623 5374.000000
2370.153564 5303.000000
2371.217773 5455.000000
2372.281250 5400.000000
2373.343506 5360.000000
2374.405762 5251.000000
2375.467041 5395.000000
2376.528076 5238.000000
2377.587891 5337.000000
2378.646973 5260.000000
2379.706055 5225.000000
2380.764160 5170.000000
2381.821533 5293.000000
2382.877930 5305.000000
2383.934082 5220.000000
2384.989746 5250.000000
2386.044678 5181.000000
2387.098145 5279.000000
2388.151855 5119.000000
2389.204590 5211.000000
2390.256836 5200.000000
2391.308350 5118.000000
2392.358887 5198.000000
2393.409180 5262.000000
2394.458496 5274.000000
2395.507813 5196.000000
2396.555664 5151.000000
2397.603027 5201.000000
2398.650146 5124.000000
2399.696289 5163.000000
2400.741699 5148.000000
2401.786377 5029.000000
2402.831055 5033.000000
2403.874268 5067.000000
2404.917480 4959.000000
2405.959229 5160.000000
2407.001221 5091.000000
2408.042480 5014.000000
2409.082764 5077.000000
2410.122314 5029.000000
2411.160889 5104.000000
2412.199707 5130.000000
2413.237305 5052.000000
2414.274658 4933.000000
2415.310791 5067.000000
2416.346680 5144.000000
2417.381836 5039.000000
2418.416504 5113.000000
2419.449707 5030.000000
2420.483154 5097.000000
2421.515625 4993.000000
2422.547852 5127.000000
2423.578613 4922.000000
2424.609375 4923.000000
2425.639648 4846.000000
2426.668701 4866.000000
2427.697754 4854.000000
2428.725098 4809.000000
2429.752930 4789.000000
2430.779541 4821.000000
2431.805908 4781.000000
2432.830811 4704.000000
2433.855957 4699.000000
2434.880127 4626.000000
2435.904053 4659.000000
2436.926758 4705.000000
2437.948730 4588.000000
2438.970459 4561.000000
2439.991455 4580.000000
2441.011963 4567.000000
2442.031250 4469.000000
2443.050537 4399.000000
2444.068848 4446.000000
2445.086914 4345.000000
2446.103516 4446.000000
2447.120117 4459.000000
2448.135986 4334.000000
2449.151855 4372.000000
2450.166260 4322.000000
2451.179932 4388.000000
2452.193115 4314.000000
2453.206055 4416.000000
2454.218262 4271.000000
2455.229492 4269.000000
2456.240479 4339.000000
2457.250732 4348.000000
2458.260498 4211.000000
2459.269287 4246.000000
2460.277344 4246.000000
2461.285400 4230.000000
2462.292236 4181.000000
2463.298828 4194.000000
2464.304199 4133.000000
2465.309326 4069.000000
2466.314209 4109.000000
2467.317871 4110.000000
2468.321289 4008.000000
2469.323730 4095.000000
2470.325928 4225.000000
2471.327637 4086.000000
2472.328369 4156.000000
2473.328125 3855.000000
2474.327881 4030.000000
2475.326660 3954.000000
2476.324951 3945.000000
2477.322266 3960.000000
2478.319336 4042.000000
2479.316406 3896.000000
2480.312012 3951.000000
2481.307617 3885.000000
2482.301514 3872.000000
2483.295410 3924.000000
2484.288818 3997.000000
2485.281738 3922.000000
2486.273682 3930.000000
2487.264893 3976.000000
2488.255859 3932.000000
2489.246338 4013.000000
2490.235840 3981.000000
2491.224609 4009.000000
2492.213379 4029.000000
2493.201172 4067.000000
2494.187744 3906.000000
2495.174316 3654.000000
2496.160400 3983.000000
2497.145752 3842.000000
2498.130127 3991.000000
2499.114258 3917.000000
2500.098389 3960.000000
2501.081055 3942.000000
2502.063232 3899.000000
2503.044922 3878.000000
2504.025879 3870.000000
2505.006348 3924.000000
2505.986572 3897.000000
2506.965332 3938.000000
2507.943848 3912.000000
2508.921875 3920.000000
2509.899414 3704.000000
2510.875977 3778.000000
2511.852295 3800.000000
2512.827881 3836.000000
2513.802979 3785.000000
2514.777588 3777.000000
2515.750977 3835.000000
2516.724121 3752.000000
2517.697021 3760.000000
2518.668945 3685.000000
2519.640137 3730.000000
2520.610840 3609.000000
2521.581299 3651.000000
2522.551025 3739.000000
2523.519775 3498.000000
2524.487793 3557.000000
2525.455811 3609.000000
2526.422852 3615.000000
2527.389648 3645.000000
2528.355225 3585.000000
2529.320801 3551.000000
2530.285645 3598.000000
2531.250000 3561.000000
2532.213135 3523.000000
2533.176514 3410.000000
2534.138916 3515.000000
2535.101074 3543.000000
2536.062012 3574.000000
2537.022217 3537.000000
2537.982666 3496.000000
2538.942139 3541.000000
2539.900879 3398.000000
2540.858643 3444.000000
2541.816650 3447.000000
2542.773926 3291.000000
2543.730225 3330.000000
2544.686279 3280.000000
2545.641113 3308.000000
2546.596191 3257.000000
2547.550537 3286.000000
2548.504150 3485.000000
2549.456787 3216.000000
2550.409180 3209.000000
2551.361084 3202.000000
2552.312256 3273.000000
2553.262695 3202.000000
2554.212646 3148.000000
2555.162354 3158.000000
2556.111328 3321.000000
2557.059814 3190.000000
2558.007080 3107.000000
2558.954346 3084.000000
2559.900879 3156.000000
2560.846924 3214.000000
2561.791992 3116.000000
2562.736816 3049.000000
2563.681152 3072.000000
2564.625000 3028.000000
2565.568359 3008.000000
2566.510254 3087.000000
2567.452393 3010.000000
2568.393799 3000.000000
2569.334473 2963.000000
2570.274414 3041.000000
2571.214355 3078.000000
2572.153320 3156.000000
2573.092041 3061.000000
2574.029785 2999.000000
2574.967285 3022.000000
2575.904053 3100.000000
2576.840088 3109.000000
2577.775635 3026.000000
2578.710449 3082.000000
2579.645264 3036.000000
2580.579102 3052.000000
2581.512451 2999.000000
2582.445068 3012.000000
2583.377441 2876.000000
2584.309082 2993.000000
2585.240234 2944.000000
2586.170898 2891.000000
2587.100342 2993.000000
2588.029785 2816.000000
2588.958740 2937.000000
2589.887451 3016.000000
2590.814453 3010.000000
2591.741699 2893.000000
2592.668457 2937.000000
2593.594482 2925.000000
2594.520264 2931.000000
2595.444824 2947.000000
2596.369141 2890.000000
2597.292969 2946.000000
2598.216309 2957.000000
2599.138672 2846.000000
2600.060791 2861.000000
2600.982422 2851.000000
2601.903320 2996.000000
2602.823486 2893.000000
2603.743408 2841.000000
2604.662842 2807.000000
2605.582031 2771.000000
2606.500244 2911.000000
2607.417236 2846.000000
2608.334473 2761.000000
2609.251465 2850.000000
2610.167480 2787.000000
2611.082275 2805.000000
2611.997559 2741.000000
2612.912109 2745.000000
2613.825684 2761.000000
2614.739258 2822.000000
2615.651611 2694.000000
2616.563965 2698.000000
2617.475342 2775.000000
2618.386475 2699.000000
2619.296875 2688.000000
2620.207031 2823.000000
2621.116455 2688.000000
2622.025391 2730.000000
2622.933350 2778.000000
2623.841553 2649.000000
2624.748779 2662.000000
2625.655518 2631.000000
2626.561523 2592.000000
2627.467285 2591.000000
2628.372314 2522.000000
2629.277100 2679.000000
2630.181152 2489.000000
2631.084229 2657.000000
2631.987305 2575.000000
2632.889404 2604.000000
2633.791504 2566.000000
2634.693359 2498.000000
2635.593506 2539.000000
2636.493896 2497.000000
2637.393555 2548.000000
2638.292969 2523.000000
2639.190918 2561.000000
2640.089355 2457.000000
2640.987305 2458.000000
2641.884521 2393.000000
2642.780518 2486.000000
2643.676514 2290.000000
2644.572266 2333.000000
2645.467285 2448.000000
2646.362061 2427.000000
2647.255371 2433.000000
2648.148682 2387.000000
2649.041748 2339.000000
2649.934570 2384.000000
2650.825684 2335.000000
2651.717041 2470.000000
2652.607910 2351.000000
2653.498047 2266.000000
2654.387939 2351.000000
2655.276611 2273.000000
2656.165527 2380.000000
2657.053955 2265.000000
2657.941406 2316.000000
2658.827881 2411.000000
2659.714844 2215.000000
2660.601074 2273.000000
2661.486816 2270.000000
2662.371338 2292.000000
2663.255859 2381.000000
2664.140137 2219.000000
2665.023682 2298.000000
2665.906738 2299.000000
2666.789063 2296.000000
2667.670898 2294.000000
2668.552002 2242.000000
2669.433350 2263.000000
2670.313232 2323.000000
2671.193359 2259.000000
2672.072754 2349.000000
2672.952148 2328.000000
2673.830811 2307.000000
2674.707764 2298.000000
2675.585449 2258.000000
2676.462402 2274.000000
2677.338623 2179.000000
2678.214355 2254.000000
2679.089355 2293.000000
2679.964600 2333.000000
2680.838867 2267.000000
2681.712646 2090.000000
2682.585693 2108.000000
2683.458496 2169.000000
2684.331055 2154.000000
2685.202881 2061.000000
2686.073975 2100.000000
2686.944824 2112.000000
2687.815186 2098.000000
2688.685303 2128.000000
2689.553711 2106.000000
2690.422852 2184.000000
2691.291260 2047.000000
2692.159424 2115.000000
2693.026855 2065.000000
2693.893066 2164.000000
2694.759766 2071.000000
2695.625488 1978.000000
2696.491211 2090.000000
2697.355469 2021.000000
2698.220459 2216.000000
2699.083984 1999.000000
2699.947754 2073.000000
2700.810059 2031.000000
2701.672852 2070.000000
2702.534668 2052.000000
2703.395996 2093.000000
2704.257324 2042.000000
2705.117432 2079.000000
2705.977539 2033.000000
2706.837158 1975.000000
2707.696533 2021.000000
2708.554199 1901.000000
2709.412109 1957.000000
2710.270508 1945.000000
2711.127686 2085.000000
2711.984131 1959.000000
2712.840088 1910.000000
2713.696045 1934.000000
2714.551270 1930.000000
2715.405762 1986.000000
2716.259766 1937.000000
2717.113770 1876.000000
2717.966797 1876.000000
2718.820068 1796.000000
2719.671631 1844.000000
2720.523682 1851.000000
2721.375488 1845.000000
2722.226074 1801.000000
2723.076660 1957.000000
2723.926758 1795.000000
2724.776123 1862.000000
2725.625488 1859.000000
2726.473633 1826.000000
2727.321289 1853.000000
2728.169434 1910.000000
2729.016357 1753.000000
2729.863770 1870.000000
2730.709717 1781.000000
2731.554932 1822.000000
2732.400635 1861.000000
2733.245361 1726.000000
2734.090088 1820.000000
2734.933594 1847.000000
2735.777344 1728.000000
2736.620361 1822.000000
2737.462891 1732.000000
2738.304443 1840.000000
2739.146484 1834.000000
2739.987549 1768.000000
2740.828369 1848.000000
2741.668945 1717.000000
2742.508301 1751.000000
2743.347656 1783.000000
2744.187012 1800.000000
2745.025146 1780.000000
2745.862793 1767.000000
2746.700439 1823.000000
2747.537598 1778.000000
2748.374512 1732.000000
2749.210938 1795.000000
2750.046143 1653.000000
2750.881592 1666.000000
2751.716553 1800.000000
2752.550781 1765.000000
2753.384766 1671.000000
2754.218262 1626.000000
2755.051758 1663.000000
2755.884277 1632.000000
2756.716309 1606.000000
2757.547852 1669.000000
2758.379395 1652.000000
2759.209961 1698.000000
2760.040771 1627.000000
2760.870361 1640.000000
2761.699951 1658.000000
2762.529297 1636.000000
2763.357910 1547.000000
2764.186035 1565.000000
2765.013672 1580.000000
2765.841309 1603.000000
2766.668457 1600.000000
2767.494873 1469.000000
2768.320801 1659.000000
2769.146240 1552.000000
2769.971436 1550.000000
2770.796631 1636.000000
2771.620605 1614.000000
2772.444580 1570.000000
2773.268555 1603.000000
2774.091309 1561.000000
2774.914307 1604.000000
2775.736084 1616.000000
2776.557861 1549.000000
2777.379639 1526.000000
2778.200439 1433.000000
2779.020508 1575.000000
2779.840820 1544.000000
2780.660645 1486.000000
2781.480469 1443.000000
2782.298340 1606.000000
2783.117432 1418.000000
2783.935303 1600.000000
2784.752930 1567.000000
2785.570068 1506.000000
2786.386719 1487.000000
2787.203125 1489.000000
2788.019043 1439.000000
2788.834717 1542.000000
2789.649414 1537.000000
2790.464600 1437.000000
2791.279053 1362.000000
2792.093018 1435.000000
2792.906738 1417.000000
2793.719238 1517.000000
2794.531982 1426.000000
2795.344238 1461.000000
2796.156006 1389.000000
2796.967041 1435.000000
2797.778809 1433.000000
2798.589355 1360.000000
2799.399902 1390.000000
2800.208984 1369.000000
2801.018799 1306.000000
2801.827881 1363.000000
2802.636719 1399.000000
2803.445068 1392.000000
2804.252441 1339.000000
2805.060303 1500.000000
2805.867432 1322.000000
2806.674316 1350.000000
2807.479980 1337.000000
2808.286133 1371.000000
2809.091553 1380.000000
2809.896973 1312.000000
2810.701660 1232.000000
2811.505371 1338.000000
2812.309570 1307.000000
2813.113281 1355.000000
2813.916748 1339.000000
2814.718750 1349.000000
2815.521484 1360.000000
2816.323486 1346.000000
2817.125244 1342.000000
2817.926514 1343.000000
2818.727295 1262.000000
2819.527588 1288.000000
2820.328125 1264.000000
2821.127686 1316.000000
2821.926758 1229.000000
2822.725830 1317.000000
2823.524658 1204.000000
2824.322998 1348.000000
2825.120361 1365.000000
2825.917969 1354.000000
2826.714844 1294.000000
2827.511963 1296.000000
2828.308350 1181.000000
2829.104004 1070.000000
2829.899658 1216.000000
2830.695068 1107.000000
2831.489990 1276.000000
2832.284180 1239.000000
2833.078369 1284.000000
2833.872314 1311.000000
2834.665771 1294.000000
2835.458496 1264.000000
2836.250977 1301.000000
2837.043457 1252.000000
2837.835693 1309.000000
2838.627441 1231.000000
2839.418213 1252.000000
2840.208984 1247.000000
2841.000000 1259.000000
2841.790039 1207.000000
2842.579590 1210.000000
2843.369385 1197.000000
2844.158203 1213.000000
2844.947021 1191.000000
2845.735840 1231.000000
2846.523682 1191.000000
2847.311035 1255.000000
2848.098633 1222.000000
2848.885742 1169.000000
2849.672119 1291.000000
2850.458496 1197.000000
2851.244629 1101.000000
2852.030273 1060.000000
2852.814941 1121.000000
2853.600098 1162.000000
2854.385010 1198.000000
2855.169189 1175.000000
2855.953369 1239.000000
2856.736328 1082.000000
2857.519531 1096.000000
2858.302490 1240.000000
2859.084961 1182.000000
2859.867188 1117.000000
2860.648926 1167.000000
2861.430420 991.000000
2862.212158 1215.000000
2862.993164 1108.000000
2863.773438 1158.000000
2864.553467 1130.000000
2865.333496 1093.000000
2866.113281 1085.000000
2866.892090 1147.000000
2867.671143 1151.000000
2868.449707 1256.000000
2869.228027 1158.000000
2870.005859 1210.000000
2870.783447 1125.000000
2871.560791 1222.000000
2872.337891 1235.000000
2873.114502 1199.000000
2873.890625 1172.000000
2874.666748 1146.000000
2875.442383 1140.000000
2876.217773 1170.000000
2876.992676 1166.000000
2877.767334 1136.000000
2878.541992 1028.000000
2879.316406 1135.000000
2880.090088 1187.000000
2880.863037 1123.000000
2881.636719 1212.000000
2882.409424 1165.000000
2883.182129 1121.000000
2883.954102 1150.000000
2884.725830 1186.000000
2885.498047 1104.000000
2886.269043 1139.000000
2887.039551 1167.000000
2887.810547 1144.000000
2888.581543 1087.000000
2889.351807 1085.000000
2890.121094 1149.000000
2890.890625 1147.000000
2891.660156 1112.000000
2892.429199 1210.000000
2893.197754 985.000000
2893.966309 1078.000000
2894.733887 1158.000000
2895.501953 1161.000000
2896.269531 1120.000000
2897.037109 1014.000000
2897.803467 1105.000000
2898.570801 1087.000000
2899.336914 993.000000
2900.103271 972.000000
2900.868164 1015.000000
2901.633545 1174.000000
2902.399414 1035.000000
2903.163818 1051.000000
2903.928223 936.000000
2904.692871 1067.000000
2905.456543 1020.000000
2906.220947 1007.000000
2906.984619 943.000000
2907.747559 931.000000
2908.510254 1014.000000
2909.273438 956.000000
2910.036133 994.000000
2910.797607 834.000000
2911.559570 834.000000
spectrumdark 2048
-96.671349 6234.000000
-94.044479 6234.000000
-91.419487 6084.000000
-88.796387 6399.000000
-86.175156 5796.000000
-83.555824 6246.000000
-80.938354 6052.000000
-78.322762 6444.000000
-75.709045 6170.000000
-73.097206 5836.000000
-70.487228 6065.000000
-67.879135 5993.000000
-65.272888 5940.000000
-62.668522 5977.000000
-60.066013 6076.000000
-57.465359 5618.000000
-54.866566 6251.000000
-52.269630 6885.000000
-49.674549 6398.000000
-47.081322 6501.000000
-44.489944 6248.000000
-41.900414 6730.000000
-39.312725 5942.000000
-36.726887 6016.000000
-34.142891 6355.000000
-31.560732 5636.000000
-28.980419 6285.000000
-26.401934 5684.000000
-23.825291 6104.000000
-21.250473 6182.000000
-18.677496 6457.000000
-16.106339 6471.000000
-13.537015 6757.000000
-10.969517 7716.000000
-8.403837 6304.000000
-5.839983 6415.000000
-3.277943 5982.000000
-0.717727 5835.000000
1.840681 6329.000000
4.397268 6937.000000
6.952051 6634.000000
9.505015 6005.000000
12.056180 6779.000000
14.605532 6455.000000
17.153088 6699.000000
19.698832 6048.000000
22.242783 5810.000000
24.784929 6674.000000
27.325279 6831.000000
29.863844 6938.000000
32.400612 6177.000000
34.935577 5789.000000
37.468765 7153.000000
40.000172 6298.000000
42.529785 7088.000000
45.057602 6455.000000
47.583660 7858.000000
50.107929 5694.000000
52.630428 6232.000000
55.151131 6669.000000
57.670078 6334.000000
60.187252 6401.000000
62.702648 6641.000000
65.216270 5604.000000
67.728134 5735.000000
70.238251 6584.000000
72.746574 6578.000000
75.253143 5939.000000
77.757965 6316.000000
80.261032 6386.000000
82.762321 6228.000000
85.261871 6101.000000
87.759666 6375.000000
90.255730 5732.000000
92.750015 7200.000000
95.242561 5761.000000
97.733391 6806.000000
100.222450 7158.000000
102.709763 6392.000000
105.195351 6209.000000
107.679199 6334.000000
110.161301 5785.000000
112.641678 6708.000000
115.120331 6181.000000
117.597260 6411.000000
120.072433 7189.000000
122.545898 6847.000000
125.017632 5805.000000
127.487656 6738.000000
129.955917 6247.000000
132.422516 6274.000000
134.887360 5691.000000
137.350510 6199.000000
139.811920 7249.000000
142.271637 6898.000000
144.729630 6312.000000
147.185928 5943.000000
149.640518 5786.000000
152.093384 6795.000000
154.544571 6388.000000
156.994064 6660.000000
159.441833 6046.000000
161.887894 6573.000000
164.332275 8635.000000
166.774979 6364.000000
169.215988 6760.000000
171.655289 6241.000000
174.092880 7191.000000
176.528839 6650.000000
178.963058 6941.000000
181.395599 7157.000000
183.826492 6690.000000
186.255661 7123.000000
188.683182 6720.000000
191.109024 6330.000000
193.533188 6702.000000
195.955688 7148.000000
198.376495 7382.000000
200.795639 6548.000000
203.213120 5997.000000
205.628906 7605.000000
208.043045 7188.000000
210.455551 6412.000000
212.866379 6057.000000
215.275528 6235.000000
217.683044 7439.000000
220.088852 6204.000000
222.493073 6525.000000
224.895584 6767.000000
227.296478 6991.000000
229.695724 6370.000000
232.093307 6945.000000
234.489227 7255.000000
236.883530 6543.000000
239.276169 6107.000000
241.667191 6745.000000
244.056549 6618.000000
246.444290 6355.000000
248.830383 7018.000000
251.214844 6091.000000
253.597656 7874.000000
255.978897 6657.000000
258.358429 6694.000000
260.736389 6477.000000
263.112671 7579.000000
265.487396 7556.000000
267.860474 7874.000000
270.231903 6164.000000
272.601685 6494.000000
274.969910 5874.000000
277.336487 6308.000000
279.701477 6713.000000
282.064850 6012.000000
284.426575 6280.000000
286.786713 7101.000000
289.145233 6093.000000
291.502167 6526.000000
293.857483 6353.000000
296.211212 5945.000000
298.563293 5962.000000
300.913818 6311.000000
303.262756 6312.000000
305.610046 6834.000000
307.955811 6406.000000
310.299896 6492.000000
312.642456 7339.000000
314.983398 7572.000000
317.322723 7197.000000
319.660492 6953.000000
321.996704 8104.000000
324.331268 6302.000000
326.664276 6488.000000
328.995728 6015.000000
331.325592 6651.000000
333.653870 6393.000000
335.980530 7220.000000
338.305695 6389.000000
340.629242 6174.000000
342.951233 5967.000000
345.271667 7583.000000
347.590485 7704.000000
349.907745 5970.000000
352.223480 5825.000000
354.537628 6994.000000
356.850189 6295.000000
359.161194 6397.000000
361.470673 7069.000000
363.778625 6338.000000
366.084961 5656.000000
368.389709 6410.000000
370.692993 6418.000000
372.994659 6315.000000
375.294830 6316.000000
377.593445 6316.000000
379.890503 5736.000000
382.186005 6105.000000
384.479980 5895.000000
386.772369 5200.000000
389.063263 5561.000000
391.352631 6217.000000
393.640411 6215.000000
395.926666 6531.000000
398.211426 7052.000000
400.494568 6003.000000
402.776276 6451.000000
405.056458 6175.000000
407.335052 7262.000000
409.612122 6525.000000
411.887665 6838.000000
414.161682 6558.000000
416.434265 6511.000000
418.705231 6340.000000
420.974701 6391.000000
423.242676 7112.000000
425.509094 7297.000000
427.774017 6262.000000
430.037476 6336.000000
432.299347 6534.000000
434.559753 5997.000000
436.818604 6675.000000
439.075989 6100.000000
441.331879 5677.000000
443.586273 5864.000000
445.839142 5494.000000
448.090454 6875.000000
450.340363 6108.000000
452.588684 6226.000000
454.835571 5696.000000
457.080994 6496.000000
459.324860 6442.000000
461.567230 6796.000000
463.808105 5649.000000
466.047577 6712.000000
468.285461 5449.000000
470.521912 5832.000000
472.756836 6052.000000
474.990295 7422.000000
477.222321 6764.000000
479.452820 5735.000000
481.681824 6420.000000
483.909363 6297.000000
486.135406 5860.000000
488.360016 6593.000000
490.583160 5899.000000
492.804840 6488.000000
495.024963 6654.000000
497.243683 5701.000000
499.460907 6271.000000
501.676758 5543.000000
503.890991 6181.000000
506.103912 6416.000000
508.315247 6470.000000
510.525146 6894.000000
512.733643 6507.000000
514.940735 6507.000000
517.146240 6441.000000
519.350342 6557.000000
521.552917 6192.000000
523.754089 6499.000000
525.953918 6714.000000
528.152222 6915.000000
530.348999 5366.000000
532.544434 5849.000000
534.738342 5591.000000
536.930908 7525.000000
539.121948 6647.000000
541.311584 5996.000000
543.499817 6927.000000
545.686523 7095.000000
547.871765 6791.000000
550.055725 6250.000000
552.238098 6437.000000
554.419128 6115.000000
556.598633 5982.000000
558.776855 5859.000000
560.953552 5980.000000
563.128845 6399.000000
565.302734 6470.000000
567.475159 5912.000000
569.646179 6047.000000
571.815735 6324.000000
573.984009 5198.000000
576.150757 6448.000000
578.316040 6300.000000
580.479919 6115.000000
582.642517 5700.000000
584.803589 5997.000000
586.963257 5641.000000
589.121582 5736.000000
591.278381 6163.000000
593.433838 6633.000000
595.587891 5755.000000
597.740601 6123.000000
599.891785 7285.000000
602.041626 6795.000000
604.190125 6670.000000
606.337036 6083.000000
608.482727 6483.000000
610.627014 6519.000000
612.769836 7007.000000
614.911194 6160.000000
617.051331 6451.000000
619.189941 7678.000000
621.327271 5735.000000
623.463135 6627.000000
625.597595 6817.000000
627.730591 7218.000000
629.862427 6628.000000
631.992798 6566.000000
634.121765 6794.000000
636.249268 6463.000000
638.375488 6200.000000
640.500183 7368.000000
642.623657 6428.000000
644.745789 6868.000000
646.866455 6862.000000
648.985779 6524.000000
651.103699 5644.000000
653.220276 5652.000000
655.335449 6460.000000
657.449280 6449.000000
659.561646 5836.000000
661.672791 6100.000000
663.782532 5409.000000
665.890808 6028.000000
667.997925 6295.000000
670.103577 6805.000000
672.207764 5897.000000
674.310730 5707.000000
676.412292 6993.000000
678.512512 5339.000000
680.611328 6766.000000
682.708801 6258.000000
684.804993 6954.000000
686.899719 6371.000000
688.993225 6970.000000
691.085388 6617.000000
693.176025 7972.000000
695.265442 6665.000000
697.353577 6458.000000
699.440247 6033.000000
701.525696 6666.000000
703.609619 5069.000000
705.692322 5910.000000
707.773743 5957.000000
709.853699 7583.000000
711.932434 6149.000000
714.009705 5546.000000
716.085693 6577.000000
718.160400 6118.000000
720.233826 7022.000000
722.305725 6347.000000
724.376465 7332.000000
726.445862 5830.000000
728.513855 6453.000000
730.580505 6372.000000
732.645935 7075.000000
734.710022 5808.000000
736.772766 6201.000000
738.834167 6447.000000
740.894287 6625.000000
742.953003 6023.000000
745.010498 6644.000000
747.066711 6503.000000
749.121521 6710.000000
751.175049 6374.000000
753.227173 7462.000000
755.278076 5764.000000
757.327759 6719.000000
759.375977 6380.000000
761.422974 6132.000000
763.468689 7005.000000
765.513000 5353.000000
767.556030 5750.000000
769.597839 6455.000000
771.638306 7160.000000
773.677368 6330.000000
775.715271 6079.000000
777.751831 5957.000000
779.787170 5352.000000
781.821167 5824.000000
783.853760 6929.000000
785.885193 5531.000000
787.915222 11922.000000
789.943970 5965.000000
791.971558 6321.000000
793.997803 6362.000000
796.022644 5842.000000
798.046387 5473.000000
800.068726 6399.000000
802.089844 5867.000000
804.109619 6688.000000
806.128113 4900.000000
808.145386 6611.000000
810.161255 6791.000000
812.175964 5687.000000
814.189331 6405.000000
816.201477 6309.000000
818.212402 6190.000000
820.221985 6542.000000
822.230347 5322.000000
824.237305 5679.000000
826.243042 6074.000000
828.247559 5748.000000
830.250793 5664.000000
832.252747 6473.000000
834.253418 6082.000000
836.252869 5904.000000
838.250977 6308.000000
840.247986 6996.000000
842.243591 6258.000000
844.238037 5989.000000
846.231140 6197.000000
848.223022 6908.000000
850.213562 5629.000000
852.202820 6761.000000
854.191040 6023.000000
856.177856 5718.000000
858.163452 6441.000000
860.147766 7279.000000
862.130981 6290.000000
864.112793 6439.000000
866.093384 5857.000000
868.072693 7723.000000
870.050842 7118.000000
872.027649 6236.000000
874.003174 5903.000000
875.977661 6211.000000
877.950684 6019.000000
879.922668 5408.000000
881.893311 6425.000000
883.862793 6086.000000
885.830933 5567.000000
887.797913 5182.000000
889.763550 6093.000000
891.728027 5786.000000
893.691284 6040.000000
895.653320 6499.000000
897.614075 5793.000000
899.573608 6406.000000
901.531860 6777.000000
903.489014 6345.000000
905.445007 5987.000000
907.399597 6935.000000
909.352966 6509.000000
911.305176 6426.000000
913.256165 6383.000000
915.205872 7143.000000
917.154419 6350.000000
919.101746 6150.000000
921.047791 6080.000000
922.992554 6078.000000
924.936279 6278.000000
926.878845 5940.000000
928.820129 5621.000000
930.760071 6476.000000
932.698914 5757.000000
934.636475 5449.000000
936.572815 5965.000000
938.507996 5863.000000
940.441895 6112.000000
942.374695 5886.000000
944.306274 6803.000000
946.236694 5242.000000
948.165894 6479.000000
950.093750 7013.000000
952.020569 6640.000000
953.946106 5947.000000
955.870361 5385.000000
957.793518 5966.000000
959.715515 6702.000000
961.636230 7305.000000
963.555786 6526.000000
965.474182 5395.000000
967.391541 6396.000000
969.307434 6425.000000
971.222229 6166.000000
973.135803 5929.000000
975.048218 6410.000000
976.959412 6488.000000
978.869446 5410.000000
980.778198 6172.000000
982.685913 6106.000000
984.592407 6364.000000
986.497681 5696.000000
988.401855 6829.000000
990.304810 6241.000000
992.206543 6764.000000
994.107117 6548.000000
996.006531 6601.000000
997.904724 5310.000000
999.801758 6583.000000
1001.697571 6473.000000
1003.592224 7644.000000
1005.485779 5546.000000
1007.378052 7276.000000
1009.269409 6102.000000
1011.159424 5351.000000
1013.048218 6624.000000
1014.935852 6381.000000
1016.822327 6905.000000
1018.707642 6709.000000
1020.591797 5975.000000
1022.474731 5892.000000
1024.356567 6230.000000
1026.237183 5262.000000
1028.116699 5855.000000
1029.995239 6095.000000
1031.872437 5365.000000
1033.748291 6192.000000
1035.623169 5893.000000
1037.497070 6623.000000
1039.369507 7075.000000
1041.240967 6698.000000
1043.111084 5497.000000
1044.980225 5510.000000
1046.848145 5810.000000
1048.714966 7071.000000
1050.580688 6725.000000
1052.445190 6443.000000
1054.308594 6460.000000
1056.170654 6508.000000
1058.031738 5867.000000
1059.891724 6455.000000
1061.750366 6678.000000
1063.607910 5773.000000
1065.464355 6749.000000
1067.319702 5934.000000
1069.173828 5842.000000
1071.027100 6292.000000
1072.878906 6339.000000
1074.729736 6134.000000
1076.579346 6152.000000
1078.427734 5773.000000
1080.275269 7949.000000
1082.121460 5570.000000
1083.966431 6285.000000
1085.810547 5373.000000
1087.653320 5563.000000
1089.494873 6483.000000
1091.335693 5492.000000
1093.174927 5786.000000
1095.013428 6011.000000
1096.850586 6078.000000
1098.686523 6798.000000
1100.521484 6544.000000
1102.355225 5413.000000
1104.187988 5678.000000
1106.019409 6156.000000
1107.849976 7232.000000
1109.679199 6532.000000
1111.507446 6450.000000
1113.334473 7077.000000
1115.160522 5417.000000
1116.985352 6365.000000
1118.809082 7165.000000
1120.631592 6116.000000
1122.453003 5898.000000
1124.273560 5843.000000
1126.092651 6546.000000
1127.910889 7159.000000
1129.727783 6857.000000
1131.543823 6688.000000
1133.358643 6439.000000
1135.172363 5621.000000
1136.984985 5811.000000
1138.796387 5698.000000
1140.606812 6113.000000
1142.416138 6730.000000
1144.224121 6991.000000
1146.031372 5942.000000
1147.837158 5940.000000
1149.642090 5354.000000
1151.445923 5417.000000
1153.248535 6083.000000
1155.050293 6113.000000
1156.850586 6076.000000
1158.649902 6113.000000
1160.448242 5859.000000
1162.245239 5474.000000
1164.041504 5923.000000
1165.836426 6076.000000
1167.630249 6311.000000
1169.423218 7739.000000
1171.214844 5733.000000
1173.005493 6479.000000
1174.795166 6045.000000
1176.583374 5826.000000
1178.370728 7535.000000
1180.156982 6919.000000
1181.942139 5830.000000
1183.726196 6010.000000
1185.509155 7729.000000
1187.291138 5903.000000
1189.071899 5866.000000
1190.851685 6312.000000
1192.630371 6940.000000
1194.408081 6695.000000
1196.184570 7234.000000
1197.959961 6640.000000
1199.734253 6413.000000
1201.507446 6717.000000
1203.279785 6442.000000
1205.050781 6769.000000
1206.820923 5728.000000
1208.589844 6154.000000
1210.357666 6314.000000
1212.124634 5848.000000
1213.890259 5898.000000
1215.654907 6956.000000
1217.418457 6508.000000
1219.180908 6012.000000
1220.942505 6773.000000
1222.702881 5880.000000
1224.462158 6280.000000
1226.220581 6056.000000
1227.977783 7165.000000
1229.733887 6438.000000
1231.488892 5512.000000
1233.243042 5992.000000
1234.995850 5869.000000
1236.747681 5967.000000
1238.498657 5988.000000
1240.248291 4980.000000
1241.997070 6948.000000
1243.744507 6546.000000
1245.491211 6650.000000
1247.236694 6517.000000
1248.981323 6456.000000
1250.724609 6665.000000
1252.466919 6708.000000
1254.208130 5381.000000
1255.948486 5106.000000
1257.687744 5721.000000
1259.425781 6582.000000
1261.162964 7077.000000
1262.898926 6122.000000
1264.633911 6408.000000
1266.367920 7342.000000
1268.100952 5969.000000
1269.832764 6247.000000
1271.563599 6480.000000
1273.293213 7240.000000
1275.021973 5928.000000
1276.749634 5707.000000
1278.476196 5538.000000
1280.201904 5612.000000
1281.926270 6400.000000
1283.649780 5221.000000
1285.372314 6823.000000
1287.093872 6597.000000
1288.814209 6428.000000
1290.533569 6681.000000
1292.251831 7226.000000
1293.969116 6450.000000
1295.685425 5802.000000
1297.400513 6420.000000
1299.114624 6171.000000
1300.827759 5792.000000
1302.540039 6469.000000
1304.251099 8333.000000
1305.961182 5269.000000
1307.670166 6358.000000
1309.377930 6604.000000
1311.085083 7031.000000
1312.790771 5770.000000
1314.495728 6959.000000
1316.199707 6160.000000
1317.902466 5989.000000
1319.604248 6539.000000
1321.305176 6073.000000
1323.004761 9070.000000
1324.703491 7334.500000
1326.401489 18635.000000
1328.098145 6438.000000
1329.793701 7150.000000
1331.488403 6796.000000
1333.181885 5732.000000
1334.874512 5423.000000
1336.566284 7405.000000
1338.256714 6297.000000
1339.946411 6600.000000
1341.635010 6109.000000
1343.322510 7650.000000
1345.009033 5678.000000
1346.694458 6747.000000
1348.378906 6012.000000
1350.062500 7247.000000
1351.744873 6404.000000
1353.426270 5900.000000
1355.106812 6554.000000
1356.786133 6728.000000
1358.464844 5855.000000
1360.142212 6480.000000
1361.818481 5768.000000
1363.493774 5601.000000
1365.168335 6565.000000
1366.841675 6407.000000
1368.514038 6845.000000
1370.185425 5156.000000
1371.855835 6754.000000
1373.525146 6158.000000
1375.193481 5699.000000
1376.860962 5986.000000
1378.527344 6460.000000
1380.192749 6077.000000
1381.857178 5833.000000
1383.520386 5874.000000
1385.182983 5668.000000
1386.844238 6388.000000
1388.504639 6566.000000
1390.163940 6403.000000
1391.822266 6540.000000
1393.479858 6885.000000
1395.136230 6500.000000
1396.791748 7001.000000
1398.446045 6254.000000
1400.099487 5784.000000
1401.751831 6134.000000
1403.403442 6469.000000
1405.053833 7186.000000
1406.703125 6272.000000
1408.351685 7517.000000
1409.999146 7856.000000
1411.645630 6091.000000
1413.291260 6244.000000
1414.935913 5985.000000
1416.579346 7011.000000
1418.221924 7081.000000
1419.863403 6894.000000
1421.504028 6485.000000
1423.143677 6459.000000
1424.782227 6023.000000
1426.419922 6558.000000
1428.056519 6372.000000
1429.692139 5974.000000
1431.327026 6430.000000
1432.960815 5923.000000
1434.593506 6116.000000
1436.225220 5717.000000
1437.856079 6141.000000
1439.485840 6061.000000
1441.114502 7822.000000
1442.742554 5976.000000
1444.369507 6207.000000
1445.995239 6195.000000
1447.620361 6135.000000
1449.244385 6485.000000
1450.867432 6072.000000
1452.489502 6007.000000
1454.110474 7486.000000
1455.730469 6342.000000
1457.349731 6907.000000
1458.967651 5660.000000
1460.584961 5612.500000
1462.201294 5565.000000
1463.816406 7252.000000
1465.430664 6359.000000
1467.044067 5184.000000
1468.656372 5627.000000
1470.267822 6302.000000
1471.878418 6345.000000
1473.487793 6023.000000
1475.096191 5997.000000
1476.703735 6139.000000
1478.310303 6793.000000
1479.916138 5271.000000
1481.520752 6306.000000
1483.124512 5538.000000
1484.727051 6855.000000
1486.328979 5546.000000
1487.929688 5446.000000
1489.529663 5625.000000
1491.128540 6245.000000
1492.726563 6530.000000
1494.323486 6608.000000
1495.919556 6404.000000
1497.514648 5990.000000
1499.108765 5499.000000
1500.702148 6532.000000
1502.294434 5488.000000
1503.885498 6216.000000
1505.476074 6800.000000
1507.065308 6471.000000
1508.653931 6180.000000
1510.241455 6557.000000
1511.827881 6861.000000
1513.413574 6096.000000
1514.998169 6671.000000
1516.581909 6345.000000
1518.164551 6190.000000
1519.746460 6627.000000
1521.327271 6660.000000
1522.907349 6023.000000
1524.486206 6223.000000
1526.064209 6377.000000
1527.641479 6330.000000
1529.217529 5669.000000
1530.792847 5883.000000
1532.367065 6235.000000
1533.940552 5490.000000
1535.512817 5928.000000
1537.084351 6402.000000
1538.654907 6438.000000
1540.224609 6363.000000
1541.793091 5421.000000
1543.360840 6569.000000
1544.927734 5628.000000
1546.493408 6841.000000
1548.058350 5970.000000
1549.622192 5110.000000
1551.185425 7419.000000
1552.747314 6341.000000
1554.308594 5930.000000
1555.868774 5697.000000
1557.428223 5796.000000
1558.986572 5910.000000
1560.544189 6298.000000
1562.100708 7048.000000
1563.656006 5866.000000
1565.210693 6324.000000
1566.764648 5649.000000
1568.317627 6324.000000
1569.869263 5612.000000
1571.420166 5929.000000
1572.970337 6233.000000
1574.519531 6367.000000
1576.067383 5752.000000
1577.614746 5492.000000
1579.161133 5727.000000
1580.706665 5102.000000
1582.251221 6722.000000
1583.794556 6388.000000
1585.337280 6604.000000
1586.879150 6455.000000
1588.419922 6757.000000
1589.959717 5764.000000
1591.498779 6633.000000
1593.036743 5920.000000
1594.574219 6118.000000
1596.110352 5934.000000
1597.645386 6701.000000
1599.179932 6263.000000
1600.713501 5913.000000
1602.246216 6040.000000
1603.777344 6304.000000
1605.308228 6327.000000
1606.838257 5803.000000
1608.367065 6079.000000
1609.894775 6185.000000
1611.421875 6033.000000
1612.948242 5923.000000
1614.473633 6254.000000
1615.998169 5826.000000
1617.521362 5783.000000
1619.043823 5659.000000
1620.565552 6603.000000
1622.086426 6980.000000
1623.605835 6599.500000
1625.124756 6219.000000
1626.642944 6094.000000
1628.160278 5883.000000
1629.676514 6365.000000
1631.191406 7001.000000
1632.705811 6802.000000
1634.219482 5752.000000
1635.732056 6815.000000
1637.243408 5894.000000
1638.754395 6402.000000
1640.264282 6200.000000
1641.773315 6149.000000
1643.281006 5602.000000
1644.788330 6128.000000
1646.294800 7141.000000
1647.800293 6192.000000
1649.304932 6838.000000
1650.808105 6181.000000
1652.310669 6557.000000
1653.812866 6275.000000
1655.313721 6669.000000
1656.813477 7545.000000
1658.312378 5991.000000
1659.810913 6582.000000
1661.308228 6282.000000
1662.804810 5855.000000
1664.299805 6475.000000
1665.794556 6350.000000
1667.288452 5225.000000
1668.781372 5741.000000
1670.272949 6115.500000
1671.764038 6490.000000
1673.254517 6093.000000
1674.743896 5950.000000
1676.231812 6967.000000
1677.719482 6842.000000
1679.206177 6048.000000
1680.692017 5490.000000
1682.177002 6069.000000
1683.660522 6166.000000
1685.143799 6161.000000
1686.626221 5852.000000
1688.107544 6256.000000
1689.587402 6219.000000
1691.067017 5516.000000
1692.545898 6850.000000
1694.023804 5993.000000
1695.500732 6148.000000
1696.976440 5751.000000
1698.451782 6076.000000
1699.925903 6336.000000
1701.399414 5491.000000
1702.871460 5573.000000
1704.343262 6858.000000
1705.814087 6409.000000
1707.284058 7241.000000
1708.752686 5151.000000
1710.220825 5807.000000
1711.688232 6356.000000
1713.154541 5483.000000
1714.620239 5746.000000
1716.084229 6171.000000
1717.548096 5954.000000
1719.011108 7000.000000
1720.473145 6318.000000
1721.933960 6708.000000
1723.394165 5475.000000
1724.853638 6365.000000
1726.312256 6112.000000
1727.769897 5996.000000
1729.226196 6252.000000
1730.682251 5966.000000
1732.137329 6475.000000
1733.591431 6052.000000
1735.044312 6921.000000
1736.496948 5996.000000
1737.948486 6904.000000
1739.399292 5971.000000
1740.849121 6597.000000
1742.297607 5882.000000
1743.745728 7605.000000
1745.192993 6533.000000
1746.639526 6690.000000
1748.084473 6682.000000
1749.529175 6093.000000
1750.973022 5923.000000
1752.416016 5450.000000
1753.857544 6516.000000
1755.298828 6380.000000
1756.739258 19483.000000
1758.178711 6263.000000
1759.617188 5276.000000
1761.054688 6085.000000
1762.491699 7516.000000
1763.927734 5835.000000
1765.362915 7174.000000
1766.796631 6205.000000
1768.230225 6471.000000
1769.662842 6721.000000
1771.094604 5775.000000
1772.525513 5868.000000
1773.955200 6398.000000
1775.384155 6067.000000
1776.812622 6202.000000
1778.240112 6715.000000
1779.666260 6213.000000
1781.092163 5584.000000
1782.516968 6926.000000
1783.941162 5564.000000
1785.363892 6698.000000
1786.786133 6514.000000
1788.207642 6861.000000
1789.628418 5957.000000
1791.048218 5989.000000
1792.466675 6153.000000
1793.884644 6813.000000
1795.302002 5558.000000
1796.718506 6035.000000
1798.133545 6534.000000
1799.548218 5886.000000
1800.962280 6606.000000
1802.375122 5924.000000
1803.787354 6958.000000
1805.198242 7120.000000
1806.608643 7760.000000
1808.018311 6457.000000
1809.427002 5937.000000
1810.834595 5392.000000
1812.241699 6460.000000
1813.647949 6401.000000
1815.053223 6678.000000
1816.457397 5983.000000
1817.861206 5948.000000
1819.264038 6229.000000
1820.666016 5966.000000
1822.067383 5889.000000
1823.467285 6395.000000
1824.866577 6576.000000
1826.265381 6623.000000
1827.663330 7445.000000
1829.059937 5726.000000
1830.455933 6718.000000
1831.851196 5925.000000
1833.245850 8191.000000
1834.639526 6039.000000
1836.031860 6876.000000
1837.423706 6348.000000
1838.814941 5874.000000
1840.205200 7035.000000
1841.594238 5983.000000
1842.982910 6124.000000
1844.370605 6005.000000
1845.757568 5800.000000
1847.143188 6923.000000
1848.528564 5867.000000
1849.913086 6445.000000
1851.296875 6351.000000
1852.679565 6384.000000
1854.061035 5355.000000
1855.442017 6550.000000
1856.822510 6282.000000
1858.202026 5755.000000
1859.580078 6053.000000
1860.958008 6234.000000
1862.334961 7889.000000
1863.711182 6108.000000
1865.086548 6047.000000
1866.460449 5635.000000
1867.834229 5708.000000
1869.207153 6199.000000
1870.578979 5968.000000
1871.949829 6943.000000
1873.320313 5414.000000
1874.689697 6088.000000
1876.058594 6099.000000
1877.425903 7181.000000
1878.793091 6082.000000
1880.159302 6004.000000
1881.524780 6805.000000
1882.889526 7578.000000
1884.252686 6822.000000
1885.615723 6877.000000
1886.977905 6361.000000
1888.339233 6462.000000
1889.699219 5624.000000
1891.058838 5844.000000
1892.417847 6154.000000
1893.775879 6690.000000
1895.133057 7313.000000
1896.489014 5992.000000
1897.844727 7673.000000
1899.199463 5837.000000
1900.553345 5516.000000
1901.906128 5938.000000
1903.258423 5869.000000
1904.609985 5951.000000
1905.960693 6874.000000
1907.310181 6524.000000
1908.659180 6656.000000
1910.007324 5870.000000
1911.354858 6142.000000
1912.701660 6293.000000
1914.046875 6801.000000
1915.391846 6088.000000
1916.736084 5460.000000
1918.079468 6520.000000
1919.421509 5962.000000
1920.763306 6722.000000
1922.104248 6929.000000
1923.444458 6129.000000
1924.783691 6329.000000
1926.121948 6356.000000
1927.459595 6524.000000
1928.796509 7003.000000
1930.132568 6739.000000
1931.467407 5598.000000
1932.801880 6753.000000
1934.135620 7180.000000
1935.468506 6223.000000
1936.799927 5751.000000
1938.131470 6368.000000
1939.461670 6722.000000
1940.791382 5828.000000
1942.120239 6127.000000
1943.447876 5867.000000
1944.775024 5013.000000
1946.101440 5853.000000
1947.427124 6569.000000
1948.751465 5782.000000
1950.075562 6698.000000
1951.398804 6390.000000
1952.721313 6439.000000
1954.042725 5787.000000
1955.363159 7496.000000
1956.682983 6085.000000
1958.002441 5561.000000
1959.320923 6903.000000
1960.638062 5890.000000
1961.954834 5865.000000
1963.270874 6579.000000
1964.586182 6579.000000
1965.900024 6295.000000
1967.213623 5720.000000
1968.526489 6283.000000
1969.838501 6035.000000
1971.149902 6079.000000
1972.459961 6302.000000
1973.769531 5860.000000
1975.078369 6167.000000
1976.386597 6570.000000
1977.693481 6074.000000
1978.999756 7237.000000
1980.305664 5552.000000
1981.610352 6419.000000
1982.914551 5924.000000
1984.217529 5685.000000
1985.520142 7599.000000
1986.821777 6152.000000
1988.122803 6842.000000
1989.422241 6085.000000
1990.721802 6602.000000
1992.020264 5302.000000
1993.318237 6064.000000
1994.614624 6104.000000
1995.911011 5770.000000
1997.206421 5548.000000
1998.501099 6460.000000
1999.794922 5745.000000
2001.087524 6548.000000
2002.379639 5776.000000
2003.671265 7209.000000
2004.962158 6425.000000
2006.251465 6311.000000
2007.540527 6801.000000
2008.828857 5920.000000
2010.116455 6010.000000
2011.403198 6675.000000
2012.688843 5663.000000
2013.974121 6326.000000
2015.258423 6016.000000
2016.542114 5589.000000
2017.824463 6018.000000
2019.106445 6523.000000
2020.387939 6788.000000
2021.668457 5860.000000
2022.948242 6066.000000
2024.226929 6737.000000
2025.504883 5839.000000
2026.782349 5885.000000
2028.059204 6368.000000
2029.334351 5696.000000
2030.609619 6602.000000
2031.883911 6074.000000
2033.157227 5959.000000
2034.429688 5921.000000
2035.701782 6152.000000
2036.972778 6889.000000
2038.243530 6545.000000
2039.512939 6026.000000
2040.781250 6946.000000
2042.049561 6580.000000
2043.316895 5954.000000
2044.583496 5986.000000
2045.848877 5609.000000
2047.113647 5525.000000
2048.378174 5460.000000
2049.641602 5868.000000
2050.904541 6329.000000
2052.165527 6155.000000
2053.427002 6095.000000
2054.687256 5868.000000
2055.946777 6421.000000
2057.205566 6231.000000
2058.463379 6978.000000
2059.720703 6254.000000
2060.977295 5992.000000
2062.232422 6551.000000
2063.487549 5671.000000
2064.741699 5624.000000
2065.995117 5661.000000
2067.247803 6824.000000
2068.499268 6250.000000
2069.750488 6399.000000
2071.000977 5605.000000
2072.250732 5387.000000
2073.499023 6520.000000
2074.747314 6452.000000
2075.994629 7418.000000
2077.241211 5618.000000
2078.487061 5990.000000
2079.731689 7065.000000
2080.975830 7629.000000
2082.219482 5492.000000
2083.462158 5989.000000
2084.703613 6985.000000
2085.944824 5955.000000
2087.185547 6383.000000
2088.425293 6721.000000
2089.663818 7054.000000
2090.901855 6182.000000
2092.139160 5822.000000
2093.376221 6678.000000
2094.611816 6082.000000
2095.846680 6153.000000
2097.081299 6080.000000
2098.314941 5581.000000
2099.547607 6100.000000
2100.779541 6812.000000
2102.010986 6419.000000
2103.241455 6796.000000
2104.471191 6027.000000
2105.700684 6028.000000
2106.928223 6005.000000
2108.156006 5986.000000
2109.383057 6401.000000
2110.609131 5487.000000
2111.833740 6452.000000
2113.058594 6990.000000
2114.282227 7013.000000
2115.505371 6306.000000
2116.727295 7578.000000
2117.948975 5989.000000
2119.169678 6812.000000
2120.389648 6079.000000
2121.609131 6180.000000
2122.827148 6597.000000
2124.045166 7082.000000
2125.262207 5793.000000
2126.478760 5743.000000
2127.693604 6517.000000
2128.908691 6319.000000
2130.122803 7020.000000
2131.336182 5706.000000
2132.548828 6091.000000
2133.760010 5835.000000
2134.971436 6498.000000
2136.181641 6588.000000
2137.391357 5965.000000
2138.599609 6199.000000
2139.807861 5730.000000
2141.015381 5929.000000
2142.221680 7472.000000
2143.427246 5887.000000
2144.632568 5691.000000
2145.836914 5553.000000
2147.040527 6338.000000
2148.243652 6241.000000
2149.445313 6466.000000
2150.646729 5386.000000
2151.847412 6362.000000
2153.047363 6092.000000
2154.246094 5975.000000
2155.444580 6928.000000
2156.642578 6236.000000
2157.839600 6029.000000
2159.035889 5172.000000
2160.230957 5279.000000
2161.425781 6132.000000
2162.619873 5600.000000
2163.812988 6107.000000
2165.005127 6921.000000
2166.197021 5935.000000
2167.388184 6281.000000
2168.578369 6281.000000
2169.767822 6530.000000
2170.956787 6791.000000
2172.144775 6010.000000
2173.332520 5674.000000
2174.518799 5935.000000
2175.704346 6588.000000
2176.889648 5999.000000
2178.074463 5785.000000
2179.258057 6357.000000
2180.440918 7534.000000
2181.622803 6344.000000
2182.804443 5930.000000
2183.985596 6554.000000
2185.165527 5651.000000
2186.344482 5593.000000
2187.522949 6344.000000
2188.701172 6916.000000
2189.878174 7205.000000
2191.054199 6779.000000
2192.229980 6123.000000
2193.405273 5609.000000
2194.579102 6669.000000
2195.752441 6179.000000
2196.925537 6155.000000
2198.097412 6619.000000
2199.268799 7194.000000
2200.439697 6367.000000
2201.608887 6906.000000
2202.778076 7555.000000
2203.946777 6295.000000
2205.114502 5909.000000
2206.281250 5707.000000
2207.447266 7229.000000
2208.612793 6679.000000
2209.778076 5934.000000
2210.941895 6710.000000
2212.105225 5442.000000
2213.267334 6195.000000
2214.429688 6190.000000
2215.590820 6644.000000
2216.750977 6708.000000
2217.910645 6345.000000
2219.070068 6562.000000
2220.228271 6352.000000
2221.385498 6289.000000
2222.542480 6808.000000
2223.698730 6634.000000
2224.854248 6717.000000
2226.009033 6312.000000
2227.162842 6366.000000
2228.315674 6064.000000
2229.468994 6908.000000
2230.620361 6183.000000
2231.771484 6196.000000
2232.921875 6536.000000
2234.071777 7721.000000
2235.220703 6328.000000
2236.369141 5194.000000
2237.516113 6777.000000
2238.663330 7033.000000
2239.809326 6095.000000
2240.955078 7244.000000
2242.099121 7345.000000
2243.243408 6734.000000
2244.386719 6191.000000
2245.529297 6030.000000
2246.670898 5764.000000
2247.812256 5794.000000
2248.952637 6409.000000
2250.092285 6390.000000
2251.231445 5861.000000
2252.369385 5824.000000
2253.507324 6212.000000
2254.644287 5342.000000
2255.780518 6353.000000
2256.915771 6163.000000
2258.050293 7309.000000
2259.184570 6409.000000
2260.318359 5412.000000
2261.450684 6090.000000
2262.582520 6803.000000
2263.713867 6291.000000
2264.844238 6555.000000
2265.974365 8133.000000
2267.103271 6705.000000
2268.231689 6047.000000
2269.359619 5494.000000
2270.486572 6131.000000
2271.612793 5894.000000
2272.738037 6702.000000
2273.863281 6562.000000
2274.987793 6429.000000
2276.111084 5991.000000
2277.233643 6316.000000
2278.355713 6012.000000
2279.477295 7433.000000
2280.598145 6327.000000
2281.717773 6471.000000
2282.836914 7168.000000
2283.955811 7709.000000
2285.073975 7267.000000
2286.191162 5914.000000
2287.307373 6411.000000
2288.423340 6960.000000
2289.538574 6939.000000
2290.653076 7319.000000
2291.766357 5844.000000
2292.879639 6371.000000
2293.992188 5985.000000
2295.104004 5366.000000
2296.215088 6747.000000
2297.324951 6384.000000
2298.434326 6198.000000
2299.543457 6566.000000
2300.651611 6293.000000
2301.758789 6759.000000
2302.865723 5896.000000
2303.971924 6269.000000
2305.077637 6612.000000
2306.181885 6639.000000
2307.285889 5475.000000
2308.389404 5772.000000
2309.492432 6563.000000
2310.594238 7420.000000
2311.695313 7322.000000
2312.795898 6539.000000
2313.895996 5565.000000
2314.995361 6362.000000
2316.093262 6608.000000
2317.191650 6965.000000
2318.288574 8182.000000
2319.385254 6879.000000
2320.481445 5785.000000
2321.575928 6924.000000
2322.670410 7554.000000
2323.764160 5801.000000
2324.857666 6079.000000
2325.949463 6483.000000
2327.041260 6960.000000
2328.132324 6117.000000
2329.222656 6227.000000
2330.312012 6951.000000
2331.401367 6003.000000
2332.489502 6320.000000
2333.577148 6803.000000
2334.664551 6515.000000
2335.750244 6719.000000
2336.835693 7695.000000
2337.920898 6300.000000
2339.005127 6738.000000
2340.088379 5879.000000
2341.171387 6410.000000
2342.253418 7103.000000
2343.335205 5996.000000
2344.416260 7368.000000
2345.496094 6658.000000
2346.575439 5696.000000
2347.654297 6774.000000
2348.732666 6601.000000
2349.809570 6329.000000
2350.886230 6932.000000
2351.962646 6065.000000
2353.038086 6429.000000
2354.112549 5915.000000
2355.186768 6319.000000
2356.260254 6681.000000
2357.333252 6191.000000
2358.405029 7031.000000
2359.476563 6310.000000
2360.547119 6795.000000
2361.617432 7511.000000
2362.686768 7498.000000
2363.755127 6807.000000
2364.823242 6772.000000
2365.890625 7167.000000
2366.957520 7127.000000
2368.023682 6109.000000
2369.088623 6935.000000
2370.153564 7068.000000
2371.217773 6362.000000
2372.281250 6910.000000
2373.343506 5819.000000
2374.405762 6367.000000
2375.467041 6280.000000
2376.528076 5965.000000
2377.587891 6260.000000
2378.646973 7922.000000
2379.706055 6495.000000
2380.764160 7636.000000
2381.821533 6850.000000
2382.877930 8029.000000
2383.934082 7860.000000
2384.989746 6230.000000
2386.044678 7032.000000
2387.098145 6728.000000
2388.151855 6658.000000
2389.204590 6341.000000
2390.256836 6760.000000
2391.308350 6185.000000
2392.358887 6629.000000
2393.409180 6456.000000
2394.458496 6275.000000
2395.507813 6193.000000
2396.555664 6875.000000
2397.603027 6994.000000
2398.650146 6316.000000
2399.696289 6663.000000
2400.741699 6166.000000
2401.786377 6791.000000
2402.831055 7761.000000
2403.874268 7469.000000
2404.917480 6590.000000
2405.959229 5737.000000
2407.001221 6722.000000
2408.042480 7143.000000
2409.082764 6067.000000
2410.122314 6417.000000
2411.160889 6338.000000
2412.199707 5944.000000
2413.237305 6534.000000
2414.274658 6915.000000
2415.310791 7330.000000
2416.346680 6185.000000
2417.381836 6225.000000
2418.416504 6624.000000
2419.449707 7266.000000
2420.483154 6453.000000
2421.515625 6678.000000
2422.547852 6742.000000
2423.578613 7112.000000
2424.609375 6373.000000
2425.639648 6858.000000
2426.668701 6865.000000
2427.697754 6745.000000
2428.725098 7412.000000
2429.752930 6707.000000
2430.779541 7280.000000
2431.805908 6966.000000
2432.830811 7746.000000
2433.855957 6600.000000
2434.880127 7118.000000
2435.904053 6712.000000
2436.926758 5805.000000
2437.948730 6345.000000
2438.970459 6653.000000
2439.991455 6665.000000
2441.011963 5988.000000
2442.031250 6571.000000
2443.050537 6579.000000
2444.068848 8475.000000
2445.086914 6314.000000
2446.103516 6461.000000
2447.120117 6542.000000
2448.135986 6043.000000
2449.151855 7026.000000
2450.166260 6888.000000
2451.179932 5526.000000
2452.193115 7220.000000
2453.206055 5934.000000
2454.218262 7169.000000
2455.229492 6672.000000
2456.240479 7641.000000
2457.250732 6312.000000
2458.260498 7633.000000
2459.269287 5930.000000
2460.277344 5941.000000
2461.285400 6306.000000
2462.292236 7368.000000
2463.298828 5427.000000
2464.304199 7416.000000
2465.309326 6958.000000
2466.314209 5856.000000
2467.317871 6552.000000
2468.321289 6414.000000
2469.323730 7556.000000
2470.325928 7349.000000
2471.327637 6876.000000
2472.328369 6553.000000
2473.328125 7065.000000
2474.327881 6753.000000
2475.326660 5690.000000
2476.324951 6556.000000
2477.322266 7038.000000
2478.319336 6095.000000
2479.316406 7010.000000
2480.312012 5841.000000
2481.307617 7149.000000
2482.301514 6769.000000
2483.295410 8147.000000
2484.288818 6908.000000
2485.281738 6735.000000
2486.273682 7498.000000
2487.264893 7207.000000
2488.255859 6751.000000
2489.246338 5801.000000
2490.235840 6602.000000
2491.224609 6468.000000
2492.213379 5634.000000
2493.201172 6795.000000
2494.187744 6547.000000
2495.174316 8008.000000
2496.160400 6664.000000
2497.145752 7161.000000
2498.130127 8018.000000
2499.114258 6070.000000
2500.098389 6848.000000
2501.081055 5705.000000
2502.063232 6987.000000
2503.044922 6856.000000
2504.025879 7256.000000
2505.006348 6525.000000
2505.986572 5750.000000
2506.965332 6374.000000
2507.943848 7505.000000
2508.921875 6701.000000
2509.899414 7110.000000
2510.875977 6120.000000
2511.852295 5941.000000
2512.827881 6466.000000
2513.802979 6214.000000
2514.777588 6480.000000
2515.750977 7557.000000
2516.724121 6755.000000
2517.697021 6896.000000
2518.668945 6081.000000
2519.640137 6808.000000
2520.610840 6967.000000
2521.581299 7835.000000
2522.551025 7953.000000
2523.519775 6170.000000
2524.487793 6160.000000
2525.455811 7639.000000
2526.422852 6254.000000
2527.389648 5495.000000
2528.355225 7280.000000
2529.320801 7008.000000
2530.285645 7674.000000
2531.250000 6301.000000
2532.213135 6318.000000
2533.176514 5956.000000
2534.138916 5980.000000
2535.101074 6689.000000
2536.062012 6346.000000
2537.022217 6109.000000
2537.982666 6184.000000
2538.942139 6697.000000
2539.900879 6871.000000
2540.858643 6680.000000
2541.816650 6210.000000
2542.773926 6765.000000
2543.730225 6075.000000
2544.686279 7158.000000
2545.641113 6193.000000
2546.596191 7721.000000
2547.550537 7007.000000
2548.504150 6598.000000
2549.456787 7157.000000
2550.409180 6730.000000
2551.361084 6974.000000
2552.312256 6446.000000
2553.262695 7709.000000
2554.212646 7351.000000
2555.162354 7416.000000
2556.111328 6544.000000
2557.059814 6240.000000
2558.007080 7151.000000
2558.954346 6342.000000
2559.900879 6513.000000
2560.846924 6713.000000
2561.791992 7417.000000
2562.736816 6759.000000
2563.681152 7213.000000
2564.625000 6862.000000
2565.568359 6658.000000
2566.510254 6535.000000
2567.452393 6586.000000
2568.393799 6191.000000
2569.334473 7229.000000
2570.274414 7292.000000
2571.214355 5687.000000
2572.153320 6116.000000
2573.092041 7474.000000
2574.029785 7194.000000
2574.967285 5461.000000
2575.904053 6987.000000
2576.840088 6848.000000
2577.775635 7517.000000
2578.710449 6272.000000
2579.645264 5943.000000
2580.579102 7062.000000
2581.512451 7220.000000
2582.445068 5854.000000
2583.377441 7008.000000
2584.309082 5442.000000
2585.240234 7084.000000
2586.170898 7048.000000
2587.100342 6852.000000
2588.029785 7285.000000
2588.958740 6461.000000
2589.887451 7440.000000
2590.814453 7328.000000
2591.741699 5865.000000
2592.668457 6822.000000
2593.594482 6291.000000
2594.520264 5645.000000
2595.444824 7661.000000
2596.369141 7602.000000
2597.292969 5324.000000
2598.216309 7351.000000
2599.138672 6262.000000
2600.060791 6859.000000
2600.982422 8301.000000
2601.903320 6353.000000
2602.823486 5779.000000
2603.743408 6372.000000
2604.662842 6410.000000
2605.582031 6474.000000
2606.500244 5851.000000
2607.417236 5979.000000
2608.334473 7321.000000
2609.251465 5860.000000
2610.167480 7524.000000
2611.082275 6659.000000
2611.997559 6646.000000
2612.912109 6555.000000
2613.825684 6548.000000
2614.739258 6084.000000
2615.651611 7706.000000
2616.563965 7036.000000
2617.475342 6718.000000
2618.386475 5748.000000
2619.296875 7241.000000
2620.207031 6565.000000
2621.116455 6312.000000
2622.025391 6612.000000
2622.933350 6237.000000
2623.841553 6910.000000
2624.748779 6662.000000
2625.655518 7021.000000
2626.561523 6029.000000
2627.467285 6555.000000
2628.372314 6400.000000
2629.277100 7809.000000
2630.181152 6427.000000
2631.084229 6358.000000
2631.987305 6434.000000
2632.889404 5592.000000
2633.791504 6758.000000
2634.693359 6951.000000
2635.593506 6696.000000
2636.493896 6433.000000
2637.393555 6408.000000
2638.292969 5973.000000
2639.190918 6890.000000
2640.089355 6705.000000
2640.987305 6370.000000
2641.884521 6156.000000
2642.780518 6103.000000
2643.676514 6881.000000
2644.572266 6131.000000
2645.467285 6457.000000
2646.362061 6632.000000
2647.255371 7206.000000
2648.148682 6291.000000
2649.041748 6758.000000
2649.934570 6462.000000
2650.825684 7432.000000
2651.717041 6360.000000
2652.607910 7614.000000
2653.498047 7313.000000
2654.387939 6565.000000
2655.276611 7337.000000
2656.165527 6620.000000
2657.053955 6645.000000
2657.941406 7278.000000
2658.827881 6422.000000
2659.714844 7122.000000
2660.601074 6844.000000
2661.486816 6819.000000
2662.371338 6488.000000
2663.255859 6333.000000
2664.140137 6260.000000
2665.023682 7072.000000
2665.906738 7807.000000
2666.789063 7248.000000
2667.670898 6214.000000
2668.552002 6604.000000
2669.433350 6081.000000
2670.313232 6554.000000
2671.193359 7397.000000
2672.072754 7204.000000
2672.952148 6373.000000
2673.830811 6174.000000
2674.707764 6421.000000
2675.585449 6763.000000
2676.462402 6380.000000
2677.338623 8111.000000
2678.214355 7164.000000
2679.089355 6262.000000
2679.964600 7662.000000
2680.838867 6961.000000
2681.712646 7367.000000
2682.585693 7037.000000
2683.458496 6193.000000
2684.331055 6132.000000
2685.202881 6959.000000
2686.073975 6582.000000
2686.944824 6919.000000
2687.815186 7087.000000
2688.685303 6749.000000
2689.553711 6270.000000
2690.422852 7316.000000
2691.291260 7099.000000
2692.159424 6687.000000
2693.026855 6930.000000
2693.893066 5836.000000
2694.759766 7157.000000
2695.625488 7451.000000
2696.491211 7146.000000
2697.355469 7933.000000
2698.220459 6548.000000
2699.083984 7258.000000
2699.947754 5862.000000
2700.810059 7449.000000
2701.672852 6755.000000
2702.534668 5888.000000
2703.395996 6841.000000
2704.257324 6733.000000
2705.117432 7402.000000
2705.977539 7262.000000
2706.837158 6565.000000
2707.696533 6871.000000
2708.554199 7170.000000
2709.412109 6893.000000
2710.270508 7357.000000
2711.127686 6647.000000
2711.984131 5978.000000
2712.840088 6845.000000
2713.696045 6091.000000
2714.551270 6919.000000
2715.405762 6066.000000
2716.259766 6777.000000
2717.113770 7359.000000
2717.966797 6255.000000
2718.820068 6675.000000
2719.671631 7788.000000
2720.523682 6770.000000
2721.375488 6282.000000
2722.226074 6546.000000
2723.076660 6378.000000
2723.926758 7157.000000
2724.776123 7024.000000
2725.625488 6992.000000
2726.473633 6624.000000
2727.321289 6553.000000
2728.169434 6994.000000
2729.016357 6880.000000
2729.863770 5480.000000
2730.709717 7492.000000
2731.554932 7018.000000
2732.400635 6400.000000
2733.245361 7013.000000
2734.090088 7356.000000
2734.933594 6848.000000
2735.777344 7833.000000
2736.620361 7069.000000
2737.462891 6054.000000
2738.304443 6189.000000
2739.146484 6773.000000
2739.987549 6894.000000
2740.828369 5746.000000
2741.668945 5924.000000
2742.508301 7755.000000
2743.347656 6843.000000
2744.187012 6841.000000
2745.025146 6753.000000
2745.862793 7856.000000
2746.700439 6314.000000
2747.537598 7094.000000
2748.374512 6174.000000
2749.210938 5979.000000
2750.046143 6689.000000
2750.881592 6285.000000
2751.716553 6304.000000
2752.550781 6208.000000
2753.384766 6890.000000
2754.218262 6858.000000
2755.051758 8051.000000
2755.884277 6821.000000
2756.716309 7340.000000
2757.547852 6841.000000
2758.379395 7132.000000
2759.209961 7114.000000
2760.040771 7287.000000
2760.870361 7313.000000
2761.699951 6655.000000
2762.529297 7264.000000
2763.357910 6897.000000
2764.186035 6807.000000
2765.013672 6914.000000
2765.841309 6619.000000
2766.668457 7884.000000
2767.494873 5823.000000
2768.320801 7502.000000
2769.146240 6889.000000
2769.971436 7823.000000
2770.796631 7044.000000
2771.620605 6779.000000
2772.444580 6516.000000
2773.268555 7591.000000
2774.091309 6614.000000
2774.914307 6957.000000
2775.736084 6923.000000
2776.557861 6944.000000
2777.379639 6482.000000
2778.200439 8017.000000
2779.020508 6527.000000
2779.840820 7027.000000
2780.660645 7273.000000
2781.480469 6501.000000
2782.298340 5923.000000
2783.117432 8134.000000
2783.935303 6391.000000
2784.752930 6771.000000
2785.570068 7155.000000
2786.386719 7255.000000
2787.203125 7160.000000
2788.019043 6291.000000
2788.834717 5902.000000
2789.649414 6394.000000
2790.464600 6987.000000
2791.279053 7233.000000
2792.093018 6614.000000
2792.906738 7428.000000
2793.719238 8785.000000
2794.531982 6967.000000
2795.344238 7418.000000
2796.156006 7261.000000
2796.967041 7352.000000
2797.778809 6587.000000
2798.589355 7235.000000
2799.399902 7044.000000
2800.208984 7415.000000
2801.018799 8249.000000
2801.827881 7862.000000
2802.636719 6647.000000
2803.445068 7200.000000
2804.252441 6150.000000
2805.060303 6427.000000
2805.867432 6796.000000
2806.674316 7022.000000
2807.479980 7256.000000
2808.286133 6644.000000
2809.091553 6487.000000
2809.896973 7345.000000
2810.701660 6224.000000
2811.505371 7645.000000
2812.309570 7500.000000
2813.113281 6323.000000
2813.916748 6099.000000
2814.718750 6588.000000
2815.521484 7350.000000
2816.323486 7845.000000
2817.125244 6163.000000
2817.926514 6542.000000
2818.727295 7241.000000
2819.527588 6588.000000
2820.328125 6722.000000
2821.127686 8095.000000
2821.926758 7201.000000
2822.725830 6462.000000
2823.524658 6948.000000
2824.322998 6348.000000
2825.120361 7030.000000
2825.917969 7007.000000
2826.714844 6701.000000
2827.511963 7369.000000
2828.308350 8192.000000
2829.104004 7185.000000
2829.899658 7367.000000
2830.695068 7723.000000
2831.489990 7467.000000
2832.284180 6652.000000
2833.078369 6823.000000
2833.872314 5667.000000
2834.665771 6839.000000
2835.458496 7162.000000
2836.250977 8129.000000
2837.043457 7643.000000
2837.835693 7735.000000
2838.627441 6459.000000
2839.418213 6828.000000
2840.208984 8822.000000
2841.000000 7431.000000
2841.790039 6286.000000
2842.579590 7735.000000
2843.369385 7252.000000
2844.158203 7381.000000
2844.947021 7802.000000
2845.735840 7680.000000
2846.523682 7555.000000
2847.311035 7164.000000
2848.098633 7543.000000
2848.885742 7381.000000
2849.672119 6656.000000
2850.458496 7427.000000
2851.244629 7225.000000
2852.030273 7531.000000
2852.814941 7179.000000
2853.600098 6901.000000
2854.385010 7459.000000
2855.169189 7122.000000
2855.953369 6939.000000
2856.736328 8343.000000
2857.519531 6850.000000
2858.302490 6707.000000
2859.084961 7768.000000
2859.867188 6299.000000
2860.648926 6631.000000
2861.430420 7753.000000
2862.212158 7419.000000
2862.993164 7700.000000
2863.773438 6571.000000
2864.553467 6746.000000
2865.333496 8191.000000
2866.113281 7535.000000
2866.892090 8093.000000
2867.671143 7615.000000
2868.449707 6765.000000
2869.228027 6994.000000
2870.005859 7167.000000
2870.783447 6951.000000
2871.560791 7474.000000
2872.337891 6939.000000
2873.114502 6465.000000
2873.890625 7494.000000
2874.666748 7210.000000
2875.442383 8333.000000
2876.217773 7270.000000
2876.992676 6679.000000
2877.767334 8069.000000
2878.541992 6769.000000
2879.316406 7911.000000
2880.090088 6869.000000
2880.863037 7211.000000
2881.636719 6747.000000
2882.409424 7630.000000
2883.182129 7879.000000
2883.954102 8206.000000
2884.725830 6214.000000
2885.498047 6847.000000
2886.269043 6888.000000
2887.039551 6102.000000
2887.810547 8297.000000
2888.581543 7397.000000
2889.351807 7986.000000
2890.121094 7641.000000
2890.890625 6916.000000
2891.660156 7202.000000
2892.429199 7307.000000
2893.197754 8013.000000
2893.966309 7655.000000
2894.733887 6953.000000
2895.501953 6552.000000
2896.269531 7443.000000
2897.037109 8323.000000
2897.803467 7334.000000
2898.570801 6515.000000
2899.336914 7265.000000
2900.103271 6982.000000
2900.868164 8271.000000
2901.633545 6972.000000
2902.399414 6482.000000
2903.163818 7794.000000
2903.928223 7753.000000
2904.692871 8378.000000
2905.456543 6665.000000
2906.220947 8460.000000
2906.984619 6736.000000
2907.747559 8467.000000
2908.510254 6521.000000
2909.273438 9086.000000
2910.036133 6984.000000
2910.797607 6892.000000
2911.559570 6892.000000
