scanname Analyse109
timestamp 2017-02-10 22:52:23
ccdbias 953.769043
ccdgain 3.473401
sigmaread 8.960639
laserwavenum -0.458856
wavenumcorrection 0.064108
scancount 1
totalexposurems 10000
singleexposurems 10000
measurementstate Unknown
scanmode Manual
snr 5.349560 -0.045131 -0.078838
replacelist 4
889 20591.000000 20833.000000
890 6881.000000 6442.000000
905 6244.000000 5530.000000
1184 6202.000000 6532.000000
peaks 0
finalresult GLS_Multiple 90
A0040	Silver nitrate	6.099622e-001
A0324	Sodium azide	6.056916e-001
A0223	tert-Butyl ethyl ether	6.013974e-001
A0330	Tris(2,3-epoxypropyl) isocyanurate	6.011081e-001
A0138	Dibutyl ether	6.009721e-001
A0333	2-Nitrotoluene	6.008018e-001
A0304	4-Methylanisole	6.000704e-001
A0155	Isobutyl methacrylate	5.997814e-001
A0037	Sugar	5.997643e-001
A0235	Acetaminophen	5.997474e-001
A0185	2,6-Di-tert-butyl-4-methylphenol	5.996454e-001
A0299	Isobutyl acrylate	5.991014e-001
A0209	6-Caprolactone monomer	5.990673e-001
A0203	Sorbic acid	5.989994e-001
A0117	High-density polyethylene	5.988975e-001
A0011	Stearic acid (lot A)	5.987955e-001
A0293	Turpentine oil	5.987274e-001
A0159	Acrylic Acid	5.987274e-001
A0151	Low-density polyethylene	5.987105e-001
A0124	2-Octanol	5.987105e-001
A0145	2-Heptanone	5.986087e-001
A0315	Acrylamide	5.985576e-001
A0006	Caffeine	5.984898e-001
A0273	Denatured Solvent Alcohol	5.984557e-001
A0282	o-Xylene	5.984218e-001
A0153	Poly(tetrafluoroethylene)	5.983705e-001
A0291	Tetrachloroethylene	5.983367e-001
A0193	Potassium sulfate	5.983367e-001
A0143	1-Dodecanol	5.983028e-001
A0014	Methanol	5.981330e-001
A0321	Naphthalene	5.981158e-001
A0113	Hydrogen peroxide	5.980480e-001
A0225	Tricresyl phosphate	5.980140e-001
A0243	Acrylonitrile	5.979800e-001
A0133	5-Ethyl-2-methylpyridine	5.979800e-001
A0136	Valeraldehyde	5.979122e-001
A0169	Tetradecane	5.978951e-001
A0271	OOPS Multi-Purpose Remover	5.978781e-001
A0045	Corn starch	5.978441e-001
A0264	Methyl acrylate	5.978273e-001
A0328	4,4'-Diaminodiphenylmethane	5.978273e-001
A0255	1-Propanol	5.978101e-001
A0195	DL-Malic acid	5.978101e-001
A0284	Chlorobenzene	5.977932e-001
A0301	1-Hexanol	5.977932e-001
A0140	Sulfanilic acid	5.977932e-001
A0278	Diesel #2	5.977762e-001
A0337	Thioglycolic acid	5.977762e-001
A0269	Acetonitrile	5.977592e-001
A0310	Glass, borosilicate	5.977422e-001
A0280	Kerosene	5.977422e-001
A0208	Fumaric acid	5.977081e-001
A0219	Diphenylamine	5.976574e-001
A0161	Anthracene	5.976574e-001
A0297	2-(Dimethylamino)ethyl methacrylate	5.976403e-001
A0094	Ortho-Klor (Termite && Carpenter Ant Killer Concentrate)	5.976403e-001
A0191	Lindane	5.976403e-001
A0221	Formic acid	5.976065e-001
A0338	m-Toluidine	5.976065e-001
A0289	Hexane (isomer mixture)	5.975895e-001
A0167	Nylon	5.975895e-001
A0187	(+/-)-2-Methyl-2,4-pentanediol	5.975895e-001
A0189	Butyl acrylate	5.975723e-001
A0178	Dicyclohexylamine	5.975723e-001
A0197	Nicotinamide	5.975723e-001
A0207	Ethylenediamine	5.975553e-001
A0253	Isobutyraldehyde	5.975384e-001
A0173	Isopropyl acetate	5.975046e-001
A0165	Heptane	5.975046e-001
A0025	Nyquil	5.974536e-001
A0237	Gasoline	5.973517e-001
A0212	4-Nitrophenol	5.972328e-001
A0307	Dimethyl carbonate	5.970461e-001
A0182	Sodium dichloroisocyanurate	5.969443e-001
A0016	Malathion Plus (insect spray)	5.967237e-001
A0144	Glycolic acid	5.966897e-001
A0215	Sodium formate	5.966728e-001
A0295	Allyl chloride	5.965880e-001
A0267	Benzonitrile	5.964861e-001
A0206	Diphenyl ether	5.964861e-001
A0317	Phenyl isocyanate	5.963163e-001
A0251	Ethylamine	5.962824e-001
A0319	Benzyl chloride	5.962824e-001
A0013	Potassium dichromate	5.961298e-001
A0201	Thiourea	5.960618e-001
A0286	m-Xylene	5.959601e-001
A0127	2-Picoline	5.958074e-001
A0217	Formaldehyde solution	5.956548e-001
A0121	2,4-Dinitrotoluene	5.954852e-001
A0227	Potassium acetate	5.954342e-001
spectrum 2048
-97.142601 44900.000000
-94.515732 44900.000000
-91.890739 45583.000000
-89.267639 45581.000000
-86.646408 46513.000000
-84.027077 46323.000000
-81.409607 46695.000000
-78.794014 46405.000000
-76.180298 46698.000000
-73.568459 47085.000000
-70.958481 46991.000000
-68.350388 47185.000000
-65.744141 47191.000000
-63.139771 47237.000000
-60.537262 47058.000000
-57.936607 47546.000000
-55.337814 46862.000000
-52.740879 46330.000000
-50.145798 46710.000000
-47.552570 46656.000000
-44.961193 46836.000000
-42.371662 46396.000000
-39.783974 47233.000000
-37.198135 47129.000000
-34.614140 46668.000000
-32.031979 47408.000000
-29.451666 46689.000000
-26.873180 47345.000000
-24.296537 46933.000000
-21.721720 46776.000000
-19.148743 46556.000000
-16.577585 46490.000000
-14.008262 46245.000000
-11.440763 45134.000000
-8.875084 46551.000000
-6.311231 46248.000000
-3.749190 46665.000000
-1.188974 46614.000000
1.369434 46095.000000
3.926021 45181.000000
6.480803 45044.000000
9.033769 45195.000000
11.584933 43623.000000
14.134285 42878.000000
16.681841 41519.000000
19.227585 40655.000000
21.771536 39106.000000
24.313683 36622.000000
26.854033 34092.000000
29.392597 31278.000000
31.929365 27866.000000
34.464329 20275.000000
36.997517 13845.000000
39.528923 7795.000000
42.058537 6683.000000
44.586353 6543.000000
47.112411 5917.000000
49.636681 5106.000000
52.159180 4391.000000
54.679882 4058.000000
57.198830 4278.000000
59.716003 5062.000000
62.231400 6160.000000
64.745018 6843.000000
67.256882 6835.000000
69.766998 5244.000000
72.275322 3540.000000
74.781891 2924.000000
77.286713 2474.000000
79.789780 2015.000000
82.291069 1783.000000
84.790619 1680.000000
87.288414 1673.000000
89.784477 1733.000000
92.278763 1994.000000
94.771309 2327.000000
97.262138 2276.000000
99.751198 1999.000000
102.238510 1666.000000
104.724098 1305.000000
107.207947 1242.000000
109.690048 1157.000000
112.170425 987.000000
114.649078 891.000000
117.126007 887.000000
119.601181 939.000000
122.074646 773.000000
124.546379 861.000000
127.016403 838.000000
129.484680 882.000000
131.951279 771.000000
134.416122 794.000000
136.879272 718.000000
139.340683 695.000000
141.800400 719.000000
144.258392 705.000000
146.714691 685.000000
149.169281 768.000000
151.622147 710.000000
154.073334 799.000000
156.522827 677.000000
158.970596 762.000000
161.416656 768.000000
163.861038 857.000000
166.303741 823.000000
168.744751 858.000000
171.184052 916.000000
173.621643 948.000000
176.057602 991.000000
178.491821 779.000000
180.924362 903.000000
183.355255 832.000000
185.784424 964.000000
188.211945 787.000000
190.637787 878.000000
193.061951 769.000000
195.484451 779.000000
197.905258 732.000000
200.324402 794.000000
202.741882 856.000000
205.157669 879.000000
207.571808 859.000000
209.984314 860.000000
212.395142 927.000000
214.804291 948.000000
217.211807 927.000000
219.617615 1005.000000
222.021835 1052.000000
224.424347 1130.000000
226.825241 1124.000000
229.224487 1230.000000
231.622070 1214.000000
234.017990 1232.000000
236.412292 1115.000000
238.804932 1137.000000
241.195953 1185.000000
243.585312 1189.000000
245.973053 1143.000000
248.359146 1154.000000
250.743607 1085.000000
253.126419 1042.000000
255.507660 1113.000000
257.887177 1215.000000
260.265137 1160.000000
262.641418 1153.000000
265.016144 1104.000000
267.389221 1143.000000
269.760651 1087.000000
272.130432 1103.000000
274.498657 1115.000000
276.865234 1244.000000
279.230225 1050.000000
281.593597 1123.000000
283.955322 1114.000000
286.315460 1090.000000
288.673981 1111.000000
291.030914 984.000000
293.386230 1058.000000
295.739960 1100.000000
298.092041 1057.000000
300.442566 1039.000000
302.791504 909.000000
305.138794 960.000000
307.484558 945.000000
309.828644 1086.000000
312.171204 1014.000000
314.512146 998.000000
316.851471 999.000000
319.189240 998.000000
321.525452 1009.000000
323.860016 999.000000
326.193024 931.000000
328.524475 962.000000
330.854340 952.000000
333.182617 914.000000
335.509277 994.000000
337.834442 854.000000
340.157990 935.000000
342.479980 908.000000
344.800415 972.000000
347.119232 944.000000
349.436493 924.000000
351.752228 846.000000
354.066376 900.000000
356.378937 869.000000
358.689941 871.000000
360.999420 945.000000
363.307373 939.000000
365.613708 856.000000
367.918457 789.000000
370.221741 959.000000
372.523407 866.000000
374.823578 854.000000
377.122192 911.000000
379.419250 835.000000
381.714752 853.000000
384.008728 816.000000
386.301117 853.000000
388.592010 829.000000
390.881378 854.000000
393.169159 883.000000
395.455414 879.000000
397.740173 895.000000
400.023315 903.000000
402.305023 981.000000
404.585205 791.000000
406.863800 827.000000
409.140869 845.000000
411.416412 867.000000
413.690430 770.000000
415.963013 890.000000
418.233978 774.000000
420.503448 781.000000
422.771423 882.000000
425.037842 831.000000
427.302765 812.000000
429.566223 836.000000
431.828094 821.000000
434.088501 673.000000
436.347351 697.000000
438.604736 700.000000
440.860626 769.000000
443.115021 738.000000
445.367889 817.000000
447.619202 801.000000
449.869110 699.000000
452.117432 718.000000
454.364319 704.000000
456.609741 726.000000
458.853607 719.000000
461.095978 737.000000
463.336853 603.000000
465.576324 760.000000
467.814209 732.000000
470.050659 657.000000
472.285583 634.000000
474.519043 590.000000
476.751068 728.000000
478.981567 676.000000
481.210571 739.000000
483.438110 660.000000
485.664154 588.000000
487.888763 752.000000
490.111908 675.000000
492.333588 683.000000
494.553711 640.000000
496.772430 684.000000
498.989655 627.000000
501.205505 747.000000
503.419739 711.000000
505.632660 688.000000
507.843994 665.000000
510.053894 669.000000
512.262390 754.000000
514.469482 678.000000
516.674988 616.000000
518.879089 691.000000
521.081665 622.000000
523.282837 572.000000
525.482666 668.000000
527.680969 632.000000
529.877747 694.000000
532.073181 608.000000
534.267090 568.000000
536.459656 621.000000
538.650696 716.000000
540.840332 612.000000
543.028564 671.000000
545.215271 683.000000
547.400513 649.000000
549.584473 649.000000
551.766846 537.000000
553.947876 658.000000
556.127380 638.000000
558.305603 626.000000
560.482300 594.000000
562.657593 611.000000
564.831482 639.000000
567.003906 608.000000
569.174927 537.000000
571.344482 583.000000
573.512756 589.000000
575.679504 593.000000
577.844788 637.000000
580.008667 587.000000
582.171265 573.000000
584.332336 587.000000
586.492004 649.000000
588.650330 573.000000
590.807129 550.000000
592.962585 613.000000
595.116638 571.000000
597.269348 589.000000
599.420532 566.000000
601.570374 532.000000
603.718872 634.000000
605.865784 587.000000
608.011475 674.000000
610.155762 580.000000
612.298584 581.000000
614.439941 540.000000
616.580078 561.000000
618.718689 512.000000
620.856018 576.000000
622.991882 538.000000
625.126343 565.000000
627.259338 621.000000
629.391174 633.000000
631.521545 608.000000
633.650513 436.000000
635.778015 614.000000
637.904236 583.000000
640.028931 595.000000
642.152405 549.000000
644.274536 605.000000
646.395203 692.000000
648.514526 598.000000
650.632446 626.000000
652.749023 574.000000
654.864197 602.000000
656.978027 584.000000
659.090393 371.000000
661.201538 548.000000
663.311279 624.000000
665.419556 612.000000
667.526672 544.000000
669.632324 515.000000
671.736511 572.000000
673.839478 576.000000
675.941040 543.000000
678.041260 481.000000
680.140076 591.000000
682.237549 588.000000
684.333740 541.000000
686.428467 597.000000
688.521973 534.000000
690.614136 562.000000
692.704773 684.000000
694.794189 547.000000
696.882324 607.000000
698.968994 500.000000
701.054443 709.000000
703.138367 603.000000
705.221069 570.000000
707.302490 569.000000
709.382446 507.000000
711.461182 471.000000
713.538452 549.000000
715.614441 625.000000
717.689148 553.000000
719.762573 547.000000
721.834473 586.000000
723.905212 589.000000
725.974609 585.000000
728.042603 537.000000
730.109253 510.000000
732.174683 596.000000
734.238770 579.000000
736.301514 589.000000
738.362915 627.000000
740.423035 593.000000
742.481750 587.000000
744.539246 513.000000
746.595459 650.000000
748.650269 578.000000
750.703796 513.000000
752.755920 531.000000
754.806824 579.000000
756.856506 545.000000
758.904724 548.000000
760.951721 514.000000
762.997437 566.000000
765.041748 627.000000
767.084778 549.000000
769.126587 571.000000
771.167053 524.000000
773.206116 627.000000
775.244019 594.000000
777.280579 585.000000
779.315918 518.000000
781.349915 636.000000
783.382507 591.000000
785.413940 661.000000
787.443970 583.000000
789.472717 636.000000
791.500305 552.000000
793.526550 618.000000
795.551392 573.000000
797.575134 518.000000
799.597473 644.000000
801.618591 632.000000
803.638367 641.000000
805.656860 539.000000
807.674133 717.000000
809.690002 707.000000
811.704712 743.000000
813.718079 747.000000
815.730225 598.000000
817.741150 658.000000
819.750732 646.000000
821.759094 602.000000
823.766052 573.000000
825.771790 592.000000
827.776306 709.000000
829.779541 551.000000
831.781494 628.000000
833.782166 574.000000
835.781616 476.000000
837.779724 675.000000
839.776733 718.000000
841.772339 704.000000
843.766785 607.000000
845.759888 615.000000
847.751770 570.000000
849.742310 571.000000
851.731567 527.000000
853.719788 689.000000
855.706604 602.000000
857.692200 572.000000
859.676514 542.000000
861.659729 627.000000
863.641541 509.000000
865.622131 536.000000
867.601440 529.000000
869.579590 513.000000
871.556396 562.000000
873.531921 558.000000
875.506409 655.000000
877.479431 559.000000
879.451416 519.000000
881.422058 547.000000
883.391541 609.000000
885.359680 537.000000
887.326660 566.000000
889.292297 519.000000
891.256775 587.000000
893.220032 583.000000
895.182068 502.000000
897.142822 519.000000
899.102356 578.000000
901.060608 471.000000
903.017761 534.000000
904.973755 592.000000
906.928345 433.000000
908.881714 596.000000
910.833923 431.000000
912.784912 512.000000
914.734619 488.000000
916.683167 590.000000
918.630493 441.000000
920.576538 498.000000
922.521301 420.000000
924.465027 416.000000
926.407593 487.000000
928.348877 493.000000
930.288818 405.000000
932.227661 440.000000
934.165222 400.000000
936.101563 357.000000
938.036743 513.000000
939.970642 419.000000
941.903442 492.000000
943.835022 417.000000
945.765442 418.000000
947.694641 422.000000
949.622498 402.000000
951.549316 440.000000
953.474854 450.000000
955.399109 347.000000
957.322266 456.000000
959.244263 425.000000
961.164978 423.000000
963.084534 452.000000
965.002930 415.000000
966.920288 448.000000
968.836182 482.000000
970.750977 485.000000
972.664551 540.000000
974.576965 411.000000
976.488159 408.000000
978.398193 449.000000
980.306946 489.000000
982.214661 472.000000
984.121155 398.000000
986.026428 404.000000
987.930603 431.000000
989.833557 534.000000
991.735291 417.000000
993.635864 419.000000
995.535278 428.000000
997.433472 479.000000
999.330505 417.000000
1001.226318 462.000000
1003.120972 346.000000
1005.014526 403.000000
1006.906799 471.000000
1008.798157 447.000000
1010.688171 415.000000
1012.576965 360.000000
1014.464600 417.000000
1016.351074 403.000000
1018.236389 389.000000
1020.120544 393.000000
1022.003479 392.000000
1023.885376 369.000000
1025.765991 366.000000
1027.645508 401.000000
1029.524048 361.000000
1031.401245 372.000000
1033.277100 457.000000
1035.151978 416.000000
1037.025879 430.000000
1038.898315 350.000000
1040.769775 337.000000
1042.639893 354.000000
1044.509033 355.000000
1046.376953 364.000000
1048.243774 120.000000
1050.109497 439.000000
1051.973999 459.000000
1053.837402 399.000000
1055.699463 380.000000
1057.560547 464.000000
1059.420532 355.000000
1061.279175 417.000000
1063.136719 399.000000
1064.993164 396.000000
1066.848511 372.000000
1068.702637 351.000000
1070.555908 363.000000
1072.407715 466.000000
1074.258545 420.000000
1076.108154 400.000000
1077.956543 378.000000
1079.804077 415.000000
1081.650269 300.000000
1083.495239 364.000000
1085.339355 503.000000
1087.182129 489.000000
1089.023682 442.000000
1090.864502 416.000000
1092.703735 389.000000
1094.542236 390.000000
1096.379395 447.000000
1098.215332 472.000000
1100.050293 383.000000
1101.884033 455.000000
1103.716797 416.000000
1105.548218 330.000000
1107.378784 420.000000
1109.208008 333.000000
1111.036255 438.000000
1112.863281 380.000000
1114.689331 368.000000
1116.514160 305.000000
1118.337891 426.000000
1120.160400 368.000000
1121.981812 299.000000
1123.802368 292.000000
1125.621460 419.000000
1127.439697 331.000000
1129.256592 476.000000
1131.072632 306.000000
1132.887451 360.000000
1134.701172 294.000000
1136.513794 414.000000
1138.325195 323.000000
1140.135620 300.000000
1141.944946 299.000000
1143.752930 441.000000
1145.560181 423.000000
1147.365967 482.000000
1149.170898 383.000000
1150.974731 479.000000
1152.777344 410.000000
1154.579102 506.000000
1156.379395 553.000000
1158.178711 438.000000
1159.977051 474.000000
1161.774048 524.000000
1163.570313 356.000000
1165.365234 398.000000
1167.159058 419.000000
1168.952026 404.000000
1170.743652 395.000000
1172.534302 412.000000
1174.323975 384.000000
1176.112183 483.000000
1177.899536 412.000000
1179.685791 566.000000
1181.470947 375.000000
1183.255005 401.000000
1185.037964 442.000000
1186.819946 352.000000
1188.600708 392.000000
1190.380493 503.000000
1192.159180 370.000000
1193.936890 391.000000
1195.713379 412.000000
1197.488770 372.000000
1199.263062 465.000000
1201.036255 441.000000
1202.808594 338.000000
1204.579590 333.000000
1206.349731 357.000000
1208.118652 410.000000
1209.886475 381.000000
1211.653442 364.000000
1213.419067 478.000000
1215.183716 354.000000
1216.947266 360.000000
1218.709717 430.000000
1220.471313 457.000000
1222.231689 408.000000
1223.990967 388.000000
1225.749390 408.000000
1227.506592 389.000000
1229.262695 458.000000
1231.017700 412.000000
1232.771851 393.000000
1234.524658 427.000000
1236.276489 462.000000
1238.027466 380.000000
1239.777100 423.000000
1241.525879 434.000000
1243.273315 379.000000
1245.020020 420.000000
1246.765503 436.000000
1248.510132 450.000000
1250.253418 395.000000
1251.995728 422.000000
1253.736938 423.000000
1255.477295 453.000000
1257.216553 484.000000
1258.954590 457.000000
1260.691772 411.000000
1262.427734 462.000000
1264.162720 474.000000
1265.896729 439.000000
1267.629761 514.000000
1269.361572 406.000000
1271.092407 436.000000
1272.822021 504.000000
1274.550781 438.000000
1276.278442 519.000000
1278.005005 421.000000
1279.730713 480.000000
1281.455078 469.000000
1283.178589 536.000000
1284.901123 474.000000
1286.622681 518.000000
1288.343018 568.000000
1290.062378 494.000000
1291.780640 468.000000
1293.497925 563.000000
1295.214233 488.000000
1296.929321 475.000000
1298.643433 568.000000
1300.356567 512.000000
1302.068848 490.000000
1303.779907 481.000000
1305.489990 502.000000
1307.198975 500.000000
1308.906738 428.000000
1310.613892 560.000000
1312.319580 518.000000
1314.024536 560.000000
1315.728516 544.000000
1317.431274 524.000000
1319.133057 579.000000
1320.833984 619.000000
1322.533569 836.000000
1324.232300 244.000000
1325.930298 501.000000
1327.626953 630.000000
1329.322510 670.000000
1331.017212 553.000000
1332.710693 668.000000
1334.403320 558.000000
1336.095093 444.000000
1337.785522 552.000000
1339.475220 507.000000
1341.163818 600.000000
1342.851318 576.000000
1344.537842 553.000000
1346.223267 533.000000
1347.907715 634.000000
1349.591309 491.000000
1351.273682 631.000000
1352.955078 522.000000
1354.635620 579.000000
1356.314941 595.000000
1357.993652 690.000000
1359.671021 711.000000
1361.347290 640.000000
1363.022583 605.000000
1364.697144 569.000000
1366.370483 608.000000
1368.042847 594.000000
1369.714233 581.000000
1371.384644 494.000000
1373.053955 545.000000
1374.722290 525.000000
1376.389771 596.000000
1378.056152 583.000000
1379.721558 619.000000
1381.385986 569.000000
1383.049194 543.000000
1384.711792 549.000000
1386.373047 478.000000
1388.033447 494.000000
1389.692749 577.000000
1391.351074 579.000000
1393.008667 529.000000
1394.665039 641.000000
1396.320557 552.000000
1397.974854 502.000000
1399.628296 547.000000
1401.280640 563.000000
1402.932251 554.000000
1404.582642 504.000000
1406.231934 544.000000
1407.880493 474.000000
1409.527954 530.000000
1411.174438 511.000000
1412.820068 560.000000
1414.464722 579.000000
1416.108154 460.000000
1417.750732 516.000000
1419.392212 462.000000
1421.032837 529.000000
1422.672485 445.000000
1424.311035 483.000000
1425.948730 520.000000
1427.585327 609.000000
1429.220947 385.000000
1430.855835 501.000000
1432.489624 582.000000
1434.122314 556.000000
1435.754028 482.000000
1437.384888 466.000000
1439.014648 482.000000
1440.643311 483.000000
1442.271362 437.000000
1443.898315 544.000000
1445.524048 461.000000
1447.149170 535.000000
1448.773193 510.000000
1450.396240 499.000000
1452.018311 484.000000
1453.639282 446.000000
1455.259277 486.000000
1456.878540 528.000000
1458.496460 566.000000
1460.113770 556.000000
1461.730103 431.000000
1463.345215 571.000000
1464.959473 523.000000
1466.572876 503.000000
1468.185181 492.000000
1469.796631 490.000000
1471.407227 438.000000
1473.016602 514.000000
1474.625000 470.000000
1476.232544 412.000000
1477.839111 496.000000
1479.444946 468.000000
1481.049561 397.000000
1482.653320 475.000000
1484.255859 580.000000
1485.857788 464.000000
1487.458496 404.000000
1489.058472 382.000000
1490.657349 499.000000
1492.255371 412.000000
1493.852295 388.000000
1495.448364 455.000000
1497.043457 504.000000
1498.637573 494.000000
1500.230957 451.000000
1501.823242 445.000000
1503.414307 531.000000
1505.004883 452.000000
1506.594116 432.000000
1508.182739 393.000000
1509.770264 486.000000
1511.356689 410.000000
1512.942383 401.000000
1514.526978 444.000000
1516.110718 394.000000
1517.693359 395.000000
1519.275269 476.000000
1520.856079 451.000000
1522.436157 456.000000
1524.015015 372.000000
1525.593018 323.000000
1527.170288 416.000000
1528.746338 382.000000
1530.321655 428.000000
1531.895874 332.000000
1533.469360 430.000000
1535.041626 475.000000
1536.613159 444.000000
1538.183716 480.000000
1539.753418 380.000000
1541.321899 407.000000
1542.889648 337.000000
1544.456543 436.000000
1546.022217 489.000000
1547.587158 348.000000
1549.151001 378.000000
1550.714233 477.000000
1552.276123 485.000000
1553.837402 570.000000
1555.397583 407.000000
1556.957031 488.000000
1558.515381 478.000000
1560.072998 414.000000
1561.629517 416.000000
1563.184814 374.000000
1564.739502 375.000000
1566.293457 348.000000
1567.846436 388.000000
1569.398071 419.000000
1570.948975 424.000000
1572.499146 442.000000
1574.048340 436.000000
1575.596191 316.000000
1577.143555 366.000000
1578.689941 328.000000
1580.235474 379.000000
1581.780029 411.000000
1583.323364 436.000000
1584.866089 440.000000
1586.407959 267.000000
1587.948730 370.000000
1589.488525 423.000000
1591.027588 436.000000
1592.565552 396.000000
1594.103027 370.000000
1595.639160 308.000000
1597.174194 430.000000
1598.708740 384.000000
1600.242310 396.000000
1601.775024 396.000000
1603.306152 303.000000
1604.837036 392.000000
1606.367065 412.000000
1607.895874 356.000000
1609.423584 364.000000
1610.950684 382.000000
1612.477051 316.000000
1614.002441 372.000000
1615.526978 320.000000
1617.050171 364.000000
1618.572632 325.000000
1620.094360 339.000000
1621.615234 356.000000
1623.134644 347.000000
1624.653564 428.000000
1626.171753 278.000000
1627.689087 314.000000
1629.205322 400.000000
1630.720215 366.000000
1632.234619 424.000000
1633.748291 336.000000
1635.260864 320.000000
1636.772217 296.000000
1638.283203 424.000000
1639.793091 344.000000
1641.302124 387.000000
1642.809814 320.000000
1644.317139 316.000000
1645.823608 311.000000
1647.329102 424.000000
1648.833740 350.000000
1650.336914 351.000000
1651.839478 404.000000
1653.341675 370.000000
1654.842529 411.000000
1656.342285 333.000000
1657.841187 343.000000
1659.339722 383.000000
1660.837036 252.000000
1662.333618 259.000000
1663.828613 225.000000
1665.323364 254.000000
1666.817261 241.000000
1668.310181 415.000000
1669.801758 427.000000
1671.292847 34.500000
1672.783325 311.000000
1674.272705 318.000000
1675.760620 343.000000
1677.248291 215.000000
1678.734985 245.000000
1680.220825 243.000000
1681.705811 329.000000
1683.189331 338.000000
1684.672607 281.000000
1686.155029 297.000000
1687.636353 381.000000
1689.116211 281.000000
1690.595825 345.000000
1692.074707 238.000000
1693.552612 252.000000
1695.029541 266.000000
1696.505249 409.000000
1697.980591 226.000000
1699.454712 385.000000
1700.928223 364.000000
1702.400269 372.000000
1703.872070 358.000000
1705.342896 271.000000
1706.812866 334.000000
1708.281494 255.000000
1709.749634 392.000000
1711.217041 328.000000
1712.683350 334.000000
1714.149048 327.000000
1715.613037 249.000000
1717.076904 355.000000
1718.539917 332.000000
1720.001953 295.000000
1721.462769 222.000000
1722.922974 331.000000
1724.382446 206.000000
1725.841064 291.000000
1727.298706 258.000000
1728.755005 276.000000
1730.211060 275.000000
1731.666138 292.000000
1733.120239 301.000000
1734.573120 245.000000
1736.025757 257.000000
1737.477295 281.000000
1738.928101 273.000000
1740.377930 225.000000
1741.826416 354.000000
1743.274536 159.000000
1744.721802 266.000000
1746.168335 226.000000
1747.613281 191.000000
1749.057983 320.000000
1750.501831 345.000000
1751.944824 336.000000
1753.386353 285.000000
1754.827637 327.000000
1756.268066 425.000000
1757.707520 311.000000
1759.145996 260.000000
1760.583496 215.000000
1762.020508 250.000000
1763.456543 234.000000
1764.891724 343.000000
1766.325439 215.000000
1767.759033 266.000000
1769.191650 276.000000
1770.623413 344.000000
1772.054321 223.000000
1773.484009 299.000000
1774.912964 307.000000
1776.341431 164.000000
1777.768921 205.000000
1779.195068 306.000000
1780.620972 198.000000
1782.045776 275.000000
1783.469971 267.000000
1784.892700 186.000000
1786.314941 112.000000
1787.736450 257.000000
1789.157227 211.000000
1790.577026 253.000000
1791.995483 268.000000
1793.413452 244.000000
1794.830811 241.000000
1796.247314 199.000000
1797.662354 186.000000
1799.077026 223.000000
1800.491089 148.000000
1801.903931 179.000000
1803.316162 213.000000
1804.727051 224.000000
1806.137451 209.000000
1807.547119 232.000000
1808.955811 293.000000
1810.363403 254.000000
1811.770508 292.000000
1813.176758 254.000000
1814.582031 256.000000
1815.986206 290.000000
1817.390015 215.000000
1818.792847 205.000000
1820.194824 144.000000
1821.596191 217.000000
1822.996094 204.000000
1824.395386 265.000000
1825.794189 218.000000
1827.192139 160.000000
1828.588745 217.000000
1829.984741 221.000000
1831.380005 219.000000
1832.774658 329.000000
1834.168335 272.000000
1835.560669 235.000000
1836.952515 226.000000
1838.343750 191.000000
1839.734009 221.000000
1841.123047 155.000000
1842.511719 177.000000
1843.899414 228.000000
1845.286377 185.000000
1846.671997 225.000000
1848.057373 210.000000
1849.441895 199.000000
1850.825684 197.000000
1852.208374 159.000000
1853.589844 218.000000
1854.970825 255.000000
1856.351318 254.000000
1857.730835 222.000000
1859.108887 206.000000
1860.486816 252.000000
1861.863770 102.000000
1863.239990 119.000000
1864.615356 223.000000
1865.989258 193.000000
1867.363037 112.000000
1868.735962 173.000000
1870.107788 214.000000
1871.478638 134.000000
1872.849121 214.000000
1874.218506 179.000000
1875.587402 151.000000
1876.954712 239.000000
1878.321899 231.000000
1879.688110 156.000000
1881.053589 118.000000
1882.418335 191.000000
1883.781494 173.000000
1885.144531 239.000000
1886.506714 156.000000
1887.868042 195.000000
1889.228027 202.000000
1890.587646 162.000000
1891.946655 173.000000
1893.304688 204.000000
1894.661865 146.000000
1896.017822 219.000000
1897.373535 177.000000
1898.728271 207.000000
1900.082153 144.000000
1901.434937 139.000000
1902.787231 306.000000
1904.138794 198.000000
1905.489502 163.000000
1906.838989 208.000000
1908.187988 147.000000
1909.536133 152.000000
1910.883667 143.000000
1912.230469 110.000000
1913.575684 172.000000
1914.920654 169.000000
1916.264893 91.000000
1917.608276 183.000000
1918.950317 208.000000
1920.292114 231.000000
1921.633057 222.000000
1922.973267 150.000000
1924.312500 265.000000
1925.650757 165.000000
1926.988403 206.000000
1928.325317 197.000000
1929.661377 104.000000
1930.996216 137.000000
1932.330688 210.000000
1933.664429 164.000000
1934.997314 162.000000
1936.328735 128.000000
1937.660278 194.000000
1938.990479 189.000000
1940.320190 104.000000
1941.649048 175.000000
1942.976685 125.000000
1944.303833 187.000000
1945.630249 207.000000
1946.955933 159.000000
1948.280273 158.000000
1949.604370 150.000000
1950.927612 162.000000
1952.250122 126.000000
1953.571533 179.000000
1954.891968 184.000000
1956.211792 176.000000
1957.531250 184.000000
1958.849731 141.000000
1960.166870 50.000000
1961.483643 215.000000
1962.799683 135.000000
1964.114990 99.000000
1965.428833 265.000000
1966.742432 99.000000
1968.055298 145.000000
1969.367310 81.000000
1970.678711 199.000000
1971.988770 106.000000
1973.298340 173.000000
1974.607178 154.000000
1975.915405 73.000000
1977.222290 126.000000
1978.528564 175.000000
1979.834473 90.000000
1981.139160 128.000000
1982.443359 155.000000
1983.746338 148.000000
1985.048950 154.000000
1986.350586 68.000000
1987.651611 196.000000
1988.951050 142.000000
1990.250610 172.000000
1991.549072 147.000000
1992.847046 148.000000
1994.143433 125.000000
1995.439819 124.000000
1996.735229 143.000000
1998.029907 78.000000
1999.323730 99.000000
2000.616333 154.000000
2001.908447 129.000000
2003.200073 78.000000
2004.490967 128.000000
2005.780273 266.000000
2007.069336 180.000000
2008.357666 199.000000
2009.645264 140.000000
2010.932007 111.000000
2012.217651 165.000000
2013.502930 112.000000
2014.787231 130.000000
2016.070923 127.000000
2017.353271 158.000000
2018.635254 110.000000
2019.916748 125.000000
2021.197266 52.000000
2022.477051 86.000000
2023.755737 88.000000
2025.033691 96.000000
2026.311157 187.000000
2027.588013 128.000000
2028.863159 127.000000
2030.138428 163.000000
2031.412720 161.000000
2032.686035 153.000000
2033.958496 100.000000
2035.230591 81.000000
2036.501587 19.000000
2037.772339 146.000000
2039.041748 149.000000
2040.310059 44.000000
2041.578369 106.000000
2042.845703 78.000000
2044.112305 117.000000
2045.377686 -22.000000
2046.642456 108.000000
2047.906982 164.000000
2049.170166 132.000000
2050.433105 114.000000
2051.694092 159.000000
2052.955566 76.000000
2054.215820 264.000000
2055.475342 129.000000
2056.734131 136.000000
2057.991943 71.000000
2059.249268 159.000000
2060.505859 75.000000
2061.760986 78.000000
2063.016113 148.000000
2064.270264 146.000000
2065.523682 6.000000
2066.776367 39.000000
2068.027832 53.000000
2069.279053 156.000000
2070.529541 116.000000
2071.779297 89.000000
2073.027588 91.500000
2074.275879 94.000000
2075.523193 20.000000
2076.769775 84.000000
2078.015625 78.000000
2079.260254 152.000000
2080.504395 140.000000
2081.748047 76.000000
2082.990723 157.000000
2084.232178 88.000000
2085.473389 220.000000
2086.714111 96.000000
2087.953857 48.000000
2089.192383 87.000000
2090.430420 115.000000
2091.667725 77.000000
2092.904785 127.000000
2094.140381 89.000000
2095.375244 131.000000
2096.609863 65.000000
2097.843506 106.000000
2099.076172 114.000000
2100.308105 181.000000
2101.539551 134.000000
2102.770020 119.000000
2103.999756 129.000000
2105.229248 148.000000
2106.456787 167.000000
2107.684570 47.000000
2108.911621 58.000000
2110.137695 145.000000
2111.362305 97.000000
2112.587158 42.000000
2113.810791 154.000000
2115.033936 95.000000
2116.255859 146.000000
2117.477539 58.000000
2118.698242 125.000000
2119.918213 97.000000
2121.137695 167.000000
2122.355713 124.000000
2123.573730 32.000000
2124.790771 106.000000
2126.007324 119.000000
2127.222168 175.000000
2128.437256 160.000000
2129.651367 157.000000
2130.864746 88.000000
2132.077393 62.000000
2133.288574 106.000000
2134.500000 155.000000
2135.710205 38.000000
2136.919922 77.000000
2138.128174 28.000000
2139.336426 -4.000000
2140.543945 42.000000
2141.750244 -135.000000
2142.955811 162.000000
2144.161133 116.000000
2145.365479 16.000000
2146.569092 36.000000
2147.772217 58.000000
2148.973877 135.000000
2150.175293 59.000000
2151.375977 139.000000
2152.575928 67.000000
2153.774658 53.000000
2154.973145 101.000000
2156.171143 98.000000
2157.368164 90.000000
2158.564453 93.000000
2159.759521 113.000000
2160.954346 90.000000
2162.148438 45.000000
2163.341553 95.000000
2164.533691 111.000000
2165.725586 13.000000
2166.916748 24.000000
2168.106934 107.000000
2169.296387 35.000000
2170.485352 94.000000
2171.673340 -6.000000
2172.861084 95.000000
2174.047363 90.000000
2175.232910 70.000000
2176.418213 65.000000
2177.603027 124.000000
2178.786621 79.000000
2179.969482 88.000000
2181.151367 57.000000
2182.333008 78.000000
2183.514160 103.000000
2184.694092 114.000000
2185.873047 44.000000
2187.051514 49.000000
2188.229736 185.000000
2189.406738 89.000000
2190.582764 161.000000
2191.758545 104.000000
2192.933838 10.000000
2194.107666 86.000000
2195.281006 -19.000000
2196.454102 146.000000
2197.625977 121.000000
2198.797363 104.000000
2199.968262 104.000000
2201.137451 -1.000000
2202.306641 49.000000
2203.475342 102.000000
2204.643066 111.000000
2205.809814 136.000000
2206.975830 42.000000
2208.141357 38.000000
2209.306641 28.000000
2210.470459 83.000000
2211.633789 76.000000
2212.795898 129.000000
2213.958252 199.000000
2215.119385 48.000000
2216.279541 146.000000
2217.439209 -24.000000
2218.598633 105.000000
2219.756836 29.000000
2220.914063 48.000000
2222.071045 115.000000
2223.227295 39.000000
2224.382813 119.000000
2225.537598 83.000000
2226.691406 144.000000
2227.844238 133.000000
2228.997559 129.000000
2230.148926 73.000000
2231.300049 6.000000
2232.450439 105.000000
2233.600342 62.000000
2234.749268 70.000000
2235.897705 23.000000
2237.044678 80.000000
2238.191895 86.000000
2239.337891 48.000000
2240.483643 12.000000
2241.627686 67.000000
2242.771973 67.000000
2243.915283 60.000000
2245.057861 107.000000
2246.199463 -3.000000
2247.340820 11.000000
2248.481201 26.000000
2249.620850 63.000000
2250.760010 46.000000
2251.897949 -19.000000
2253.035889 46.000000
2254.172852 127.000000
2255.309082 47.000000
2256.444336 117.000000
2257.578857 138.000000
2258.713135 136.000000
2259.846924 129.000000
2260.979248 103.000000
2262.111084 126.000000
2263.242432 105.000000
2264.372803 48.000000
2265.502930 26.000000
2266.631836 151.000000
2267.760254 76.000000
2268.888184 70.000000
2270.015137 104.000000
2271.141357 -17.000000
2272.266602 94.000000
2273.391846 75.000000
2274.516357 20.000000
2275.639648 -35.000000
2276.762207 97.000000
2277.884277 53.000000
2279.005859 1.000000
2280.126709 92.000000
2281.246338 105.000000
2282.365479 58.000000
2283.484375 83.000000
2284.602539 46.000000
2285.719727 84.000000
2286.835938 -23.000000
2287.951904 49.000000
2289.067139 39.000000
2290.181641 145.000000
2291.294922 144.000000
2292.408203 -33.000000
2293.520752 35.000000
2294.632568 151.000000
2295.743652 3.000000
2296.853516 123.000000
2297.962891 47.000000
2299.072021 58.000000
2300.180176 -15.000000
2301.287354 82.000000
2302.394287 22.000000
2303.500488 10.000000
2304.606201 49.000000
2305.710449 107.000000
2306.814453 -31.000000
2307.917969 53.000000
2309.020996 60.000000
2310.122803 75.000000
2311.223877 18.000000
2312.324463 102.000000
2313.424561 27.000000
2314.523926 111.000000
2315.621826 139.000000
2316.720215 52.000000
2317.817139 76.000000
2318.913818 87.000000
2320.010010 55.000000
2321.104492 53.000000
2322.198975 148.000000
2323.292725 52.000000
2324.386230 34.000000
2325.478027 147.000000
2326.569824 -162.000000
2327.660889 123.000000
2328.751221 183.000000
2329.840576 144.000000
2330.929932 163.000000
2332.018066 92.000000
2333.105713 117.000000
2334.193115 118.000000
2335.278809 139.000000
2336.364258 15.000000
2337.449463 137.000000
2338.533691 109.000000
2339.616943 89.000000
2340.699951 -18.000000
2341.781982 154.000000
2342.863770 -22.000000
2343.944824 -6.000000
2345.024658 -42.000000
2346.104004 -39.000000
2347.182861 113.000000
2348.261230 93.000000
2349.338135 81.000000
2350.414795 -11.000000
2351.491211 35.000000
2352.566650 6.000000
2353.641113 57.000000
2354.715332 54.000000
2355.788818 53.000000
2356.861816 107.000000
2357.933594 35.000000
2359.005127 67.000000
2360.075684 -72.000000
2361.145996 133.000000
2362.215332 34.000000
2363.283691 -3.000000
2364.351807 -22.000000
2365.419189 -19.000000
2366.486084 -22.000000
2367.552246 16.000000
2368.617188 67.000000
2369.682129 -16.000000
2370.746338 90.000000
2371.809814 87.000000
2372.872070 91.000000
2373.934326 81.000000
2374.995605 96.000000
2376.056641 -84.000000
2377.116455 134.000000
2378.175537 69.000000
2379.234619 30.000000
2380.292725 49.000000
2381.350098 89.000000
2382.406494 21.000000
2383.462646 38.000000
2384.518311 0.000000
2385.573242 38.000000
2386.626709 158.000000
2387.680420 23.000000
2388.733154 32.000000
2389.785400 57.000000
2390.836914 15.000000
2391.887451 111.000000
2392.937744 57.000000
2393.987061 69.000000
2395.036377 74.000000
2396.084229 11.000000
2397.131592 45.000000
2398.178711 -69.000000
2399.224854 6.000000
2400.270264 12.000000
2401.314941 45.000000
2402.359619 66.000000
2403.402832 158.000000
2404.446045 32.000000
2405.487793 4.000000
2406.529785 33.000000
2407.571045 77.000000
2408.611328 19.000000
2409.650879 23.000000
2410.689453 43.000000
2411.728271 25.000000
2412.765869 7.000000
2413.803223 58.000000
2414.839355 43.000000
2415.875244 26.000000
2416.910400 15.000000
2417.945068 -6.000000
2418.978271 75.000000
2420.011719 14.000000
2421.044189 -4.000000
2422.076416 34.000000
2423.107178 91.000000
2424.137939 7.000000
2425.168213 20.000000
2426.197266 43.000000
2427.226318 72.000000
2428.253662 34.000000
2429.281494 79.000000
2430.308105 -4.000000
2431.334473 66.000000
2432.359375 48.000000
2433.384521 11.000000
2434.408691 55.000000
2435.432617 85.000000
2436.455322 -40.000000
2437.477295 12.000000
2438.499023 38.000000
2439.520020 62.000000
2440.540527 5.000000
2441.559814 16.000000
2442.579102 79.000000
2443.597412 89.000000
2444.615479 43.000000
2445.632080 61.000000
2446.648682 69.000000
2447.664551 31.000000
2448.680420 -34.000000
2449.694824 -30.000000
2450.708496 23.000000
2451.721680 -11.000000
2452.734619 94.000000
2453.746826 53.000000
2454.758057 28.000000
2455.769043 -18.000000
2456.779297 97.000000
2457.789063 -60.000000
2458.797852 -3.000000
2459.805908 64.000000
2460.813965 57.000000
2461.820801 -67.000000
2462.827393 44.000000
2463.832764 83.000000
2464.837891 89.000000
2465.842773 17.000000
2466.846436 55.000000
2467.849854 36.000000
2468.852295 -26.000000
2469.854492 70.000000
2470.856201 -9.000000
2471.856934 113.000000
2472.856689 139.000000
2473.856445 109.000000
2474.855225 23.000000
2475.853516 14.000000
2476.850830 22.000000
2477.847900 -25.000000
2478.844971 97.000000
2479.840576 -22.000000
2480.836182 113.000000
2481.830078 64.000000
2482.823975 10.000000
2483.817383 54.000000
2484.810303 56.000000
2485.802246 3.000000
2486.793457 69.000000
2487.784424 -24.000000
2488.774902 -84.000000
2489.764404 -16.000000
2490.753174 63.000000
2491.741943 -61.000000
2492.729736 60.000000
2493.716309 135.000000
2494.702881 -37.000000
2495.688965 25.000000
2496.674316 -58.000000
2497.658691 68.000000
2498.642822 -30.000000
2499.626953 -15.000000
2500.609619 66.000000
2501.591797 44.000000
2502.573486 32.000000
2503.554443 93.000000
2504.534912 18.000000
2505.515137 15.000000
2506.493896 -43.000000
2507.472412 48.000000
2508.450439 31.000000
2509.427979 3.000000
2510.404541 31.000000
2511.380859 30.000000
2512.356445 -19.000000
2513.331543 -21.000000
2514.306152 -14.000000
2515.279541 34.000000
2516.252686 32.000000
2517.225586 86.000000
2518.197510 13.000000
2519.168701 -29.000000
2520.139404 -91.000000
2521.109863 23.000000
2522.079590 35.000000
2523.048340 185.000000
2524.016357 22.000000
2524.984375 -1.000000
2525.951416 -67.000000
2526.918213 58.000000
2527.883789 -34.000000
2528.849365 23.000000
2529.814209 -17.000000
2530.778564 99.000000
2531.741699 23.000000
2532.705078 -72.000000
2533.667480 6.000000
2534.629639 74.000000
2535.590576 58.000000
2536.550781 17.000000
2537.511230 -5.000000
2538.470703 56.000000
2539.429443 19.000000
2540.387207 -9.000000
2541.345215 110.000000
2542.302490 -18.000000
2543.258789 36.000000
2544.214844 -39.000000
2545.169678 -19.000000
2546.124756 15.000000
2547.079102 60.000000
2548.032715 -229.000000
2548.985352 -30.000000
2549.937744 -7.000000
2550.889648 27.000000
2551.840820 -24.000000
2552.791260 74.000000
2553.741211 -40.000000
2554.690918 21.000000
2555.639893 -7.000000
2556.588379 32.000000
2557.535645 57.000000
2558.482910 -23.000000
2559.429443 66.000000
2560.375488 62.000000
2561.320557 -80.000000
2562.265381 6.000000
2563.209717 -5.000000
2564.153564 9.000000
2565.096924 72.000000
2566.038818 65.000000
2566.980957 33.000000
2567.922363 3.000000
2568.863037 122.000000
2569.802979 -40.000000
2570.742920 -29.000000
2571.681885 7.000000
2572.620605 -58.000000
2573.558350 20.000000
2574.495850 28.000000
2575.432617 22.000000
2576.368652 138.000000
2577.304199 -40.000000
2578.239014 41.000000
2579.173828 -31.000000
2580.107666 -40.000000
2581.041016 -8.000000
2581.973633 16.000000
2582.906006 -94.000000
2583.837646 54.000000
2584.768799 -64.000000
2585.699463 -24.000000
2586.628906 -121.000000
2587.558350 131.000000
2588.487305 -40.000000
2589.416016 24.000000
2590.343018 112.000000
2591.270264 21.000000
2592.197021 2.000000
2593.123047 4.000000
2594.048828 0.000000
2594.973389 -59.000000
2595.897705 -14.000000
2596.821533 8.000000
2597.744873 37.000000
2598.667236 -12.000000
2599.589355 -14.000000
2600.510986 -31.000000
2601.431885 -73.000000
2602.352051 -35.000000
2603.271973 13.000000
2604.191406 -81.000000
2605.110596 -31.000000
2606.028809 35.000000
2606.945801 -37.000000
2607.863037 -145.000000
2608.780029 7.000000
2609.696045 66.000000
2610.610840 118.000000
2611.526123 109.000000
2612.440674 -86.000000
2613.354248 -14.000000
2614.267822 24.000000
2615.180176 20.000000
2616.092529 -22.000000
2617.003906 60.000000
2617.915039 -39.000000
2618.825439 -24.000000
2619.735596 36.000000
2620.645020 -76.000000
2621.553955 12.000000
2622.461914 14.000000
2623.370117 1.000000
2624.277344 -7.000000
2625.184082 11.000000
2626.090088 28.000000
2626.995850 8.000000
2627.900879 14.000000
2628.805664 -21.000000
2629.709717 -11.000000
2630.612793 -15.000000
2631.515869 64.000000
2632.417969 -39.000000
2633.320068 -55.000000
2634.221924 77.000000
2635.122070 -1.000000
2636.022461 -37.000000
2636.922119 53.000000
2637.821533 -25.000000
2638.719482 -15.000000
2639.617920 35.000000
2640.515869 -58.000000
2641.413086 -35.000000
2642.309082 33.000000
2643.205078 -198.000000
2644.100830 -17.000000
2644.995850 -17.000000
2645.890625 19.000000
2646.783936 -74.000000
2647.677246 44.000000
2648.570313 95.000000
2649.463135 -14.000000
2650.354248 22.000000
2651.245605 72.000000
2652.136475 -47.000000
2653.026611 51.000000
2653.916504 -40.000000
2654.805176 -52.000000
2655.694092 -52.000000
2656.582520 -19.000000
2657.469971 -45.000000
2658.356445 21.000000
2659.243408 124.000000
2660.129639 24.000000
2661.015381 -18.000000
2661.899902 -65.000000
2662.784424 2.000000
2663.668701 29.000000
2664.552246 28.000000
2665.435303 40.000000
2666.317627 -46.000000
2667.199463 -59.000000
2668.080566 11.000000
2668.961914 12.000000
2669.841797 -11.000000
2670.721924 -100.000000
2671.601318 2.000000
2672.480713 79.000000
2673.359375 84.000000
2674.236328 -71.000000
2675.114014 8.000000
2675.990967 12.000000
2676.867188 -163.000000
2677.742920 -12.000000
2678.617920 -47.000000
2679.493164 -56.000000
2680.367432 7.000000
2681.241211 13.000000
2682.114258 44.000000
2682.987061 11.000000
2683.859619 76.000000
2684.731445 -18.000000
2685.602539 -34.000000
2686.473389 -92.000000
2687.343750 66.000000
2688.213867 44.000000
2689.082275 -47.000000
2689.951416 15.000000
2690.819824 0.000000
2691.687988 8.000000
2692.555420 91.000000
2693.421631 -26.000000
2694.288330 -61.000000
2695.154053 -65.000000
2696.019775 49.000000
2696.884033 55.000000
2697.749023 -9.000000
2698.612549 -26.000000
2699.476318 -23.000000
2700.338623 2.000000
2701.201416 22.000000
2702.063232 -62.000000
2702.924561 -29.000000
2703.785889 34.000000
2704.645996 -31.000000
2705.506104 33.000000
2706.365723 92.000000
2707.225098 -53.000000
2708.082764 17.000000
2708.940674 -10.000000
2709.799072 -33.000000
2710.656250 60.000000
2711.512695 39.000000
2712.368652 7.000000
2713.224609 -12.000000
2714.079834 46.000000
2714.934326 27.000000
2715.788330 -85.000000
2716.642334 11.000000
2717.495361 -16.000000
2718.348633 -48.000000
2719.200195 62.000000
2720.052246 -106.000000
2720.904053 17.000000
2721.754639 -28.000000
2722.605225 -20.000000
2723.455322 -109.000000
2724.304688 -11.000000
2725.154053 -66.000000
2726.002197 -44.000000
2726.849854 -24.000000
2727.697998 46.000000
2728.544922 9.000000
2729.392334 -71.000000
2730.238281 40.000000
2731.083496 -100.000000
2731.929199 -27.000000
2732.773926 -9.000000
2733.618652 -75.000000
2734.462158 17.000000
2735.305908 -29.000000
2736.148926 -66.000000
2736.991455 -6.000000
2737.833008 10.000000
2738.675049 -82.000000
2739.516113 -30.000000
2740.356934 -76.000000
2741.197510 -104.000000
2742.036865 27.000000
2742.876221 68.000000
2743.715576 -28.000000
2744.553711 12.000000
2745.391357 -13.000000
2746.229004 -42.000000
2747.066162 56.000000
2747.903076 -17.000000
2748.739502 -36.000000
2749.574707 15.000000
2750.410156 72.000000
2751.245117 36.000000
2752.079346 -27.000000
2752.913330 -121.000000
2753.746826 -15.000000
2754.580322 -76.000000
2755.412842 0.000000
2756.244873 -42.000000
2757.076416 -18.000000
2757.907959 -94.000000
2758.738525 -12.000000
2759.569336 40.000000
2760.398926 56.000000
2761.228516 -8.000000
2762.057861 44.000000
2762.886475 -23.000000
2763.714600 -28.000000
2764.542236 -52.000000
2765.369873 -19.000000
2766.197021 -97.000000
2767.023438 10.000000
2767.849365 55.000000
2768.674805 -20.000000
2769.500000 -142.000000
2770.325195 -78.000000
2771.149170 -48.000000
2771.973145 -18.000000
2772.797119 5.000000
2773.619873 -31.000000
2774.442871 69.000000
2775.264648 -51.000000
2776.086426 -25.000000
2776.908203 -17.000000
2777.729004 -9.000000
2778.549072 19.000000
2779.369385 -79.000000
2780.189209 -15.000000
2781.009033 -19.000000
2781.826904 -9.000000
2782.645996 -11.000000
2783.463867 -90.000000
2784.281494 -13.000000
2785.098633 23.000000
2785.915283 29.000000
2786.731689 -138.000000
2787.547607 27.000000
2788.363281 -42.000000
2789.177979 -54.000000
2789.993164 -23.000000
2790.807617 -184.000000
2791.621582 -26.000000
2792.435303 -47.000000
2793.247803 -113.000000
2794.060547 -17.000000
2794.872803 -8.000000
2795.684570 -56.000000
2796.495605 102.000000
2797.307373 -165.000000
2798.117920 45.000000
2798.928467 103.000000
2799.737549 0.000000
2800.547363 -88.000000
2801.356445 -58.000000
2802.165283 -51.000000
2802.973633 -35.000000
2803.781006 -28.000000
2804.588867 48.000000
2805.395996 160.000000
2806.202881 -37.000000
2807.008545 74.000000
2807.814697 -15.000000
2808.620117 -31.000000
2809.425537 -28.000000
2810.230225 -22.000000
2811.033936 -173.000000
2811.838135 26.000000
2812.641846 33.000000
2813.445313 28.000000
2814.247314 -65.000000
2815.050049 17.000000
2815.852051 -8.000000
2816.653809 -53.000000
2817.455078 -16.000000
2818.255859 -13.000000
2819.056152 14.000000
2819.856689 68.000000
2820.656250 59.000000
2821.455322 -56.000000
2822.254395 13.000000
2823.053223 12.000000
2823.851563 -40.000000
2824.648926 7.000000
2825.446533 -52.000000
2826.243408 19.000000
2827.040527 -35.000000
2827.836914 -79.000000
2828.632568 -30.000000
2829.428223 -37.000000
2830.223633 -167.000000
2831.018555 5.000000
2831.812744 11.000000
2832.606934 0.000000
2833.400879 -39.000000
2834.194336 -70.000000
2834.987061 9.000000
2835.779541 39.000000
2836.572021 -9.000000
2837.364258 51.000000
2838.156006 -52.000000
2838.946777 43.000000
2839.737549 -69.000000
2840.528564 -93.000000
2841.318604 -67.000000
2842.108154 28.000000
2842.897949 -31.000000
2843.686768 53.000000
2844.475586 -15.000000
2845.264404 -31.000000
2846.052246 36.000000
2846.839600 42.000000
2847.627197 -66.000000
2848.414307 -110.000000
2849.200684 -37.000000
2849.987061 53.000000
2850.773193 -47.000000
2851.558838 -12.000000
2852.343506 5.000000
2853.128662 -14.000000
2853.913574 58.000000
2854.697754 -38.000000
2855.481934 79.000000
2856.264893 -9.000000
2857.048096 -93.000000
2857.831055 3.000000
2858.613525 -68.000000
2859.395752 26.000000
2860.177490 -6.000000
2860.958984 9.000000
2861.740723 -2.000000
2862.521729 -43.000000
2863.302002 0.000000
2864.082031 31.000000
2864.862061 -2.000000
2865.641846 40.000000
2866.420654 -97.000000
2867.199707 44.000000
2867.978271 54.000000
2868.756592 -108.000000
2869.534424 17.000000
2870.312012 15.000000
2871.089355 -80.000000
2871.866455 8.000000
2872.643066 -17.000000
2873.419189 -54.000000
2874.195313 -46.000000
2874.970947 12.000000
2875.746338 -89.000000
2876.521240 -33.000000
2877.295898 -21.000000
2878.070557 -41.000000
2878.844971 27.000000
2879.618652 47.000000
2880.391602 -110.000000
2881.165283 25.000000
2881.937988 102.000000
2882.710693 -18.000000
2883.482666 62.000000
2884.254395 28.000000
2885.026611 -50.000000
2885.797607 -43.000000
2886.568115 20.000000
2887.339111 24.000000
2888.110107 -35.000000
2888.880371 15.000000
2889.649658 -23.000000
2890.419189 -39.000000
2891.188721 -13.000000
2891.957764 -46.000000
2892.726318 41.000000
2893.494873 -41.000000
2894.262451 -10.000000
2895.030518 -50.000000
2895.798096 76.000000
2896.565674 -75.000000
2897.332031 -3.000000
2898.099365 39.000000
2898.865479 4.000000
2899.631836 -33.000000
2900.396729 -38.000000
2901.162109 -30.000000
2901.927979 -47.000000
2902.692383 32.000000
2903.456787 -6.000000
2904.221436 17.000000
2904.985107 21.000000
2905.749512 -70.000000
2906.513184 -49.000000
2907.276123 -44.000000
2908.038818 -25.000000
2908.802002 30.000000
2909.564697 -11.000000
2910.326172 -46.000000
2911.088135 -46.000000
spectrumdark 2048
-97.142601 6195.000000
-94.515732 6195.000000
-91.890739 6064.000000
-89.267639 6473.000000
-86.646408 5808.000000
-84.027077 6240.000000
-81.409607 6055.000000
-78.794014 6437.000000
-76.180298 6219.000000
-73.568459 5917.000000
-70.958481 6092.000000
-68.350388 5931.000000
-65.744141 5946.000000
-63.139771 5954.000000
-60.537262 6162.000000
-57.936607 5640.000000
-55.337814 6306.000000
-52.740879 6857.000000
-50.145798 6477.000000
-47.552570 6525.000000
-44.961193 6333.000000
-42.371662 6757.000000
-39.783974 5890.000000
-37.198135 6002.000000
-34.614140 6450.000000
-32.031979 5731.000000
-29.451666 6386.000000
-26.873180 5725.000000
-24.296537 6121.000000
-21.721720 6241.000000
-19.148743 6446.000000
-16.577585 6469.000000
-14.008262 6687.000000
-11.440763 7778.000000
-8.875084 6307.000000
-6.311231 6504.000000
-3.749190 5962.000000
-1.188974 5858.000000
1.369434 6269.000000
3.926021 6939.000000
6.480803 6709.000000
9.033769 5972.000000
11.584933 6753.000000
14.134285 6495.000000
16.681841 6546.000000
19.227585 6011.000000
21.771536 5725.000000
24.313683 6631.000000
26.854033 6814.000000
29.392597 6892.000000
31.929365 6199.000000
34.464329 5819.000000
36.997517 7238.000000
39.528923 6297.000000
42.058537 7145.000000
44.586353 6519.000000
47.112411 7771.000000
49.636681 5669.000000
52.159180 6230.000000
54.679882 6715.000000
57.198830 6286.000000
59.716003 6419.000000
62.231400 6630.000000
64.745018 5652.000000
67.256882 5743.000000
69.766998 6564.000000
72.275322 6595.000000
74.781891 5937.000000
77.286713 6320.000000
79.789780 6394.000000
82.291069 6265.000000
84.790619 6110.000000
87.288414 6318.000000
89.784477 5736.000000
92.278763 7221.000000
94.771309 5806.000000
97.262138 6932.000000
99.751198 7204.000000
102.238510 6408.000000
104.724098 6210.000000
107.207947 6412.000000
109.690048 5748.000000
112.170425 6568.000000
114.649078 6273.000000
117.126007 6448.000000
119.601181 7177.000000
122.074646 6889.000000
124.546379 5897.000000
127.016403 6714.000000
129.484680 6205.000000
131.951279 6326.000000
134.416122 5738.000000
136.879272 6219.000000
139.340683 7329.000000
141.800400 6887.000000
144.258392 6421.000000
146.714691 6044.000000
149.169281 5818.000000
151.622147 6894.000000
154.073334 6386.000000
156.522827 6527.000000
158.970596 6101.000000
161.416656 6617.000000
163.861038 8632.000000
166.303741 6468.000000
168.744751 6826.000000
171.184052 6199.000000
173.621643 7279.000000
176.057602 6600.000000
178.491821 7004.000000
180.924362 7153.000000
183.355255 6674.000000
185.784424 6742.000000
188.211945 6664.000000
190.637787 6312.000000
193.061951 6715.000000
195.484451 7133.000000
197.905258 7400.000000
200.324402 6509.000000
202.741882 6005.000000
205.157669 7538.000000
207.571808 7054.000000
209.984314 6380.000000
212.395142 6063.000000
214.804291 6219.000000
217.211807 7420.000000
219.617615 6213.000000
222.021835 6569.000000
224.424347 6707.000000
226.825241 6910.000000
229.224487 6412.000000
231.622070 6827.000000
234.017990 7262.000000
236.412292 6543.000000
238.804932 5836.000000
241.195953 6772.000000
243.585312 6554.000000
245.973053 6377.000000
248.359146 6947.000000
250.743607 6149.000000
253.126419 7941.000000
255.507660 6621.000000
257.887177 6650.000000
260.265137 6459.000000
262.641418 7503.000000
265.016144 7519.000000
267.389221 7838.000000
269.760651 6232.000000
272.130432 6387.000000
274.498657 5834.000000
276.865234 6219.000000
279.230225 6785.000000
281.593597 6040.000000
283.955322 6207.000000
286.315460 7140.000000
288.673981 5971.000000
291.030914 6515.000000
293.386230 6417.000000
295.739960 5979.000000
298.092041 5944.000000
300.442566 6310.000000
302.791504 6418.000000
305.138794 6814.000000
307.484558 6442.000000
309.828644 6420.000000
312.171204 7352.000000
314.512146 7612.000000
316.851471 7145.000000
319.189240 6988.000000
321.525452 8072.000000
323.860016 6249.000000
326.193024 6501.000000
328.524475 6011.000000
330.854340 6617.000000
333.182617 6424.000000
335.509277 7259.000000
337.834442 6379.000000
340.157990 6203.000000
342.479980 6035.000000
344.800415 7488.000000
347.119232 7719.000000
349.436493 5999.000000
351.752228 5870.000000
354.066376 6895.000000
356.378937 6356.000000
358.689941 6407.000000
360.999420 7010.000000
363.307373 6317.000000
365.613708 5662.000000
367.918457 6477.000000
370.221741 6410.000000
372.523407 6257.000000
374.823578 6335.000000
377.122192 6241.000000
379.419250 5770.000000
381.714752 6053.000000
384.008728 5883.000000
386.301117 5210.000000
388.592010 5631.000000
390.881378 6192.000000
393.169159 6242.000000
395.455414 6503.000000
397.740173 6984.000000
400.023315 5994.000000
402.305023 6380.000000
404.585205 6180.000000
406.863800 7298.000000
409.140869 6417.000000
411.416412 6644.000000
413.690430 6377.000000
415.963013 6265.000000
418.233978 6181.000000
420.503448 6415.000000
422.771423 7040.000000
425.037842 7227.000000
427.302765 6270.000000
429.566223 6278.000000
431.828094 6439.000000
434.088501 6028.000000
436.347351 6583.000000
438.604736 6157.000000
440.860626 5600.000000
443.115021 5798.000000
445.367889 5429.000000
447.619202 6939.000000
449.869110 6063.000000
452.117432 6249.000000
454.364319 5700.000000
456.609741 6486.000000
458.853607 6410.000000
461.095978 6811.000000
463.336853 5723.000000
465.576324 6664.000000
467.814209 5456.000000
470.050659 5841.000000
472.285583 6098.000000
474.519043 7346.000000
476.751068 6653.000000
478.981567 5733.000000
481.210571 6410.000000
483.438110 6276.000000
485.664154 5996.000000
487.888763 6506.000000
490.111908 5847.000000
492.333588 6416.000000
494.553711 6724.000000
496.772430 5680.000000
498.989655 6309.000000
501.205505 5510.000000
503.419739 6080.000000
505.632660 6405.000000
507.843994 6428.000000
510.053894 6883.000000
512.262390 6452.000000
514.469482 6529.000000
516.674988 6475.000000
518.879089 6556.000000
521.081665 6222.000000
523.282837 6612.000000
525.482666 6714.000000
527.680969 6923.000000
529.877747 5281.000000
532.073181 5856.000000
534.267090 5605.000000
536.459656 7560.000000
538.650696 6659.000000
540.840332 6030.000000
543.028564 6897.000000
545.215271 7095.000000
547.400513 6749.000000
549.584473 6210.000000
551.766846 6404.000000
553.947876 6147.000000
556.127380 5995.000000
558.305603 5863.000000
560.482300 5993.000000
562.657593 6392.000000
564.831482 6403.000000
567.003906 5946.000000
569.174927 6034.000000
571.344482 6315.000000
573.512756 5253.000000
575.679504 6423.000000
577.844788 6308.000000
580.008667 6148.000000
582.171265 5715.000000
584.332336 6038.000000
586.492004 5647.000000
588.650330 5833.000000
590.807129 6137.000000
592.962585 6587.000000
595.116638 5764.000000
597.269348 6211.000000
599.420532 7279.000000
601.570374 6798.000000
603.718872 6622.000000
605.865784 6036.000000
608.011475 6442.000000
610.155762 6438.000000
612.298584 6992.000000
614.439941 6220.000000
616.580078 6453.000000
618.718689 7564.000000
620.856018 5693.000000
622.991882 6668.000000
625.126343 6920.000000
627.259338 7115.000000
629.391174 6628.000000
631.521545 6527.000000
633.650513 6828.000000
635.778015 6420.000000
637.904236 6210.000000
640.028931 7284.000000
642.152405 6394.000000
644.274536 6792.000000
646.395203 6788.000000
648.514526 6561.000000
650.632446 5700.000000
652.749023 5656.000000
654.864197 6464.000000
656.978027 6489.000000
659.090393 5859.000000
661.201538 6145.000000
663.311279 5452.000000
665.419556 5996.000000
667.526672 6286.000000
669.632324 6854.000000
671.736511 5691.000000
673.839478 5716.000000
675.941040 7013.000000
678.041260 5400.000000
680.140076 6752.000000
682.237549 6222.000000
684.333740 6964.000000
686.428467 6171.000000
688.521973 6969.000000
690.614136 6613.000000
692.704773 7832.000000
694.794189 6668.000000
696.882324 6446.000000
698.968994 6015.000000
701.054443 6634.000000
703.138367 5129.000000
705.221069 5948.000000
707.302490 5965.000000
709.382446 7607.000000
711.461182 6376.000000
713.538452 5555.000000
715.614441 6528.000000
717.689148 6079.000000
719.762573 6942.000000
721.834473 6301.000000
723.905212 7331.000000
725.974609 5765.000000
728.042603 6471.000000
730.109253 6404.000000
732.174683 7086.000000
734.238770 5758.000000
736.301514 6159.000000
738.362915 6498.000000
740.423035 6588.000000
742.481750 6061.000000
744.539246 6677.000000
746.595459 6435.000000
748.650269 6672.000000
750.703796 6389.000000
752.755920 7526.000000
754.806824 5794.000000
756.856506 6674.000000
758.904724 6396.000000
760.951721 6182.000000
762.997437 6993.000000
765.041748 5316.000000
767.084778 5717.000000
769.126587 15077.000000
771.167053 6969.000000
773.206116 6311.000000
775.244019 6085.000000
777.280579 5999.000000
779.315918 5447.000000
781.349915 5722.000000
783.382507 6890.000000
785.413940 5502.000000
787.443970 12078.000000
789.472717 6007.000000
791.500305 6313.000000
793.526550 6352.000000
795.551392 5777.000000
797.575134 5677.000000
799.597473 6347.000000
801.618591 5827.000000
803.638367 6632.000000
805.656860 4954.000000
807.674133 6714.000000
809.690002 6779.000000
811.704712 5711.000000
813.718079 6372.000000
815.730225 6292.000000
817.741150 6097.000000
819.750732 6526.000000
821.759094 5326.000000
823.766052 5745.000000
825.771790 6052.000000
827.776306 5698.000000
829.779541 5685.000000
831.781494 6481.000000
833.782166 6011.000000
835.781616 5996.000000
837.779724 6316.000000
839.776733 6903.000000
841.772339 6210.000000
843.766785 6027.000000
845.759888 6165.000000
847.751770 6824.000000
849.742310 5539.000000
851.731567 6785.000000
853.719788 5927.000000
855.706604 5614.000000
857.692200 6384.000000
859.676514 7259.000000
861.659729 6270.000000
863.641541 6423.000000
865.622131 5824.000000
867.601440 7760.000000
869.579590 7078.000000
871.556396 6153.000000
873.531921 5886.000000
875.506409 6153.000000
877.479431 6056.000000
879.451416 5500.000000
881.422058 6371.000000
883.391541 6112.000000
885.359680 5547.000000
887.326660 5228.000000
889.292297 6192.000000
891.256775 5734.000000
893.220032 5992.000000
895.182068 6494.000000
897.142822 5813.000000
899.102356 6408.000000
901.060608 6704.000000
903.017761 6329.000000
904.973755 6069.000000
906.928345 6899.000000
908.881714 6481.000000
910.833923 6448.000000
912.784912 6435.000000
914.734619 7058.000000
916.683167 6263.000000
918.630493 6210.000000
920.576538 6092.000000
922.521301 6078.000000
924.465027 6328.000000
926.407593 5959.000000
928.348877 5529.000000
930.288818 6512.000000
932.227661 5764.000000
934.165222 5525.000000
936.101563 5999.000000
938.036743 5839.000000
939.970642 6128.000000
941.903442 5844.000000
943.835022 6794.000000
945.765442 5226.000000
947.694641 6447.000000
949.622498 7017.000000
951.549316 6612.000000
953.474854 5933.000000
955.399109 5405.000000
957.322266 6010.000000
959.244263 6710.000000
961.164978 7265.000000
963.084534 6491.000000
965.002930 5326.000000
966.920288 6436.000000
968.836182 6384.000000
970.750977 6131.000000
972.664551 5887.000000
974.576965 6432.000000
976.488159 6473.000000
978.398193 5492.000000
980.306946 6195.000000
982.214661 6155.000000
984.121155 6392.000000
986.026428 5711.000000
987.930603 6768.000000
989.833557 6091.000000
991.735291 6850.000000
993.635864 6629.000000
995.535278 6595.000000
997.433472 5292.000000
999.330505 6542.000000
1001.226318 6429.000000
1003.120972 7746.000000
1005.014526 5587.000000
1006.906799 7056.000000
1008.798157 6056.000000
1010.688171 5303.000000
1012.576965 6653.000000
1014.464600 6291.000000
1016.351074 6944.000000
1018.236389 6721.000000
1020.120544 6011.000000
1022.003479 5883.000000
1023.885376 6231.000000
1025.765991 5188.000000
1027.645508 5819.000000
1029.524048 6131.000000
1031.401245 5483.000000
1033.277100 6143.000000
1035.151978 5876.000000
1037.025879 6579.000000
1038.898315 7034.000000
1040.769775 6698.000000
1042.639893 5543.000000
1044.509033 5517.000000
1046.376953 5819.000000
1048.243774 7257.000000
1050.109497 6664.000000
1051.973999 6395.000000
1053.837402 6478.000000
1055.699463 6431.000000
1057.560547 5883.000000
1059.420532 6500.000000
1061.279175 6607.000000
1063.136719 5808.000000
1064.993164 6746.000000
1066.848511 5915.000000
1068.702637 5816.000000
1070.555908 6270.000000
1072.407715 6264.000000
1074.258545 6136.000000
1076.108154 6106.000000
1077.956543 5732.000000
1079.804077 7928.000000
1081.650269 5645.000000
1083.495239 6224.000000
1085.339355 5349.000000
1087.182129 5400.000000
1089.023682 6516.000000
1090.864502 5447.000000
1092.703735 5776.000000
1094.542236 6018.000000
1096.379395 5992.000000
1098.215332 6752.000000
1100.050293 6579.000000
1101.884033 5372.000000
1103.716797 5440.000000
1105.548218 6196.000000
1107.378784 7212.000000
1109.208008 6491.000000
1111.036255 6353.000000
1112.863281 7116.000000
1114.689331 5396.000000
1116.514160 6332.000000
1118.337891 7131.000000
1120.160400 6075.000000
1121.981812 5941.000000
1123.802368 5864.000000
1125.621460 6504.000000
1127.439697 7071.000000
1129.256592 6815.000000
1131.072632 6674.000000
1132.887451 6496.000000
1134.701172 5704.000000
1136.513794 5790.000000
1138.325195 5703.000000
1140.135620 6153.000000
1141.944946 6741.000000
1143.752930 6936.000000
1145.560181 5953.000000
1147.365967 5890.000000
1149.170898 5395.000000
1150.974731 5358.000000
1152.777344 6165.000000
1154.579102 6059.000000
1156.379395 5976.000000
1158.178711 6082.000000
1159.977051 5860.000000
1161.774048 5463.000000
1163.570313 5938.000000
1165.365234 6100.000000
1167.159058 6273.000000
1168.952026 7721.000000
1170.743652 5639.000000
1172.534302 6545.000000
1174.323975 6025.000000
1176.112183 5830.000000
1177.899536 7478.000000
1179.685791 6778.000000
1181.470947 5779.000000
1183.255005 5942.000000
1185.037964 7616.000000
1186.819946 5901.000000
1188.600708 5905.000000
1190.380493 6226.000000
1192.159180 6980.000000
1193.936890 6685.000000
1195.713379 7187.000000
1197.488770 6550.000000
1199.263062 6493.000000
1201.036255 6644.000000
1202.808594 6615.000000
1204.579590 6754.000000
1206.349731 5728.000000
1208.118652 6138.000000
1209.886475 6313.000000
1211.653442 5758.000000
1213.419067 5888.000000
1215.183716 6977.000000
1216.947266 6520.000000
1218.709717 5986.000000
1220.471313 6664.000000
1222.231689 5957.000000
1223.990967 6331.000000
1225.749390 6032.000000
1227.506592 7112.000000
1229.262695 6408.000000
1231.017700 5550.000000
1232.771851 6034.000000
1234.524658 5821.000000
1236.276489 5977.000000
1238.027466 5964.000000
1239.777100 4953.000000
1241.525879 6972.000000
1243.273315 6474.000000
1245.020020 6570.000000
1246.765503 6440.000000
1248.510132 6395.000000
1250.253418 6769.000000
1251.995728 6685.000000
1253.736938 5369.000000
1255.477295 5008.000000
1257.216553 5730.000000
1258.954590 6547.000000
1260.691772 7043.000000
1262.427734 6127.000000
1264.162720 6384.000000
1265.896729 7257.000000
1267.629761 5911.000000
1269.361572 6231.000000
1271.092407 6418.000000
1272.822021 7260.000000
1274.550781 5914.000000
1276.278442 5659.000000
1278.005005 5510.000000
1279.730713 5548.000000
1281.455078 6424.000000
1283.178589 5180.000000
1284.901123 6903.000000
1286.622681 6577.000000
1288.343018 6121.000000
1290.062378 6684.000000
1291.780640 7249.000000
1293.497925 6399.000000
1295.214233 5758.000000
1296.929321 6387.000000
1298.643433 6096.000000
1300.356567 5759.000000
1302.068848 6503.000000
1303.779907 8364.000000
1305.489990 5611.000000
1307.198975 6308.000000
1308.906738 6714.000000
1310.613892 6979.000000
1312.319580 5796.000000
1314.024536 6867.000000
1315.728516 6140.000000
1317.431274 5997.000000
1319.133057 6503.000000
1320.833984 6041.000000
1322.533569 9666.000000
1324.232300 31176.000000
1325.930298 5614.000000
1327.626953 6462.000000
1329.322510 7138.000000
1331.017212 6880.000000
1332.710693 5701.000000
1334.403320 5420.000000
1336.095093 7128.000000
1337.785522 6260.000000
1339.475220 6620.000000
1341.163818 6043.000000
1342.851318 7528.000000
1344.537842 5652.000000
1346.223267 6736.000000
1347.907715 5892.000000
1349.591309 7303.000000
1351.273682 6373.000000
1352.955078 5984.000000
1354.635620 6532.000000
1356.314941 6709.000000
1357.993652 5751.000000
1359.671021 6450.000000
1361.347290 5749.000000
1363.022583 5581.000000
1364.697144 6543.000000
1366.370483 6406.000000
1368.042847 6744.000000
1369.714233 5146.000000
1371.384644 6771.000000
1373.053955 6203.000000
1374.722290 5728.000000
1376.389771 5952.000000
1378.056152 6292.000000
1379.721558 6035.000000
1381.385986 5891.000000
1383.049194 5964.000000
1384.711792 5708.000000
1386.373047 6396.000000
1388.033447 6555.000000
1389.692749 6447.000000
1391.351074 6472.000000
1393.008667 6893.000000
1394.665039 6468.000000
1396.320557 7019.000000
1397.974854 6351.000000
1399.628296 5840.000000
1401.280640 6102.000000
1402.932251 6421.000000
1404.582642 7150.000000
1406.231934 6254.000000
1407.880493 7520.000000
1409.527954 7877.000000
1411.174438 6159.000000
1412.820068 6188.000000
1414.464722 5961.000000
1416.108154 7004.000000
1417.750732 7163.000000
1419.392212 6850.000000
1421.032837 6408.000000
1422.672485 6435.000000
1424.311035 6021.000000
1425.948730 6583.000000
1427.585327 6244.000000
1429.220947 6057.000000
1430.855835 6363.000000
1432.489624 5811.000000
1434.122314 6083.000000
1435.754028 5676.000000
1437.384888 6131.000000
1439.014648 6015.000000
1440.643311 7727.000000
1442.271362 6034.000000
1443.898315 6081.000000
1445.524048 6182.000000
1447.149170 6091.000000
1448.773193 6466.000000
1450.396240 6028.000000
1452.018311 5999.000000
1453.639282 7369.000000
1455.259277 6326.000000
1456.878540 6896.000000
1458.496460 5641.000000
1460.113770 18887.000000
1461.730103 5615.000000
1463.345215 7189.000000
1464.959473 6213.000000
1466.572876 5231.000000
1468.185181 5594.000000
1469.796631 6179.000000
1471.407227 6427.000000
1473.016602 5926.000000
1474.625000 6007.000000
1476.232544 6208.000000
1477.839111 6714.000000
1479.444946 5307.000000
1481.049561 6320.000000
1482.653320 5483.000000
1484.255859 6641.000000
1485.857788 5513.000000
1487.458496 5511.000000
1489.058472 5664.000000
1490.657349 6170.000000
1492.255371 6499.000000
1493.852295 6674.000000
1495.448364 6355.000000
1497.043457 5984.000000
1498.637573 5448.000000
1500.230957 6511.000000
1501.823242 5540.000000
1503.414307 5938.000000
1505.004883 6745.000000
1506.594116 6420.000000
1508.182739 6147.000000
1509.770264 6465.000000
1511.356689 6896.000000
1512.942383 6194.000000
1514.526978 6633.000000
1516.110718 6227.000000
1517.693359 6263.000000
1519.275269 6533.000000
1520.856079 6652.000000
1522.436157 5995.000000
1524.015015 6227.000000
1525.593018 6394.000000
1527.170288 6255.000000
1528.746338 5680.000000
1530.321655 5919.000000
1531.895874 6335.000000
1533.469360 5473.000000
1535.041626 5879.000000
1536.613159 6340.000000
1538.183716 6358.000000
1539.753418 6331.000000
1541.321899 5403.000000
1542.889648 6563.000000
1544.456543 5601.000000
1546.022217 6764.000000
1547.587158 5947.000000
1549.151001 5059.000000
1550.714233 7411.000000
1552.276123 6254.000000
1553.837402 5933.000000
1555.397583 5735.000000
1556.957031 5750.000000
1558.515381 5875.000000
1560.072998 6276.000000
1561.629517 6998.000000
1563.184814 5907.000000
1564.739502 6313.000000
1566.293457 5606.000000
1567.846436 6144.000000
1569.398071 5637.000000
1570.948975 5870.000000
1572.499146 6182.000000
1574.048340 6249.000000
1575.596191 5805.000000
1577.143555 5563.000000
1578.689941 5705.000000
1580.235474 5081.000000
1581.780029 6655.000000
1583.323364 6323.000000
1584.866089 6538.000000
1586.407959 6475.000000
1587.948730 6715.000000
1589.488525 5778.000000
1591.027588 6678.000000
1592.565552 5905.000000
1594.103027 6150.000000
1595.639160 5891.000000
1597.174194 6641.000000
1598.708740 6221.000000
1600.242310 5942.000000
1601.775024 5837.000000
1603.306152 6299.000000
1604.837036 6403.000000
1606.367065 5770.000000
1607.895874 6113.000000
1609.423584 6134.000000
1610.950684 5943.000000
1612.477051 5843.000000
1614.002441 6200.000000
1615.526978 5859.000000
1617.050171 5761.000000
1618.572632 5614.000000
1620.094360 6599.000000
1621.615234 6889.000000
1623.134644 15591.000000
1624.653564 6087.000000
1626.171753 6105.000000
1627.689087 5946.000000
1629.205322 6338.000000
1630.720215 7011.000000
1632.234619 6667.000000
1633.748291 5778.000000
1635.260864 6841.000000
1636.772217 5985.000000
1638.283203 6383.000000
1639.793091 6255.000000
1641.302124 6189.000000
1642.809814 5615.000000
1644.317139 6102.000000
1645.823608 7171.000000
1647.329102 6190.000000
1648.833740 6814.000000
1650.336914 6163.000000
1651.839478 6533.000000
1653.341675 6286.000000
1654.842529 6577.000000
1656.342285 7572.000000
1657.841187 5910.000000
1659.339722 6499.000000
1660.837036 6288.000000
1662.333618 5958.000000
1663.828613 6509.000000
1665.323364 6317.000000
1666.817261 5259.000000
1668.310181 5613.000000
1669.801758 6027.500000
1671.292847 13468.000000
1672.783325 6103.000000
1674.272705 5975.000000
1675.760620 6910.000000
1677.248291 6899.000000
1678.734985 6061.000000
1680.220825 5378.000000
1681.705811 6062.000000
1683.189331 6209.000000
1684.672607 6151.000000
1686.155029 5835.000000
1687.636353 6185.000000
1689.116211 6141.000000
1690.595825 5506.000000
1692.074707 6639.000000
1693.552612 6395.000000
1695.029541 6151.000000
1696.505249 5719.000000
1697.980591 6053.000000
1699.454712 6266.000000
1700.928223 5453.000000
1702.400269 5531.000000
1703.872070 6822.000000
1705.342896 6407.000000
1706.812866 7061.000000
1708.281494 5115.000000
1709.749634 5779.000000
1711.217041 6333.000000
1712.683350 5454.000000
1714.149048 5739.000000
1715.613037 6207.000000
1717.076904 5955.000000
1718.539917 6882.000000
1720.001953 6333.000000
1721.462769 6623.000000
1722.922974 5462.000000
1724.382446 5727.000000
1725.841064 6137.000000
1727.298706 5983.000000
1728.755005 6271.000000
1730.211060 6084.000000
1731.666138 6431.000000
1733.120239 6003.000000
1734.573120 6918.000000
1736.025757 5990.000000
1737.477295 6877.000000
1738.928101 5954.000000
1740.377930 6559.000000
1741.826416 5897.000000
1743.274536 7384.000000
1744.721802 6543.000000
1746.168335 6673.000000
1747.613281 6686.000000
1749.057983 6170.000000
1750.501831 5757.000000
1751.944824 5422.000000
1753.386353 6542.000000
1754.827637 6300.000000
1756.268066 19288.000000
1757.707520 6250.000000
1759.145996 5265.000000
1760.583496 6064.000000
1762.020508 7572.000000
1763.456543 5849.000000
1764.891724 7032.000000
1766.325439 6215.000000
1767.759033 6445.000000
1769.191650 6624.000000
1770.623413 5850.000000
1772.054321 5756.000000
1773.484009 6310.000000
1774.912964 6143.000000
1776.341431 6292.000000
1777.768921 6692.000000
1779.195068 6228.000000
1780.620972 5596.000000
1782.045776 6818.000000
1783.469971 5617.000000
1784.892700 6661.000000
1786.314941 6588.000000
1787.736450 6864.000000
1789.157227 5924.000000
1790.577026 6107.000000
1791.995483 6119.000000
1793.413452 6821.000000
1794.830811 5477.000000
1796.247314 6080.000000
1797.662354 6570.000000
1799.077026 5847.000000
1800.491089 6623.000000
1801.903931 6046.000000
1803.316162 6941.000000
1804.727051 7140.000000
1806.137451 7775.000000
1807.547119 6490.000000
1808.955811 5889.000000
1810.363403 5403.000000
1811.770508 6421.000000
1813.176758 6358.000000
1814.582031 6692.000000
1815.986206 5930.000000
1817.390015 5939.000000
1818.792847 6222.000000
1820.194824 6060.000000
1821.596191 5824.000000
1822.996094 6381.000000
1824.395386 6319.000000
1825.794189 6576.000000
1827.192139 7433.000000
1828.588745 5717.000000
1829.984741 6742.000000
1831.380005 5878.000000
1832.774658 8048.000000
1834.168335 5946.000000
1835.560669 6794.000000
1836.952515 6421.000000
1838.343750 5896.000000
1839.734009 7069.000000
1841.123047 6081.000000
1842.511719 6113.000000
1843.899414 6019.000000
1845.286377 5849.000000
1846.671997 6911.000000
1848.057373 5826.000000
1849.441895 6362.000000
1850.825684 6302.000000
1852.208374 6358.000000
1853.589844 5383.000000
1854.970825 6461.000000
1856.351318 6297.000000
1857.730835 5709.000000
1859.108887 5981.000000
1860.486816 6238.000000
1861.863770 7903.000000
1863.239990 6155.000000
1864.615356 6039.000000
1865.989258 5626.000000
1867.363037 5772.000000
1868.735962 6202.000000
1870.107788 5975.000000
1871.478638 6942.000000
1872.849121 5417.000000
1874.218506 6033.000000
1875.587402 6112.000000
1876.954712 7099.000000
1878.321899 6029.000000
1879.688110 5982.000000
1881.053589 6799.000000
1882.418335 7452.000000
1883.781494 6771.000000
1885.144531 6906.000000
1886.506714 6357.000000
1887.868042 6427.000000
1889.228027 5624.000000
1890.587646 5855.000000
1891.946655 6121.000000
1893.304688 6658.000000
1894.661865 7290.000000
1896.017822 5909.000000
1897.373535 7638.000000
1898.728271 5806.000000
1900.082153 5576.000000
1901.434937 5929.000000
1902.787231 5923.000000
1904.138794 5920.000000
1905.489502 6880.000000
1906.838989 6493.000000
1908.187988 6682.000000
1909.536133 5819.000000
1910.883667 6125.000000
1912.230469 6348.000000
1913.575684 6786.000000
1914.920654 6085.000000
1916.264893 5475.000000
1917.608276 6502.000000
1918.950317 5904.000000
1920.292114 6633.000000
1921.633057 6978.000000
1922.973267 6179.000000
1924.312500 6205.000000
1925.650757 6264.000000
1926.988403 6442.000000
1928.325317 6996.000000
1929.661377 6758.000000
1930.996216 5575.000000
1932.330688 6733.000000
1933.664429 7213.000000
1934.997314 6237.000000
1936.328735 5749.000000
1937.660278 6294.000000
1938.990479 6530.000000
1940.320190 5871.000000
1941.649048 6083.000000
1942.976685 5834.000000
1944.303833 4969.000000
1945.630249 5816.000000
1946.955933 6495.000000
1948.280273 5763.000000
1949.604370 6648.000000
1950.927612 6306.000000
1952.250122 6440.000000
1953.571533 5782.000000
1954.891968 7423.000000
1956.211792 6052.000000
1957.531250 5500.000000
1958.849731 6836.000000
1960.166870 5965.000000
1961.483643 5799.000000
1962.799683 6605.000000
1964.114990 6601.000000
1965.428833 6217.000000
1966.742432 5659.000000
1968.055298 6219.000000
1969.367310 5971.000000
1970.678711 6034.000000
1971.988770 6334.000000
1973.298340 5795.000000
1974.607178 6170.000000
1975.915405 6659.000000
1977.222290 6169.000000
1978.528564 7201.000000
1979.834473 5539.000000
1981.139160 6397.000000
1982.443359 5906.000000
1983.746338 5682.000000
1985.048950 7522.000000
1986.350586 6163.000000
1987.651611 6722.000000
1988.951050 6057.000000
1990.250610 6584.000000
1991.549072 5289.000000
1992.847046 6083.000000
1994.143433 6136.000000
1995.439819 5799.000000
1996.735229 5617.000000
1998.029907 6522.000000
1999.323730 5743.000000
2000.616333 6501.000000
2001.908447 5670.000000
2003.200073 7190.000000
2004.490967 6444.000000
2005.780273 6114.000000
2007.069336 6795.000000
2008.357666 5896.000000
2009.645264 6036.000000
2010.932007 6641.000000
2012.217651 5648.000000
2013.502930 6326.000000
2014.787231 5960.000000
2016.070923 5613.000000
2017.353271 6019.000000
2018.635254 6484.000000
2019.916748 6748.000000
2021.197266 5929.000000
2022.477051 6103.000000
2023.755737 6722.000000
2025.033691 5873.000000
2026.311157 5848.000000
2027.588013 6262.000000
2028.863159 5747.000000
2030.138428 6545.000000
2031.412720 6078.000000
2032.686035 5897.000000
2033.958496 5912.000000
2035.230591 6147.000000
2036.501587 6954.000000
2037.772339 6577.000000
2039.041748 5983.000000
2040.310059 6749.000000
2041.578369 6578.000000
2042.845703 5929.000000
2044.112305 6006.000000
2045.377686 5687.000000
2046.642456 5530.000000
2047.906982 5400.000000
2049.170166 5875.000000
2050.433105 6413.000000
2051.694092 6095.000000
2052.955566 6121.000000
2054.215820 5833.000000
2055.475342 6410.000000
2056.734131 6239.000000
2057.991943 6858.000000
2059.249268 6119.000000
2060.505859 5987.000000
2061.760986 6512.000000
2063.016113 5610.000000
2064.270264 5605.000000
2065.523682 5683.000000
2066.776367 6898.000000
2068.027832 6268.000000
2069.279053 6265.000000
2070.529541 5590.000000
2071.779297 5430.000000
2073.027588 5979.000000
2074.275879 6528.000000
2075.523193 7543.000000
2076.769775 5604.000000
2078.015625 5993.000000
2079.260254 6940.000000
2080.504395 7568.000000
2081.748047 5539.000000
2082.990723 6044.000000
2084.232178 6962.000000
2085.473389 5921.000000
2086.714111 6373.000000
2087.953857 6790.000000
2089.192383 7068.000000
2090.430420 6209.000000
2091.667725 5802.000000
2092.904785 6667.000000
2094.140381 6060.000000
2095.375244 6200.000000
2096.609863 6055.000000
2097.843506 5597.000000
2099.076172 6071.000000
2100.308105 6801.000000
2101.539551 6376.000000
2102.770020 6766.000000
2103.999756 6034.000000
2105.229248 5999.000000
2106.456787 5970.000000
2107.684570 5993.000000
2108.911621 6289.000000
2110.137695 5501.000000
2111.362305 6406.000000
2112.587158 6985.000000
2113.810791 7050.000000
2115.033936 6203.000000
2116.255859 7491.000000
2117.477539 6000.000000
2118.698242 6794.000000
2119.918213 6028.000000
2121.137695 6098.000000
2122.355713 6587.000000
2123.573730 7040.000000
2124.790771 5741.000000
2126.007324 5808.000000
2127.222168 6500.000000
2128.437256 6263.000000
2129.651367 6728.000000
2130.864746 5682.000000
2132.077393 6132.000000
2133.288574 5829.000000
2134.500000 6495.000000
2135.710205 6852.000000
2136.919922 5948.000000
2138.128174 6193.000000
2139.336426 5698.000000
2140.543945 5918.000000
2141.750244 7712.000000
2142.955811 5872.000000
2144.161133 5683.000000
2145.365479 5600.000000
2146.569092 6320.000000
2147.772217 6220.000000
2148.973877 6513.000000
2150.175293 5323.000000
2151.375977 6269.000000
2152.575928 6049.000000
2153.774658 5960.000000
2154.973145 6947.000000
2156.171143 6166.000000
2157.368164 5975.000000
2158.564453 5199.000000
2159.759521 5241.000000
2160.954346 6130.000000
2162.148438 5600.000000
2163.341553 6031.000000
2164.533691 6882.000000
2165.725586 5955.000000
2166.916748 6312.000000
2168.106934 6260.000000
2169.296387 6502.000000
2170.485352 6825.000000
2171.673340 6043.000000
2172.861084 5753.000000
2174.047363 5917.000000
2175.232910 6588.000000
2176.418213 6010.000000
2177.603027 5818.000000
2178.786621 6362.000000
2179.969482 7526.000000
2181.151367 6308.000000
2182.333008 6096.000000
2183.514160 6509.000000
2184.694092 5716.000000
2185.873047 5593.000000
2187.051514 6349.000000
2188.229736 6796.000000
2189.406738 7163.000000
2190.582764 6668.000000
2191.758545 6091.000000
2192.933838 5659.000000
2194.107666 6673.000000
2195.281006 6199.000000
2196.454102 6124.000000
2197.625977 6378.000000
2198.797363 7026.000000
2199.968262 6298.000000
2201.137451 6926.000000
2202.306641 7556.000000
2203.475342 6288.000000
2204.643066 5865.000000
2205.809814 5613.000000
2206.975830 7093.000000
2208.141357 6700.000000
2209.306641 5980.000000
2210.470459 6686.000000
2211.633789 5391.000000
2212.795898 6202.000000
2213.958252 6117.000000
2215.119385 6685.000000
2216.279541 6584.000000
2217.439209 6318.000000
2218.598633 6517.000000
2219.756836 6403.000000
2220.914063 6326.000000
2222.071045 6749.000000
2223.227295 6625.000000
2224.382813 6718.000000
2225.537598 6234.000000
2226.691406 6372.000000
2227.844238 6031.000000
2228.997559 6883.000000
2230.148926 6153.000000
2231.300049 6196.000000
2232.450439 6484.000000
2233.600342 7627.000000
2234.749268 6330.000000
2235.897705 5202.000000
2237.044678 6780.000000
2238.191895 7021.000000
2239.337891 6095.000000
2240.483643 7260.000000
2241.627686 7340.000000
2242.771973 6745.000000
2243.915283 6158.000000
2245.057861 5947.000000
2246.199463 5756.000000
2247.340820 5844.000000
2248.481201 6415.000000
2249.620850 6425.000000
2250.760010 5858.000000
2251.897949 5913.000000
2253.035889 6184.000000
2254.172852 5287.000000
2255.309082 6338.000000
2256.444336 6112.000000
2257.578857 7207.000000
2258.713135 6304.000000
2259.846924 5375.000000
2260.979248 6144.000000
2262.111084 6784.000000
2263.242432 6274.000000
2264.372803 6457.000000
2265.502930 8071.000000
2266.631836 6628.000000
2267.760254 6049.000000
2268.888184 5548.000000
2270.015137 6123.000000
2271.141357 5967.000000
2272.266602 6713.000000
2273.391846 6487.000000
2274.516357 6436.000000
2275.639648 5954.000000
2276.762207 6303.000000
2277.884277 5990.000000
2279.005859 7387.000000
2280.126709 6353.000000
2281.246338 6389.000000
2282.365479 7123.000000
2283.484375 7592.000000
2284.602539 7250.000000
2285.719727 5867.000000
2286.835938 6467.000000
2287.951904 7034.000000
2289.067139 6892.000000
2290.181641 7336.000000
2291.294922 5751.000000
2292.408203 6382.000000
2293.520752 6028.000000
2294.632568 5336.000000
2295.743652 6776.000000
2296.853516 6395.000000
2297.962891 6196.000000
2299.072021 6676.000000
2300.180176 6385.000000
2301.287354 6732.000000
2302.394287 5915.000000
2303.500488 6244.000000
2304.606201 6628.000000
2305.710449 6546.000000
2306.814453 5476.000000
2307.917969 5766.000000
2309.020996 6528.000000
2310.122803 7360.000000
2311.223877 7329.000000
2312.324463 6561.000000
2313.424561 5540.000000
2314.523926 6345.000000
2315.621826 6572.000000
2316.720215 7007.000000
2317.817139 8174.000000
2318.913818 6864.000000
2320.010010 5754.000000
2321.104492 6845.000000
2322.198975 7519.000000
2323.292725 5841.000000
2324.386230 6105.000000
2325.478027 6392.000000
2326.569824 7098.000000
2327.660889 6103.000000
2328.751221 6279.000000
2329.840576 6906.000000
2330.929932 6028.000000
2332.018066 6328.000000
2333.105713 6875.000000
2334.193115 6543.000000
2335.278809 6673.000000
2336.364258 7764.000000
2337.449463 6236.000000
2338.533691 6675.000000
2339.616943 5862.000000
2340.699951 6467.000000
2341.781982 7069.000000
2342.863770 6009.000000
2343.944824 7443.000000
2345.024658 6724.000000
2346.104004 5750.000000
2347.182861 6762.000000
2348.261230 6514.000000
2349.338135 6302.000000
2350.414795 7024.000000
2351.491211 6040.000000
2352.566650 6429.000000
2353.641113 5913.000000
2354.715332 6280.000000
2355.788818 6773.000000
2356.861816 6172.000000
2357.933594 7023.000000
2359.005127 6306.000000
2360.075684 6908.000000
2361.145996 7427.000000
2362.215332 7576.000000
2363.283691 6859.000000
2364.351807 6752.000000
2365.419189 7096.000000
2366.486084 7142.000000
2367.552246 6088.000000
2368.617188 6842.000000
2369.682129 7000.000000
2370.746338 6324.000000
2371.809814 6901.000000
2372.872070 5697.000000
2373.934326 6349.000000
2374.995605 6304.000000
2376.056641 6036.000000
2377.116455 6246.000000
2378.175537 7855.000000
2379.234619 6454.000000
2380.292725 7544.000000
2381.350098 6852.000000
2382.406494 8024.000000
2383.462646 7711.000000
2384.518311 6308.000000
2385.573242 7041.000000
2386.626709 6712.000000
2387.680420 6560.000000
2388.733154 6318.000000
2389.785400 6792.000000
2390.836914 6155.000000
2391.887451 6601.000000
2392.937744 6461.000000
2393.987061 6192.000000
2395.036377 6184.000000
2396.084229 6878.000000
2397.131592 6983.000000
2398.178711 6410.000000
2399.224854 6668.000000
2400.270264 6161.000000
2401.314941 6689.000000
2402.359619 7691.000000
2403.402832 7396.000000
2404.446045 6605.000000
2405.487793 5778.000000
2406.529785 6719.000000
2407.571045 7086.000000
2408.611328 6125.000000
2409.650879 6411.000000
2410.689453 6333.000000
2411.728271 6079.000000
2412.765869 6572.000000
2413.803223 6866.000000
2414.839355 7322.000000
2415.875244 6251.000000
2416.910400 6258.000000
2417.945068 6648.000000
2418.978271 7185.000000
2420.011719 6477.000000
2421.044189 6675.000000
2422.076416 6876.000000
2423.107178 7029.000000
2424.137939 6334.000000
2425.168213 6851.000000
2426.197266 6887.000000
2427.226318 6640.000000
2428.253662 6959.000000
2429.281494 6664.000000
2430.308105 7262.000000
2431.334473 6934.000000
2432.359375 7744.000000
2433.384521 6579.000000
2434.408691 7120.000000
2435.432617 6656.000000
2436.455322 5893.000000
2437.477295 6356.000000
2438.499023 6663.000000
2439.520020 6648.000000
2440.540527 6065.000000
2441.559814 6511.000000
2442.579102 6509.000000
2443.597412 8398.000000
2444.615479 6249.000000
2445.632080 6431.000000
2446.648682 6538.000000
2447.664551 6042.000000
2448.680420 7073.000000
2449.694824 6887.000000
2450.708496 5578.000000
2451.721680 7233.000000
2452.734619 5948.000000
2453.746826 7190.000000
2454.758057 6642.000000
2455.769043 7657.000000
2456.779297 6299.000000
2457.789063 7665.000000
2458.797852 5993.000000
2459.805908 5932.000000
2460.813965 6266.000000
2461.820801 7455.000000
2462.827393 5403.000000
2463.832764 7386.000000
2464.837891 6868.000000
2465.842773 5873.000000
2466.846436 6490.000000
2467.849854 6410.000000
2468.852295 7600.000000
2469.854492 7332.000000
2470.856201 6866.000000
2471.856934 6545.000000
2472.856689 6789.000000
2473.856445 6708.000000
2474.855225 5669.000000
2475.853516 6608.000000
2476.850830 6994.000000
2477.847900 6154.000000
2478.844971 6825.000000
2479.840576 5831.000000
2480.836182 7064.000000
2481.830078 6681.000000
2482.823975 8085.000000
2483.817383 6842.000000
2484.810303 6630.000000
2485.802246 7508.000000
2486.793457 7214.000000
2487.784424 6746.000000
2488.774902 5913.000000
2489.764404 6573.000000
2490.753174 6484.000000
2491.741943 5704.000000
2492.729736 6804.000000
2493.716309 6519.000000
2494.702881 8075.000000
2495.688965 6753.000000
2496.674316 7165.000000
2497.658691 8305.000000
2498.642822 6078.000000
2499.626953 6887.000000
2500.609619 5758.000000
2501.591797 7019.000000
2502.573486 6838.000000
2503.554443 7252.000000
2504.534912 6559.000000
2505.515137 5761.000000
2506.493896 6318.000000
2507.472412 7545.000000
2508.450439 6804.000000
2509.427979 7083.000000
2510.404541 6106.000000
2511.380859 5981.000000
2512.356445 6402.000000
2513.331543 6260.000000
2514.306152 6475.000000
2515.279541 7529.000000
2516.252686 6739.000000
2517.225586 6848.000000
2518.197510 6105.000000
2519.168701 6907.000000
2520.139404 6946.000000
2521.109863 7739.000000
2522.079590 8021.000000
2523.048340 6003.000000
2524.016357 6159.000000
2524.984375 7800.000000
2525.951416 6339.000000
2526.918213 5498.000000
2527.883789 7263.000000
2528.849365 7007.000000
2529.814209 7704.000000
2530.778564 6318.000000
2531.741699 6365.000000
2532.705078 5951.000000
2533.667480 6006.000000
2534.629639 6648.000000
2535.590576 6349.000000
2536.550781 6123.000000
2537.511230 6163.000000
2538.470703 6749.000000
2539.429443 6813.000000
2540.387207 6703.000000
2541.345215 6202.000000
2542.302490 6799.000000
2543.258789 6083.000000
2544.214844 7079.000000
2545.169678 6215.000000
2546.124756 7785.000000
2547.079102 7023.000000
2548.032715 6963.000000
2548.985352 7286.000000
2549.937744 6759.000000
2550.889648 6966.000000
2551.840820 6418.000000
2552.791260 7647.000000
2553.741211 7333.000000
2554.690918 7367.000000
2555.639893 6649.000000
2556.588379 6201.000000
2557.535645 7106.000000
2558.482910 6286.000000
2559.429443 6559.000000
2560.375488 6722.000000
2561.320557 7438.000000
2562.265381 6717.000000
2563.209717 7128.000000
2564.153564 6862.000000
2565.096924 6636.000000
2566.038818 6560.000000
2566.980957 6538.000000
2567.922363 6136.000000
2568.863037 7096.000000
2569.802979 7244.000000
2570.742920 5708.000000
2571.681885 6208.000000
2572.620605 7525.000000
2573.558350 7184.000000
2574.495850 5497.000000
2575.432617 6988.000000
2576.368652 6676.000000
2577.304199 7547.000000
2578.239014 6292.000000
2579.173828 5950.000000
2580.107666 7089.000000
2581.041016 7109.000000
2581.973633 5843.000000
2582.906006 6957.000000
2583.837646 5392.000000
2584.768799 7106.000000
2585.699463 7031.000000
2586.628906 6939.000000
2587.558350 7219.000000
2588.487305 6476.000000
2589.416016 7536.000000
2590.343018 7350.000000
2591.270264 5903.000000
2592.197021 6779.000000
2593.123047 6293.000000
2594.048828 5652.000000
2594.973389 7616.000000
2595.897705 7631.000000
2596.821533 5383.000000
2597.744873 7258.000000
2598.667236 6304.000000
2599.589355 6904.000000
2600.510986 8338.000000
2601.431885 6455.000000
2602.352051 6001.000000
2603.271973 6332.000000
2604.191406 6433.000000
2605.110596 6497.000000
2606.028809 5802.000000
2606.945801 6010.000000
2607.863037 7380.000000
2608.780029 5846.000000
2609.696045 7506.000000
2610.610840 6600.000000
2611.526123 6565.000000
2612.440674 6609.000000
2613.354248 6557.000000
2614.267822 6133.000000
2615.180176 7601.000000
2616.092529 7051.000000
2617.003906 6746.000000
2617.915039 5702.000000
2618.825439 7195.000000
2619.735596 6622.000000
2620.645020 6199.000000
2621.553955 6640.000000
2622.461914 6297.000000
2623.370117 6866.000000
2624.277344 6644.000000
2625.184082 7059.000000
2626.090088 6037.000000
2626.995850 6618.000000
2627.900879 6501.000000
2628.805664 7828.000000
2629.709717 6491.000000
2630.612793 6418.000000
2631.515869 6405.000000
2632.417969 5642.000000
2633.320068 6757.000000
2634.221924 6947.000000
2635.122070 6712.000000
2636.022461 6455.000000
2636.922119 6385.000000
2637.821533 6042.000000
2638.719482 6963.000000
2639.617920 6752.000000
2640.515869 6407.000000
2641.413086 6135.000000
2642.309082 6161.000000
2643.205078 6891.000000
2644.100830 6108.000000
2644.995850 6491.000000
2645.890625 6626.000000
2646.783936 7143.000000
2647.677246 6291.000000
2648.570313 6728.000000
2649.463135 6430.000000
2650.354248 7481.000000
2651.245605 6375.000000
2652.136475 7590.000000
2653.026611 7268.000000
2653.916504 6585.000000
2654.805176 7295.000000
2655.694092 6614.000000
2656.582520 6605.000000
2657.469971 7404.000000
2658.356445 6438.000000
2659.243408 7087.000000
2660.129639 6861.000000
2661.015381 6822.000000
2661.899902 6564.000000
2662.784424 6385.000000
2663.668701 6190.000000
2664.552246 7058.000000
2665.435303 7697.000000
2666.317627 7337.000000
2667.199463 6222.000000
2668.080566 6612.000000
2668.961914 6077.000000
2669.841797 6602.000000
2670.721924 7407.000000
2671.601318 7204.000000
2672.480713 6200.000000
2673.359375 6111.000000
2674.236328 6445.000000
2675.114014 6747.000000
2675.990967 6373.000000
2676.867188 8161.000000
2677.742920 7190.000000
2678.617920 6307.000000
2679.493164 7750.000000
2680.367432 6983.000000
2681.241211 7343.000000
2682.114258 6928.000000
2682.987061 6198.000000
2683.859619 6040.000000
2684.731445 6962.000000
2685.602539 6519.000000
2686.473389 6929.000000
2687.343750 7080.000000
2688.213867 6697.000000
2689.082275 6296.000000
2689.951416 7331.000000
2690.819824 7123.000000
2691.687988 6633.000000
2692.555420 6823.000000
2693.421631 5864.000000
2694.288330 7178.000000
2695.154053 7431.000000
2696.019775 7178.000000
2696.884033 7946.000000
2697.749023 6605.000000
2698.612549 7276.000000
2699.476318 5863.000000
2700.338623 7393.000000
2701.201416 6797.000000
2702.063232 5951.000000
2702.924561 6861.000000
2703.785889 6686.000000
2704.645996 7450.000000
2705.506104 7306.000000
2706.365723 6567.000000
2707.225098 6866.000000
2708.082764 7144.000000
2708.940674 6832.000000
2709.799072 7344.000000
2710.656250 6703.000000
2711.512695 5972.000000
2712.368652 6820.000000
2713.224609 6093.000000
2714.079834 6924.000000
2714.934326 6107.000000
2715.788330 6864.000000
2716.642334 7280.000000
2717.495361 6250.000000
2718.348633 6481.000000
2719.200195 7714.000000
2720.052246 6829.000000
2720.904053 6289.000000
2721.754639 6492.000000
2722.605225 6431.000000
2723.455322 7145.000000
2724.304688 7038.000000
2725.154053 7106.000000
2726.002197 6696.000000
2726.849854 6523.000000
2727.697998 6938.000000
2728.544922 6833.000000
2729.392334 5552.000000
2730.238281 7425.000000
2731.083496 7070.000000
2731.929199 6468.000000
2732.773926 6982.000000
2733.618652 7405.000000
2734.462158 6926.000000
2735.305908 7869.000000
2736.148926 7137.000000
2736.991455 6073.000000
2737.833008 6282.000000
2738.675049 6860.000000
2739.516113 6911.000000
2740.356934 5835.000000
2741.197510 5950.000000
2742.036865 7721.000000
2742.876221 6824.000000
2743.715576 6898.000000
2744.553711 6811.000000
2745.391357 7817.000000
2746.229004 6383.000000
2747.066162 7076.000000
2747.903076 6177.000000
2748.739502 6046.000000
2749.574707 6658.000000
2750.410156 6262.000000
2751.245117 6336.000000
2752.079346 6279.000000
2752.913330 6933.000000
2753.746826 6809.000000
2754.580322 7969.000000
2755.412842 6736.000000
2756.244873 7359.000000
2757.076416 6831.000000
2757.907959 7186.000000
2758.738525 7250.000000
2759.569336 7220.000000
2760.398926 7250.000000
2761.228516 6690.000000
2762.057861 7229.000000
2762.886475 6856.000000
2763.714600 6821.000000
2764.542236 6816.000000
2765.369873 6652.000000
2766.197021 8011.000000
2767.023438 5824.000000
2767.849365 7443.000000
2768.674805 6893.000000
2769.500000 7885.000000
2770.325195 7110.000000
2771.149170 6756.000000
2771.973145 6594.000000
2772.797119 7666.000000
2773.619873 6430.000000
2774.442871 6896.000000
2775.264648 6944.000000
2776.086426 6933.000000
2776.908203 6516.000000
2777.729004 7968.000000
2778.549072 6512.000000
2779.369385 7041.000000
2780.189209 7295.000000
2781.009033 6417.000000
2781.826904 5948.000000
2782.645996 8053.000000
2783.463867 6534.000000
2784.281494 6750.000000
2785.098633 7138.000000
2785.915283 7257.000000
2786.731689 7278.000000
2787.547607 6285.000000
2788.363281 5969.000000
2789.177979 6412.000000
2789.993164 7003.000000
2790.807617 7248.000000
2791.621582 6571.000000
2792.435303 7510.000000
2793.247803 8805.000000
2794.060547 6970.000000
2794.872803 7461.000000
2795.684570 7226.000000
2796.495605 7324.000000
2797.307373 6610.000000
2798.117920 7173.000000
2798.928467 7079.000000
2799.737549 7392.000000
2800.547363 8193.000000
2801.356445 7845.000000
2802.165283 6615.000000
2802.973633 7191.000000
2803.781006 6196.000000
2804.588867 6466.000000
2805.395996 6762.000000
2806.202881 6854.000000
2807.008545 7119.000000
2807.814697 6652.000000
2808.620117 6524.000000
2809.425537 7316.000000
2810.230225 6212.000000
2811.033936 7739.000000
2811.838135 7444.000000
2812.641846 6385.000000
2813.445313 6093.000000
2814.247314 6337.000000
2815.050049 7331.000000
2815.852051 7788.000000
2816.653809 6186.000000
2817.455078 6542.000000
2818.255859 7230.000000
2819.056152 6526.000000
2819.856689 6589.000000
2820.656250 8008.000000
2821.455322 7180.000000
2822.254395 6445.000000
2823.053223 6956.000000
2823.851563 6391.000000
2824.648926 7060.000000
2825.446533 7113.000000
2826.243408 6678.000000
2827.040527 7356.000000
2827.836914 7974.000000
2828.632568 7041.000000
2829.428223 7411.000000
2830.223633 7749.000000
2831.018555 7469.000000
2831.812744 6628.000000
2832.606934 6823.000000
2833.400879 5723.000000
2834.194336 6874.000000
2834.987061 7119.000000
2835.779541 8132.000000
2836.572021 7711.000000
2837.364258 7494.000000
2838.156006 6465.000000
2838.946777 6806.000000
2839.737549 8900.000000
2840.528564 7494.000000
2841.318604 6289.000000
2842.108154 7694.000000
2842.897949 7157.000000
2843.686768 7281.000000
2844.475586 7801.000000
2845.264404 7739.000000
2846.052246 7472.000000
2846.839600 7214.000000
2847.627197 7534.000000
2848.414307 7450.000000
2849.200684 6646.000000
2849.987061 7444.000000
2850.773193 7276.000000
2851.558838 7513.000000
2852.343506 7140.000000
2853.128662 6916.000000
2853.913574 7424.000000
2854.697754 7108.000000
2855.481934 6887.000000
2856.264893 8240.000000
2857.048096 6889.000000
2857.831055 6813.000000
2858.613525 7813.000000
2859.395752 6266.000000
2860.177490 6608.000000
2860.958984 7571.000000
2861.740723 7419.000000
2862.521729 7630.000000
2863.302002 6617.000000
2864.082031 6713.000000
2864.862061 8150.000000
2865.641846 7386.000000
2866.420654 8204.000000
2867.199707 7635.000000
2867.978271 6767.000000
2868.756592 6997.000000
2869.534424 7220.000000
2870.312012 6936.000000
2871.089355 7547.000000
2871.866455 6915.000000
2872.643066 6495.000000
2873.419189 7524.000000
2874.195313 7176.000000
2874.970947 8243.000000
2875.746338 7287.000000
2876.521240 6658.000000
2877.295898 8009.000000
2878.070557 6629.000000
2878.844971 7775.000000
2879.618652 6754.000000
2880.391602 7205.000000
2881.165283 6751.000000
2881.937988 7547.000000
2882.710693 7835.000000
2883.482666 8141.000000
2884.254395 6262.000000
2885.026611 6810.000000
2885.797607 6926.000000
2886.568115 6142.000000
2887.339111 8262.000000
2888.110107 7388.000000
2888.880371 7949.000000
2889.649658 7637.000000
2890.419189 6996.000000
2891.188721 7237.000000
2891.957764 7425.000000
2892.726318 7827.000000
2893.494873 7922.000000
2894.262451 6993.000000
2895.030518 6647.000000
2895.798096 7411.000000
2896.565674 8399.000000
2897.332031 7385.000000
2898.099365 6491.000000
2898.865479 7214.000000
2899.631836 7003.000000
2900.396729 8335.000000
2901.162109 7010.000000
2901.927979 6535.000000
2902.692383 7685.000000
2903.456787 7763.000000
2904.221436 8418.000000
2904.985107 6616.000000
2905.749512 8450.000000
2906.513184 6755.000000
2907.276123 8447.000000
2908.038818 6516.000000
2908.802002 8917.000000
2909.564697 7016.000000
2910.326172 6802.000000
2911.088135 6802.000000
