scanname Analyse048
timestamp 2017-02-10 21:03:34
ccdbias 898.356445
ccdgain 3.473401
sigmaread 8.960639
laserwavenum -0.571029
wavenumcorrection -0.048065
scancount 1
totalexposurems 10000
singleexposurems 10000
measurementstate Unknown
scanmode Manual
snr 305.511078 10.292090 8.714503
replacelist 4
672 52955.000000 30758.000000
754 52343.000000 19335.000000
858 50181.000000 15572.000000
889 47197.000000 21390.000000
peaks 79
278.276215 0.721674 0.000000 1.446929 0.000186
284.615479 0.721340 0.000000 0.846653 0.000063
293.771149 0.723357 0.000000 0.610297 0.000028
303.073730 0.724753 0.000000 0.236800 0.000025
329.979889 0.742102 0.000000 0.921351 0.000150
342.436157 0.745481 0.000000 0.772116 0.000035
350.341278 0.748970 0.000000 0.613438 0.000023
360.590485 0.752680 0.000000 0.733897 0.000063
386.224274 0.752361 0.000000 1.430741 0.000308
417.769226 0.731657 0.000000 0.870569 0.000240
458.484955 0.766269 0.000000 0.240796 0.000040
487.340759 0.781788 0.000000 0.850432 0.000110
535.136780 0.783564 0.000000 0.458414 0.000127
559.474304 0.824308 0.000000 1.387545 0.000239
573.368042 0.829950 0.000000 0.242181 0.000070
583.492310 0.825302 0.000000 0.790104 0.000117
660.595825 0.857266 0.000000 1.251475 0.000120
673.427002 0.855126 0.000000 1.452075 0.000278
680.252197 0.854783 0.000000 0.376195 0.000044
715.766235 0.875867 0.000000 5.588649 0.001176
724.485596 0.857504 0.000000 1.289323 0.000055
742.683167 0.882536 0.000000 1.129110 0.000122
757.169373 0.907459 0.000000 6.041086 0.000694
779.194397 0.908778 0.000000 8.391306 0.001313
802.031982 0.871280 0.000000 2.828104 0.000256
831.660095 0.908223 0.000000 0.564018 0.000188
843.622437 0.915018 0.000000 1.107825 0.000055
853.454346 0.940302 0.000000 1.064855 0.000280
868.463623 0.935960 0.000000 0.706368 0.000149
937.735718 1.013428 0.000000 0.773085 0.000421
954.371765 0.992076 0.000000 3.678838 0.001112
1013.747375 1.034922 0.000000 1.744588 0.000709
1020.096802 1.037438 0.000000 1.029071 0.000157
1027.181152 1.048017 0.000000 0.461573 0.000228
1044.210815 1.045871 0.000000 4.192907 0.001374
1104.453003 1.066215 0.000000 2.271012 0.000629
1119.190796 1.103664 0.000000 0.936307 0.000363
1134.657104 1.083957 0.000000 2.115300 0.000915
1150.209473 1.066390 0.000000 2.369444 0.000975
1174.331421 1.098945 0.000000 1.617478 0.000532
1186.628052 1.102579 0.000000 0.893715 0.000073
1210.777588 1.177613 0.000000 0.980609 0.000283
1222.541870 1.189880 0.000000 1.559988 0.000581
1232.319824 1.171511 0.000000 1.239709 0.000338
1259.972656 1.209286 0.000000 2.853877 0.001360
1282.527710 1.148889 0.000000 0.728548 0.000248
1312.645630 1.215286 0.000000 1.848992 0.000716
1330.466187 1.273724 0.000000 2.545998 0.001400
1347.864746 1.283201 0.000000 0.797464 0.000738
1389.407104 1.261774 0.000000 0.722790 0.000291
1414.515015 1.336095 0.000000 2.773505 0.001687
1429.044189 1.357070 0.000000 1.230440 0.000172
1434.241943 1.388733 0.000000 1.532807 0.000785
1447.080444 1.382213 0.000000 1.443020 0.000526
1459.852295 1.379596 0.000000 2.232145 0.001533
1489.873901 1.444319 0.000000 4.038962 0.002509
1516.837280 1.381289 0.000000 0.095852 0.000123
1532.901733 1.459122 0.000000 0.915925 0.001026
1558.245605 1.496246 0.000000 1.503921 0.000931
1578.140991 1.488576 0.000000 1.697358 0.001532
1616.168335 1.478493 0.000000 1.920994 0.001719
1626.499756 1.465936 0.000000 1.896714 0.001731
1643.743286 1.472889 0.000000 0.511560 0.000137
1668.587158 1.523749 0.000000 3.048688 0.002653
1687.949707 1.473526 0.000000 0.461334 0.000261
1700.511230 1.475999 0.000000 1.111357 0.001438
1711.544922 1.455731 0.000000 1.137657 0.000935
1749.383301 1.459892 0.000000 7.681412 0.004477
1765.778198 1.410946 0.000000 4.261662 0.001393
1778.757690 1.408406 0.000000 2.609285 0.002703
1797.997925 1.387491 0.000000 0.620236 0.000766
1811.178711 1.381489 0.000000 1.027159 0.001011
1841.009766 1.333008 0.000000 0.340827 0.000113
1855.365234 1.329326 0.000000 2.028451 0.001662
1870.917236 1.314865 0.000000 0.751989 0.000606
1889.351685 1.304335 0.000000 1.265027 0.001286
1902.587524 1.301735 0.000000 1.752518 0.001625
1913.146484 1.278936 0.000000 0.208780 0.000136
2027.286621 1.182127 0.000000 0.090256 0.000255
finalresult GLS_NoMatch 0
spectrum 2048
-97.030426 46752.000000
-94.403557 46752.000000
-91.778564 46946.000000
-89.155464 46760.000000
-86.534233 47482.000000
-83.914902 47056.000000
-81.297432 47260.000000
-78.681839 46988.000000
-76.068123 47152.000000
-73.456284 47524.000000
-70.846306 47316.000000
-68.238213 47529.000000
-65.631966 47540.000000
-63.027596 47504.000000
-60.425087 47325.000000
-57.824432 47877.000000
-55.225639 47282.000000
-52.628704 46569.000000
-50.033623 46972.000000
-47.440395 46998.000000
-44.849018 47254.000000
-42.259487 46792.000000
-39.671799 47607.000000
-37.085960 47436.000000
-34.501965 47007.000000
-31.919806 47737.000000
-29.339493 47180.000000
-26.761007 47769.000000
-24.184364 47341.000000
-21.609547 47218.000000
-19.036570 46997.000000
-16.465412 46999.000000
-13.896090 46742.000000
-11.328591 45627.000000
-8.762912 47221.000000
-6.199058 46998.000000
-3.637017 47482.000000
-1.076801 47601.000000
1.481607 47294.000000
4.038194 46515.000000
6.592976 46840.000000
9.145941 47548.000000
11.697105 46682.000000
14.246457 46948.000000
16.794014 46718.000000
19.339758 47424.000000
21.883709 47700.000000
24.425856 46847.000000
26.966206 46708.000000
29.504770 46591.000000
32.041538 47280.000000
34.576504 47688.000000
37.109692 46222.000000
39.641098 47167.000000
42.170712 46358.000000
44.698528 47007.000000
47.224586 45728.000000
49.748856 47784.000000
52.271355 47270.000000
54.792057 46753.000000
57.311005 47234.000000
59.828178 47128.000000
62.343575 46852.000000
64.857193 47916.000000
67.369057 47869.000000
69.879173 47092.000000
72.387497 47060.000000
74.894066 47643.000000
77.398888 47180.000000
79.901955 47066.000000
82.403244 47281.000000
84.902794 47356.000000
87.400589 47181.000000
89.896652 47773.000000
92.390938 46309.000000
94.883484 47775.000000
97.374313 46611.000000
99.863373 46375.000000
102.350685 47190.000000
104.836273 47293.000000
107.320122 47110.000000
109.802223 47786.000000
112.282600 46987.000000
114.761253 47292.000000
117.238182 47081.000000
119.713356 46345.000000
122.186821 46784.000000
124.658554 47729.000000
127.128578 46997.000000
129.596848 47347.000000
132.063446 47329.000000
134.528290 47879.000000
136.991440 47402.000000
139.452850 46379.000000
141.912567 46589.000000
144.370560 47165.000000
146.826859 47573.000000
149.281448 47784.000000
151.734314 46770.000000
154.185501 47206.000000
156.634995 46987.000000
159.082764 47499.000000
161.528824 46971.000000
163.973206 44851.000000
166.415909 47160.000000
168.856918 46807.000000
171.296219 47351.000000
173.733810 46377.000000
176.169769 46935.000000
178.603989 46664.000000
181.036530 46430.000000
183.467422 46929.000000
185.896591 46483.000000
188.324112 46949.000000
190.749954 47264.000000
193.174118 46940.000000
195.596619 46350.000000
198.017426 46250.000000
200.436569 47165.000000
202.854050 47599.000000
205.269836 45955.000000
207.683975 46496.000000
210.096481 47163.000000
212.507309 47435.000000
214.916458 47262.000000
217.323975 46186.000000
219.729782 47384.000000
222.134003 47043.000000
224.536514 46871.000000
226.937408 46636.000000
229.336655 47092.000000
231.734238 46720.000000
234.130157 46283.000000
236.524460 46999.000000
238.917099 47680.000000
241.308121 46671.000000
243.697479 47064.000000
246.085220 47157.000000
248.471313 46578.000000
250.855774 47400.000000
253.238586 45651.000000
255.619827 46924.000000
257.999359 46870.000000
260.377319 47056.000000
262.753601 45999.000000
265.128326 45957.000000
267.501404 45692.000000
269.872833 47376.000000
272.242615 47136.000000
274.610840 47662.000000
276.977417 47230.000000
279.342407 46784.000000
281.705780 47509.000000
284.067505 47235.000000
286.427643 46416.000000
288.786163 47461.000000
291.143097 47039.000000
293.498413 47103.000000
295.852142 47526.000000
298.204224 47581.000000
300.554749 47230.000000
302.903687 47150.000000
305.250977 46802.000000
307.596741 47112.000000
309.940826 47022.000000
312.283386 46123.000000
314.624329 45988.000000
316.963654 46304.000000
319.301422 46593.000000
321.637634 45421.000000
323.972198 47335.000000
326.305206 47027.000000
328.636658 47513.000000
330.966522 46909.000000
333.294800 47105.000000
335.621460 46277.000000
337.946625 47203.000000
340.270172 47334.000000
342.592163 47542.000000
344.912598 46039.000000
347.231415 45873.000000
349.548676 47457.000000
351.864410 47696.000000
354.178558 46615.000000
356.491119 47250.000000
358.802124 47202.000000
361.111603 46479.000000
363.419556 47252.000000
365.725891 47850.000000
368.030640 47127.000000
370.333923 47087.000000
372.635590 47246.000000
374.935760 47153.000000
377.234375 47312.000000
379.531433 47829.000000
381.826935 47410.000000
384.120911 47697.000000
386.413300 48298.000000
388.704193 47943.000000
390.993561 47342.000000
393.281342 47257.000000
395.567596 47034.000000
397.852356 46596.000000
400.135498 47567.000000
402.417206 47111.000000
404.697388 47325.000000
406.975983 46216.000000
409.253052 47115.000000
411.528595 46834.000000
413.802612 47150.000000
416.075195 47119.000000
418.346161 47321.000000
420.615631 47006.000000
422.883606 46445.000000
425.150024 46284.000000
427.414948 47233.000000
429.678406 47245.000000
431.940277 47087.000000
434.200684 47555.000000
436.459534 46904.000000
438.716919 47381.000000
440.972809 47866.000000
443.227203 47754.000000
445.480072 48138.000000
447.731384 46568.000000
449.981293 47425.000000
452.229614 47264.000000
454.476501 47908.000000
456.721924 47016.000000
458.965790 47001.000000
461.208160 46711.000000
463.449036 47928.000000
465.688507 46896.000000
467.926392 48005.000000
470.162842 47682.000000
472.397766 47429.000000
474.631226 46176.000000
476.863251 46840.000000
479.093750 47870.000000
481.322754 47032.000000
483.550293 47249.000000
485.776337 47545.000000
488.000946 47005.000000
490.224091 47604.000000
492.445770 47109.000000
494.665894 46810.000000
496.884613 47850.000000
499.101837 47185.000000
501.317688 47956.000000
503.531921 47394.000000
505.744843 47112.000000
507.956177 47084.000000
510.166077 46646.000000
512.374512 47036.000000
514.581604 46993.000000
516.787109 47075.000000
518.991211 46952.000000
521.193787 47399.000000
523.394958 46940.000000
525.594788 46842.000000
527.793091 46586.000000
529.989868 48172.000000
532.185303 47594.000000
534.379211 47888.000000
536.571777 45964.000000
538.762817 46805.000000
540.952454 47499.000000
543.140686 46645.000000
545.327393 46339.000000
547.512634 46652.000000
549.696594 47293.000000
551.878967 47059.000000
554.059998 47363.000000
556.239502 47471.000000
558.417725 47601.000000
560.594421 47523.000000
562.769714 47075.000000
564.943604 47049.000000
567.116028 47585.000000
569.287048 47490.000000
571.456604 47134.000000
573.624878 48227.000000
575.791626 47049.000000
577.956909 47142.000000
580.120789 47367.000000
582.283386 47787.000000
584.444458 47506.000000
586.604126 47959.000000
588.762451 47697.000000
590.919250 47450.000000
593.074707 46894.000000
595.228760 47840.000000
597.381470 47295.000000
599.532654 46225.000000
601.682495 46728.000000
603.830994 46772.000000
605.977905 47492.000000
608.123596 47027.000000
610.267883 47073.000000
612.410706 46527.000000
614.552063 47388.000000
616.692200 47112.000000
618.830811 45862.000000
620.968140 47849.000000
623.104004 46930.000000
625.238464 46640.000000
627.371460 46268.000000
629.503296 46789.000000
631.633667 46918.000000
633.762634 46729.000000
635.890137 47084.000000
638.016357 47284.000000
640.141052 46258.000000
642.264526 47099.000000
644.386658 46730.000000
646.507324 46620.000000
648.626648 46945.000000
650.744568 47819.000000
652.861145 47869.000000
654.976318 47009.000000
657.090149 47041.000000
659.202515 47659.000000
661.313660 47370.000000
663.423401 48082.000000
665.531677 47434.000000
667.638794 47158.000000
669.744446 46718.000000
671.848633 47600.000000
673.951599 47795.000000
676.053162 46528.000000
678.153381 48196.000000
680.252197 46769.000000
682.349670 47211.000000
684.445862 46506.000000
686.540588 47324.000000
688.634094 46469.000000
690.726257 46850.000000
692.816895 45482.000000
694.906311 46948.000000
696.994446 46980.000000
699.081116 47458.000000
701.166565 46823.000000
703.250488 48323.000000
705.333191 47579.000000
707.414612 47524.000000
709.494568 45956.000000
711.573303 47166.000000
713.650574 47954.000000
715.726563 46994.000000
717.801270 47424.000000
719.874695 46412.000000
721.946594 47236.000000
724.017334 46076.000000
726.086731 47641.000000
728.154724 47000.000000
730.221375 47112.000000
732.286804 46472.000000
734.350891 47653.000000
736.413635 47330.000000
738.475037 47004.000000
740.535156 46948.000000
742.593872 47468.000000
744.651367 46818.000000
746.707581 46992.000000
748.762390 46780.000000
750.815918 47100.000000
752.868042 46025.000000
754.918945 47713.000000
756.968628 46819.000000
759.016846 47143.000000
761.063843 47267.000000
763.109558 46491.000000
765.153870 48175.000000
767.196899 47709.000000
769.238708 38463.000000
771.279175 46541.000000
773.318237 47129.000000
775.356140 47369.000000
777.392700 47446.000000
779.428040 48027.000000
781.462036 47729.000000
783.494629 46530.000000
785.526062 47934.000000
787.556091 41263.000000
789.584839 47454.000000
791.612427 47214.000000
793.638672 47189.000000
795.663513 47744.000000
797.687256 48026.000000
799.709595 47079.000000
801.730713 47644.000000
803.750488 46813.000000
805.768982 48548.000000
807.786255 46745.000000
809.802124 46694.000000
811.816833 47757.000000
813.830200 47014.000000
815.842346 47221.000000
817.853271 47286.000000
819.862854 46901.000000
821.871216 48162.000000
823.878174 47737.000000
825.883911 47434.000000
827.888428 47736.000000
829.891663 47854.000000
831.893616 46933.000000
833.894287 47294.000000
835.893738 47488.000000
837.891846 47112.000000
839.888855 46552.000000
841.884460 47270.000000
843.878906 47427.000000
845.872009 47288.000000
847.863892 46644.000000
849.854431 47856.000000
851.843689 46660.000000
853.831909 47471.000000
855.818726 47712.000000
857.804321 47029.000000
859.788635 46293.000000
861.771851 47187.000000
863.753662 47075.000000
865.734253 47656.000000
867.713562 45723.000000
869.691711 46386.000000
871.668518 47222.000000
873.644043 47434.000000
875.618530 47288.000000
877.591553 47450.000000
879.563538 48060.000000
881.534180 47127.000000
883.503662 47256.000000
885.471802 47868.000000
887.438782 48249.000000
889.404419 47360.000000
891.368896 47618.000000
893.332153 47460.000000
895.294189 46992.000000
897.254944 47522.000000
899.214478 47048.000000
901.172729 46772.000000
903.129883 47103.000000
905.085876 47432.000000
907.040466 46459.000000
908.993835 46932.000000
910.946045 47027.000000
912.897034 47038.000000
914.846741 46332.000000
916.795288 47058.000000
918.742615 47092.000000
920.688660 47310.000000
922.633423 47372.000000
924.577148 47156.000000
926.519714 47476.000000
928.460999 47908.000000
930.400940 46943.000000
932.339783 47752.000000
934.277344 47924.000000
936.213684 47484.000000
938.148865 47640.000000
940.082764 47458.000000
942.015564 47576.000000
943.947144 46660.000000
945.877563 48288.000000
947.806763 47004.000000
949.734619 46364.000000
951.661438 46795.000000
953.586975 47512.000000
955.511230 48093.000000
957.434387 47509.000000
959.356384 46749.000000
961.277100 46153.000000
963.196655 46947.000000
965.115051 48121.000000
967.032410 47027.000000
968.948303 47033.000000
970.863098 47303.000000
972.776672 47479.000000
974.689087 47031.000000
976.600281 46989.000000
978.510315 47930.000000
980.419067 47233.000000
982.326782 47311.000000
984.233276 47026.000000
986.138550 47755.000000
988.042725 46543.000000
989.945679 47254.000000
991.847412 46579.000000
993.747986 46887.000000
995.647400 46862.000000
997.545593 48177.000000
999.442627 46864.000000
1001.338440 46970.000000
1003.233093 45738.000000
1005.126648 47825.000000
1007.018921 46315.000000
1008.910278 47353.000000
1010.800293 48044.000000
1012.689087 46740.000000
1014.576721 47026.000000
1016.463196 46539.000000
1018.348511 46733.000000
1020.232666 47405.000000
1022.115601 47528.000000
1023.997498 47148.000000
1025.878174 48201.000000
1027.757690 47473.000000
1029.636230 47327.000000
1031.513428 48023.000000
1033.389282 47212.000000
1035.264160 47470.000000
1037.138062 46841.000000
1039.010498 46385.000000
1040.881958 46723.000000
1042.752075 47929.000000
1044.621216 47928.000000
1046.489136 47591.000000
1048.355957 46367.000000
1050.221680 46690.000000
1052.086182 46930.000000
1053.949585 46968.000000
1055.811646 46885.000000
1057.672729 47502.000000
1059.532715 46904.000000
1061.391357 46707.000000
1063.248901 47563.000000
1065.105347 46739.000000
1066.960693 47448.000000
1068.814819 47587.000000
1070.668091 47103.000000
1072.519897 47083.000000
1074.370728 47246.000000
1076.220337 47228.000000
1078.068726 47594.000000
1079.916260 45446.000000
1081.762451 47738.000000
1083.607422 47141.000000
1085.451538 47969.000000
1087.294312 47807.000000
1089.135864 46868.000000
1090.976685 47925.000000
1092.815918 47646.000000
1094.654419 47319.000000
1096.491577 47229.000000
1098.327515 46552.000000
1100.162476 46771.000000
1101.996216 47928.000000
1103.828979 47682.000000
1105.660400 47141.000000
1107.490967 46039.000000
1109.320190 46821.000000
1111.148438 46836.000000
1112.975464 46189.000000
1114.801514 47858.000000
1116.626343 46993.000000
1118.450073 46130.000000
1120.272583 47324.000000
1122.093994 47489.000000
1123.914551 47448.000000
1125.733643 46734.000000
1127.551880 46253.000000
1129.368774 46515.000000
1131.184814 46657.000000
1132.999634 46796.000000
1134.813354 47719.000000
1136.625977 47530.000000
1138.437378 47694.000000
1140.247803 47194.000000
1142.057129 46557.000000
1143.865112 46410.000000
1145.672363 47359.000000
1147.478149 47433.000000
1149.283081 47920.000000
1151.086914 47878.000000
1152.889526 47128.000000
1154.691284 47199.000000
1156.491577 47098.000000
1158.290894 47115.000000
1160.089233 47373.000000
1161.886230 47821.000000
1163.682495 47361.000000
1165.477417 47185.000000
1167.271240 46930.000000
1169.064209 45547.000000
1170.855835 47657.000000
1172.646484 46833.000000
1174.436157 47258.000000
1176.224365 47352.000000
1178.011719 45795.000000
1179.797974 46367.000000
1181.583130 47434.000000
1183.367188 47225.000000
1185.150146 45519.000000
1186.932129 47345.000000
1188.712891 47257.000000
1190.492676 46812.000000
1192.271362 46258.000000
1194.049072 46503.000000
1195.825562 46010.000000
1197.600952 46574.000000
1199.375244 46640.000000
1201.148438 46524.000000
1202.920776 46673.000000
1204.691772 46489.000000
1206.461914 47547.000000
1208.230835 47072.000000
1209.998657 46832.000000
1211.765625 47447.000000
1213.531250 47223.000000
1215.295898 46197.000000
1217.059448 46588.000000
1218.821899 47275.000000
1220.583496 46521.000000
1222.343872 47181.000000
1224.103149 46866.000000
1225.861572 47149.000000
1227.618774 46026.000000
1229.374878 46743.000000
1231.129883 47630.000000
1232.884033 47161.000000
1234.636841 47323.000000
1236.388672 47176.000000
1238.139648 47130.000000
1239.889282 48225.000000
1241.638062 46158.000000
1243.385498 46594.000000
1245.132202 46523.000000
1246.877686 46631.000000
1248.622314 46691.000000
1250.365601 46416.000000
1252.107910 46443.000000
1253.849121 47787.000000
1255.589478 48123.000000
1257.328735 47386.000000
1259.066772 46540.000000
1260.803955 46001.000000
1262.539917 47003.000000
1264.274902 46763.000000
1266.008911 45872.000000
1267.741943 47191.000000
1269.473755 46910.000000
1271.204590 46718.000000
1272.934204 45882.000000
1274.662964 47248.000000
1276.390625 47497.000000
1278.117188 47551.000000
1279.842896 47532.000000
1281.567261 46675.000000
1283.290771 47888.000000
1285.013306 46294.000000
1286.734863 46489.000000
1288.455200 47057.000000
1290.174561 46359.000000
1291.892822 45804.000000
1293.610107 46657.000000
1295.326416 47378.000000
1297.041504 46697.000000
1298.755615 46902.000000
1300.468750 47344.000000
1302.181030 46563.000000
1303.892090 44703.000000
1305.602173 47739.000000
1307.311157 46764.000000
1309.018921 46319.000000
1310.726074 46022.000000
1312.431763 47250.000000
1314.136719 46231.000000
1315.840698 46824.000000
1317.543457 47010.000000
1319.245239 46436.000000
1320.946167 47007.000000
1322.645752 44018.000000
1324.344482 45701.500000
1326.042480 47385.000000
1327.739136 46428.000000
1329.434692 45778.000000
1331.129395 46044.000000
1332.822876 47133.000000
1334.515503 47494.000000
1336.207275 45509.000000
1337.897705 46629.000000
1339.587402 46283.000000
1341.276001 46747.000000
1342.963501 45277.000000
1344.650024 47206.000000
1346.335449 46146.000000
1348.019897 46998.000000
1349.703491 45594.000000
1351.385864 46431.000000
1353.067261 46956.000000
1354.747803 46352.000000
1356.427124 46192.000000
1358.105835 47012.000000
1359.783203 46298.000000
1361.459473 47100.000000
1363.134766 47237.000000
1364.809326 46264.000000
1366.482666 46375.000000
1368.155029 46080.000000
1369.826416 47656.000000
1371.496826 46083.000000
1373.166138 46648.000000
1374.834473 47055.000000
1376.501953 46825.000000
1378.168335 46325.000000
1379.833740 46590.000000
1381.498169 46944.000000
1383.161377 46830.000000
1384.823975 47007.000000
1386.485229 46342.000000
1388.145630 46124.000000
1389.804932 46293.000000
1391.463257 46180.000000
1393.120850 45845.000000
1394.777222 46183.000000
1396.432739 45632.000000
1398.087036 46273.000000
1399.740479 46841.000000
1401.392822 46506.000000
1403.044434 46111.000000
1404.694824 45468.000000
1406.344116 46298.000000
1407.992676 45054.000000
1409.640137 44664.000000
1411.286621 46318.000000
1412.932251 46235.000000
1414.576904 46368.000000
1416.220337 45387.000000
1417.862915 45296.000000
1419.504395 45517.000000
1421.145020 45949.000000
1422.784668 45936.000000
1424.423218 46271.000000
1426.060913 45780.000000
1427.697510 46030.000000
1429.333130 46305.000000
1430.968018 46063.000000
1432.601807 46446.000000
1434.234497 46152.000000
1435.866211 46708.000000
1437.497070 46258.000000
1439.126831 46353.000000
1440.755493 44597.000000
1442.383545 46300.000000
1444.010498 46156.000000
1445.636230 46141.000000
1447.261353 46142.000000
1448.885376 45874.000000
1450.508423 46329.000000
1452.130493 46344.000000
1453.751465 45109.000000
1455.371460 46069.000000
1456.990723 45447.000000
1458.608643 46667.000000
1460.225952 46706.500000
1461.842285 46746.000000
1463.457397 45011.000000
1465.071655 45891.000000
1466.685059 47082.000000
1468.297363 46573.000000
1469.908813 45924.000000
1471.519409 45823.000000
1473.128784 46169.000000
1474.737183 46208.000000
1476.344727 45939.000000
1477.951294 45365.000000
1479.557129 46727.000000
1481.161743 45762.000000
1482.765503 46607.000000
1484.368042 45269.000000
1485.969971 46407.000000
1487.570679 46447.000000
1489.170654 46271.000000
1490.769531 45730.000000
1492.367554 45459.000000
1493.964478 45278.000000
1495.560547 45683.000000
1497.155640 45986.000000
1498.749756 46497.000000
1500.343140 45419.000000
1501.935425 46416.000000
1503.526489 45738.000000
1505.117065 45144.000000
1506.706299 45430.000000
1508.294922 45671.000000
1509.882446 45232.000000
1511.468872 44789.000000
1513.054565 45524.000000
1514.639160 45068.000000
1516.222900 45370.000000
1517.805542 45495.000000
1519.387451 45015.000000
1520.968262 44956.000000
1522.548340 45388.000000
1524.127197 45268.000000
1525.705200 45023.000000
1527.282471 45071.000000
1528.858521 45621.000000
1530.433838 45413.000000
1532.008057 45072.000000
1533.581543 45815.000000
1535.153809 45406.000000
1536.725342 44882.000000
1538.295898 44834.000000
1539.865601 44781.000000
1541.434082 45714.000000
1543.001831 44544.000000
1544.568726 45469.000000
1546.134399 44320.000000
1547.699341 45135.000000
1549.263184 46067.000000
1550.826416 43537.000000
1552.388306 44725.000000
1553.949585 45115.000000
1555.509766 45351.000000
1557.069214 45326.000000
1558.627563 45002.000000
1560.185181 44719.000000
1561.741699 43986.000000
1563.296997 45206.000000
1564.851685 44688.000000
1566.405640 45397.000000
1567.958618 44743.000000
1569.510254 45333.000000
1571.061157 45149.000000
1572.611328 44796.000000
1574.160522 44627.000000
1575.708374 45169.000000
1577.255737 45506.000000
1578.802124 45246.000000
1580.347656 45895.000000
1581.892212 44358.000000
1583.435547 44583.000000
1584.978271 44331.000000
1586.520142 44449.000000
1588.060913 44202.000000
1589.600708 45016.000000
1591.139771 44190.000000
1592.677734 44835.000000
1594.215210 44705.000000
1595.751343 44716.000000
1597.286377 44055.000000
1598.820923 44524.000000
1600.354492 44622.000000
1601.887207 44589.000000
1603.418335 44364.000000
1604.949219 44353.000000
1606.479248 44916.000000
1608.008057 44427.000000
1609.535767 44442.000000
1611.062866 44552.000000
1612.589233 44678.000000
1614.114624 44261.000000
1615.639160 44606.000000
1617.162354 44616.000000
1618.684814 44732.000000
1620.206543 43728.000000
1621.727417 43337.000000
1623.246826 43596.000000
1624.765747 43855.000000
1626.283936 43821.000000
1627.801270 43767.000000
1629.317505 43295.000000
1630.832397 42466.000000
1632.346802 42686.000000
1633.860474 43633.000000
1635.373047 42477.000000
1636.884399 43270.000000
1638.395386 42689.000000
1639.905273 42836.000000
1641.414307 42842.000000
1642.921997 43294.000000
1644.429321 42820.000000
1645.935791 41713.000000
1647.441284 42564.000000
1648.945923 41816.000000
1650.449097 42433.000000
1651.951660 41857.000000
1653.453857 42074.000000
1654.954712 41551.000000
1656.454468 40447.000000
1657.953369 41986.000000
1659.451904 41206.000000
1660.949219 41388.000000
1662.445801 41561.000000
1663.940796 40971.000000
1665.435547 40969.000000
1666.929443 41988.000000
1668.422363 41593.000000
1669.913940 41112.000000
1671.405029 40631.000000
1672.895508 39906.000000
1674.384888 39967.000000
1675.872803 38830.000000
1677.360474 38870.000000
1678.847168 39689.000000
1680.333008 40180.000000
1681.817993 39278.000000
1683.301514 39068.000000
1684.784790 39084.000000
1686.267212 39370.000000
1687.748535 38921.000000
1689.228394 38951.000000
1690.708008 39600.000000
1692.186890 38484.000000
1693.664795 39128.000000
1695.141724 38854.000000
1696.617432 39202.000000
1698.092773 38896.000000
1699.566895 38597.000000
1701.040405 39447.000000
1702.512451 39391.000000
1703.984253 38059.000000
1705.455078 38632.000000
1706.925049 37846.000000
1708.393677 39714.000000
1709.861816 39002.000000
1711.329224 38459.000000
1712.795532 39340.000000
1714.261230 39012.000000
1715.725220 38508.000000
1717.189087 38700.000000
1718.652100 37786.000000
1720.114136 38324.000000
1721.574951 38020.000000
1723.035156 39032.000000
1724.494629 38267.000000
1725.953247 38297.000000
1727.410889 38372.000000
1728.867188 38081.000000
1730.323242 38325.000000
1731.778320 37730.000000
1733.232422 38113.000000
1734.685303 37255.000000
1736.137939 38077.000000
1737.589478 37066.000000
1739.040283 37948.000000
1740.490112 37178.000000
1741.938599 37798.000000
1743.386719 36374.000000
1744.833984 37120.000000
1746.280518 36916.000000
1747.725464 36843.000000
1749.170166 37272.000000
1750.614014 37688.000000
1752.057007 38017.000000
1753.498535 36952.000000
1754.939819 37186.000000
1756.380249 29819.000000
1757.819702 37060.000000
1759.258179 36998.000000
1760.695679 36100.000000
1762.132690 34615.000000
1763.568726 36206.000000
1765.003906 34801.000000
1766.437622 35780.000000
1767.871216 35408.000000
1769.303833 35086.000000
1770.735596 35713.000000
1772.166504 35439.000000
1773.596191 34480.000000
1775.025146 34285.000000
1776.453613 33921.000000
1777.881104 33134.000000
1779.307251 33445.000000
1780.733154 34375.000000
1782.157959 33266.000000
1783.582153 34486.000000
1785.004883 33307.000000
1786.427124 33350.000000
1787.848633 32815.000000
1789.269409 33699.000000
1790.689209 33324.000000
1792.107666 33038.000000
1793.525635 32325.000000
1794.942993 33622.000000
1796.359497 33130.000000
1797.774536 32656.000000
1799.189209 33252.000000
1800.603271 32649.000000
1802.016113 33224.000000
1803.428345 32316.000000
1804.839233 32045.000000
1806.249634 31337.000000
1807.659302 32397.000000
1809.067993 32699.000000
1810.475586 33376.000000
1811.882690 32478.000000
1813.288940 32625.000000
1814.694214 32305.000000
1816.098389 32923.000000
1817.502197 32837.000000
1818.905029 32599.000000
1820.307007 32826.000000
1821.708374 32901.000000
1823.108276 32506.000000
1824.507568 32471.000000
1825.906372 32321.000000
1827.304321 31376.000000
1828.700928 32866.000000
1830.096924 31855.000000
1831.492188 32586.000000
1832.886841 30594.000000
1834.280518 32383.000000
1835.672852 31465.000000
1837.064697 31778.000000
1838.455933 32113.000000
1839.846191 30896.000000
1841.235229 31773.000000
1842.623901 31650.000000
1844.011597 31503.000000
1845.398560 31753.000000
1846.784180 30508.000000
1848.169556 31442.000000
1849.554077 30712.000000
1850.937866 30667.000000
1852.320557 30399.000000
1853.702026 31203.000000
1855.083008 30015.000000
1856.463501 30180.000000
1857.843018 30615.000000
1859.221069 30318.000000
1860.598999 29999.000000
1861.975952 28367.000000
1863.352173 29756.000000
1864.727539 29358.000000
1866.101440 29683.000000
1867.475220 29574.000000
1868.848145 29051.000000
1870.219971 29188.000000
1871.590820 28272.000000
1872.961304 29590.000000
1874.330688 28816.000000
1875.699585 28843.000000
1877.066895 27800.000000
1878.434082 28801.000000
1879.800293 28736.000000
1881.165771 28112.000000
1882.530518 27335.000000
1883.893677 27840.000000
1885.256714 27529.000000
1886.618896 27920.000000
1887.980225 27661.000000
1889.340210 28330.000000
1890.699829 28152.000000
1892.058838 27886.000000
1893.416870 27436.000000
1894.774048 26825.000000
1896.130005 27957.000000
1897.485718 26316.000000
1898.840454 27909.000000
1900.194336 28024.000000
1901.547119 27730.000000
1902.899414 27826.000000
1904.250977 27888.000000
1905.601685 27190.000000
1906.951172 27432.000000
1908.300171 27200.000000
1909.648315 27927.000000
1910.995850 27596.000000
1912.342651 27419.000000
1913.687866 27041.000000
1915.032837 27716.000000
1916.377075 28262.000000
1917.720459 27347.000000
1919.062500 27901.000000
1920.404297 27134.000000
1921.745239 26816.000000
1923.085449 27515.000000
1924.424683 27430.000000
1925.762939 27442.000000
1927.100586 27273.000000
1928.437500 26683.000000
1929.773560 26825.000000
1931.108398 27645.000000
1932.442871 26648.000000
1933.776611 25999.000000
1935.109497 26715.000000
1936.440918 26946.000000
1937.772461 26399.000000
1939.102661 26047.000000
1940.432373 26714.000000
1941.761230 26381.000000
1943.088867 26452.000000
1944.416016 27118.000000
1945.742432 26542.000000
1947.068115 26097.000000
1948.392456 26598.000000
1949.716553 25804.000000
1951.039795 26128.000000
1952.362305 25855.000000
1953.683716 26342.000000
1955.004150 24960.000000
1956.323975 25840.000000
1957.643433 26080.000000
1958.961914 24958.000000
1960.279053 25605.000000
1961.595825 25439.000000
1962.911865 25057.000000
1964.227173 24956.000000
1965.541016 25013.000000
1966.854614 25234.000000
1968.167480 24863.000000
1969.479492 25093.000000
1970.790894 25013.000000
1972.100952 24566.000000
1973.410522 24493.000000
1974.719360 24234.000000
1976.027588 23998.000000
1977.334473 24275.000000
1978.640747 23576.000000
1979.946655 24565.000000
1981.251343 24193.000000
1982.555542 24160.000000
1983.858521 24523.000000
1985.161133 23404.000000
1986.462769 23998.000000
1987.763794 23251.000000
1989.063232 23232.000000
1990.362793 23106.000000
1991.661255 23423.000000
1992.959229 23083.000000
1994.255615 23065.000000
1995.552002 23060.000000
1996.847412 22983.000000
1998.142090 22642.000000
1999.435913 22786.000000
2000.728516 22470.000000
2002.020630 22581.000000
2003.312256 22037.000000
2004.603149 22276.000000
2005.892456 22460.000000
2007.181519 22189.000000
2008.469849 22310.000000
2009.757446 22343.000000
2011.044189 22011.000000
2012.329834 22129.000000
2013.615112 21930.000000
2014.899414 21899.000000
2016.183105 21842.000000
2017.465454 21834.000000
2018.747437 21793.000000
2020.028931 21713.000000
2021.309448 21810.000000
2022.589233 21591.000000
2023.867920 21528.000000
2025.145874 21769.000000
2026.423340 21786.000000
2027.700195 21824.000000
2028.975342 22058.000000
2030.250610 21888.000000
2031.524902 21926.000000
2032.798218 21948.000000
2034.070679 22031.000000
2035.342773 22049.000000
2036.613770 21776.000000
2037.884521 21763.000000
2039.153931 21904.000000
2040.422241 21854.000000
2041.690552 21726.000000
2042.957886 21715.000000
2044.224487 21551.000000
2045.489868 21816.000000
2046.754639 21328.000000
2048.019043 21525.000000
2049.282471 21470.000000
2050.545410 21501.000000
2051.806396 21260.000000
2053.067871 21108.000000
2054.328125 21086.000000
2055.587646 20904.000000
2056.846436 20917.000000
2058.104248 20832.000000
2059.361572 20760.000000
2060.618164 20799.000000
2061.873291 20668.000000
2063.128418 20706.000000
2064.382568 20673.000000
2065.635986 20577.000000
2066.888672 20391.000000
2068.140137 20551.000000
2069.391357 20412.000000
2070.641846 20531.000000
2071.891602 20593.000000
2073.139893 20598.000000
2074.388184 20074.000000
2075.635498 19900.000000
2076.882080 20026.000000
2078.127930 20070.000000
2079.372559 19979.000000
2080.616699 19744.000000
2081.860352 19829.000000
2083.103027 19599.000000
2084.344482 19636.000000
2085.585693 19455.000000
2086.826416 19645.000000
2088.066162 19311.000000
2089.304688 19475.000000
2090.542725 19195.000000
2091.780029 19042.000000
2093.017090 19081.000000
2094.252686 19033.000000
2095.487549 19049.000000
2096.722168 19018.000000
2097.955811 19076.000000
2099.188477 18994.000000
2100.420410 18722.000000
2101.651855 18861.000000
2102.882324 18675.000000
2104.112061 18656.000000
2105.341553 18649.000000
2106.569092 18521.000000
2107.796875 18302.000000
2109.023926 18161.000000
2110.250000 18132.000000
2111.474609 17914.000000
2112.699463 18074.000000
2113.923096 17997.000000
2115.146240 18010.000000
2116.368164 17919.000000
2117.589844 18096.000000
2118.810547 17891.000000
2120.030518 18286.000000
2121.250000 18247.000000
2122.468018 18247.000000
2123.686035 18177.000000
2124.903076 18358.000000
2126.119629 18224.000000
2127.334473 18049.000000
2128.549561 18258.000000
2129.763672 18046.000000
2130.977051 17835.000000
2132.189697 17529.000000
2133.400879 17927.000000
2134.612305 17923.000000
2135.822510 17908.000000
2137.032227 17938.000000
2138.240479 17967.000000
2139.448730 18081.000000
2140.656250 17702.000000
2141.862549 17417.000000
2143.068115 17645.000000
2144.273438 17537.000000
2145.477783 17665.000000
2146.681396 17572.000000
2147.884521 17453.000000
2149.086182 17530.000000
2150.287598 17570.000000
2151.488281 17442.000000
2152.688232 17289.000000
2153.886963 17363.000000
2155.085449 17428.000000
2156.283447 17351.000000
2157.480469 16992.000000
2158.676758 16974.000000
2159.871826 16807.000000
2161.066650 16769.000000
2162.260742 16637.000000
2163.453857 16432.000000
2164.645996 16388.000000
2165.837891 16557.000000
2167.029053 16334.000000
2168.219238 16089.000000
2169.408691 15940.000000
2170.597656 15744.000000
2171.785645 15726.000000
2172.973389 15645.000000
2174.159668 15459.000000
2175.345215 15353.000000
2176.530518 15395.000000
2177.715332 15420.000000
2178.898926 15347.000000
2180.081787 15269.000000
2181.263672 15182.000000
2182.445313 15370.000000
2183.626465 15284.000000
2184.806396 15382.000000
2185.985352 15321.000000
2187.163818 15092.000000
2188.342041 15140.000000
2189.519043 15160.000000
2190.695068 15093.000000
2191.870850 15093.000000
2193.046143 15136.000000
2194.219971 15159.000000
2195.393311 15172.000000
2196.566406 15138.000000
2197.738281 15134.000000
2198.909668 15244.000000
2200.080566 15410.000000
2201.249756 15100.000000
2202.418945 15061.000000
2203.587646 14997.000000
2204.755371 15047.000000
2205.922119 15092.000000
2207.088135 15031.000000
2208.253662 15150.000000
2209.418945 15083.000000
2210.582764 14839.000000
2211.746094 14896.000000
2212.908203 14785.000000
2214.070557 14807.000000
2215.231689 14879.000000
2216.391846 14753.000000
2217.551514 14703.000000
2218.710938 14665.000000
2219.869141 14486.000000
2221.026367 14562.000000
2222.183350 14575.000000
2223.339600 14555.000000
2224.495117 14338.000000
2225.649902 14403.000000
2226.803711 14397.000000
2227.956543 14306.000000
2229.109863 14057.000000
2230.261230 14151.000000
2231.412354 14127.000000
2232.562744 13966.000000
2233.712646 13836.000000
2234.861572 13785.000000
2236.010010 13911.000000
2237.156982 14102.000000
2238.304199 13792.000000
2239.450195 13672.000000
2240.595947 13510.000000
2241.739990 13299.000000
2242.884277 13403.000000
2244.027588 13349.000000
2245.170166 13248.000000
2246.311768 13184.000000
2247.453125 13118.000000
2248.593506 12942.000000
2249.733154 12978.000000
2250.872314 12915.000000
2252.010254 12941.000000
2253.148193 12868.000000
2254.285156 12888.000000
2255.421387 12752.000000
2256.556641 12686.000000
2257.691162 12689.000000
2258.825439 12659.000000
2259.959229 12985.000000
2261.091553 13113.000000
2262.223389 12763.000000
2263.354736 12390.000000
2264.485107 12426.000000
2265.615234 12287.000000
2266.744141 12126.000000
2267.872559 12202.000000
2269.000488 12073.000000
2270.127441 12101.000000
2271.253662 12049.000000
2272.378906 12024.000000
2273.504150 12207.000000
2274.628662 12153.000000
2275.751953 12258.000000
2276.874512 12189.000000
2277.996582 12059.000000
2279.118164 11955.000000
2280.239014 11938.000000
2281.358643 12203.000000
2282.477783 11899.000000
2283.596680 11750.000000
2284.714844 11569.000000
2285.832031 11700.000000
2286.948242 11707.000000
2288.064209 11726.000000
2289.179443 11663.000000
2290.293945 11838.000000
2291.407227 11924.000000
2292.520508 11809.000000
2293.633057 11991.000000
2294.744873 11906.000000
2295.855957 11823.000000
2296.965820 11888.000000
2298.075195 11835.000000
2299.184326 11918.000000
2300.292480 11840.000000
2301.399658 11734.000000
2302.506592 11887.000000
2303.612793 11902.000000
2304.718506 11773.000000
2305.822754 11772.000000
2306.926758 11633.000000
2308.030273 11745.000000
2309.133301 11523.000000
2310.235107 11462.000000
2311.336182 11429.000000
2312.436768 11462.000000
2313.536865 11366.000000
2314.636230 11278.000000
2315.734131 11248.000000
2316.832520 11223.000000
2317.929443 11248.000000
2319.026123 11232.000000
2320.122314 11208.000000
2321.216797 11113.000000
2322.311279 11022.000000
2323.405029 10885.000000
2324.498535 10907.000000
2325.590332 10843.000000
2326.682129 10915.000000
2327.773193 11041.000000
2328.863525 10963.000000
2329.952881 10938.000000
2331.042236 10691.000000
2332.130371 10866.000000
2333.218018 10746.000000
2334.305420 10830.000000
2335.391113 10619.000000
2336.476563 10559.000000
2337.561768 10484.000000
2338.645996 10396.000000
2339.729248 10413.000000
2340.812256 10362.000000
2341.894287 10918.000000
2342.976074 10091.000000
2344.057129 10063.000000
2345.136963 10006.000000
2346.216309 9997.000000
2347.295166 10041.000000
2348.373535 9995.000000
2349.450439 9993.000000
2350.527100 9888.000000
2351.603516 9998.000000
2352.678955 9954.000000
2353.753418 9859.000000
2354.827637 9901.000000
2355.901123 9677.000000
2356.974121 9571.000000
2358.045898 9528.000000
2359.117432 9591.000000
2360.187988 9531.000000
2361.258301 9462.000000
2362.327637 9330.000000
2363.395996 9460.000000
2364.464111 9434.000000
2365.531494 9390.000000
2366.598389 9361.000000
2367.664551 9424.000000
2368.729492 9248.000000
2369.794434 9104.000000
2370.858643 9179.000000
2371.922119 9190.000000
2372.984375 9027.000000
2374.046631 9160.000000
2375.107910 9107.000000
2376.168945 9118.000000
2377.228760 9104.000000
2378.287842 9143.000000
2379.346924 9024.000000
2380.405029 8909.000000
2381.462402 9148.000000
2382.518799 8949.000000
2383.574951 8818.000000
2384.630615 8860.000000
2385.685547 8838.000000
2386.739014 8761.000000
2387.792725 8758.000000
2388.845459 8792.000000
2389.897705 8965.000000
2390.949219 8980.000000
2391.999756 8898.000000
2393.050049 8844.000000
2394.099365 8876.000000
2395.148682 8934.000000
2396.196533 8764.000000
2397.243896 8847.000000
2398.291016 8904.000000
2399.337158 8785.000000
2400.382568 8741.000000
2401.427246 8761.000000
2402.471924 8603.000000
2403.515137 8579.000000
2404.558350 8710.000000
2405.600098 8663.000000
2406.642090 8598.000000
2407.683350 8558.000000
2408.723633 8550.000000
2409.763184 8744.000000
2410.801758 8778.000000
2411.840576 8608.000000
2412.878174 8593.000000
2413.915527 8460.000000
2414.951660 8620.000000
2415.987549 8572.000000
2417.022705 8504.000000
2418.057373 8638.000000
2419.090576 8508.000000
2420.124023 8372.000000
2421.156494 8588.000000
2422.188721 8352.000000
2423.219482 8303.000000
2424.250244 8352.000000
2425.280518 8367.000000
2426.309570 8292.000000
2427.338623 8223.000000
2428.365967 8190.000000
2429.393799 8201.000000
2430.420410 8137.000000
2431.446777 8003.000000
2432.471680 7991.000000
2433.496826 7925.000000
2434.520996 8005.000000
2435.544922 7839.000000
2436.567627 7825.000000
2437.589600 7845.000000
2438.611328 7790.000000
2439.632324 7729.000000
2440.652832 7691.000000
2441.672119 7650.000000
2442.691406 7637.000000
2443.709717 7501.000000
2444.727783 7430.000000
2445.744385 7557.000000
2446.760986 7481.000000
2447.776855 7494.000000
2448.792725 7494.000000
2449.807129 7495.000000
2450.820801 7339.000000
2451.833984 7358.000000
2452.846924 7312.000000
2453.859131 7239.000000
2454.870361 7261.000000
2455.881348 7329.000000
2456.891602 7280.000000
2457.901367 7312.000000
2458.910156 7322.000000
2459.918213 7213.000000
2460.926270 7141.000000
2461.933105 7029.000000
2462.939697 7136.000000
2463.945068 7063.000000
2464.950195 6938.000000
2465.955078 6979.000000
2466.958740 7009.000000
2467.962158 6929.000000
2468.964600 6886.000000
2469.966797 7059.000000
2470.968506 7034.000000
2471.969238 7007.000000
2472.968994 6975.000000
2473.968750 6880.000000
2474.967529 6830.000000
2475.965820 6732.000000
2476.963135 6782.000000
2477.960205 6858.000000
2478.957275 6819.000000
2479.952881 6719.000000
2480.948486 6841.000000
2481.942383 6919.000000
2482.936279 6729.000000
2483.929688 6805.000000
2484.922607 6818.000000
2485.914551 6734.000000
2486.905762 6714.000000
2487.896729 6746.000000
2488.887207 6747.000000
2489.876709 6812.000000
2490.865479 6829.000000
2491.854248 6872.000000
2492.842041 6797.000000
2493.828613 6691.000000
2494.815186 6605.000000
2495.801270 6669.000000
2496.786621 6660.000000
2497.770996 6714.000000
2498.755127 6791.000000
2499.739258 6650.000000
2500.721924 6706.000000
2501.704102 6497.000000
2502.685791 6608.000000
2503.666748 6505.000000
2504.647217 6556.000000
2505.627441 6665.000000
2506.606201 6586.000000
2507.584717 6487.000000
2508.562744 6474.000000
2509.540283 6256.000000
2510.516846 6467.000000
2511.493164 6320.000000
2512.468750 6398.000000
2513.443848 6440.000000
2514.418457 6412.000000
2515.391846 6187.000000
2516.364990 6192.000000
2517.337891 6225.000000
2518.309814 6236.000000
2519.281006 6203.000000
2520.251709 6174.000000
2521.222168 6108.000000
2522.191895 6129.000000
2523.160645 6155.000000
2524.128662 5998.000000
2525.096680 6031.000000
2526.063721 6000.000000
2527.030518 5910.000000
2527.996094 5966.000000
2528.961670 5920.000000
2529.926514 5961.000000
2530.890869 5876.000000
2531.854004 5891.000000
2532.817383 5909.000000
2533.779785 5868.000000
2534.741943 5938.000000
2535.702881 5981.000000
2536.663086 5990.000000
2537.623535 5854.000000
2538.583008 5797.000000
2539.541748 5917.000000
2540.499512 5762.000000
2541.457520 5716.000000
2542.414795 5577.000000
2543.371094 5661.000000
2544.327148 5598.000000
2545.281982 5505.000000
2546.237061 5512.000000
2547.191406 5499.000000
2548.145020 4913.000000
2549.097656 5431.000000
2550.050049 5625.000000
2551.001953 5493.000000
2551.953125 5349.000000
2552.903564 5417.000000
2553.853516 5450.000000
2554.803223 5369.000000
2555.752197 5318.000000
2556.700684 5441.000000
2557.647949 5345.000000
2558.595215 5312.000000
2559.541748 5334.000000
2560.487793 5323.000000
2561.432861 5370.000000
2562.377686 5317.000000
2563.322021 5236.000000
2564.265869 5192.000000
2565.209229 5149.000000
2566.151123 5107.000000
2567.093262 5093.000000
2568.034668 5109.000000
2568.975342 4960.000000
2569.915283 5193.000000
2570.855225 5130.000000
2571.794189 5043.000000
2572.732910 5006.000000
2573.670654 5063.000000
2574.608154 5014.000000
2575.544922 5163.000000
2576.480957 5074.000000
2577.416504 5112.000000
2578.351318 5086.000000
2579.286133 5188.000000
2580.219971 5119.000000
2581.153320 4931.000000
2582.085938 5104.000000
2583.018311 5047.000000
2583.949951 4964.000000
2584.881104 5094.000000
2585.811768 5094.000000
2586.741211 5028.000000
2587.670654 4958.000000
2588.599609 4875.000000
2589.528320 5037.000000
2590.455322 4905.000000
2591.382568 4960.000000
2592.309326 4835.000000
2593.235352 4794.000000
2594.161133 4938.000000
2595.085693 4898.000000
2596.010010 4912.000000
2596.933838 4875.000000
2597.857178 4772.000000
2598.779541 4913.000000
2599.701660 4921.000000
2600.623291 4656.000000
2601.544189 4915.000000
2602.464355 4885.000000
2603.384277 4843.000000
2604.303711 4830.000000
2605.222900 4799.000000
2606.141113 4794.000000
2607.058105 4718.000000
2607.975342 4663.000000
2608.892334 4776.000000
2609.808350 4654.000000
2610.723145 4727.000000
2611.638428 4577.000000
2612.552979 4623.000000
2613.466553 4612.000000
2614.380127 4635.000000
2615.292480 4538.000000
2616.204834 4514.000000
2617.116211 4631.000000
2618.027344 4612.000000
2618.937744 4466.000000
2619.847900 4520.000000
2620.757324 4520.000000
2621.666260 4393.000000
2622.574219 4397.000000
2623.482422 4436.000000
2624.389648 4468.000000
2625.296387 4424.000000
2626.202393 4501.000000
2627.108154 4362.000000
2628.013184 4239.000000
2628.917969 4333.000000
2629.822021 4220.000000
2630.725098 4286.000000
2631.628174 4231.000000
2632.530273 4242.000000
2633.432373 4267.000000
2634.334229 4212.000000
2635.234375 4087.000000
2636.134766 4321.000000
2637.034424 4157.000000
2637.933838 4123.000000
2638.831787 4171.000000
2639.730225 4254.000000
2640.628174 4187.000000
2641.525391 4187.000000
2642.421387 4038.000000
2643.317383 4121.000000
2644.213135 4016.000000
2645.108154 3947.000000
2646.002930 3971.000000
2646.896240 3920.000000
2647.789551 3891.000000
2648.682617 3860.000000
2649.575439 3938.000000
2650.466553 3890.000000
2651.357910 3947.000000
2652.248779 3814.000000
2653.138916 3796.000000
2654.028809 3836.000000
2654.917480 3788.000000
2655.806396 3859.000000
2656.694824 3816.000000
2657.582275 3831.000000
2658.468750 3764.000000
2659.355713 3803.000000
2660.241943 3754.000000
2661.127686 3869.000000
2662.012207 3837.000000
2662.896729 3831.000000
2663.781006 3874.000000
2664.664551 3759.000000
2665.547607 3902.000000
2666.429932 3798.000000
2667.311768 3810.000000
2668.192871 3961.000000
2669.074219 3806.000000
2669.954102 3847.000000
2670.834229 3727.000000
2671.713623 3736.000000
2672.593018 3619.000000
2673.471680 3796.000000
2674.348633 3742.000000
2675.226318 3879.000000
2676.103271 3796.000000
2676.979492 3762.000000
2677.855225 3720.000000
2678.730225 3728.000000
2679.605469 3661.000000
2680.479736 3792.000000
2681.353516 3637.000000
2682.226563 3625.000000
2683.099365 3659.000000
2683.971924 3610.000000
2684.843750 3560.000000
2685.714844 3537.000000
2686.585693 3571.000000
2687.456055 3502.000000
2688.326172 3493.000000
2689.194580 3643.000000
2690.063721 3513.000000
2690.932129 3529.000000
2691.800293 3532.000000
2692.667725 3478.000000
2693.533936 3471.000000
2694.400635 3495.000000
2695.266357 3462.000000
2696.132080 3401.000000
2696.996338 3544.000000
2697.861328 3470.000000
2698.724854 3379.000000
2699.588623 3404.000000
2700.450928 3402.000000
2701.313721 3444.000000
2702.175537 3412.000000
2703.036865 3385.000000
2703.898193 3347.000000
2704.758301 3313.000000
2705.618408 3349.000000
2706.478027 3293.000000
2707.337402 3350.000000
2708.195068 3366.000000
2709.052979 3297.000000
2709.911377 3301.000000
2710.768555 3209.000000
2711.625000 3288.000000
2712.480957 3244.000000
2713.336914 3201.000000
2714.192139 3310.000000
2715.046631 3183.000000
2715.900635 3148.000000
2716.754639 3088.000000
2717.607666 3290.000000
2718.460938 3096.000000
2719.312500 3110.000000
2720.164551 3109.000000
2721.016357 3132.000000
2721.866943 3124.000000
2722.717529 3067.000000
2723.567627 3076.000000
2724.416992 2995.000000
2725.266357 3104.000000
2726.114502 3069.000000
2726.962158 3058.000000
2727.810303 3097.000000
2728.657227 3041.000000
2729.504639 3044.000000
2730.350586 3170.000000
2731.195801 3056.000000
2732.041504 3005.000000
2732.886230 3122.000000
2733.730957 3040.000000
2734.574463 3028.000000
2735.418213 2992.000000
2736.261230 3051.000000
2737.103760 3068.000000
2737.945313 3004.000000
2738.787354 2981.000000
2739.628418 2912.000000
2740.469238 2850.000000
2741.309814 2960.000000
2742.149170 2936.000000
2742.988525 2886.000000
2743.827881 2983.000000
2744.666016 2976.000000
2745.503662 3025.000000
2746.341309 2971.000000
2747.178467 2963.000000
2748.015381 2907.000000
2748.851807 2968.000000
2749.687012 2978.000000
2750.522461 2903.000000
2751.357422 2982.000000
2752.191650 2954.000000
2753.025635 2884.000000
2753.859131 2808.000000
2754.692627 2882.000000
2755.525146 2832.000000
2756.357178 2880.000000
2757.188721 2869.000000
2758.020264 2916.000000
2758.850830 2804.000000
2759.681641 2768.000000
2760.511230 2772.000000
2761.340820 2794.000000
2762.170166 2804.000000
2762.998779 2828.000000
2763.826904 2624.000000
2764.654541 2839.000000
2765.482178 2768.000000
2766.309326 2833.000000
2767.135742 2756.000000
2767.961670 2643.000000
2768.787109 2654.000000
2769.612305 2648.000000
2770.437500 2601.000000
2771.261475 2621.000000
2772.085449 2718.000000
2772.909424 2607.000000
2773.732178 2607.000000
2774.555176 2594.000000
2775.376953 2577.000000
2776.198730 2573.000000
2777.020508 2562.000000
2777.841309 2486.000000
2778.661377 2489.000000
2779.481689 2538.000000
2780.301514 2490.000000
2781.121338 2425.000000
2781.939209 2432.000000
2782.758301 2426.000000
2783.576172 2435.000000
2784.393799 2592.000000
2785.210938 2423.000000
2786.027588 2483.000000
2786.843994 2487.000000
2787.659912 2491.000000
2788.475586 2408.000000
2789.290283 2521.000000
2790.105469 2377.000000
2790.919922 2349.000000
2791.733887 2422.000000
2792.547607 2357.000000
2793.360107 2378.000000
2794.172852 2379.000000
2794.985107 2367.000000
2795.796875 2379.000000
2796.607910 2422.000000
2797.419678 2413.000000
2798.230225 2383.000000
2799.040771 2455.000000
2799.849854 2349.000000
2800.659668 2283.000000
2801.468750 2374.000000
2802.277588 2279.000000
2803.085938 2419.000000
2803.893311 2305.000000
2804.701172 2341.000000
2805.508301 2364.000000
2806.315186 2262.000000
2807.120850 2158.000000
2807.927002 2279.000000
2808.732422 2374.000000
2809.537842 2231.000000
2810.342529 2188.000000
2811.146240 2271.000000
2811.950439 2195.000000
2812.754150 2331.000000
2813.557617 2329.000000
2814.359619 2248.000000
2815.162354 2246.000000
2815.964355 2278.000000
2816.766113 2314.000000
2817.567383 2233.000000
2818.368164 2257.000000
2819.168457 2205.000000
2819.968994 2004.000000
2820.768555 2264.000000
2821.567627 2183.000000
2822.366699 2163.000000
2823.165527 2213.000000
2823.963867 2228.000000
2824.761230 2240.000000
2825.558838 2201.000000
2826.355713 2182.000000
2827.152832 2134.000000
2827.949219 2164.000000
2828.744873 2152.000000
2829.540527 2143.000000
2830.335938 2264.000000
2831.130859 2157.000000
2831.925049 2216.000000
2832.719238 2195.000000
2833.513184 2198.000000
2834.306641 2208.000000
2835.099365 2203.000000
2835.891846 2060.000000
2836.684326 2154.000000
2837.476563 2144.000000
2838.268311 2159.000000
2839.059082 2143.000000
2839.849854 2032.000000
2840.640869 2081.000000
2841.430908 2148.000000
2842.220459 1969.000000
2843.010254 2090.000000
2843.799072 2084.000000
2844.587891 1967.000000
2845.376709 2109.000000
2846.164551 2034.000000
2846.951904 2039.000000
2847.739502 2031.000000
2848.526611 1998.000000
2849.312988 2030.000000
2850.099365 2007.000000
2850.885498 1937.000000
2851.671143 1990.000000
2852.455811 2000.000000
2853.240967 2037.000000
2854.025879 1990.000000
2854.810059 1975.000000
2855.594238 2071.000000
2856.377197 2076.000000
2857.160400 1953.000000
2857.943359 1968.000000
2858.725830 2093.000000
2859.508057 1943.000000
2860.289795 2057.000000
2861.071289 2041.000000
2861.853027 1936.000000
2862.634033 1965.000000
2863.414307 2019.000000
2864.194336 2081.000000
2864.974365 1946.000000
2865.754150 2001.000000
2866.532959 1974.000000
2867.312012 1959.000000
2868.090576 2053.000000
2868.868896 2088.000000
2869.646729 2010.000000
2870.424316 2136.000000
2871.201660 2094.000000
2871.978760 2150.000000
2872.755371 2121.000000
2873.531494 2228.000000
2874.307617 2211.000000
2875.083252 2220.000000
2875.858643 2104.000000
2876.633545 2154.000000
2877.408203 2140.000000
2878.182861 2237.000000
2878.957275 2125.000000
2879.730957 2171.000000
2880.503906 2104.000000
2881.277588 2183.000000
2882.050293 2138.000000
2882.822998 2171.000000
2883.594971 2182.000000
2884.366699 2220.000000
2885.138916 2162.000000
2885.909912 2264.000000
2886.680420 2097.000000
2887.451416 2055.000000
2888.222412 2156.000000
2888.992676 2089.000000
2889.761963 2039.000000
2890.531494 2150.000000
2891.301025 2117.000000
2892.070068 2144.000000
2892.838623 2106.000000
2893.607178 2210.000000
2894.374756 2176.000000
2895.142822 2086.000000
2895.910400 2080.000000
2896.677979 2012.000000
2897.444336 1947.000000
2898.211670 2085.000000
2898.977783 2069.000000
2899.744141 2035.000000
2900.509033 1976.000000
2901.274414 2035.000000
2902.040283 1938.000000
2902.804688 1970.000000
2903.569092 2037.000000
2904.333740 1928.000000
2905.097412 2070.000000
2905.861816 1988.000000
2906.625488 1945.000000
2907.388428 1926.000000
2908.151123 1861.000000
2908.914307 1836.000000
2909.677002 1988.000000
2910.438477 1778.000000
2911.200439 1778.000000
spectrumdark 2048
-97.030426 6203.000000
-94.403557 6203.000000
-91.778564 6101.000000
-89.155464 6419.000000
-86.534233 5777.000000
-83.914902 6219.000000
-81.297432 6110.000000
-78.681839 6407.000000
-76.068123 6254.000000
-73.456284 5890.000000
-70.846306 6095.000000
-68.238213 5960.000000
-65.631966 5919.000000
-63.027596 5972.000000
-60.425087 6152.000000
-57.824432 5610.000000
-55.225639 6180.000000
-52.628704 6902.000000
-50.033623 6520.000000
-47.440395 6473.000000
-44.849018 6212.000000
-42.259487 6664.000000
-39.671799 5844.000000
-37.085960 6016.000000
-34.501965 6475.000000
-31.919806 5704.000000
-29.339493 6292.000000
-26.761007 5697.000000
-24.184364 6124.000000
-21.609547 6266.000000
-19.036570 6501.000000
-16.465412 6473.000000
-13.896090 6726.000000
-11.328591 7832.000000
-8.762912 6236.000000
-6.199058 6486.000000
-3.637017 5983.000000
-1.076801 5824.000000
1.481607 6153.000000
4.038194 6912.000000
6.592976 6617.000000
9.145941 5906.000000
11.697105 6733.000000
14.246457 6478.000000
16.794014 6700.000000
19.339758 5982.000000
21.883709 5705.000000
24.425856 6619.000000
26.966206 6745.000000
29.504770 6857.000000
32.041538 6184.000000
34.576504 5778.000000
37.109692 7215.000000
39.641098 6339.000000
42.170712 7143.000000
44.698528 6433.000000
47.224586 7765.000000
49.748856 5702.000000
52.271355 6226.000000
54.792057 6762.000000
57.311005 6287.000000
59.828178 6414.000000
62.343575 6657.000000
64.857193 5613.000000
67.369057 5673.000000
69.879173 6455.000000
72.387497 6496.000000
74.894066 5915.000000
77.398888 6338.000000
79.901955 6435.000000
82.403244 6246.000000
84.902794 6152.000000
87.400589 6375.000000
89.896652 5740.000000
92.390938 7202.000000
94.883484 5728.000000
97.374313 6897.000000
99.863373 7150.000000
102.350685 6324.000000
104.836273 6217.000000
107.320122 6404.000000
109.802223 5750.000000
112.282600 6572.000000
114.761253 6217.000000
117.238182 6475.000000
119.713356 7212.000000
122.186821 6784.000000
124.658554 5845.000000
127.128578 6582.000000
129.596848 6214.000000
132.063446 6245.000000
134.528290 5685.000000
136.991440 6174.000000
139.452850 7184.000000
141.912567 7005.000000
144.370560 6367.000000
146.826859 5983.000000
149.281448 5773.000000
151.734314 6800.000000
154.185501 6366.000000
156.634995 6566.000000
159.082764 6054.000000
161.528824 6615.000000
163.973206 8709.000000
166.415909 6376.000000
168.856918 6760.000000
171.296219 6224.000000
173.733810 7187.000000
176.169769 6610.000000
178.603989 6904.000000
181.036530 7120.000000
183.467422 6637.000000
185.896591 7102.000000
188.324112 6601.000000
190.749954 6340.000000
193.174118 6676.000000
195.596619 7199.000000
198.017426 7353.000000
200.436569 6419.000000
202.854050 5985.000000
205.269836 7589.000000
207.683975 7083.000000
210.096481 6379.000000
212.507309 6110.000000
214.916458 6278.000000
217.323975 7358.000000
219.729782 6187.000000
222.134003 6518.000000
224.536514 6708.000000
226.937408 6884.000000
229.336655 6473.000000
231.734238 6831.000000
234.130157 7272.000000
236.524460 6540.000000
238.917099 5844.000000
241.308121 6867.000000
243.697479 6510.000000
246.085220 6381.000000
248.471313 6965.000000
250.855774 6129.000000
253.238586 7866.000000
255.619827 6601.000000
257.999359 6647.000000
260.377319 6478.000000
262.753601 7547.000000
265.128326 7621.000000
267.501404 7846.000000
269.872833 6175.000000
272.242615 6416.000000
274.610840 5883.000000
276.977417 6306.000000
279.342407 6764.000000
281.705780 6014.000000
284.067505 6253.000000
286.427643 7119.000000
288.786163 6076.000000
291.143097 6489.000000
293.498413 6424.000000
295.852142 5979.000000
298.204224 5950.000000
300.554749 6324.000000
302.903687 6374.000000
305.250977 6748.000000
307.596741 6414.000000
309.940826 6464.000000
312.283386 7393.000000
314.624329 7552.000000
316.963654 7208.000000
319.301422 6936.000000
321.637634 8088.000000
323.972198 6214.000000
326.305206 6501.000000
328.636658 6016.000000
330.966522 6597.000000
333.294800 6421.000000
335.621460 7253.000000
337.946625 6330.000000
340.270172 6212.000000
342.592163 5975.000000
344.912598 7518.000000
347.231415 7663.000000
349.548676 6069.000000
351.864410 5837.000000
354.178558 6943.000000
356.491119 6300.000000
358.802124 6318.000000
361.111603 7050.000000
363.419556 6303.000000
365.725891 5687.000000
368.030640 6397.000000
370.333923 6401.000000
372.635590 6240.000000
374.935760 6366.000000
377.234375 6226.000000
379.531433 5691.000000
381.826935 6095.000000
384.120911 5844.000000
386.413300 5232.000000
388.704193 5609.000000
390.993561 6182.000000
393.281342 6270.000000
395.567596 6472.000000
397.852356 6953.000000
400.135498 6022.000000
402.417206 6449.000000
404.697388 6193.000000
406.975983 7268.000000
409.253052 6431.000000
411.528595 6657.000000
413.802612 6399.000000
416.075195 6394.000000
418.346161 6240.000000
420.615631 6543.000000
422.883606 7082.000000
425.150024 7222.000000
427.414948 6257.000000
429.678406 6289.000000
431.940277 6427.000000
434.200684 5964.000000
436.459534 6609.000000
438.716919 6135.000000
440.972809 5643.000000
443.227203 5766.000000
445.480072 5421.000000
447.731384 6954.000000
449.981293 6079.000000
452.229614 6294.000000
454.476501 5616.000000
456.721924 6466.000000
458.965790 6496.000000
461.208160 6810.000000
463.449036 5573.000000
465.688507 6656.000000
467.926392 5480.000000
470.162842 5849.000000
472.397766 6089.000000
474.631226 7339.000000
476.863251 6673.000000
479.093750 5616.000000
481.322754 6466.000000
483.550293 6251.000000
485.776337 5974.000000
488.000946 6498.000000
490.224091 5928.000000
492.445770 6416.000000
494.665894 6678.000000
496.884613 5688.000000
499.101837 6313.000000
501.317688 5540.000000
503.531921 6113.000000
505.744843 6433.000000
507.956177 6465.000000
510.166077 6846.000000
512.374512 6500.000000
514.581604 6514.000000
516.787109 6403.000000
518.991211 6578.000000
521.193787 6129.000000
523.394958 6568.000000
525.594788 6664.000000
527.793091 6903.000000
529.989868 5288.000000
532.185303 5830.000000
534.379211 5596.000000
536.571777 7545.000000
538.762817 6690.000000
540.952454 5985.000000
543.140686 6852.000000
545.327393 7129.000000
547.512634 6830.000000
549.696594 6221.000000
551.878967 6434.000000
554.059998 6152.000000
556.239502 5994.000000
558.417725 5876.000000
560.594421 5986.000000
562.769714 6380.000000
564.943604 6433.000000
567.116028 5893.000000
569.287048 5993.000000
571.456604 6361.000000
573.624878 5244.000000
575.791626 6423.000000
577.956909 6314.000000
580.120789 6135.000000
582.283386 5739.000000
584.444458 6017.000000
586.604126 5586.000000
588.762451 5808.000000
590.919250 6063.000000
593.074707 6555.000000
595.228760 5682.000000
597.381470 6164.000000
599.532654 7269.000000
601.682495 6795.000000
603.830994 6734.000000
605.977905 6020.000000
608.123596 6508.000000
610.267883 6471.000000
612.410706 6999.000000
614.552063 6117.000000
616.692200 6424.000000
618.830811 7637.000000
620.968140 5659.000000
623.104004 6594.000000
625.238464 6859.000000
627.371460 7216.000000
629.503296 6666.000000
631.633667 6566.000000
633.762634 6740.000000
635.890137 6390.000000
638.016357 6184.000000
640.141052 7253.000000
642.264526 6365.000000
644.386658 6792.000000
646.507324 6873.000000
648.626648 6528.000000
650.744568 5671.000000
652.861145 5635.000000
654.976318 6500.000000
657.090149 6470.000000
659.202515 5852.000000
661.313660 6131.000000
663.423401 5378.000000
665.531677 6052.000000
667.638794 6305.000000
669.744446 6773.000000
671.848633 5902.000000
673.951599 5721.000000
676.053162 6980.000000
678.153381 5314.000000
680.252197 6734.000000
682.349670 6241.000000
684.445862 6963.000000
686.540588 6173.000000
688.634094 7012.000000
690.726257 6636.000000
692.816895 7987.000000
694.906311 6546.000000
696.994446 6459.000000
699.081116 6001.000000
701.166565 6669.000000
703.250488 5103.000000
705.333191 5849.000000
707.414612 5930.000000
709.494568 7510.000000
711.573303 6290.000000
713.650574 5510.000000
715.726563 6523.000000
717.801270 6073.000000
719.874695 7052.000000
721.946594 6265.000000
724.017334 7408.000000
726.086731 5810.000000
728.154724 6478.000000
730.221375 6365.000000
732.286804 7019.000000
734.350891 5812.000000
736.413635 6165.000000
738.475037 6501.000000
740.535156 6559.000000
742.593872 6054.000000
744.651367 6657.000000
746.707581 6506.000000
748.762390 6690.000000
750.815918 6411.000000
752.868042 7476.000000
754.918945 5778.000000
756.968628 6661.000000
759.016846 6329.000000
761.063843 6199.000000
763.109558 6964.000000
765.153870 5300.000000
767.196899 5735.000000
769.238708 14998.000000
771.279175 6947.000000
773.318237 6365.000000
775.356140 6073.000000
777.392700 6022.000000
779.428040 5412.000000
781.462036 5711.000000
783.494629 6930.000000
785.526062 5527.000000
787.556091 12177.000000
789.584839 6016.000000
791.612427 6267.000000
793.638672 6276.000000
795.663513 5726.000000
797.687256 5446.000000
799.709595 6373.000000
801.730713 5846.000000
803.750488 6665.000000
805.768982 4932.000000
807.786255 6720.000000
809.802124 6743.000000
811.816833 5708.000000
813.830200 6427.000000
815.842346 6236.000000
817.853271 6184.000000
819.862854 6554.000000
821.871216 5280.000000
823.878174 5718.000000
825.883911 6060.000000
827.888428 5729.000000
829.891663 5617.000000
831.893616 6512.000000
833.894287 6124.000000
835.893738 5937.000000
837.891846 6342.000000
839.888855 6927.000000
841.884460 6197.000000
843.878906 6013.000000
845.872009 6162.000000
847.863892 6836.000000
849.854431 5603.000000
851.843689 6771.000000
853.831909 5954.000000
855.818726 5748.000000
857.804321 6396.000000
859.788635 7158.000000
861.771851 6287.000000
863.753662 6372.000000
865.734253 5785.000000
867.713562 7728.000000
869.691711 7025.000000
871.668518 6190.000000
873.644043 5977.000000
875.618530 6130.000000
877.591553 6032.000000
879.563538 5431.000000
881.534180 6317.000000
883.503662 6155.000000
885.471802 5549.000000
887.438782 5224.000000
889.404419 6075.000000
891.368896 5859.000000
893.332153 5978.000000
895.294189 6454.000000
897.254944 5880.000000
899.214478 6370.000000
901.172729 6638.000000
903.129883 6309.000000
905.085876 6041.000000
907.040466 6973.000000
908.993835 6460.000000
910.946045 6413.000000
912.897034 6378.000000
914.846741 7094.000000
916.795288 6378.000000
918.742615 6292.000000
920.688660 6099.000000
922.633423 6064.000000
924.577148 6309.000000
926.519714 5964.000000
928.460999 5512.000000
930.400940 6467.000000
932.339783 5748.000000
934.277344 5494.000000
936.213684 5992.000000
938.148865 5832.000000
940.082764 6022.000000
942.015564 5833.000000
943.947144 6733.000000
945.877563 5157.000000
947.806763 6424.000000
949.734619 7072.000000
951.661438 6615.000000
953.586975 5922.000000
955.511230 5334.000000
957.434387 5916.000000
959.356384 6692.000000
961.277100 7295.000000
963.196655 6477.000000
965.115051 5305.000000
967.032410 6380.000000
968.948303 6369.000000
970.863098 6126.000000
972.776672 5954.000000
974.689087 6374.000000
976.600281 6433.000000
978.510315 5494.000000
980.419067 6181.000000
982.326782 6108.000000
984.233276 6389.000000
986.138550 5706.000000
988.042725 6873.000000
989.945679 6171.000000
991.847412 6848.000000
993.747986 6519.000000
995.647400 6560.000000
997.545593 5267.000000
999.442627 6523.000000
1001.338440 6425.000000
1003.233093 7650.000000
1005.126648 5584.000000
1007.018921 7118.000000
1008.910278 6082.000000
1010.800293 5338.000000
1012.689087 6676.000000
1014.576721 6381.000000
1016.463196 6900.000000
1018.348511 6677.000000
1020.232666 5980.000000
1022.115601 5857.000000
1023.997498 6255.000000
1025.878174 5189.000000
1027.757690 5891.000000
1029.636230 6064.000000
1031.513428 5391.000000
1033.389282 6190.000000
1035.264160 5930.000000
1037.138062 6579.000000
1039.010498 6965.000000
1040.881958 6686.000000
1042.752075 5464.000000
1044.621216 5457.000000
1046.489136 5798.000000
1048.355957 7026.000000
1050.221680 6680.000000
1052.086182 6437.000000
1053.949585 6423.000000
1055.811646 6505.000000
1057.672729 5912.000000
1059.532715 6492.000000
1061.391357 6659.000000
1063.248901 5823.000000
1065.105347 6658.000000
1066.960693 5936.000000
1068.814819 5789.000000
1070.668091 6242.000000
1072.519897 6322.000000
1074.370728 6137.000000
1076.220337 6105.000000
1078.068726 5722.000000
1079.916260 7896.000000
1081.762451 5576.000000
1083.607422 6186.000000
1085.451538 5378.000000
1087.294312 5561.000000
1089.135864 6497.000000
1090.976685 5440.000000
1092.815918 5672.000000
1094.654419 6004.000000
1096.491577 6055.000000
1098.327515 6802.000000
1100.162476 6536.000000
1101.996216 5365.000000
1103.828979 5617.000000
1105.660400 6191.000000
1107.490967 7281.000000
1109.320190 6501.000000
1111.148438 6458.000000
1112.975464 7102.000000
1114.801514 5463.000000
1116.626343 6307.000000
1118.450073 7171.000000
1120.272583 5997.000000
1122.093994 5829.000000
1123.914551 5854.000000
1125.733643 6550.000000
1127.551880 7086.000000
1129.368774 6807.000000
1131.184814 6643.000000
1132.999634 6504.000000
1134.813354 5609.000000
1136.625977 5804.000000
1138.437378 5591.000000
1140.247803 6102.000000
1142.057129 6752.000000
1143.865112 6906.000000
1145.672363 5933.000000
1147.478149 5886.000000
1149.283081 5368.000000
1151.086914 5445.000000
1152.889526 6164.000000
1154.691284 6118.000000
1156.491577 6148.000000
1158.290894 6149.000000
1160.089233 5894.000000
1161.886230 5452.000000
1163.682495 5885.000000
1165.477417 6104.000000
1167.271240 6354.000000
1169.064209 7692.000000
1170.855835 5601.000000
1172.646484 6371.000000
1174.436157 5964.000000
1176.224365 5829.000000
1178.011719 7456.000000
1179.797974 6846.000000
1181.583130 5770.000000
1183.367188 6008.000000
1185.150146 7655.000000
1186.932129 5829.000000
1188.712891 5901.000000
1190.492676 6357.000000
1192.271362 6896.000000
1194.049072 6650.000000
1195.825562 7143.000000
1197.600952 6559.000000
1199.375244 6531.000000
1201.148438 6632.000000
1202.920776 6477.000000
1204.691772 6670.000000
1206.461914 5607.000000
1208.230835 6071.000000
1209.998657 6345.000000
1211.765625 5718.000000
1213.531250 5920.000000
1215.295898 6919.000000
1217.059448 6574.000000
1218.821899 5887.000000
1220.583496 6617.000000
1222.343872 5941.000000
1224.103149 6254.000000
1225.861572 6020.000000
1227.618774 7134.000000
1229.374878 6378.000000
1231.129883 5466.000000
1232.884033 6004.000000
1234.636841 5808.000000
1236.388672 5961.000000
1238.139648 5977.000000
1239.889282 4920.000000
1241.638062 6941.000000
1243.385498 6529.000000
1245.132202 6615.000000
1246.877686 6499.000000
1248.622314 6412.000000
1250.365601 6703.000000
1252.107910 6671.000000
1253.849121 5346.000000
1255.589478 4954.000000
1257.328735 5744.000000
1259.066772 6562.000000
1260.803955 7083.000000
1262.539917 6120.000000
1264.274902 6356.000000
1266.008911 7269.000000
1267.741943 5941.000000
1269.473755 6227.000000
1271.204590 6408.000000
1272.934204 7276.000000
1274.662964 5882.000000
1276.390625 5643.000000
1278.117188 5551.000000
1279.842896 5588.000000
1281.567261 6449.000000
1283.290771 5232.000000
1285.013306 6818.000000
1286.734863 6607.000000
1288.455200 6052.000000
1290.174561 6710.000000
1291.892822 7280.000000
1293.610107 6428.000000
1295.326416 5718.000000
1297.041504 6353.000000
1298.755615 6169.000000
1300.468750 5717.000000
1302.181030 6492.000000
1303.892090 8293.000000
1305.602173 5262.000000
1307.311157 6247.000000
1309.018921 6667.000000
1310.726074 6988.000000
1312.431763 5767.000000
1314.136719 6788.000000
1315.840698 6155.000000
1317.543457 6014.000000
1319.245239 6592.000000
1320.946167 6003.000000
1322.645752 8977.000000
1324.344482 7280.500000
1326.042480 5584.000000
1327.739136 6492.000000
1329.434692 7106.000000
1331.129395 6831.000000
1332.822876 5729.000000
1334.515503 5393.000000
1336.207275 7392.000000
1337.897705 6260.000000
1339.587402 6579.000000
1341.276001 6098.000000
1342.963501 7590.000000
1344.650024 5624.000000
1346.335449 6712.000000
1348.019897 5907.000000
1349.703491 7272.000000
1351.385864 6444.000000
1353.067261 5924.000000
1354.747803 6516.000000
1356.427124 6651.000000
1358.105835 5912.000000
1359.783203 6613.000000
1361.459473 5788.000000
1363.134766 5588.000000
1364.809326 6603.000000
1366.482666 6465.000000
1368.155029 6799.000000
1369.826416 5180.000000
1371.496826 6780.000000
1373.166138 6151.000000
1374.834473 5706.000000
1376.501953 5970.000000
1378.168335 6416.000000
1379.833740 6141.000000
1381.498169 5818.000000
1383.161377 5893.000000
1384.823975 5688.000000
1386.485229 6377.000000
1388.145630 6566.000000
1389.804932 6380.000000
1391.463257 6514.000000
1393.120850 6813.000000
1394.777222 6483.000000
1396.432739 7001.000000
1398.087036 6353.000000
1399.740479 5788.000000
1401.392822 6119.000000
1403.044434 6442.000000
1404.694824 7151.000000
1406.344116 6243.000000
1407.992676 7448.000000
1409.640137 7827.000000
1411.286621 6144.000000
1412.932251 6203.000000
1414.576904 6043.000000
1416.220337 7029.000000
1417.862915 7106.000000
1419.504395 6848.000000
1421.145020 6443.000000
1422.784668 6447.000000
1424.423218 6074.000000
1426.060913 6572.000000
1427.697510 6313.000000
1429.333130 6035.000000
1430.968018 6271.000000
1432.601807 5852.000000
1434.234497 6173.000000
1435.866211 5615.000000
1437.497070 6082.000000
1439.126831 5987.000000
1440.755493 7772.000000
1442.383545 6042.000000
1444.010498 6194.000000
1445.636230 6232.000000
1447.261353 6226.000000
1448.885376 6537.000000
1450.508423 6068.000000
1452.130493 6061.000000
1453.751465 7289.000000
1455.371460 6260.000000
1456.990723 6883.000000
1458.608643 5672.000000
1460.225952 5633.500000
1461.842285 5595.000000
1463.457397 7264.000000
1465.071655 6338.000000
1466.685059 5148.000000
1468.297363 5638.000000
1469.908813 6230.000000
1471.519409 6376.000000
1473.128784 6013.000000
1474.737183 5944.000000
1476.344727 6196.000000
1477.951294 6732.000000
1479.557129 5312.000000
1481.161743 6299.000000
1482.765503 5449.000000
1484.368042 6733.000000
1485.969971 5564.000000
1487.570679 5492.000000
1489.170654 5647.000000
1490.769531 6207.000000
1492.367554 6518.000000
1493.964478 6697.000000
1495.560547 6300.000000
1497.155640 5994.000000
1498.749756 5458.000000
1500.343140 6544.000000
1501.935425 5494.000000
1503.526489 6181.000000
1505.117065 6737.000000
1506.706299 6401.000000
1508.294922 6152.000000
1509.882446 6544.000000
1511.468872 6938.000000
1513.054565 6170.000000
1514.639160 6599.000000
1516.222900 6249.000000
1517.805542 6149.000000
1519.387451 6576.000000
1520.968262 6601.000000
1522.548340 6083.000000
1524.127197 6170.000000
1525.705200 6398.000000
1527.282471 6292.000000
1528.858521 5682.000000
1530.433838 5890.000000
1532.008057 6197.000000
1533.581543 5436.000000
1535.153809 5845.000000
1536.725342 6384.000000
1538.295898 6405.000000
1539.865601 6374.000000
1541.434082 5445.000000
1543.001831 6559.000000
1544.568726 5684.000000
1546.134399 6779.000000
1547.699341 5944.000000
1549.263184 5027.000000
1550.826416 7506.000000
1552.388306 6281.000000
1553.949585 5931.000000
1555.509766 5668.000000
1557.069214 5699.000000
1558.627563 6028.000000
1560.185181 6298.000000
1561.741699 7035.000000
1563.296997 5833.000000
1564.851685 6335.000000
1566.405640 5620.000000
1567.958618 6276.000000
1569.510254 5666.000000
1571.061157 5906.000000
1572.611328 6219.000000
1574.160522 6372.000000
1575.708374 5785.000000
1577.255737 5465.000000
1578.802124 5693.000000
1580.347656 5055.000000
1581.892212 6605.000000
1583.435547 6370.000000
1584.978271 6595.000000
1586.520142 6442.000000
1588.060913 6690.000000
1589.600708 5830.000000
1591.139771 6652.000000
1592.677734 5938.000000
1594.215210 6057.000000
1595.751343 5972.000000
1597.286377 6673.000000
1598.820923 6148.000000
1600.354492 6036.000000
1601.887207 6063.000000
1603.418335 6264.000000
1604.949219 6279.000000
1606.479248 5680.000000
1608.008057 6125.000000
1609.535767 6102.000000
1611.062866 6000.000000
1612.589233 5814.000000
1614.114624 6200.000000
1615.639160 5826.000000
1617.162354 5780.000000
1618.684814 5628.000000
1620.206543 6552.000000
1621.727417 6917.000000
1623.246826 6567.000000
1624.765747 6217.000000
1626.283936 5996.000000
1627.801270 5921.000000
1629.317505 6342.000000
1630.832397 7053.000000
1632.346802 6759.000000
1633.860474 5721.000000
1635.373047 6795.000000
1636.884399 5948.000000
1638.395386 6470.000000
1639.905273 6267.000000
1641.414307 6163.000000
1642.921997 5642.000000
1644.429321 6060.000000
1645.935791 7101.000000
1647.441284 6199.000000
1648.945923 6823.000000
1650.449097 6132.000000
1651.951660 6580.000000
1653.453857 6250.000000
1654.954712 6647.000000
1656.454468 7587.000000
1657.953369 5921.000000
1659.451904 6505.000000
1660.949219 6220.000000
1662.445801 5943.000000
1663.940796 6434.000000
1665.435547 6318.000000
1666.929443 5226.000000
1668.422363 5568.000000
1669.913940 5970.000000
1671.405029 6372.000000
1672.895508 6096.000000
1674.384888 5925.000000
1675.872803 6989.000000
1677.360474 6840.000000
1678.847168 5957.000000
1680.333008 5332.000000
1681.817993 6091.000000
1683.301514 6219.000000
1684.784790 6168.000000
1686.267212 5831.000000
1687.748535 6232.000000
1689.228394 6167.000000
1690.708008 5470.000000
1692.186890 6588.000000
1693.664795 5935.000000
1695.141724 6144.000000
1696.617432 5774.000000
1698.092773 6028.000000
1699.566895 6328.000000
1701.040405 5459.000000
1702.512451 5517.000000
1703.984253 6901.000000
1705.455078 6368.000000
1706.925049 7040.000000
1708.393677 5150.000000
1709.861816 5795.000000
1711.329224 6346.000000
1712.795532 5452.000000
1714.261230 5724.000000
1715.725220 6220.000000
1717.189087 6015.000000
1718.652100 6944.000000
1720.114136 6356.000000
1721.574951 6580.000000
1723.035156 5464.000000
1724.494629 6171.000000
1725.953247 6132.000000
1727.410889 5973.000000
1728.867188 6212.000000
1730.323242 5948.000000
1731.778320 6486.000000
1733.232422 6033.000000
1734.685303 6827.000000
1736.137939 5977.000000
1737.589478 6853.000000
1739.040283 5921.000000
1740.490112 6627.000000
1741.938599 5974.000000
1743.386719 7342.000000
1744.833984 6554.000000
1746.280518 6638.000000
1747.725464 6695.000000
1749.170166 6221.000000
1750.614014 5781.000000
1752.057007 5448.000000
1753.498535 6553.000000
1754.939819 6394.000000
1756.380249 13759.000000
1757.819702 6230.000000
1759.258179 5249.000000
1760.695679 6087.000000
1762.132690 7573.000000
1763.568726 5867.000000
1765.003906 7172.000000
1766.437622 6150.000000
1767.871216 6426.000000
1769.303833 6614.000000
1770.735596 5722.000000
1772.166504 5724.000000
1773.596191 6376.000000
1775.025146 6172.000000
1776.453613 6260.000000
1777.881104 6721.000000
1779.307251 6261.000000
1780.733154 5577.000000
1782.157959 6876.000000
1783.582153 5533.000000
1785.004883 6627.000000
1786.427124 6514.000000
1787.848633 6846.000000
1789.269409 5757.000000
1790.689209 5947.000000
1792.107666 6166.000000
1793.525635 6876.000000
1794.942993 5469.000000
1796.359497 5978.000000
1797.774536 6534.000000
1799.189209 5881.000000
1800.603271 6557.000000
1802.016113 5967.000000
1803.428345 6924.000000
1804.839233 7112.000000
1806.249634 7746.000000
1807.659302 6439.000000
1809.067993 5955.000000
1810.475586 5321.000000
1811.882690 6424.000000
1813.288940 6345.000000
1814.694214 6643.000000
1816.098389 5938.000000
1817.502197 5934.000000
1818.905029 6213.000000
1820.307007 5974.000000
1821.708374 5871.000000
1823.108276 6372.000000
1824.507568 6488.000000
1825.906372 6583.000000
1827.304321 7409.000000
1828.700928 5751.000000
1830.096924 6745.000000
1831.492188 6000.000000
1832.886841 8070.000000
1834.280518 6075.000000
1835.672852 6798.000000
1837.064697 6394.000000
1838.455933 5904.000000
1839.846191 7085.000000
1841.235229 6019.000000
1842.623901 6016.000000
1844.011597 6045.000000
1845.398560 5769.000000
1846.784180 6927.000000
1848.169556 5815.000000
1849.554077 6405.000000
1850.937866 6334.000000
1852.320557 6386.000000
1853.702026 5387.000000
1855.083008 6523.000000
1856.463501 6302.000000
1857.843018 5728.000000
1859.221069 5956.000000
1860.598999 6302.000000
1861.975952 7822.000000
1863.352173 6108.000000
1864.727539 6108.000000
1866.101440 5633.000000
1867.475220 5705.000000
1868.848145 6160.000000
1870.219971 5940.000000
1871.590820 6844.000000
1872.961304 5415.000000
1874.330688 6062.000000
1875.699585 6056.000000
1877.066895 7128.000000
1878.434082 6048.000000
1879.800293 5990.000000
1881.165771 6736.000000
1882.530518 7508.000000
1883.893677 6840.000000
1885.256714 6889.000000
1886.618896 6345.000000
1887.980225 6420.000000
1889.340210 5617.000000
1890.699829 5756.000000
1892.058838 6135.000000
1893.416870 6666.000000
1894.774048 7297.000000
1896.130005 5958.000000
1897.485718 7573.000000
1898.840454 5770.000000
1900.194336 5524.000000
1901.547119 5915.000000
1902.899414 5905.000000
1904.250977 5927.000000
1905.601685 6848.000000
1906.951172 6545.000000
1908.300171 6686.000000
1909.648315 5791.000000
1910.995850 6134.000000
1912.342651 6337.000000
1913.687866 6798.000000
1915.032837 6037.000000
1916.377075 5442.000000
1917.720459 6525.000000
1919.062500 5967.000000
1920.404297 6736.000000
1921.745239 7058.000000
1923.085449 6213.000000
1924.424683 6287.000000
1925.762939 6298.000000
1927.100586 6488.000000
1928.437500 7021.000000
1929.773560 6735.000000
1931.108398 5622.000000
1932.442871 6664.000000
1933.776611 7304.000000
1935.109497 6210.000000
1936.440918 5726.000000
1937.772461 6312.000000
1939.102661 6645.000000
1940.432373 5800.000000
1941.761230 6053.000000
1943.088867 5845.000000
1944.416016 5017.000000
1945.742432 5935.000000
1947.068115 6448.000000
1948.392456 5755.000000
1949.716553 6682.000000
1951.039795 6294.000000
1952.362305 6443.000000
1953.683716 5773.000000
1955.004150 7411.000000
1956.323975 5985.000000
1957.643433 5501.000000
1958.961914 6854.000000
1960.279053 5830.000000
1961.595825 5867.000000
1962.911865 6478.000000
1964.227173 6587.000000
1965.541016 6304.000000
1966.854614 5729.000000
1968.167480 6234.000000
1969.479492 5989.000000
1970.790894 6014.000000
1972.100952 6292.000000
1973.410522 5802.000000
1974.719360 6120.000000
1976.027588 6630.000000
1977.334473 6040.000000
1978.640747 7256.000000
1979.946655 5497.000000
1981.251343 6344.000000
1982.555542 5925.000000
1983.858521 5616.000000
1985.161133 7592.000000
1986.462769 6095.000000
1987.763794 6784.000000
1989.063232 6082.000000
1990.362793 6581.000000
1991.661255 5165.000000
1992.959229 6055.000000
1994.255615 6129.000000
1995.552002 5736.000000
1996.847412 5507.000000
1998.142090 6458.000000
1999.435913 5686.000000
2000.728516 6550.000000
2002.020630 5780.000000
2003.312256 7143.000000
2004.603149 6437.000000
2005.892456 6201.000000
2007.181519 6832.000000
2008.469849 6000.000000
2009.757446 6010.000000
2011.044189 6627.000000
2012.329834 5610.000000
2013.615112 6381.000000
2014.899414 5997.000000
2016.183105 5609.000000
2017.465454 6014.000000
2018.747437 6489.000000
2020.028931 6754.000000
2021.309448 5823.000000
2022.589233 6135.000000
2023.867920 6732.000000
2025.145874 5799.000000
2026.423340 5889.000000
2027.700195 6263.000000
2028.975342 5747.000000
2030.250610 6540.000000
2031.524902 6050.000000
2032.798218 5954.000000
2034.070679 5979.000000
2035.342773 6106.000000
2036.613770 6964.000000
2037.884521 6569.000000
2039.153931 6049.000000
2040.422241 6731.000000
2041.690552 6648.000000
2042.957886 5897.000000
2044.224487 5982.000000
2045.489868 5574.000000
2046.754639 5867.000000
2048.019043 5432.000000
2049.282471 5907.000000
2050.545410 6421.000000
2051.806396 6141.000000
2053.067871 6091.000000
2054.328125 5877.000000
2055.587646 6458.000000
2056.846436 6263.000000
2058.104248 6883.000000
2059.361572 6222.000000
2060.618164 5967.000000
2061.873291 6536.000000
2063.128418 5655.000000
2064.382568 5626.000000
2065.635986 5692.000000
2066.888672 6790.000000
2068.140137 6201.000000
2069.391357 6226.000000
2070.641846 5596.000000
2071.891602 5401.000000
2073.139893 6149.000000
2074.388184 6562.000000
2075.635498 7412.000000
2076.882080 5564.000000
2078.127930 6022.000000
2079.372559 6911.000000
2080.616699 7612.000000
2081.860352 5488.000000
2083.103027 6077.000000
2084.344482 6896.000000
2085.585693 5962.000000
2086.826416 6288.000000
2088.066162 6752.000000
2089.304688 7054.000000
2090.542725 6145.000000
2091.780029 5788.000000
2093.017090 6617.000000
2094.252686 6065.000000
2095.487549 6209.000000
2096.722168 6066.000000
2097.955811 5596.000000
2099.188477 6047.000000
2100.420410 6907.000000
2101.651855 6339.000000
2102.882324 6757.000000
2104.112061 6029.000000
2105.341553 6018.000000
2106.569092 5962.000000
2107.796875 5914.000000
2109.023926 6267.000000
2110.250000 5438.000000
2111.474609 6457.000000
2112.699463 6932.000000
2113.923096 7080.000000
2115.146240 6262.000000
2116.368164 7525.000000
2117.589844 6023.000000
2118.810547 6813.000000
2120.030518 6032.000000
2121.250000 6117.000000
2122.468018 6606.000000
2123.686035 6954.000000
2124.903076 5739.000000
2126.119629 5760.000000
2127.334473 6543.000000
2128.549561 6328.000000
2129.763672 6816.000000
2130.977051 5723.000000
2132.189697 6160.000000
2133.400879 5826.000000
2134.612305 6509.000000
2135.822510 6797.000000
2137.032227 5887.000000
2138.240479 6144.000000
2139.448730 5605.000000
2140.656250 5930.000000
2141.862549 7694.000000
2143.068115 5870.000000
2144.273438 5645.000000
2145.477783 5551.000000
2146.681396 6308.000000
2147.884521 6205.000000
2149.086182 6469.000000
2150.287598 5355.000000
2151.488281 6235.000000
2152.688232 5964.000000
2153.886963 5922.000000
2155.085449 6967.000000
2156.283447 6115.000000
2157.480469 5946.000000
2158.676758 5136.000000
2159.871826 5220.000000
2161.066650 6166.000000
2162.260742 5623.000000
2163.453857 6049.000000
2164.645996 6844.000000
2165.837891 5797.000000
2167.029053 6281.000000
2168.219238 6303.000000
2169.408691 6527.000000
2170.597656 6812.000000
2171.785645 6202.000000
2172.973389 5746.000000
2174.159668 5922.000000
2175.345215 6562.000000
2176.530518 5989.000000
2177.715332 5820.000000
2178.898926 6420.000000
2180.081787 7525.000000
2181.263672 6328.000000
2182.445313 5903.000000
2183.626465 6508.000000
2184.806396 5680.000000
2185.985352 5607.000000
2187.163818 6341.000000
2188.342041 6819.000000
2189.519043 7160.000000
2190.695068 6760.000000
2191.870850 6083.000000
2193.046143 5570.000000
2194.219971 6659.000000
2195.393311 6173.000000
2196.566406 6148.000000
2197.738281 6391.000000
2198.909668 7025.000000
2200.080566 6219.000000
2201.249756 6926.000000
2202.418945 7496.000000
2203.587646 6334.000000
2204.755371 5903.000000
2205.922119 5674.000000
2207.088135 7145.000000
2208.253662 6604.000000
2209.418945 5972.000000
2210.582764 6758.000000
2211.746094 5460.000000
2212.908203 6175.000000
2214.070557 6205.000000
2215.231689 6668.000000
2216.391846 6721.000000
2217.551514 6265.000000
2218.710938 6591.000000
2219.869141 6330.000000
2221.026367 6293.000000
2222.183350 6774.000000
2223.339600 6574.000000
2224.495117 6715.000000
2225.649902 6269.000000
2226.803711 6362.000000
2227.956543 6169.000000
2229.109863 6953.000000
2230.261230 6183.000000
2231.412354 6162.000000
2232.562744 6516.000000
2233.712646 7695.000000
2234.861572 6371.000000
2236.010010 5202.000000
2237.156982 6452.000000
2238.304199 7064.000000
2239.450195 6051.000000
2240.595947 7247.000000
2241.739990 7332.000000
2242.884277 6697.000000
2244.027588 6124.000000
2245.170166 5998.000000
2246.311768 5759.000000
2247.453125 5852.000000
2248.593506 6415.000000
2249.733154 6381.000000
2250.872314 5785.000000
2252.010254 5754.000000
2253.148193 6161.000000
2254.285156 5275.000000
2255.421387 6319.000000
2256.556641 6111.000000
2257.691162 7257.000000
2258.825439 6395.000000
2259.959229 5382.000000
2261.091553 6102.000000
2262.223389 6767.000000
2263.354736 6290.000000
2264.485107 6415.000000
2265.615234 8032.000000
2266.744141 6685.000000
2267.872559 6071.000000
2269.000488 5504.000000
2270.127441 6110.000000
2271.253662 5917.000000
2272.378906 6703.000000
2273.504150 6523.000000
2274.628662 6489.000000
2275.751953 5908.000000
2276.874512 6427.000000
2277.996582 5967.000000
2279.118164 7458.000000
2280.239014 6426.000000
2281.358643 6401.000000
2282.477783 7130.000000
2283.596680 7638.000000
2284.714844 7225.000000
2285.832031 5904.000000
2286.948242 6426.000000
2288.064209 6984.000000
2289.179443 6869.000000
2290.293945 7358.000000
2291.407227 5745.000000
2292.520508 6325.000000
2293.633057 5977.000000
2294.744873 5347.000000
2295.855957 6725.000000
2296.965820 6386.000000
2298.075195 6158.000000
2299.184326 6647.000000
2300.292480 6326.000000
2301.399658 6854.000000
2302.506592 5881.000000
2303.612793 6229.000000
2304.718506 6630.000000
2305.822754 6549.000000
2306.926758 5464.000000
2308.030273 5727.000000
2309.133301 6551.000000
2310.235107 7357.000000
2311.336182 7302.000000
2312.436768 6509.000000
2313.536865 5542.000000
2314.636230 6339.000000
2315.734131 6526.000000
2316.832520 6996.000000
2317.929443 8246.000000
2319.026123 6888.000000
2320.122314 5798.000000
2321.216797 6892.000000
2322.311279 7588.000000
2323.405029 5836.000000
2324.498535 6025.000000
2325.590332 6453.000000
2326.682129 6816.000000
2327.773193 6084.000000
2328.863525 6256.000000
2329.952881 6902.000000
2331.042236 6062.000000
2332.130371 6297.000000
2333.218018 6828.000000
2334.305420 6529.000000
2335.391113 6709.000000
2336.476563 7712.000000
2337.561768 6311.000000
2338.645996 6748.000000
2339.729248 5950.000000
2340.812256 6382.000000
2341.894287 7048.000000
2342.976074 6055.000000
2344.057129 7461.000000
2345.136963 6685.000000
2346.216309 5716.000000
2347.295166 6764.000000
2348.373535 6518.000000
2349.450439 6303.000000
2350.527100 7011.000000
2351.603516 6016.000000
2352.678955 6445.000000
2353.753418 5916.000000
2354.827637 6335.000000
2355.901123 6766.000000
2356.974121 6261.000000
2358.045898 7026.000000
2359.117432 6236.000000
2360.187988 6794.000000
2361.258301 7528.000000
2362.327637 7594.000000
2363.395996 6849.000000
2364.464111 6740.000000
2365.531494 7021.000000
2366.598389 7140.000000
2367.664551 6013.000000
2368.729492 6870.000000
2369.794434 6968.000000
2370.858643 6311.000000
2371.922119 6888.000000
2372.984375 5875.000000
2374.046631 6256.000000
2375.107910 6357.000000
2376.168945 5895.000000
2377.228760 6280.000000
2378.287842 7890.000000
2379.346924 6421.000000
2380.405029 7703.000000
2381.462402 6870.000000
2382.518799 7992.000000
2383.574951 7781.000000
2384.630615 6251.000000
2385.685547 7043.000000
2386.739014 6776.000000
2387.792725 6468.000000
2388.845459 6310.000000
2389.897705 6614.000000
2390.949219 6127.000000
2391.999756 6624.000000
2393.050049 6509.000000
2394.099365 6205.000000
2395.148682 6193.000000
2396.196533 6938.000000
2397.243896 6909.000000
2398.291016 6218.000000
2399.337158 6702.000000
2400.382568 6142.000000
2401.427246 6712.000000
2402.471924 7734.000000
2403.515137 7477.000000
2404.558350 6561.000000
2405.600098 5788.000000
2406.642090 6697.000000
2407.683350 7128.000000
2408.723633 6143.000000
2409.763184 6371.000000
2410.801758 6304.000000
2411.840576 6067.000000
2412.878174 6476.000000
2413.915527 6903.000000
2414.951660 7354.000000
2415.987549 6245.000000
2417.022705 6295.000000
2418.057373 6849.000000
2419.090576 7251.000000
2420.124023 6509.000000
2421.156494 6651.000000
2422.188721 6822.000000
2423.219482 7091.000000
2424.250244 6378.000000
2425.280518 6811.000000
2426.309570 6798.000000
2427.338623 6693.000000
2428.365967 7366.000000
2429.393799 6684.000000
2430.420410 7235.000000
2431.446777 6961.000000
2432.471680 7714.000000
2433.496826 6548.000000
2434.520996 7073.000000
2435.544922 6722.000000
2436.567627 5839.000000
2437.589600 6289.000000
2438.611328 6633.000000
2439.632324 6703.000000
2440.652832 6016.000000
2441.672119 6583.000000
2442.691406 6527.000000
2443.709717 8474.000000
2444.727783 6299.000000
2445.744385 6429.000000
2446.760986 6570.000000
2447.776855 5978.000000
2448.792725 6969.000000
2449.807129 6815.000000
2450.820801 5598.000000
2451.833984 7212.000000
2452.846924 5917.000000
2453.859131 7195.000000
2454.870361 6703.000000
2455.881348 7717.000000
2456.891602 6409.000000
2457.901367 7606.000000
2458.910156 5858.000000
2459.918213 5883.000000
2460.926270 6307.000000
2461.933105 7342.000000
2462.939697 5413.000000
2463.945068 7357.000000
2464.950195 6870.000000
2465.955078 5850.000000
2466.958740 6457.000000
2467.962158 6358.000000
2468.964600 7611.000000
2469.966797 7325.000000
2470.968506 6844.000000
2471.969238 6586.000000
2472.968994 6972.000000
2473.968750 6722.000000
2474.967529 5666.000000
2475.965820 6569.000000
2476.963135 7005.000000
2477.960205 6120.000000
2478.957275 6941.000000
2479.952881 5825.000000
2480.948486 7086.000000
2481.942383 6647.000000
2482.936279 8092.000000
2483.929688 6883.000000
2484.922607 6835.000000
2485.914551 7468.000000
2486.905762 7214.000000
2487.896729 6745.000000
2488.887207 5810.000000
2489.876709 6499.000000
2490.865479 6508.000000
2491.854248 5676.000000
2492.842041 6810.000000
2493.828613 6572.000000
2494.815186 7946.000000
2495.801270 6781.000000
2496.786621 7057.000000
2497.770996 8033.000000
2498.755127 5992.000000
2499.739258 6900.000000
2500.721924 5787.000000
2501.704102 7082.000000
2502.685791 6867.000000
2503.666748 7281.000000
2504.647217 6500.000000
2505.627441 5698.000000
2506.606201 6301.000000
2507.584717 7535.000000
2508.562744 6722.000000
2509.540283 7121.000000
2510.516846 6080.000000
2511.493164 5979.000000
2512.468750 6479.000000
2513.443848 6269.000000
2514.418457 6415.000000
2515.391846 7660.000000
2516.364990 6806.000000
2517.337891 6890.000000
2518.309814 6143.000000
2519.281006 6767.000000
2520.251709 6960.000000
2521.222168 7825.000000
2522.191895 8017.000000
2523.160645 6075.000000
2524.128662 6118.000000
2525.096680 7689.000000
2526.063721 6286.000000
2527.030518 5570.000000
2527.996094 7251.000000
2528.961670 6973.000000
2529.926514 7675.000000
2530.890869 6329.000000
2531.854004 6329.000000
2532.817383 5866.000000
2533.779785 5975.000000
2534.741943 6670.000000
2535.702881 6346.000000
2536.663086 6091.000000
2537.623535 6144.000000
2538.583008 6766.000000
2539.541748 6836.000000
2540.499512 6681.000000
2541.457520 6215.000000
2542.414795 6760.000000
2543.371094 6093.000000
2544.327148 7028.000000
2545.281982 6226.000000
2546.237061 7755.000000
2547.191406 7000.000000
2548.145020 6891.000000
2549.097656 7229.000000
2550.050049 6645.000000
2551.001953 6922.000000
2551.953125 6441.000000
2552.903564 7635.000000
2553.853516 7222.000000
2554.803223 7359.000000
2555.752197 6617.000000
2556.700684 6215.000000
2557.647949 7123.000000
2558.595215 6292.000000
2559.541748 6558.000000
2560.487793 6699.000000
2561.432861 7355.000000
2562.377686 6679.000000
2563.322021 7144.000000
2564.265869 6861.000000
2565.209229 6687.000000
2566.151123 6575.000000
2567.093262 6547.000000
2568.034668 6168.000000
2568.975342 7210.000000
2569.915283 7231.000000
2570.855225 5643.000000
2571.794189 6146.000000
2572.732910 7485.000000
2573.670654 7205.000000
2574.608154 5459.000000
2575.544922 6927.000000
2576.480957 6805.000000
2577.416504 7534.000000
2578.351318 6399.000000
2579.286133 5927.000000
2580.219971 7070.000000
2581.153320 7179.000000
2582.085938 5856.000000
2583.018311 6955.000000
2583.949951 5455.000000
2584.881104 7032.000000
2585.811768 6999.000000
2586.741211 6840.000000
2587.670654 7262.000000
2588.599609 6475.000000
2589.528320 7608.000000
2590.455322 7334.000000
2591.382568 5852.000000
2592.309326 6797.000000
2593.235352 6334.000000
2594.161133 5636.000000
2595.085693 7632.000000
2596.010010 7640.000000
2596.933838 5334.000000
2597.857178 7312.000000
2598.779541 6216.000000
2599.701660 6768.000000
2600.623291 8385.000000
2601.544189 6388.000000
2602.464355 5772.000000
2603.384277 6352.000000
2604.303711 6368.000000
2605.222900 6431.000000
2606.141113 5860.000000
2607.058105 6020.000000
2607.975342 7232.000000
2608.892334 5844.000000
2609.808350 7583.000000
2610.723145 6573.000000
2611.638428 6648.000000
2612.552979 6580.000000
2613.466553 6528.000000
2614.380127 6131.000000
2615.292480 7594.000000
2616.204834 7113.000000
2617.116211 6788.000000
2618.027344 5689.000000
2618.937744 7230.000000
2619.847900 6593.000000
2620.757324 6142.000000
2621.666260 6645.000000
2622.574219 6250.000000
2623.482422 6796.000000
2624.389648 6630.000000
2625.296387 7041.000000
2626.202393 5963.000000
2627.108154 6597.000000
2628.013184 6489.000000
2628.917969 7792.000000
2629.822021 6502.000000
2630.725098 6410.000000
2631.628174 6427.000000
2632.530273 5666.000000
2633.432373 6732.000000
2634.334229 6988.000000
2635.234375 6761.000000
2636.134766 6367.000000
2637.034424 6428.000000
2637.933838 5996.000000
2638.831787 6829.000000
2639.730225 6623.000000
2640.628174 6390.000000
2641.525391 6088.000000
2642.421387 6137.000000
2643.317383 6763.000000
2644.213135 6082.000000
2645.108154 6464.000000
2646.002930 6684.000000
2646.896240 7107.000000
2647.789551 6318.000000
2648.682617 6796.000000
2649.575439 6433.000000
2650.466553 7484.000000
2651.357910 6379.000000
2652.248779 7632.000000
2653.138916 7357.000000
2654.028809 6567.000000
2654.917480 7361.000000
2655.806396 6622.000000
2656.694824 6612.000000
2657.582275 7323.000000
2658.468750 6486.000000
2659.355713 7075.000000
2660.241943 6820.000000
2661.127686 6780.000000
2662.012207 6487.000000
2662.896729 6377.000000
2663.781006 6143.000000
2664.664551 7085.000000
2665.547607 7733.000000
2666.429932 7322.000000
2667.311768 6230.000000
2668.192871 6542.000000
2669.074219 6102.000000
2669.954102 6543.000000
2670.834229 7393.000000
2671.713623 7220.000000
2672.593018 6376.000000
2673.471680 6149.000000
2674.348633 6487.000000
2675.226318 6730.000000
2676.103271 6341.000000
2676.979492 8089.000000
2677.855225 7135.000000
2678.730225 6258.000000
2679.605469 7673.000000
2680.479736 6906.000000
2681.353516 7314.000000
2682.226563 7014.000000
2683.099365 6169.000000
2683.971924 6126.000000
2684.843750 6980.000000
2685.714844 6557.000000
2686.585693 6888.000000
2687.456055 7138.000000
2688.326172 6672.000000
2689.194580 6297.000000
2690.063721 7407.000000
2690.932129 7097.000000
2691.800293 6681.000000
2692.667725 6965.000000
2693.533936 5834.000000
2694.400635 7122.000000
2695.266357 7411.000000
2696.132080 7254.000000
2696.996338 7871.000000
2697.861328 6573.000000
2698.724854 7224.000000
2699.588623 5847.000000
2700.450928 7380.000000
2701.313721 6746.000000
2702.175537 5922.000000
2703.036865 6889.000000
2703.898193 6687.000000
2704.758301 7432.000000
2705.618408 7336.000000
2706.478027 6584.000000
2707.337402 6810.000000
2708.195068 7123.000000
2709.052979 6837.000000
2709.911377 7333.000000
2710.768555 6793.000000
2711.625000 5973.000000
2712.480957 6855.000000
2713.336914 6063.000000
2714.192139 6899.000000
2715.046631 6130.000000
2715.900635 6822.000000
2716.754639 7279.000000
2717.607666 6227.000000
2718.460938 6650.000000
2719.312500 7781.000000
2720.164551 6748.000000
2721.016357 6286.000000
2721.866943 6482.000000
2722.717529 6725.000000
2723.567627 7075.000000
2724.416992 7016.000000
2725.266357 6989.000000
2726.114502 6644.000000
2726.962158 6527.000000
2727.810303 6982.000000
2728.657227 6837.000000
2729.504639 5579.000000
2730.350586 7440.000000
2731.195801 6967.000000
2732.041504 6469.000000
2732.886230 6926.000000
2733.730957 7295.000000
2734.574463 6937.000000
2735.418213 7774.000000
2736.261230 7062.000000
2737.103760 6016.000000
2737.945313 6226.000000
2738.787354 6802.000000
2739.628418 6909.000000
2740.469238 5836.000000
2741.309814 5913.000000
2742.149170 7812.000000
2742.988525 6837.000000
2743.827881 6959.000000
2744.666016 6796.000000
2745.503662 7838.000000
2746.341309 6293.000000
2747.178467 7147.000000
2748.015381 6154.000000
2748.851807 5996.000000
2749.687012 6613.000000
2750.522461 6298.000000
2751.357422 6295.000000
2752.191650 6189.000000
2753.025635 6916.000000
2753.859131 6882.000000
2754.692627 7921.000000
2755.525146 6762.000000
2756.357178 7263.000000
2757.188721 6788.000000
2758.020264 7069.000000
2758.850830 7278.000000
2759.681641 7233.000000
2760.511230 7247.000000
2761.340820 6673.000000
2762.170166 7243.000000
2762.998779 6848.000000
2763.826904 6831.000000
2764.654541 6811.000000
2765.482178 6631.000000
2766.309326 7838.000000
2767.135742 5773.000000
2767.961670 7503.000000
2768.787109 6875.000000
2769.612305 7818.000000
2770.437500 7085.000000
2771.261475 6798.000000
2772.085449 6450.000000
2772.909424 7691.000000
2773.732178 6633.000000
2774.555176 6951.000000
2775.376953 6845.000000
2776.198730 6992.000000
2777.020508 6539.000000
2777.841309 8046.000000
2778.661377 6582.000000
2779.481689 6934.000000
2780.301514 7300.000000
2781.121338 6462.000000
2781.939209 5960.000000
2782.758301 8000.000000
2783.576172 6557.000000
2784.393799 6744.000000
2785.210938 7180.000000
2786.027588 7257.000000
2786.843994 7161.000000
2787.659912 6262.000000
2788.475586 5945.000000
2789.290283 6357.000000
2790.105469 6991.000000
2790.919922 7183.000000
2791.733887 6572.000000
2792.547607 7430.000000
2793.360107 8795.000000
2794.172852 6990.000000
2794.985107 7438.000000
2795.796875 7233.000000
2796.607910 7317.000000
2797.419678 6502.000000
2798.230225 7240.000000
2799.040771 6988.000000
2799.849854 7371.000000
2800.659668 8191.000000
2801.468750 7749.000000
2802.277588 6708.000000
2803.085938 7088.000000
2803.893311 6163.000000
2804.701172 6399.000000
2805.508301 6815.000000
2806.315186 7013.000000
2807.120850 7285.000000
2807.927002 6638.000000
2808.732422 6483.000000
2809.537842 7319.000000
2810.342529 6198.000000
2811.146240 7655.000000
2811.950439 7552.000000
2812.754150 6251.000000
2813.557617 6051.000000
2814.359619 6365.000000
2815.162354 7354.000000
2815.964355 7805.000000
2816.766113 6043.000000
2817.567383 6535.000000
2818.368164 7270.000000
2819.168457 6508.000000
2819.968994 6823.000000
2820.768555 8030.000000
2821.567627 7162.000000
2822.366699 6456.000000
2823.165527 6841.000000
2823.963867 6314.000000
2824.761230 6968.000000
2825.558838 7417.000000
2826.355713 6668.000000
2827.152832 7430.000000
2827.949219 7896.000000
2828.744873 6968.000000
2829.540527 7390.000000
2830.335938 7669.000000
2831.130859 7420.000000
2831.925049 6629.000000
2832.719238 6781.000000
2833.513184 5648.000000
2834.306641 6875.000000
2835.099365 7148.000000
2835.891846 8194.000000
2836.684326 7635.000000
2837.476563 7500.000000
2838.268311 6483.000000
2839.059082 6732.000000
2839.849854 8868.000000
2840.640869 7478.000000
2841.430908 6233.000000
2842.220459 7687.000000
2843.010254 7136.000000
2843.799072 7352.000000
2844.587891 7792.000000
2845.376709 7726.000000
2846.164551 7483.000000
2846.951904 7209.000000
2847.739502 7517.000000
2848.526611 7352.000000
2849.312988 6660.000000
2850.099365 7471.000000
2850.885498 7247.000000
2851.671143 7526.000000
2852.455811 7141.000000
2853.240967 6848.000000
2854.025879 7430.000000
2854.810059 7118.000000
2855.594238 6909.000000
2856.377197 8238.000000
2857.160400 6813.000000
2857.943359 6785.000000
2858.725830 7685.000000
2859.508057 6250.000000
2860.289795 6628.000000
2861.071289 7603.000000
2861.853027 7430.000000
2862.634033 7635.000000
2863.414307 6568.000000
2864.194336 6737.000000
2864.974365 8226.000000
2865.754150 7440.000000
2866.532959 8131.000000
2867.312012 7704.000000
2868.090576 6799.000000
2868.868896 6988.000000
2869.646729 7220.000000
2870.424316 6887.000000
2871.201660 7445.000000
2871.978760 6954.000000
2872.755371 6432.000000
2873.531494 7392.000000
2874.307617 7135.000000
2875.083252 8270.000000
2875.858643 7217.000000
2876.633545 6637.000000
2877.408203 7984.000000
2878.182861 6643.000000
2878.957275 7780.000000
2879.730957 6771.000000
2880.503906 7195.000000
2881.277588 6693.000000
2882.050293 7635.000000
2882.822998 7876.000000
2883.594971 8195.000000
2884.366699 6174.000000
2885.138916 6799.000000
2885.909912 6799.000000
2886.680420 6157.000000
2887.451416 8331.000000
2888.222412 7352.000000
2888.992676 7942.000000
2889.761963 7723.000000
2890.531494 6966.000000
2891.301025 7259.000000
2892.070068 7324.000000
2892.838623 7877.000000
2893.607178 7655.000000
2894.374756 6949.000000
2895.142822 6599.000000
2895.910400 7409.000000
2896.677979 8422.000000
2897.444336 7415.000000
2898.211670 6458.000000
2898.977783 7150.000000
2899.744141 6959.000000
2900.509033 8276.000000
2901.274414 6994.000000
2902.040283 6492.000000
2902.804688 7768.000000
2903.569092 7703.000000
2904.333740 8484.000000
2905.097412 6568.000000
2905.861816 8481.000000
2906.625488 6692.000000
2907.388428 8363.000000
2908.151123 6560.000000
2908.914307 9248.000000
2909.677002 6870.000000
2910.438477 6892.000000
2911.200439 6892.000000
