scanname Analyse027
timestamp 2017-02-10 20:32:55
ccdbias 903.715820
ccdgain 3.473401
sigmaread 8.960639
laserwavenum -0.913894
wavenumcorrection -0.390930
scancount 1
totalexposurems 10000
singleexposurems 10000
measurementstate Unknown
scanmode Manual
snr 129.830719 1.724025 1.135248
replacelist 1
671 25169.000000 9926.000000
peaks 6
392.078339 0.358403 0.000000 0.295355 0.000031
807.849121 0.316710 0.000000 0.376433 0.000020
877.664490 0.310658 0.000000 0.316804 0.000070
1315.650024 0.267661 0.000000 9.999262 0.002021
1335.167480 0.265252 0.000000 6.986565 0.001065
2329.445068 0.106474 0.000000 0.124150 0.000141
finalresult GLS_NotPositive 7
A6025	2-Nitrothiophene	2.623693e-003
A8797	6-Nitroindoline	5.300121e-004
A5797	5-Nitroindazole	4.384892e-004
A3222	Potassium nitrite	2.812928e-004
A14252	2-Methyl-5-nitrophenol	2.542026e-004
A9370	1,2-(Methylenedioxy)-4-nitrobenzene	1.874338e-004
A8415	2-Chloro-6-methoxy-3-nitropyridine	1.076250e-004
spectrum 2048
-96.687561 46118.000000
-94.060692 46118.000000
-91.435699 46490.000000
-88.812599 46430.000000
-86.191368 47175.000000
-83.572037 46811.000000
-80.954567 47176.000000
-78.338974 46819.000000
-75.725258 47165.000000
-73.113419 47431.000000
-70.503441 47277.000000
-67.895348 47473.000000
-65.289101 47531.000000
-62.684731 47441.000000
-60.082222 47363.000000
-57.481567 47941.000000
-54.882774 47334.000000
-52.285839 46626.000000
-49.690758 46955.000000
-47.097530 46894.000000
-44.506153 47191.000000
-41.916622 46704.000000
-39.328934 47511.000000
-36.743095 47430.000000
-34.159100 46991.000000
-31.576941 47695.000000
-28.996628 47120.000000
-26.418142 47753.000000
-23.841499 47243.000000
-21.266682 47191.000000
-18.693705 46838.000000
-16.122547 46811.000000
-13.553224 46542.000000
-10.985725 45471.000000
-8.420046 46962.000000
-5.856192 46753.000000
-3.294151 47158.000000
-0.733935 47311.000000
1.824473 46758.000000
4.381060 46045.000000
6.935842 46286.000000
9.488807 46724.000000
12.039971 45939.000000
14.589323 46025.000000
17.136879 45534.000000
19.682623 45716.000000
22.226574 45237.000000
24.768721 43135.000000
27.309071 41006.000000
29.847635 37628.000000
32.384403 33052.000000
34.919369 26734.000000
37.452557 15179.000000
39.983963 9743.000000
42.513577 8691.000000
45.041393 8069.000000
47.567451 7060.000000
50.091721 6039.000000
52.614220 5534.000000
55.134922 5266.000000
57.653870 5582.000000
60.171043 7176.000000
62.686440 8647.000000
65.200058 9668.000000
67.711922 9373.000000
70.222038 7061.000000
72.730362 4764.000000
75.236931 4350.000000
77.741753 3496.000000
80.244820 2586.000000
82.746109 2246.000000
85.245659 2149.000000
87.743454 2075.000000
90.239517 2400.000000
92.733803 3003.000000
95.226349 3227.000000
97.717178 3034.000000
100.206238 3326.000000
102.693550 2644.000000
105.179138 1873.000000
107.662987 1565.000000
110.145088 1520.000000
112.625465 1324.000000
115.104118 1195.000000
117.581047 1242.000000
120.056221 1142.000000
122.529686 1203.000000
125.001419 1203.000000
127.471443 1178.000000
129.939713 1212.000000
132.406311 1244.000000
134.871155 1434.000000
137.334305 1470.000000
139.795715 1696.000000
142.255432 1992.000000
144.713425 2408.000000
147.169724 2875.000000
149.624313 3325.000000
152.077179 3968.000000
154.528366 4724.000000
156.977859 5752.000000
159.425629 6706.000000
161.871689 7894.000000
164.316071 8856.000000
166.758774 9987.000000
169.199783 10665.000000
171.639084 11392.000000
174.076675 11717.000000
176.512634 12100.000000
178.946854 12234.000000
181.379395 12437.000000
183.810287 12505.000000
186.239456 12513.000000
188.666977 12447.000000
191.092819 12655.000000
193.516983 12743.000000
195.939484 12801.000000
198.360291 12943.000000
200.779434 13237.000000
203.196915 13651.000000
205.612701 14001.000000
208.026840 14910.000000
210.439346 15382.000000
212.850174 16369.000000
215.259323 17290.000000
217.666840 18270.000000
220.072647 19523.000000
222.476868 20588.000000
224.879379 21534.000000
227.280273 22088.000000
229.679520 22847.000000
232.077103 23010.000000
234.473022 22941.000000
236.867325 23273.000000
239.259964 23792.000000
241.650986 23530.000000
244.040344 23616.000000
246.428085 23859.000000
248.814178 23507.000000
251.198639 24307.000000
253.581451 23132.000000
255.962692 23780.000000
258.342224 23746.000000
260.720184 23949.000000
263.096466 23509.000000
265.471191 23509.000000
267.844269 23035.000000
270.215698 23711.000000
272.585480 23414.000000
274.953705 23709.000000
277.320282 23599.000000
279.685272 23383.000000
282.048645 23823.000000
284.410370 23717.000000
286.770508 23063.000000
289.129028 23534.000000
291.485962 23289.000000
293.841278 23378.000000
296.195007 23533.000000
298.547089 23491.000000
300.897614 23392.000000
303.246552 23373.000000
305.593842 23212.000000
307.939606 23213.000000
310.283691 23470.000000
312.626251 23036.000000
314.967194 22871.000000
317.306519 22952.000000
319.644287 23213.000000
321.980499 22380.000000
324.315063 23059.000000
326.648071 22822.000000
328.979523 22985.000000
331.309387 22775.000000
333.637665 22963.000000
335.964325 22470.000000
338.289490 22704.000000
340.613037 22678.000000
342.935028 22999.000000
345.255463 22363.000000
347.574280 22092.000000
349.891541 22496.000000
352.207275 22657.000000
354.521423 22253.000000
356.833984 22521.000000
359.144989 22607.000000
361.454468 22224.000000
363.762421 22441.000000
366.068756 22630.000000
368.373505 22450.000000
370.676788 22509.000000
372.978455 22573.000000
375.278625 22514.000000
377.577240 22336.000000
379.874298 22407.000000
382.169800 22599.000000
384.463776 22638.000000
386.756165 22852.000000
389.047058 22788.000000
391.336426 22853.000000
393.624207 23114.000000
395.910461 23096.000000
398.195221 22961.000000
400.478363 23335.000000
402.760071 23079.000000
405.040253 23197.000000
407.318848 22645.000000
409.595917 22894.000000
411.871460 22818.000000
414.145477 22750.000000
416.418060 22657.000000
418.689026 22842.000000
420.958496 22725.000000
423.226471 22607.000000
425.492889 22308.000000
427.757813 22478.000000
430.021271 22448.000000
432.283142 22254.000000
434.543549 22354.000000
436.802399 22165.000000
439.059784 22305.000000
441.315674 22268.000000
443.570068 22079.000000
445.822937 22269.000000
448.074249 21855.000000
450.324158 21871.000000
452.572479 21561.000000
454.819366 21802.000000
457.064789 21482.000000
459.308655 21482.000000
461.551025 21375.000000
463.791901 21669.000000
466.031372 21392.000000
468.269257 21627.000000
470.505707 21613.000000
472.740631 21549.000000
474.974091 21171.000000
477.206116 21268.000000
479.436615 21358.000000
481.665619 21101.000000
483.893158 21186.000000
486.119202 21262.000000
488.343811 20947.000000
490.566956 21172.000000
492.788635 21097.000000
495.008759 21160.000000
497.227478 21428.000000
499.444702 21386.000000
501.660553 21411.000000
503.874786 21273.000000
506.087708 21401.000000
508.299042 21372.000000
510.508942 21367.000000
512.717407 21365.000000
514.924500 21434.000000
517.130005 21410.000000
519.334106 21132.000000
521.536682 21398.000000
523.737854 21407.000000
525.937683 21209.000000
528.135986 20997.000000
530.332764 21192.000000
532.528198 21157.000000
534.722107 21327.000000
536.914673 20737.000000
539.105713 20865.000000
541.295349 21099.000000
543.483582 20930.000000
545.670288 20733.000000
547.855530 20458.000000
550.039490 20246.000000
552.221863 20195.000000
554.402893 20112.000000
556.582397 20031.000000
558.760620 20024.000000
560.937317 20021.000000
563.112610 19781.000000
565.286499 19661.000000
567.458923 19670.000000
569.629944 19761.000000
571.799500 19729.000000
573.967773 19850.000000
576.134521 19773.000000
578.299805 19860.000000
580.463684 19881.000000
582.626282 19982.000000
584.787354 19788.000000
586.947021 19854.000000
589.105347 20115.000000
591.262146 20043.000000
593.417603 19945.000000
595.571655 20200.000000
597.724365 20105.000000
599.875549 20106.000000
602.025391 20058.000000
604.173889 19861.000000
606.320801 19963.000000
608.466492 20058.000000
610.610779 20084.000000
612.753601 20037.000000
614.894958 20303.000000
617.035095 20059.000000
619.173706 19800.000000
621.311035 19983.000000
623.446899 19918.000000
625.581360 19973.000000
627.714355 19687.000000
629.846191 19631.000000
631.976563 19575.000000
634.105530 19644.000000
636.233032 19295.000000
638.359253 19197.000000
640.483948 19034.000000
642.607422 19106.000000
644.729553 19116.000000
646.850220 18867.000000
648.969543 18774.000000
651.087463 18915.000000
653.204041 18843.000000
655.319214 18800.000000
657.433044 18382.000000
659.545410 18456.000000
661.656555 18578.000000
663.766296 18518.000000
665.874573 18505.000000
667.981689 18471.000000
670.087341 18375.000000
672.191528 18305.000000
674.294495 18512.000000
676.396057 18277.000000
678.496277 18614.000000
680.595093 18515.000000
682.692566 18762.000000
684.788757 18663.000000
686.883484 18725.000000
688.976990 18533.000000
691.069153 18474.000000
693.159790 18615.000000
695.249207 18729.000000
697.337341 18962.000000
699.424011 19034.000000
701.509460 18905.000000
703.593384 18863.000000
705.676086 18679.000000
707.757507 18699.000000
709.837463 18117.000000
711.916199 17679.000000
713.993469 17719.000000
716.069458 17897.000000
718.144165 17794.000000
720.217590 17662.000000
722.289490 18326.000000
724.360229 18071.000000
726.429626 17950.000000
728.497620 17719.000000
730.564270 17555.000000
732.629700 17383.000000
734.693787 17613.000000
736.756531 17656.000000
738.817932 17530.000000
740.878052 17454.000000
742.936768 17210.000000
744.994263 17213.000000
747.050476 17237.000000
749.105286 17096.000000
751.158813 17105.000000
753.210938 17072.000000
755.261841 16993.000000
757.311523 16934.000000
759.359741 17051.000000
761.406738 17050.000000
763.452454 16745.000000
765.496765 16914.000000
767.539795 17913.000000
769.581604 15139.000000
771.622070 16860.000000
773.661133 16831.000000
775.699036 16828.000000
777.735596 16946.000000
779.770935 16958.000000
781.804932 16951.000000
783.837524 16963.000000
785.868958 17425.000000
787.898987 16447.000000
789.927734 16977.000000
791.955322 17149.000000
793.981567 17245.000000
796.006409 17246.000000
798.030151 17374.000000
800.052490 17259.000000
802.073608 17485.000000
804.093384 17258.000000
806.111877 17572.000000
808.129150 17587.000000
810.145020 17363.000000
812.159729 17430.000000
814.173096 17272.000000
816.185242 17107.000000
818.196167 16883.000000
820.205750 16821.000000
822.214111 16871.000000
824.221069 16556.000000
826.226807 16461.000000
828.231323 16351.000000
830.234558 16322.000000
832.236511 16234.000000
834.237183 16312.000000
836.236633 16137.000000
838.234741 16021.000000
840.231750 16037.000000
842.227356 16196.000000
844.221802 16072.000000
846.214905 15937.000000
848.206787 15638.000000
850.197327 15667.000000
852.186584 15556.000000
854.174805 15552.000000
856.161621 15401.000000
858.147217 15291.000000
860.131531 15227.000000
862.114746 15407.000000
864.096558 15401.000000
866.077148 15406.000000
868.056458 15138.000000
870.034607 15322.000000
872.011414 15655.000000
873.986938 15522.000000
875.961426 15797.000000
877.934448 16100.000000
879.906433 16104.000000
881.877075 16047.000000
883.846558 16008.000000
885.814697 16193.000000
887.781677 15920.000000
889.747314 15865.000000
891.711792 15869.000000
893.675049 15752.000000
895.637085 15662.000000
897.597839 15533.000000
899.557373 15621.000000
901.515625 15490.000000
903.472778 15329.000000
905.428772 15468.000000
907.383362 15423.000000
909.336731 15346.000000
911.288940 15131.000000
913.239929 15314.000000
915.189636 14972.000000
917.138184 14839.000000
919.085510 14972.000000
921.031555 14805.000000
922.976318 14527.000000
924.920044 14359.000000
926.862610 14345.000000
928.803894 14003.000000
930.743835 14026.000000
932.682678 13889.000000
934.620239 13786.000000
936.556580 13914.000000
938.491760 13838.000000
940.425659 13751.000000
942.358459 13850.000000
944.290039 13868.000000
946.220459 13896.000000
948.149658 13885.000000
950.077515 13814.000000
952.004333 13807.000000
953.929871 13849.000000
955.854126 13947.000000
957.777283 13897.000000
959.699280 14084.000000
961.619995 13941.000000
963.539551 14127.000000
965.457947 14213.000000
967.375305 14303.000000
969.291199 14276.000000
971.205994 14266.000000
973.119568 14302.000000
975.031982 14455.000000
976.943176 14273.000000
978.853210 14236.000000
980.761963 14276.000000
982.669678 14247.000000
984.576172 14086.000000
986.481445 14078.000000
988.385620 13992.000000
990.288574 14080.000000
992.190308 13966.000000
994.090881 13996.000000
995.990295 13951.000000
997.888489 13964.000000
999.785522 13637.000000
1001.681335 13336.000000
1003.575989 13241.000000
1005.469543 13270.000000
1007.361816 13012.000000
1009.253174 13086.000000
1011.143188 12991.000000
1013.031982 12833.000000
1014.919617 12891.000000
1016.806091 12745.000000
1018.691406 12583.000000
1020.575562 12843.000000
1022.458496 12786.000000
1024.340454 12666.000000
1026.221069 12695.000000
1028.100586 12838.000000
1029.979126 12745.000000
1031.856323 12889.000000
1033.732178 12572.000000
1035.607056 12745.000000
1037.480957 12643.000000
1039.353394 12782.000000
1041.224854 12631.000000
1043.094971 12696.000000
1044.964111 12662.000000
1046.832031 12686.000000
1048.698853 12668.000000
1050.564575 12731.000000
1052.429077 12880.000000
1054.292480 12876.000000
1056.154541 13027.000000
1058.015625 12825.000000
1059.875610 12915.000000
1061.734253 12572.000000
1063.591797 12904.000000
1065.448242 12874.000000
1067.303589 13075.000000
1069.157715 12970.000000
1071.010986 12864.000000
1072.862793 12804.000000
1074.713623 12920.000000
1076.563232 12775.000000
1078.411621 12877.000000
1080.259155 12688.000000
1082.105347 12784.000000
1083.950317 12804.000000
1085.794434 12626.000000
1087.637207 12745.000000
1089.478760 12732.000000
1091.319580 12472.000000
1093.158813 12383.000000
1094.997314 12548.000000
1096.834473 12381.000000
1098.670410 12341.000000
1100.505371 11976.000000
1102.339111 11890.000000
1104.171875 11664.000000
1106.003296 11729.000000
1107.833862 12046.000000
1109.663086 11676.000000
1111.491333 11393.000000
1113.318359 11393.000000
1115.144409 11358.000000
1116.969238 11275.000000
1118.792969 11297.000000
1120.615479 11338.000000
1122.436890 11470.000000
1124.257446 11188.000000
1126.076538 11338.000000
1127.894775 11226.000000
1129.711670 11372.000000
1131.527710 11580.000000
1133.342529 11499.000000
1135.156250 11552.000000
1136.968872 11556.000000
1138.780273 11720.000000
1140.590698 11808.000000
1142.400024 11767.000000
1144.208008 11877.000000
1146.015259 11924.000000
1147.821045 11893.000000
1149.625977 11861.000000
1151.429810 11931.000000
1153.232422 11991.000000
1155.034180 11905.000000
1156.834473 11746.000000
1158.633789 11750.000000
1160.432129 11595.000000
1162.229126 11753.000000
1164.025391 11731.000000
1165.820313 11567.000000
1167.614136 11337.000000
1169.407104 11299.000000
1171.198730 11355.000000
1172.989380 11123.000000
1174.779053 11097.000000
1176.567261 11111.000000
1178.354614 11030.000000
1180.140869 11081.000000
1181.926025 10849.000000
1183.710083 10942.000000
1185.493042 10841.000000
1187.275024 10868.000000
1189.055786 10973.000000
1190.835571 10971.000000
1192.614258 10803.000000
1194.391968 10698.000000
1196.168457 10740.000000
1197.943848 10526.000000
1199.718140 10573.000000
1201.491333 10278.000000
1203.263672 10300.000000
1205.034668 10256.000000
1206.804810 10363.000000
1208.573730 10177.000000
1210.341553 10141.000000
1212.108521 10420.000000
1213.874146 10188.000000
1215.638794 10066.000000
1217.402344 10197.000000
1219.164795 10211.000000
1220.926392 10165.000000
1222.686768 10081.000000
1224.446045 10064.000000
1226.204468 9994.000000
1227.961670 10041.000000
1229.717773 10015.000000
1231.472778 10142.000000
1233.226929 10252.000000
1234.979736 10264.000000
1236.731567 10301.000000
1238.482544 10206.000000
1240.232178 10376.000000
1241.980957 10577.000000
1243.728394 10357.000000
1245.475098 10370.000000
1247.220581 10255.000000
1248.965210 10431.000000
1250.708496 10417.000000
1252.450806 10298.000000
1254.192017 10232.000000
1255.932373 10091.000000
1257.671631 10030.000000
1259.409668 9666.000000
1261.146851 9568.000000
1262.882813 9591.000000
1264.617798 9921.000000
1266.351807 9915.000000
1268.084839 9977.000000
1269.816650 10281.000000
1271.547485 10058.000000
1273.277100 10174.000000
1275.005859 10191.000000
1276.733521 10230.000000
1278.460083 10250.000000
1280.185791 10276.000000
1281.910156 10140.000000
1283.633667 10162.000000
1285.356201 10163.000000
1287.077759 10151.000000
1288.798096 9968.000000
1290.517456 10056.000000
1292.235718 9988.000000
1293.953003 9861.000000
1295.669312 9958.000000
1297.384399 9968.000000
1299.098511 9972.000000
1300.811646 9816.000000
1302.523926 9698.000000
1304.234985 9636.000000
1305.945068 9561.000000
1307.654053 9583.000000
1309.361816 9563.000000
1311.068970 9516.000000
1312.774658 9488.000000
1314.479614 9401.000000
1316.183594 9422.000000
1317.886353 9665.000000
1319.588135 9791.000000
1321.289063 9792.000000
1322.988647 6252.500000
1324.687378 2713.000000
1326.385376 9262.000000
1328.082031 9154.000000
1329.777588 9140.000000
1331.472290 9066.000000
1333.165771 9074.000000
1334.858398 9052.000000
1336.550171 8711.000000
1338.240601 8864.000000
1339.930298 8860.000000
1341.618896 8941.000000
1343.306396 8880.000000
1344.992920 8770.000000
1346.678345 8825.000000
1348.362793 8785.000000
1350.046387 8893.000000
1351.728760 8872.000000
1353.410156 8929.000000
1355.090698 9051.000000
1356.770020 9151.000000
1358.448730 9263.000000
1360.126099 9320.000000
1361.802368 9238.000000
1363.477661 9379.000000
1365.152222 9209.000000
1366.825562 9185.000000
1368.497925 9229.000000
1370.169312 9213.000000
1371.839722 9167.000000
1373.509033 9191.000000
1375.177368 9097.000000
1376.844849 9109.000000
1378.511230 9174.000000
1380.176636 9107.000000
1381.841064 9149.000000
1383.504272 9057.000000
1385.166870 8919.000000
1386.828125 8863.000000
1388.488525 8694.000000
1390.147827 8730.000000
1391.806152 8774.000000
1393.463745 8682.000000
1395.120117 8659.000000
1396.775635 8797.000000
1398.429932 8761.000000
1400.083374 8664.000000
1401.735718 8855.000000
1403.387329 8677.000000
1405.037720 8711.000000
1406.687012 8426.000000
1408.335571 8268.000000
1409.983032 8234.000000
1411.629517 8075.000000
1413.275146 8187.000000
1414.919800 7957.000000
1416.563232 8028.000000
1418.205811 7992.000000
1419.847290 7881.000000
1421.487915 8009.000000
1423.127563 7999.000000
1424.766113 7876.000000
1426.403809 7780.000000
1428.040405 7822.000000
1429.676025 7866.000000
1431.310913 7834.000000
1432.944702 7940.000000
1434.577393 7792.000000
1436.209106 7775.000000
1437.839966 7843.000000
1439.469727 7815.000000
1441.098389 7747.000000
1442.726440 7848.000000
1444.353394 7842.000000
1445.979126 7774.000000
1447.604248 7766.000000
1449.228271 7914.000000
1450.851318 7944.000000
1452.473389 7969.000000
1454.094360 7969.000000
1455.714355 8055.000000
1457.333618 8135.000000
1458.951538 8103.000000
1460.568848 7534.000000
1462.185181 7970.000000
1463.800293 7782.000000
1465.414551 7882.000000
1467.027954 7842.000000
1468.640259 8056.000000
1470.251709 7952.000000
1471.862305 7852.000000
1473.471680 7856.000000
1475.080078 7784.000000
1476.687622 7883.000000
1478.294189 7773.000000
1479.900024 7831.000000
1481.504639 7772.000000
1483.108398 7617.000000
1484.710938 7477.000000
1486.312866 7382.000000
1487.913574 7375.000000
1489.513550 7195.000000
1491.112427 7094.000000
1492.710449 7186.000000
1494.307373 7176.000000
1495.903442 7365.000000
1497.498535 7785.000000
1499.092651 7641.000000
1500.686035 7575.000000
1502.278320 7583.000000
1503.869385 7597.000000
1505.459961 7397.000000
1507.049194 7367.000000
1508.637817 7369.000000
1510.225342 7267.000000
1511.811768 7183.000000
1513.397461 7275.000000
1514.982056 7167.000000
1516.565796 7214.000000
1518.148438 7206.000000
1519.730347 7266.000000
1521.311157 7286.000000
1522.891235 7075.000000
1524.470093 7105.000000
1526.048096 6928.000000
1527.625366 6980.000000
1529.201416 6908.000000
1530.776733 6854.000000
1532.350952 6882.000000
1533.924438 6756.000000
1535.496704 6915.000000
1537.068237 6779.000000
1538.638794 6805.000000
1540.208496 6748.000000
1541.776978 6828.000000
1543.344727 6686.000000
1544.911621 6693.000000
1546.477295 6703.000000
1548.042236 6533.000000
1549.606079 6580.000000
1551.169312 6644.000000
1552.731201 6706.000000
1554.292480 6705.000000
1555.852661 6610.000000
1557.412109 6508.000000
1558.970459 6541.000000
1560.528076 6472.000000
1562.084595 6347.000000
1563.639893 6428.000000
1565.194580 6424.000000
1566.748535 6539.000000
1568.301514 6448.000000
1569.853149 6418.000000
1571.404053 6565.000000
1572.954224 6416.000000
1574.503418 6457.000000
1576.051270 6512.000000
1577.598633 6399.000000
1579.145020 6561.000000
1580.690552 6500.000000
1582.235107 6579.000000
1583.778442 6468.000000
1585.321167 6537.000000
1586.863037 6386.000000
1588.403809 6428.000000
1589.943604 6485.000000
1591.482666 6496.000000
1593.020630 6375.000000
1594.558105 6329.000000
1596.094238 6472.000000
1597.629272 6346.000000
1599.163818 6205.000000
1600.697388 6279.000000
1602.230103 6254.000000
1603.761230 6281.000000
1605.292114 6432.000000
1606.822144 6334.000000
1608.350952 6291.000000
1609.878662 6329.000000
1611.405762 6394.000000
1612.932129 6272.000000
1614.457520 6387.000000
1615.982056 6289.000000
1617.505249 6219.000000
1619.027710 6233.000000
1620.549438 6216.000000
1622.070313 6275.000000
1623.589722 5974.000000
1625.108643 6206.000000
1626.626831 6145.000000
1628.144165 6057.000000
1629.660400 6182.000000
1631.175293 6004.000000
1632.689697 6108.000000
1634.203369 6006.000000
1635.715942 6002.000000
1637.227295 5941.000000
1638.738281 5995.000000
1640.248169 5992.000000
1641.757202 5920.000000
1643.264893 5903.000000
1644.772217 5822.000000
1646.278687 5707.000000
1647.784180 5840.000000
1649.288818 5844.000000
1650.791992 5693.000000
1652.294556 5813.000000
1653.796753 5709.000000
1655.297607 5660.000000
1656.797363 5732.000000
1658.296265 5595.000000
1659.794800 5721.000000
1661.292114 5638.000000
1662.788696 5619.000000
1664.283691 5584.000000
1665.778442 5553.000000
1667.272339 5475.000000
1668.765259 5660.000000
1670.256836 4333.000000
1671.747925 5391.000000
1673.238403 5454.000000
1674.727783 5338.000000
1676.215698 5296.000000
1677.703369 5434.000000
1679.190063 5378.000000
1680.675903 5415.000000
1682.160889 5380.000000
1683.644409 5219.000000
1685.127686 5201.000000
1686.610107 5296.000000
1688.091431 5230.000000
1689.571289 5220.000000
1691.050903 5167.000000
1692.529785 5134.000000
1694.007690 5132.000000
1695.484619 5116.000000
1696.960327 5169.000000
1698.435669 5106.000000
1699.909790 5135.000000
1701.383301 5093.000000
1702.855347 5205.000000
1704.327148 5114.000000
1705.797974 5083.000000
1707.267944 5214.000000
1708.736572 5243.000000
1710.204712 5109.000000
1711.672119 5132.000000
1713.138428 5191.000000
1714.604126 5145.000000
1716.068115 5210.000000
1717.531982 5178.000000
1718.994995 5163.000000
1720.457031 5075.000000
1721.917847 5129.000000
1723.378052 5153.000000
1724.837524 5073.000000
1726.296143 5081.000000
1727.753784 5042.000000
1729.210083 5081.000000
1730.666138 4977.000000
1732.121216 5014.000000
1733.575317 5166.000000
1735.028198 5029.000000
1736.480835 5053.000000
1737.932373 5029.000000
1739.383179 4936.000000
1740.833008 5065.000000
1742.281494 5050.000000
1743.729614 4938.000000
1745.176880 4878.000000
1746.623413 4899.000000
1748.068359 4826.000000
1749.513062 4949.000000
1750.956909 4872.000000
1752.399902 4932.000000
1753.841431 4793.000000
1755.282715 4805.000000
1756.723145 4391.000000
1758.162598 4764.000000
1759.601074 4760.000000
1761.038574 4678.000000
1762.475586 4681.000000
1763.911621 4594.000000
1765.346802 4715.000000
1766.780518 4496.000000
1768.214111 4708.000000
1769.646729 4667.000000
1771.078491 4605.000000
1772.509399 4705.000000
1773.939087 4668.000000
1775.368042 4505.000000
1776.796509 4514.000000
1778.223999 4218.000000
1779.650146 4081.000000
1781.076050 4492.000000
1782.500854 4335.000000
1783.925049 4409.000000
1785.347778 4283.000000
1786.770020 4285.000000
1788.191528 4325.000000
1789.612305 4342.000000
1791.032104 4202.000000
1792.450562 4258.000000
1793.868530 4302.000000
1795.285889 4274.000000
1796.702393 4348.000000
1798.117432 4219.000000
1799.532104 4248.000000
1800.946167 4331.000000
1802.359009 4255.000000
1803.771240 4236.000000
1805.182129 4202.000000
1806.592529 4164.000000
1808.002197 4155.000000
1809.410889 4202.000000
1810.818481 4063.000000
1812.225586 4239.000000
1813.631836 4152.000000
1815.037109 4234.000000
1816.441284 4185.000000
1817.845093 4281.000000
1819.247925 4267.000000
1820.649902 4224.000000
1822.051270 4244.000000
1823.451172 4162.000000
1824.850464 4134.000000
1826.249268 4086.000000
1827.647217 4044.000000
1829.043823 4104.000000
1830.439819 4088.000000
1831.835083 4048.000000
1833.229736 4061.000000
1834.623413 4148.000000
1836.015747 4139.000000
1837.407593 4028.000000
1838.798828 4048.000000
1840.189087 4091.000000
1841.578125 3908.000000
1842.966797 3935.000000
1844.354492 3981.000000
1845.741455 3987.000000
1847.127075 4022.000000
1848.512451 4015.000000
1849.896973 3905.000000
1851.280762 3929.000000
1852.663452 3994.000000
1854.044922 3944.000000
1855.425903 3883.000000
1856.806396 3894.000000
1858.185913 3782.000000
1859.563965 3731.000000
1860.941895 3928.000000
1862.318848 3802.000000
1863.695068 3857.000000
1865.070435 3920.000000
1866.444336 3754.000000
1867.818115 3724.000000
1869.191040 3696.000000
1870.562866 3747.000000
1871.933716 3740.000000
1873.304199 3648.000000
1874.673584 3680.000000
1876.042480 3716.000000
1877.409790 3623.000000
1878.776978 3573.000000
1880.143188 3601.000000
1881.508667 3555.000000
1882.873413 3528.000000
1884.236572 3550.000000
1885.599609 3458.000000
1886.961792 3402.000000
1888.323120 3506.000000
1889.683105 3529.000000
1891.042725 3508.000000
1892.401733 3480.000000
1893.759766 3492.000000
1895.116943 3528.000000
1896.472900 3514.000000
1897.828613 3403.000000
1899.183350 3448.000000
1900.537231 3428.000000
1901.890015 3371.000000
1903.242310 3436.000000
1904.593872 3429.000000
1905.944580 3521.000000
1907.294067 3564.000000
1908.643066 3425.000000
1909.991211 3391.000000
1911.338745 3357.000000
1912.685547 3326.000000
1914.030762 3456.000000
1915.375732 3418.000000
1916.719971 3470.000000
1918.063354 3534.000000
1919.405396 3532.000000
1920.747192 3416.000000
1922.088135 3456.000000
1923.428345 3429.000000
1924.767578 3504.000000
1926.105835 3424.000000
1927.443481 3423.000000
1928.780396 3384.000000
1930.116455 3422.000000
1931.451294 3420.000000
1932.785767 3384.000000
1934.119507 3422.000000
1935.452393 3331.000000
1936.783813 3316.000000
1938.115356 3303.000000
1939.445557 3308.000000
1940.775269 3284.000000
1942.104126 3370.000000
1943.431763 3317.000000
1944.758911 3347.000000
1946.085327 3348.000000
1947.411011 3275.000000
1948.735352 3265.000000
1950.059448 3330.000000
1951.382690 3269.000000
1952.705200 3289.000000
1954.026611 3174.000000
1955.347046 3237.000000
1956.666870 3072.000000
1957.986328 3226.000000
1959.304810 3175.000000
1960.621948 3075.000000
1961.938721 3150.000000
1963.254761 3167.000000
1964.570068 3031.000000
1965.883911 3058.000000
1967.197510 3077.000000
1968.510376 3044.000000
1969.822388 3066.000000
1971.133789 3150.000000
1972.443848 3012.000000
1973.753418 3046.000000
1975.062256 2988.000000
1976.370483 3043.000000
1977.677368 3005.000000
1978.983643 2956.000000
1980.289551 3048.000000
1981.594238 2904.000000
1982.898438 2946.000000
1984.201416 2929.000000
1985.504028 2849.000000
1986.805664 3024.000000
1988.106689 2868.000000
1989.406128 2805.000000
1990.705688 2842.000000
1992.004150 2879.000000
1993.302124 2836.000000
1994.598511 2832.000000
1995.894897 2814.000000
1997.190308 2825.000000
1998.484985 2830.000000
1999.778809 2737.000000
2001.071411 2777.000000
2002.363525 2632.000000
2003.655151 2695.000000
2004.946045 2643.000000
2006.235352 2662.000000
2007.524414 2763.000000
2008.812744 2712.000000
2010.100342 2695.000000
2011.387085 2889.000000
2012.672729 2588.000000
2013.958008 2747.000000
2015.242310 2667.000000
2016.526001 2757.000000
2017.808350 2566.000000
2019.090332 2539.000000
2020.371826 2601.000000
2021.652344 2767.000000
2022.932129 2565.000000
2024.210815 2672.000000
2025.488770 2605.000000
2026.766235 2613.000000
2028.043091 2702.000000
2029.318237 2586.000000
2030.593506 2605.000000
2031.867798 2559.000000
2033.141113 2621.000000
2034.413574 2645.000000
2035.685669 2652.000000
2036.956665 2574.000000
2038.227417 2615.000000
2039.496826 2679.000000
2040.765137 2674.000000
2042.033447 2620.000000
2043.300781 2660.000000
2044.567383 2646.000000
2045.832764 2615.000000
2047.097534 2705.000000
2048.362061 2575.000000
2049.625244 2573.000000
2050.888184 2548.000000
2052.149170 2522.000000
2053.410645 2534.000000
2054.670898 2507.000000
2055.930420 2514.000000
2057.189209 2411.000000
2058.447021 2536.000000
2059.704346 2496.000000
2060.960938 2487.000000
2062.216064 2395.000000
2063.471191 2489.000000
2064.725342 2440.000000
2065.978760 2456.000000
2067.231445 2413.000000
2068.482910 2410.000000
2069.734131 2413.000000
2070.984619 2564.000000
2072.234375 2444.000000
2073.482666 2325.000000
2074.730957 2412.000000
2075.978271 2482.000000
2077.224854 2456.000000
2078.470703 2465.000000
2079.715332 2367.000000
2080.959473 2295.000000
2082.203125 2327.000000
2083.445801 2337.000000
2084.687256 2333.000000
2085.928467 2242.000000
2087.169189 2297.000000
2088.408936 2370.000000
2089.647461 2226.000000
2090.885498 2279.000000
2092.122803 2261.000000
2093.359863 2261.000000
2094.595459 2216.000000
2095.830322 2207.000000
2097.064941 2335.000000
2098.298584 2327.000000
2099.531250 2195.000000
2100.763184 2220.000000
2101.994629 2173.000000
2103.225098 2197.000000
2104.454834 2275.000000
2105.684326 2133.000000
2106.911865 2165.000000
2108.139648 2129.000000
2109.366699 2086.000000
2110.592773 2142.000000
2111.817383 2086.000000
2113.042236 2111.000000
2114.265869 2123.000000
2115.489014 2039.000000
2116.710938 2131.000000
2117.932617 2160.000000
2119.153320 2013.000000
2120.373291 2073.000000
2121.592773 2177.000000
2122.810791 2166.000000
2124.028809 2072.000000
2125.245850 2027.000000
2126.462402 2131.000000
2127.677246 2075.000000
2128.892334 2104.000000
2130.106445 2096.000000
2131.319824 2105.000000
2132.532471 2085.000000
2133.743652 2105.000000
2134.955078 2244.000000
2136.165283 2036.000000
2137.375000 2038.000000
2138.583252 2139.000000
2139.791504 2158.000000
2140.999023 2080.000000
2142.205322 1773.000000
2143.410889 1991.000000
2144.616211 2073.000000
2145.820557 2084.000000
2147.024170 2060.000000
2148.227295 1947.000000
2149.428955 1983.000000
2150.630371 1997.000000
2151.831055 1996.000000
2153.031006 2023.000000
2154.229736 1937.000000
2155.428223 2077.000000
2156.626221 2154.000000
2157.823242 1892.000000
2159.019531 1893.000000
2160.214600 2026.000000
2161.409424 1971.000000
2162.603516 1944.000000
2163.796631 1821.000000
2164.988770 1893.000000
2166.180664 1812.000000
2167.371826 1905.000000
2168.562012 1864.000000
2169.751465 1894.000000
2170.940430 1843.000000
2172.128418 1803.000000
2173.316162 1867.000000
2174.502441 1876.000000
2175.687988 1761.000000
2176.873291 1771.000000
2178.058105 1717.000000
2179.241699 1734.000000
2180.424561 1736.000000
2181.606445 1795.000000
2182.788086 1817.000000
2183.969238 1815.000000
2185.149170 1720.000000
2186.328125 1769.000000
2187.506592 1737.000000
2188.684814 1691.000000
2189.861816 1705.000000
2191.037842 1668.000000
2192.213623 1655.000000
2193.388916 1770.000000
2194.562744 1763.000000
2195.736084 1755.000000
2196.909180 1853.000000
2198.081055 1737.000000
2199.252441 1671.000000
2200.423340 1730.000000
2201.592529 1786.000000
2202.761719 1730.000000
2203.930420 1642.000000
2205.098145 1715.000000
2206.264893 1711.000000
2207.430908 1733.000000
2208.596436 1749.000000
2209.761719 1773.000000
2210.925537 1726.000000
2212.088867 1786.000000
2213.250977 1678.000000
2214.413330 1766.000000
2215.574463 1633.000000
2216.734619 1687.000000
2217.894287 1707.000000
2219.053711 1668.000000
2220.211914 1701.000000
2221.369141 1626.000000
2222.526123 1714.000000
2223.682373 1470.000000
2224.837891 1607.000000
2225.992676 1589.000000
2227.146484 1563.000000
2228.299316 1576.000000
2229.452637 1571.000000
2230.604004 1569.000000
2231.755127 1590.000000
2232.905518 1503.000000
2234.055420 1572.000000
2235.204346 1587.000000
2236.352783 1574.000000
2237.499756 1559.000000
2238.646973 1622.000000
2239.792969 1512.000000
2240.938721 1443.000000
2242.082764 1476.000000
2243.227051 1446.000000
2244.370361 1524.000000
2245.512939 1503.000000
2246.654541 1483.000000
2247.795898 1544.000000
2248.936279 1404.000000
2250.075928 1403.000000
2251.215088 1334.000000
2252.353027 1346.000000
2253.490967 1464.000000
2254.627930 1451.000000
2255.764160 1443.000000
2256.899414 1496.000000
2258.033936 1468.000000
2259.168213 1520.000000
2260.302002 1494.000000
2261.434326 1523.000000
2262.566162 1396.000000
2263.697510 1383.000000
2264.827881 1381.000000
2265.958008 1471.000000
2267.086914 1345.000000
2268.215332 1297.000000
2269.343262 1386.000000
2270.470215 1321.000000
2271.596436 1373.000000
2272.721680 1306.000000
2273.846924 1382.000000
2274.971436 1268.000000
2276.094727 1342.000000
2277.217285 1374.000000
2278.339355 1357.000000
2279.460938 1308.000000
2280.581787 1268.000000
2281.701416 1349.000000
2282.820557 1329.000000
2283.939453 1251.000000
2285.057617 1297.000000
2286.174805 1305.000000
2287.291016 1325.000000
2288.406982 1257.000000
2289.522217 1354.000000
2290.636719 1269.000000
2291.750000 1362.000000
2292.863281 1271.000000
2293.975830 1254.000000
2295.087646 1299.000000
2296.198730 1366.000000
2297.308594 1220.000000
2298.417969 1254.000000
2299.527100 1263.000000
2300.635254 1334.000000
2301.742432 1352.000000
2302.849365 1285.000000
2303.955566 1360.000000
2305.061279 1286.000000
2306.165527 1324.000000
2307.269531 1268.000000
2308.373047 1338.000000
2309.476074 1289.000000
2310.577881 1235.000000
2311.678955 1323.000000
2312.779541 1320.000000
2313.879639 1244.000000
2314.979004 1246.000000
2316.076904 1177.000000
2317.175293 1186.000000
2318.272217 1267.000000
2319.368896 1259.000000
2320.465088 1259.000000
2321.559570 1241.000000
2322.654053 1144.000000
2323.747803 1241.000000
2324.841309 1287.000000
2325.933105 1210.000000
2327.024902 1334.000000
2328.115967 1255.000000
2329.206299 1430.000000
2330.295654 1319.000000
2331.385010 1211.000000
2332.473145 1232.000000
2333.560791 1351.000000
2334.648193 1217.000000
2335.733887 1270.000000
2336.819336 1222.000000
2337.904541 1152.000000
2338.988770 1037.000000
2340.072021 1102.000000
2341.155029 1172.000000
2342.237061 1127.000000
2343.318848 1135.000000
2344.399902 1070.000000
2345.479736 1116.000000
2346.559082 1124.000000
2347.637939 1159.000000
2348.716309 1141.000000
2349.793213 1072.000000
2350.869873 1112.000000
2351.946289 1060.000000
2353.021729 1054.000000
2354.096191 1178.000000
2355.170410 1117.000000
2356.243896 1036.000000
2357.316895 955.000000
2358.388672 1048.000000
2359.460205 1092.000000
2360.530762 986.000000
2361.601074 1111.000000
2362.670410 966.000000
2363.738770 1080.000000
2364.806885 1041.000000
2365.874268 937.000000
2366.941162 970.000000
2368.007324 989.000000
2369.072266 980.000000
2370.137207 975.000000
2371.201416 1005.000000
2372.264893 1020.000000
2373.327148 1011.000000
2374.389404 972.000000
2375.450684 895.000000
2376.511719 995.000000
2377.571533 972.000000
2378.630615 961.000000
2379.689697 973.000000
2380.747803 998.000000
2381.805176 998.000000
2382.861572 961.000000
2383.917725 951.000000
2384.973389 1018.000000
2386.028320 1059.000000
2387.081787 1015.000000
2388.135498 885.000000
2389.188232 1047.000000
2390.240479 977.000000
2391.291992 918.000000
2392.342529 1026.000000
2393.392822 1021.000000
2394.442139 921.000000
2395.491455 926.000000
2396.539307 884.000000
2397.586670 876.000000
2398.633789 970.000000
2399.679932 977.000000
2400.725342 960.000000
2401.770020 925.000000
2402.814697 972.000000
2403.857910 920.000000
2404.901123 946.000000
2405.942871 947.000000
2406.984863 1034.000000
2408.026123 980.000000
2409.066406 872.000000
2410.105957 949.000000
2411.144531 1002.000000
2412.183350 921.000000
2413.220947 936.000000
2414.258301 955.000000
2415.294434 906.000000
2416.330322 887.000000
2417.365479 871.000000
2418.400146 876.000000
2419.433350 966.000000
2420.466797 880.000000
2421.499268 858.000000
2422.531494 862.000000
2423.562256 1004.000000
2424.593018 992.000000
2425.623291 885.000000
2426.652344 864.000000
2427.681396 955.000000
2428.708740 867.000000
2429.736572 944.000000
2430.763184 919.000000
2431.789551 864.000000
2432.814453 826.000000
2433.839600 947.000000
2434.863770 760.000000
2435.887695 801.000000
2436.910400 845.000000
2437.932373 827.000000
2438.954102 855.000000
2439.975098 784.000000
2440.995605 897.000000
2442.014893 762.000000
2443.034180 845.000000
2444.052490 721.000000
2445.070557 832.000000
2446.087158 883.000000
2447.103760 789.000000
2448.119629 886.000000
2449.135498 797.000000
2450.149902 819.000000
2451.163574 815.000000
2452.176758 797.000000
2453.189697 772.000000
2454.201904 726.000000
2455.213135 783.000000
2456.224121 847.000000
2457.234375 814.000000
2458.244141 731.000000
2459.252930 864.000000
2460.260986 770.000000
2461.269043 758.000000
2462.275879 785.000000
2463.282471 725.000000
2464.287842 717.000000
2465.292969 723.000000
2466.297852 856.000000
2467.301514 605.000000
2468.304932 722.000000
2469.307373 653.000000
2470.309570 795.000000
2471.311279 721.000000
2472.312012 682.000000
2473.311768 809.000000
2474.311523 730.000000
2475.310303 795.000000
2476.308594 746.000000
2477.305908 681.000000
2478.302979 723.000000
2479.300049 700.000000
2480.295654 706.000000
2481.291260 740.000000
2482.285156 682.000000
2483.279053 721.000000
2484.272461 668.000000
2485.265381 724.000000
2486.257324 699.000000
2487.248535 669.000000
2488.239502 713.000000
2489.229980 736.000000
2490.219482 672.000000
2491.208252 721.000000
2492.197021 699.000000
2493.184814 714.000000
2494.171387 740.000000
2495.157959 832.000000
2496.144043 697.000000
2497.129395 682.000000
2498.113770 665.000000
2499.097900 601.000000
2500.082031 667.000000
2501.064697 731.000000
2502.046875 736.000000
2503.028564 490.000000
2504.009521 729.000000
2504.989990 758.000000
2505.970215 606.000000
2506.948975 703.000000
2507.927490 675.000000
2508.905518 770.000000
2509.883057 679.000000
2510.859619 732.000000
2511.835938 669.000000
2512.811523 682.000000
2513.786621 760.000000
2514.761230 687.000000
2515.734619 547.000000
2516.707764 613.000000
2517.680664 711.000000
2518.652588 623.000000
2519.623779 645.000000
2520.594482 694.000000
2521.564941 703.000000
2522.534668 498.000000
2523.503418 599.000000
2524.471436 658.000000
2525.439453 555.000000
2526.406494 579.000000
2527.373291 620.000000
2528.338867 570.000000
2529.304443 701.000000
2530.269287 586.000000
2531.233643 557.000000
2532.196777 600.000000
2533.160156 604.000000
2534.122559 634.000000
2535.084717 612.000000
2536.045654 613.000000
2537.005859 628.000000
2537.966309 668.000000
2538.925781 604.000000
2539.884521 607.000000
2540.842285 625.000000
2541.800293 633.000000
2542.757568 600.000000
2543.713867 596.000000
2544.669922 615.000000
2545.624756 535.000000
2546.579834 546.000000
2547.534180 632.000000
2548.487793 1019.000000
2549.440430 555.000000
2550.392822 503.000000
2551.344727 535.000000
2552.295898 561.000000
2553.246338 530.000000
2554.196289 555.000000
2555.145996 466.000000
2556.094971 630.000000
2557.043457 579.000000
2557.990723 592.000000
2558.937988 534.000000
2559.884521 624.000000
2560.830566 548.000000
2561.775635 578.000000
2562.720459 580.000000
2563.664795 573.000000
2564.608643 559.000000
2565.552002 541.000000
2566.493896 601.000000
2567.436035 523.000000
2568.377441 498.000000
2569.318115 602.000000
2570.258057 579.000000
2571.197998 498.000000
2572.136963 497.000000
2573.075684 436.000000
2574.013428 505.000000
2574.950928 486.000000
2575.887695 473.000000
2576.823730 483.000000
2577.759277 541.000000
2578.694092 561.000000
2579.628906 603.000000
2580.562744 546.000000
2581.496094 307.000000
2582.428711 557.000000
2583.361084 598.000000
2584.292725 517.000000
2585.223877 515.000000
2586.154541 542.000000
2587.083984 494.000000
2588.013428 480.000000
2588.942383 521.000000
2589.871094 621.000000
2590.798096 455.000000
2591.725342 567.000000
2592.652100 431.000000
2593.578125 454.000000
2594.503906 489.000000
2595.428467 586.000000
2596.352783 514.000000
2597.276611 534.000000
2598.199951 556.000000
2599.122314 529.000000
2600.044434 559.000000
2600.966064 449.000000
2601.886963 472.000000
2602.807129 508.000000
2603.727051 523.000000
2604.646484 487.000000
2605.565674 493.000000
2606.483887 499.000000
2607.400879 496.000000
2608.318115 446.000000
2609.235107 483.000000
2610.151123 526.000000
2611.065918 418.000000
2611.981201 460.000000
2612.895752 503.000000
2613.809326 469.000000
2614.722900 421.000000
2615.635254 484.000000
2616.547607 437.000000
2617.458984 490.000000
2618.370117 342.000000
2619.280518 593.000000
2620.190674 456.000000
2621.100098 498.000000
2622.009033 520.000000
2622.916992 511.000000
2623.825195 419.000000
2624.732422 424.000000
2625.639160 519.000000
2626.545166 676.000000
2627.450928 527.000000
2628.355957 422.000000
2629.260742 431.000000
2630.164795 425.000000
2631.067871 352.000000
2631.970947 530.000000
2632.873047 427.000000
2633.775146 446.000000
2634.677002 386.000000
2635.577148 416.000000
2636.477539 435.000000
2637.377197 435.000000
2638.276611 396.000000
2639.174561 448.000000
2640.072998 407.000000
2640.970947 494.000000
2641.868164 559.000000
2642.764160 383.000000
2643.660156 508.000000
2644.555908 447.000000
2645.450928 380.000000
2646.345703 419.000000
2647.239014 431.000000
2648.132324 387.000000
2649.025391 431.000000
2649.918213 344.000000
2650.809326 405.000000
2651.700684 442.000000
2652.591553 361.000000
2653.481689 349.000000
2654.371582 368.000000
2655.260254 406.000000
2656.149170 467.000000
2657.037598 466.000000
2657.925049 358.000000
2658.811523 312.000000
2659.698486 493.000000
2660.584717 378.000000
2661.470459 488.000000
2662.354980 392.000000
2663.239502 364.000000
2664.123779 345.000000
2665.007324 381.000000
2665.890381 404.000000
2666.772705 368.000000
2667.654541 329.000000
2668.535645 387.000000
2669.416992 381.000000
2670.296875 412.000000
2671.177002 384.000000
2672.056396 369.000000
2672.935791 447.000000
2673.814453 342.000000
2674.691406 428.000000
2675.569092 436.000000
2676.446045 326.000000
2677.322266 370.000000
2678.197998 369.000000
2679.072998 456.000000
2679.948242 268.000000
2680.822510 337.000000
2681.696289 383.000000
2682.569336 394.000000
2683.442139 355.000000
2684.314697 401.000000
2685.186523 362.000000
2686.057617 430.000000
2686.928467 300.000000
2687.798828 262.000000
2688.668945 334.000000
2689.537354 429.000000
2690.406494 401.000000
2691.274902 417.000000
2692.143066 351.000000
2693.010498 441.000000
2693.876709 374.000000
2694.743408 330.000000
2695.609131 385.000000
2696.474854 374.000000
2697.339111 306.000000
2698.204102 345.000000
2699.067627 364.000000
2699.931396 315.000000
2700.793701 319.000000
2701.656494 272.000000
2702.518311 358.000000
2703.379639 344.000000
2704.240967 374.000000
2705.101074 281.000000
2705.961182 329.000000
2706.820801 228.000000
2707.680176 347.000000
2708.537842 269.000000
2709.395752 366.000000
2710.254150 327.000000
2711.111328 412.000000
2711.967773 337.000000
2712.823730 378.000000
2713.679688 255.000000
2714.534912 362.000000
2715.389404 464.000000
2716.243408 387.000000
2717.097412 369.000000
2717.950439 338.000000
2718.803711 181.000000
2719.655273 296.000000
2720.507324 254.000000
2721.359131 322.000000
2722.209717 355.000000
2723.060303 282.000000
2723.910400 324.000000
2724.759766 279.000000
2725.609131 340.000000
2726.457275 373.000000
2727.304932 240.000000
2728.153076 372.000000
2729.000000 326.000000
2729.847412 259.000000
2730.693359 242.000000
2731.538574 277.000000
2732.384277 331.000000
2733.229004 289.000000
2734.073730 191.000000
2734.917236 304.000000
2735.760986 329.000000
2736.604004 277.000000
2737.446533 219.000000
2738.288086 322.000000
2739.130127 291.000000
2739.971191 262.000000
2740.812012 362.000000
2741.652588 267.000000
2742.491943 216.000000
2743.331299 255.000000
2744.170654 213.000000
2745.008789 352.000000
2745.846436 298.000000
2746.684082 255.000000
2747.521240 305.000000
2748.358154 358.000000
2749.194580 299.000000
2750.029785 343.000000
2750.865234 233.000000
2751.700195 279.000000
2752.534424 304.000000
2753.368408 358.000000
2754.201904 302.000000
2755.035400 257.000000
2755.867920 326.000000
2756.699951 287.000000
2757.531494 200.000000
2758.363037 261.000000
2759.193604 267.000000
2760.024414 223.000000
2760.854004 303.000000
2761.683594 303.000000
2762.512939 266.000000
2763.341553 287.000000
2764.169678 310.000000
2764.997314 273.000000
2765.824951 347.000000
2766.652100 300.000000
2767.478516 294.000000
2768.304443 308.000000
2769.129883 314.000000
2769.955078 137.000000
2770.780273 201.000000
2771.604248 291.000000
2772.428223 360.000000
2773.252197 323.000000
2774.074951 297.000000
2774.897949 62.000000
2775.719727 270.000000
2776.541504 207.000000
2777.363281 319.000000
2778.184082 250.000000
2779.004150 332.000000
2779.824463 252.000000
2780.644287 257.000000
2781.464111 273.000000
2782.281982 203.000000
2783.101074 285.000000
2783.918945 284.000000
2784.736572 227.000000
2785.553711 250.000000
2786.370361 297.000000
2787.186768 247.000000
2788.002686 284.000000
2788.818359 223.000000
2789.633057 173.000000
2790.448242 207.000000
2791.262695 210.000000
2792.076660 120.000000
2792.890381 241.000000
2793.702881 305.000000
2794.515625 247.000000
2795.327881 265.000000
2796.139648 179.000000
2796.950684 186.000000
2797.762451 314.000000
2798.572998 269.000000
2799.383545 202.000000
2800.192627 278.000000
2801.002441 160.000000
2801.811523 227.000000
2802.620361 153.000000
2803.428711 149.000000
2804.236084 209.000000
2805.043945 132.000000
2805.851074 225.000000
2806.657959 294.000000
2807.463623 289.000000
2808.269775 227.000000
2809.075195 279.000000
2809.880615 202.000000
2810.685303 208.000000
2811.489014 205.000000
2812.293213 222.000000
2813.096924 241.000000
2813.900391 136.000000
2814.702393 273.000000
2815.505127 118.000000
2816.307129 251.000000
2817.108887 173.000000
2817.910156 300.000000
2818.710938 166.000000
2819.511230 215.000000
2820.311768 238.000000
2821.111328 238.000000
2821.910400 216.000000
2822.709473 173.000000
2823.508301 187.000000
2824.306641 281.000000
2825.104004 239.000000
2825.901611 164.000000
2826.698486 241.000000
2827.495605 202.000000
2828.291992 257.000000
2829.087646 182.000000
2829.883301 180.000000
2830.678711 269.000000
2831.473633 227.000000
2832.267822 170.000000
2833.062012 196.000000
2833.855957 227.000000
2834.649414 249.000000
2835.442139 242.000000
2836.234619 268.000000
2837.027100 256.000000
2837.819336 270.000000
2838.611084 262.000000
2839.401855 271.000000
2840.192627 232.000000
2840.983643 224.000000
2841.773682 243.000000
2842.563232 87.000000
2843.353027 259.000000
2844.141846 236.000000
2844.930664 204.000000
2845.719482 217.000000
2846.507324 191.000000
2847.294678 190.000000
2848.082275 172.000000
2848.869385 233.000000
2849.655762 150.000000
2850.442139 221.000000
2851.228271 164.000000
2852.013916 152.000000
2852.798584 149.000000
2853.583740 273.000000
2854.368652 273.000000
2855.152832 189.000000
2855.937012 201.000000
2856.719971 237.000000
2857.503174 199.000000
2858.286133 259.000000
2859.068604 218.000000
2859.850830 129.000000
2860.632568 199.000000
2861.414063 145.000000
2862.195801 230.000000
2862.976807 172.000000
2863.757080 227.000000
2864.537109 154.000000
2865.317139 237.000000
2866.096924 172.000000
2866.875732 168.000000
2867.654785 193.000000
2868.433350 193.000000
2869.211670 218.000000
2869.989502 228.000000
2870.767090 199.000000
2871.544434 262.000000
2872.321533 169.000000
2873.098145 208.000000
2873.874268 161.000000
2874.650391 190.000000
2875.426025 207.000000
2876.201416 182.000000
2876.976318 263.000000
2877.750977 130.000000
2878.525635 156.000000
2879.300049 194.000000
2880.073730 183.000000
2880.846680 187.000000
2881.620361 232.000000
2882.393066 207.000000
2883.165771 232.000000
2883.937744 198.000000
2884.709473 182.000000
2885.481689 192.000000
2886.252686 202.000000
2887.023193 227.000000
2887.794189 229.000000
2888.565186 192.000000
2889.335449 275.000000
2890.104736 204.000000
2890.874268 174.000000
2891.643799 214.000000
2892.412842 240.000000
2893.181396 123.000000
2893.949951 184.000000
2894.717529 235.000000
2895.485596 163.000000
2896.253174 105.000000
2897.020752 167.000000
2897.787109 217.000000
2898.554443 175.000000
2899.320557 194.000000
2900.086914 270.000000
2900.851807 191.000000
2901.617188 255.000000
2902.383057 310.000000
2903.147461 165.000000
2903.911865 145.000000
2904.676514 258.000000
2905.440186 163.000000
2906.204590 128.000000
2906.968262 199.000000
2907.731201 209.000000
2908.493896 189.000000
2909.257080 145.000000
2910.019775 175.000000
2910.781250 191.000000
2911.543213 191.000000
spectrumdark 2048
-96.687561 6168.000000
-94.060692 6168.000000
-91.435699 6067.000000
-88.812599 6394.000000
-86.191368 5810.000000
-83.572037 6281.000000
-80.954567 6053.000000
-78.338974 6439.000000
-75.725258 6196.000000
-73.113419 5968.000000
-70.503441 6111.000000
-67.895348 5966.000000
-65.289101 5930.000000
-62.684731 6013.000000
-60.082222 6132.000000
-57.481567 5599.000000
-54.882774 6177.000000
-52.285839 6853.000000
-49.690758 6494.000000
-47.097530 6545.000000
-44.506153 6298.000000
-41.916622 6747.000000
-39.328934 5915.000000
-36.743095 6024.000000
-34.159100 6423.000000
-31.576941 5728.000000
-28.996628 6271.000000
-26.418142 5667.000000
-23.841499 6117.000000
-21.266682 6190.000000
-18.693705 6521.000000
-16.122547 6507.000000
-13.553224 6750.000000
-10.985725 7810.000000
-8.420046 6292.000000
-5.856192 6486.000000
-3.294151 6007.000000
-0.733935 5813.000000
1.824473 6292.000000
4.381060 6940.000000
6.935842 6577.000000
9.488807 6030.000000
12.039971 6722.000000
14.589323 6468.000000
17.136879 6684.000000
19.682623 6075.000000
22.226574 5740.000000
24.768721 6656.000000
27.309071 6808.000000
29.847635 6824.000000
32.384403 6159.000000
34.919369 5832.000000
37.452557 7256.000000
39.983963 6277.000000
42.513577 7129.000000
45.041393 6462.000000
47.567451 7873.000000
50.091721 5692.000000
52.614220 6227.000000
55.134922 6774.000000
57.653870 6273.000000
60.171043 6399.000000
62.686440 6584.000000
65.200058 5602.000000
67.711922 5692.000000
70.222038 6514.000000
72.730362 6599.000000
75.236931 5893.000000
77.741753 6345.000000
80.244820 6416.000000
82.746109 6269.000000
85.245659 6142.000000
87.743454 6363.000000
90.239517 5746.000000
92.733803 7225.000000
95.226349 5799.000000
97.717178 6969.000000
100.206238 7170.000000
102.693550 6353.000000
105.179138 6219.000000
107.662987 6415.000000
110.145088 5719.000000
112.625465 6772.000000
115.104118 6259.000000
117.581047 6410.000000
120.056221 7230.000000
122.529686 6807.000000
125.001419 5893.000000
127.471443 6803.000000
129.939713 6248.000000
132.406311 6292.000000
134.871155 5707.000000
137.334305 6266.000000
139.795715 7302.000000
142.255432 6928.000000
144.713425 6436.000000
147.169724 5991.000000
149.624313 5908.000000
152.077179 6853.000000
154.528366 6453.000000
156.977859 6564.000000
159.425629 6087.000000
161.871689 6644.000000
164.316071 8726.000000
166.758774 6411.000000
169.199783 6820.000000
171.639084 6270.000000
174.076675 7256.000000
176.512634 6620.000000
178.946854 6907.000000
181.379395 7169.000000
183.810287 6680.000000
186.239456 7149.000000
188.666977 6713.000000
191.092819 6323.000000
193.516983 6650.000000
195.939484 7161.000000
198.360291 7394.000000
200.779434 6495.000000
203.196915 5994.000000
205.612701 7609.000000
208.026840 7039.000000
210.439346 6397.000000
212.850174 6087.000000
215.259323 6201.000000
217.666840 7398.000000
220.072647 6187.000000
222.476868 6502.000000
224.879379 6659.000000
227.280273 6963.000000
229.679520 6433.000000
232.077103 6906.000000
234.473022 7264.000000
236.867325 6546.000000
239.259964 6106.000000
241.650986 6822.000000
244.040344 6585.000000
246.428085 6344.000000
248.814178 6984.000000
251.198639 6097.000000
253.581451 7873.000000
255.962692 6658.000000
258.342224 6676.000000
260.720184 6541.000000
263.096466 7503.000000
265.471191 7550.000000
267.844269 7865.000000
270.215698 6261.000000
272.585480 6478.000000
274.953705 5923.000000
277.320282 6340.000000
279.685272 6754.000000
282.048645 6042.000000
284.410370 6268.000000
286.770508 7118.000000
289.129028 6036.000000
291.485962 6525.000000
293.841278 6445.000000
296.195007 6001.000000
298.547089 5992.000000
300.897614 6340.000000
303.246552 6399.000000
305.593842 6823.000000
307.939606 6503.000000
310.283691 6449.000000
312.626251 7357.000000
314.967194 7554.000000
317.306519 7150.000000
319.644287 6931.000000
321.980499 8122.000000
324.315063 6247.000000
326.648071 6469.000000
328.979523 5996.000000
331.309387 6642.000000
333.637665 6417.000000
335.964325 7299.000000
338.289490 6359.000000
340.613037 6292.000000
342.935028 6028.000000
345.255463 7510.000000
347.574280 7727.000000
349.891541 6002.000000
352.207275 5832.000000
354.521423 6961.000000
356.833984 6309.000000
359.144989 6239.000000
361.454468 7041.000000
363.762421 6377.000000
366.068756 5655.000000
368.373505 6427.000000
370.676788 6407.000000
372.978455 6234.000000
375.278625 6334.000000
377.577240 6291.000000
379.874298 5751.000000
382.169800 6058.000000
384.463776 5853.000000
386.756165 5224.000000
389.047058 5591.000000
391.336426 6227.000000
393.624207 6224.000000
395.910461 6535.000000
398.195221 6956.000000
400.478363 6051.000000
402.760071 6462.000000
405.040253 6176.000000
407.318848 7294.000000
409.595917 6521.000000
411.871460 6786.000000
414.145477 6548.000000
416.418060 6525.000000
418.689026 6312.000000
420.958496 6598.000000
423.226471 7113.000000
425.492889 7292.000000
427.757813 6370.000000
430.021271 6300.000000
432.283142 6493.000000
434.543549 6030.000000
436.802399 6660.000000
439.059784 6132.000000
441.315674 5684.000000
443.570068 5815.000000
445.822937 5408.000000
448.074249 6908.000000
450.324158 6104.000000
452.572479 6332.000000
454.819366 5651.000000
457.064789 6492.000000
459.308655 6513.000000
461.551025 6780.000000
463.791901 5617.000000
466.031372 6711.000000
468.269257 5433.000000
470.505707 5846.000000
472.740631 6025.000000
474.974091 7338.000000
477.206116 6651.000000
479.436615 5715.000000
481.665619 6481.000000
483.893158 6342.000000
486.119202 5904.000000
488.343811 6619.000000
490.566956 5911.000000
492.788635 6411.000000
495.008759 6728.000000
497.227478 5624.000000
499.444702 6227.000000
501.660553 5511.000000
503.874786 6183.000000
506.087708 6448.000000
508.299042 6468.000000
510.508942 6839.000000
512.717407 6535.000000
514.924500 6578.000000
517.130005 6388.000000
519.334106 6625.000000
521.536682 6210.000000
523.737854 6570.000000
525.937683 6760.000000
528.135986 6956.000000
530.332764 5395.000000
532.528198 5832.000000
534.722107 5588.000000
536.914673 7593.000000
539.105713 6697.000000
541.295349 6035.000000
543.483582 6849.000000
545.670288 7101.000000
547.855530 6807.000000
550.039490 6238.000000
552.221863 6466.000000
554.402893 6195.000000
556.582397 6050.000000
558.760620 5906.000000
560.937317 5992.000000
563.112610 6417.000000
565.286499 6450.000000
567.458923 5904.000000
569.629944 6000.000000
571.799500 6305.000000
573.967773 5270.000000
576.134521 6405.000000
578.299805 6336.000000
580.463684 6117.000000
582.626282 5738.000000
584.787354 6024.000000
586.947021 5694.000000
589.105347 5813.000000
591.262146 6142.000000
593.417603 6576.000000
595.571655 5725.000000
597.724365 6168.000000
599.875549 7278.000000
602.025391 6761.000000
604.173889 6697.000000
606.320801 6079.000000
608.466492 6469.000000
610.610779 6460.000000
612.753601 6990.000000
614.894958 6078.000000
617.035095 6458.000000
619.173706 7691.000000
621.311035 5641.000000
623.446899 6581.000000
625.581360 6853.000000
627.714355 7236.000000
629.846191 6675.000000
631.976563 6582.000000
634.105530 6742.000000
636.233032 6478.000000
638.359253 6273.000000
640.483948 7363.000000
642.607422 6380.000000
644.729553 6792.000000
646.850220 6836.000000
648.969543 6602.000000
651.087463 5699.000000
653.204041 5665.000000
655.319214 6444.000000
657.433044 6433.000000
659.545410 5833.000000
661.656555 6110.000000
663.766296 5450.000000
665.874573 6012.000000
667.981689 6307.000000
670.087341 6847.000000
672.191528 5768.000000
674.294495 5717.000000
676.396057 7045.000000
678.496277 5346.000000
680.595093 6710.000000
682.692566 6233.000000
684.788757 6967.000000
686.883484 6351.000000
688.976990 7000.000000
691.069153 6649.000000
693.159790 7931.000000
695.249207 6723.000000
697.337341 6450.000000
699.424011 5988.000000
701.509460 6750.000000
703.593384 5090.000000
705.676086 5930.000000
707.757507 5969.000000
709.837463 7564.000000
711.916199 6228.000000
713.993469 5524.000000
716.069458 6521.000000
718.144165 6087.000000
720.217590 6960.000000
722.289490 6281.000000
724.360229 7512.000000
726.429626 5742.000000
728.497620 6455.000000
730.564270 6401.000000
732.629700 7067.000000
734.693787 5709.000000
736.756531 6101.000000
738.817932 6511.000000
740.878052 6590.000000
742.936768 6019.000000
744.994263 6631.000000
747.050476 6518.000000
749.105286 6682.000000
751.158813 6312.000000
753.210938 7479.000000
755.261841 5819.000000
757.311523 6713.000000
759.359741 6329.000000
761.406738 6112.000000
763.452454 7070.000000
765.496765 5342.000000
767.539795 5742.000000
769.581604 14950.000000
771.622070 7173.000000
773.661133 6408.000000
775.699036 6097.000000
777.735596 6016.000000
779.770935 5396.000000
781.804932 5767.000000
783.837524 6964.000000
785.868958 5494.000000
787.898987 11613.000000
789.927734 5996.000000
791.955322 6331.000000
793.981567 6289.000000
796.006409 5764.000000
798.030151 5470.000000
800.052490 6336.000000
802.073608 5835.000000
804.093384 6698.000000
806.111877 4916.000000
808.129150 6701.000000
810.145020 6828.000000
812.159729 5739.000000
814.173096 6424.000000
816.185242 6269.000000
818.196167 6090.000000
820.205750 6533.000000
822.214111 5263.000000
824.221069 5725.000000
826.226807 6031.000000
828.231323 5780.000000
830.234558 5654.000000
832.236511 6447.000000
834.237183 6019.000000
836.236633 5887.000000
838.234741 6353.000000
840.231750 7032.000000
842.227356 6239.000000
844.221802 6007.000000
846.214905 6179.000000
848.206787 6854.000000
850.197327 5596.000000
852.186584 6803.000000
854.174805 5963.000000
856.161621 5759.000000
858.147217 6481.000000
860.131531 7292.000000
862.114746 6311.000000
864.096558 6410.000000
866.077148 5834.000000
868.056458 7678.000000
870.034607 7056.000000
872.011414 6202.000000
873.986938 5988.000000
875.961426 6156.000000
877.934448 6045.000000
879.906433 5437.000000
881.877075 6360.000000
883.846558 6113.000000
885.814697 5529.000000
887.781677 5218.000000
889.747314 6150.000000
891.711792 5821.000000
893.675049 5942.000000
895.637085 6498.000000
897.597839 5824.000000
899.557373 6381.000000
901.515625 6698.000000
903.472778 6384.000000
905.428772 6041.000000
907.383362 6940.000000
909.336731 6511.000000
911.288940 6481.000000
913.239929 6357.000000
915.189636 7106.000000
917.138184 6332.000000
919.085510 6154.000000
921.031555 6119.000000
922.976318 6039.000000
924.920044 6313.000000
926.862610 5929.000000
928.803894 5585.000000
930.743835 6406.000000
932.682678 5647.000000
934.620239 5527.000000
936.556580 5967.000000
938.491760 5838.000000
940.425659 6097.000000
942.358459 5942.000000
944.290039 6803.000000
946.220459 5182.000000
948.149658 6368.000000
950.077515 7046.000000
952.004333 6605.000000
953.929871 5966.000000
955.854126 5361.000000
957.777283 5981.000000
959.699280 6760.000000
961.619995 7291.000000
963.539551 6468.000000
965.457947 5315.000000
967.375305 6398.000000
969.291199 6420.000000
971.205994 6139.000000
973.119568 5932.000000
975.031982 6362.000000
976.943176 6469.000000
978.853210 5521.000000
980.761963 6230.000000
982.669678 6161.000000
984.576172 6377.000000
986.481445 5751.000000
988.385620 6843.000000
990.288574 6176.000000
992.190308 6811.000000
994.090881 6582.000000
995.990295 6551.000000
997.888489 5234.000000
999.785522 6564.000000
1001.681335 6574.000000
1003.575989 7740.000000
1005.469543 5542.000000
1007.361816 7257.000000
1009.253174 6068.000000
1011.143188 5361.000000
1013.031982 6629.000000
1014.919617 6253.000000
1016.806091 6902.000000
1018.691406 6841.000000
1020.575562 5954.000000
1022.458496 5839.000000
1024.340454 6207.000000
1026.221069 5212.000000
1028.100586 5758.000000
1029.979126 6065.000000
1031.856323 5418.000000
1033.732178 6234.000000
1035.607056 5861.000000
1037.480957 6653.000000
1039.353394 7002.000000
1041.224854 6716.000000
1043.094971 5489.000000
1044.964111 5543.000000
1046.832031 5771.000000
1048.698853 7020.000000
1050.564575 6780.000000
1052.429077 6418.000000
1054.292480 6446.000000
1056.154541 6435.000000
1058.015625 5964.000000
1059.875610 6448.000000
1061.734253 6865.000000
1063.591797 5777.000000
1065.448242 6722.000000
1067.303589 5884.000000
1069.157715 5809.000000
1071.010986 6274.000000
1072.862793 6375.000000
1074.713623 6160.000000
1076.563232 6192.000000
1078.411621 5746.000000
1080.259155 7961.000000
1082.105347 5570.000000
1083.950317 6212.000000
1085.794434 5452.000000
1087.637207 5545.000000
1089.478760 6490.000000
1091.319580 5500.000000
1093.158813 5725.000000
1094.997314 6049.000000
1096.834473 6019.000000
1098.670410 6820.000000
1100.505371 6560.000000
1102.339111 5391.000000
1104.171875 5695.000000
1106.003296 6211.000000
1107.833862 7221.000000
1109.663086 6517.000000
1111.491333 6490.000000
1113.318359 7110.000000
1115.144409 5419.000000
1116.969238 6347.000000
1118.792969 7150.000000
1120.615479 6060.000000
1122.436890 5804.000000
1124.257446 5967.000000
1126.076538 6550.000000
1127.894775 7113.000000
1129.711670 6836.000000
1131.527710 6689.000000
1133.342529 6483.000000
1135.156250 5597.000000
1136.968872 5742.000000
1138.780273 5581.000000
1140.590698 6159.000000
1142.400024 6786.000000
1144.208008 7002.000000
1146.015259 5908.000000
1147.821045 5922.000000
1149.625977 5366.000000
1151.429810 5380.000000
1153.232422 6092.000000
1155.034180 6112.000000
1156.834473 6121.000000
1158.633789 6137.000000
1160.432129 5864.000000
1162.229126 5453.000000
1164.025391 5912.000000
1165.820313 6075.000000
1167.614136 6354.000000
1169.407104 7744.000000
1171.198730 5746.000000
1172.989380 6532.000000
1174.779053 6019.000000
1176.567261 5788.000000
1178.354614 7512.000000
1180.140869 6809.000000
1181.926025 5809.000000
1183.710083 5926.000000
1185.493042 7701.000000
1187.275024 5876.000000
1189.055786 5923.000000
1190.835571 6302.000000
1192.614258 6977.000000
1194.391968 6718.000000
1196.168457 7165.000000
1197.943848 6526.000000
1199.718140 6533.000000
1201.491333 6739.000000
1203.263672 6536.000000
1205.034668 6698.000000
1206.804810 5725.000000
1208.573730 6159.000000
1210.341553 6346.000000
1212.108521 5752.000000
1213.874146 5960.000000
1215.638794 6983.000000
1217.402344 6547.000000
1219.164795 5908.000000
1220.926392 6784.000000
1222.686768 5876.000000
1224.446045 6282.000000
1226.204468 6050.000000
1227.961670 7201.000000
1229.717773 6612.000000
1231.472778 5553.000000
1233.226929 5921.000000
1234.979736 5833.000000
1236.731567 6023.000000
1238.482544 6000.000000
1240.232178 4963.000000
1241.980957 6986.000000
1243.728394 6474.000000
1245.475098 6615.000000
1247.220581 6489.000000
1248.965210 6403.000000
1250.708496 6761.000000
1252.450806 6673.000000
1254.192017 5378.000000
1255.932373 5154.000000
1257.671631 5782.000000
1259.409668 6566.000000
1261.146851 7110.000000
1262.882813 6097.000000
1264.617798 6369.000000
1266.351807 7329.000000
1268.084839 5992.000000
1269.816650 6196.000000
1271.547485 6411.000000
1273.277100 7295.000000
1275.005859 5902.000000
1276.733521 5669.000000
1278.460083 5569.000000
1280.185791 5562.000000
1281.910156 6482.000000
1283.633667 5229.000000
1285.356201 6883.000000
1287.077759 6631.000000
1288.798096 6333.000000
1290.517456 6637.000000
1292.235718 7263.000000
1293.953003 6423.000000
1295.669312 5723.000000
1297.384399 6394.000000
1299.098511 6206.000000
1300.811646 5778.000000
1302.523926 6439.000000
1304.234985 8319.000000
1305.945068 5288.000000
1307.654053 6293.000000
1309.361816 6621.000000
1311.068970 6947.000000
1312.774658 5810.000000
1314.479614 6881.000000
1316.183594 6175.000000
1317.886353 5951.000000
1319.588135 6519.000000
1321.289063 6009.000000
1322.988647 18673.500000
1324.687378 31338.000000
1326.385376 5583.000000
1328.082031 6498.000000
1329.777588 7138.000000
1331.472290 6901.000000
1333.165771 5752.000000
1334.858398 5422.000000
1336.550171 7521.000000
1338.240601 6324.000000
1339.930298 6635.000000
1341.618896 6032.000000
1343.306396 7585.000000
1344.992920 5707.000000
1346.678345 6732.000000
1348.362793 5966.000000
1350.046387 7257.000000
1351.728760 6334.000000
1353.410156 5962.000000
1355.090698 6568.000000
1356.770020 6724.000000
1358.448730 5890.000000
1360.126099 6508.000000
1361.802368 5776.000000
1363.477661 5552.000000
1365.152222 6613.000000
1366.825562 6513.000000
1368.497925 6824.000000
1370.169312 5188.000000
1371.839722 6824.000000
1373.509033 6166.000000
1375.177368 5715.000000
1376.844849 5993.000000
1378.511230 6312.000000
1380.176636 6184.000000
1381.841064 5829.000000
1383.504272 5919.000000
1385.166870 5734.000000
1386.828125 6365.000000
1388.488525 6572.000000
1390.147827 6439.000000
1391.806152 6471.000000
1393.463745 6893.000000
1395.120117 6530.000000
1396.775635 6992.000000
1398.429932 6294.000000
1400.083374 5855.000000
1401.735718 6143.000000
1403.387329 6469.000000
1405.037720 7156.000000
1406.687012 6233.000000
1408.335571 7455.000000
1409.983032 7835.000000
1411.629517 6270.000000
1413.275146 6276.000000
1414.919800 6022.000000
1416.563232 7022.000000
1418.205811 7102.000000
1419.847290 6833.000000
1421.487915 6521.000000
1423.127563 6448.000000
1424.766113 6049.000000
1426.403809 6628.000000
1428.040405 6386.000000
1429.676025 5982.000000
1431.310913 6348.000000
1432.944702 5838.000000
1434.577393 6128.000000
1436.209106 5645.000000
1437.839966 6153.000000
1439.469727 6009.000000
1441.098389 7709.000000
1442.726440 5957.000000
1444.353394 6187.000000
1445.979126 6170.000000
1447.604248 6171.000000
1449.228271 6479.000000
1450.851318 6046.000000
1452.473389 6010.000000
1454.094360 7460.000000
1455.714355 6307.000000
1457.333618 6863.000000
1458.951538 5717.000000
1460.568848 17145.000000
1462.185181 5501.000000
1463.800293 7258.000000
1465.414551 6371.000000
1467.027954 5234.000000
1468.640259 5555.000000
1470.251709 6302.000000
1471.862305 6373.000000
1473.471680 6018.000000
1475.080078 5997.000000
1476.687622 6219.000000
1478.294189 6808.000000
1479.900024 5395.000000
1481.504639 6321.000000
1483.108398 5574.000000
1484.710938 6875.000000
1486.312866 5536.000000
1487.913574 5510.000000
1489.513550 5671.000000
1491.112427 6281.000000
1492.710449 6547.000000
1494.307373 6644.000000
1495.903442 6361.000000
1497.498535 6027.000000
1499.092651 5522.000000
1500.686035 6619.000000
1502.278320 5477.000000
1503.869385 6171.000000
1505.459961 6779.000000
1507.049194 6456.000000
1508.637817 6155.000000
1510.225342 6546.000000
1511.811768 6874.000000
1513.397461 6150.000000
1514.982056 6672.000000
1516.565796 6434.000000
1518.148438 6241.000000
1519.730347 6620.000000
1521.311157 6648.000000
1522.891235 6084.000000
1524.470093 6196.000000
1526.048096 6379.000000
1527.625366 6237.000000
1529.201416 5676.000000
1530.776733 5885.000000
1532.350952 6325.000000
1533.924438 5519.000000
1535.496704 5963.000000
1537.068237 6421.000000
1538.638794 6422.000000
1540.208496 6339.000000
1541.776978 5427.000000
1543.344727 6626.000000
1544.911621 5627.000000
1546.477295 6844.000000
1548.042236 6030.000000
1549.606079 5094.000000
1551.169312 7437.000000
1552.731201 6315.000000
1554.292480 5921.000000
1555.852661 5740.000000
1557.412109 5769.000000
1558.970459 6074.000000
1560.528076 6243.000000
1562.084595 7114.000000
1563.639893 5889.000000
1565.194580 6339.000000
1566.748535 5660.000000
1568.301514 6338.000000
1569.853149 5669.000000
1571.404053 5902.000000
1572.954224 6230.000000
1574.503418 6381.000000
1576.051270 5764.000000
1577.598633 5459.000000
1579.145020 5637.000000
1580.690552 5108.000000
1582.235107 6666.000000
1583.778442 6393.000000
1585.321167 6631.000000
1586.863037 6451.000000
1588.403809 6716.000000
1589.943604 5849.000000
1591.482666 6703.000000
1593.020630 5898.000000
1594.558105 6126.000000
1596.094238 5885.000000
1597.629272 6699.000000
1599.163818 6290.000000
1600.697388 5964.000000
1602.230103 6213.000000
1603.761230 6350.000000
1605.292114 6295.000000
1606.822144 5784.000000
1608.350952 6128.000000
1609.878662 6122.000000
1611.405762 6033.000000
1612.932129 5930.000000
1614.457520 6205.000000
1615.982056 5837.000000
1617.505249 5772.000000
1619.027710 5638.000000
1620.549438 6600.000000
1622.070313 6966.000000
1623.589722 15582.000000
1625.108643 6244.000000
1626.626831 6025.000000
1628.144165 5976.000000
1629.660400 6352.000000
1631.175293 7064.000000
1632.689697 6773.000000
1634.203369 5826.000000
1635.715942 6860.000000
1637.227295 5964.000000
1638.738281 6417.000000
1640.248169 6290.000000
1641.757202 6165.000000
1643.264893 5649.000000
1644.772217 6145.000000
1646.278687 7218.000000
1647.784180 6276.000000
1649.288818 6819.000000
1650.791992 6219.000000
1652.294556 6546.000000
1653.796753 6413.000000
1655.297607 6652.000000
1656.797363 7575.000000
1658.296265 6190.000000
1659.794800 6509.000000
1661.292114 6238.000000
1662.788696 5965.000000
1664.283691 6447.000000
1665.778442 6369.000000
1667.272339 5242.000000
1668.765259 5684.000000
1670.256836 20859.000000
1671.747925 6527.000000
1673.238403 6087.000000
1674.727783 6020.000000
1676.215698 7021.000000
1677.703369 6850.000000
1679.190063 6050.000000
1680.675903 5483.000000
1682.160889 6064.000000
1683.644409 6179.000000
1685.127686 6228.000000
1686.610107 5892.000000
1688.091431 6243.000000
1689.571289 6201.000000
1691.050903 5542.000000
1692.529785 6608.000000
1694.007690 5989.000000
1695.484619 6155.000000
1696.960327 5742.000000
1698.435669 6092.000000
1699.909790 6317.000000
1701.383301 5498.000000
1702.855347 5558.000000
1704.327148 6896.000000
1705.797974 6393.000000
1707.267944 7042.000000
1708.736572 5156.000000
1710.204712 5849.000000
1711.672119 6365.000000
1713.138428 5534.000000
1714.604126 5768.000000
1716.068115 6140.000000
1717.531982 5994.000000
1718.994995 7031.000000
1720.457031 6372.000000
1721.917847 6617.000000
1723.378052 5476.000000
1724.837524 6380.000000
1726.296143 6203.000000
1727.753784 6077.000000
1729.210083 6271.000000
1730.666138 6113.000000
1732.121216 6453.000000
1733.575317 5974.000000
1735.028198 6854.000000
1736.480835 5971.000000
1737.932373 6735.000000
1739.383179 5983.000000
1740.833008 6552.000000
1742.281494 5925.000000
1743.729614 7570.000000
1745.176880 6583.000000
1746.623413 6663.000000
1748.068359 6716.000000
1749.513062 6170.000000
1750.956909 5784.000000
1752.399902 5471.000000
1753.841431 6551.000000
1755.282715 6336.000000
1756.723145 19500.000000
1758.162598 6245.000000
1759.601074 5383.000000
1761.038574 6111.000000
1762.475586 7613.000000
1763.911621 5821.000000
1765.346802 7175.000000
1766.780518 6251.000000
1768.214111 6479.000000
1769.646729 6646.000000
1771.078491 5822.000000
1772.509399 5927.000000
1773.939087 6330.000000
1775.368042 6210.000000
1776.796509 6216.000000
1778.223999 6776.000000
1779.650146 6327.000000
1781.076050 5580.000000
1782.500854 6972.000000
1783.925049 5568.000000
1785.347778 6677.000000
1786.770020 6535.000000
1788.191528 6948.000000
1789.612305 5933.000000
1791.032104 6200.000000
1792.450562 6211.000000
1793.868530 6875.000000
1795.285889 5488.000000
1796.702393 6015.000000
1798.117432 6537.000000
1799.532104 5862.000000
1800.946167 6583.000000
1802.359009 5997.000000
1803.771240 7022.000000
1805.182129 7150.000000
1806.592529 7792.000000
1808.002197 6494.000000
1809.410889 5959.000000
1810.818481 5413.000000
1812.225586 6477.000000
1813.631836 6412.000000
1815.037109 6677.000000
1816.441284 5982.000000
1817.845093 6007.000000
1819.247925 6182.000000
1820.649902 6040.000000
1822.051270 5851.000000
1823.451172 6333.000000
1824.850464 6526.000000
1826.249268 6604.000000
1827.647217 7505.000000
1829.043823 5770.000000
1830.439819 6723.000000
1831.835083 6001.000000
1833.229736 8168.000000
1834.623413 5994.000000
1836.015747 6833.000000
1837.407593 6414.000000
1838.798828 5891.000000
1840.189087 7116.000000
1841.578125 6109.000000
1842.966797 6138.000000
1844.354492 6008.000000
1845.741455 5847.000000
1847.127075 6856.000000
1848.512451 5867.000000
1849.896973 6405.000000
1851.280762 6293.000000
1852.663452 6371.000000
1854.044922 5424.000000
1855.425903 6510.000000
1856.806396 6355.000000
1858.185913 5746.000000
1859.563965 5999.000000
1860.941895 6196.000000
1862.318848 7896.000000
1863.695068 6098.000000
1865.070435 6012.000000
1866.444336 5650.000000
1867.818115 5733.000000
1869.191040 6205.000000
1870.562866 5972.000000
1871.933716 6992.000000
1873.304199 5473.000000
1874.673584 6055.000000
1876.042480 6086.000000
1877.409790 7184.000000
1878.776978 6028.000000
1880.143188 5986.000000
1881.508667 6815.000000
1882.873413 7516.000000
1884.236572 6828.000000
1885.599609 6945.000000
1886.961792 6436.000000
1888.323120 6455.000000
1889.683105 5648.000000
1891.042725 5836.000000
1892.401733 6146.000000
1893.759766 6680.000000
1895.116943 7291.000000
1896.472900 5949.000000
1897.828613 7677.000000
1899.183350 5932.000000
1900.537231 5588.000000
1901.890015 6023.000000
1903.242310 5938.000000
1904.593872 5923.000000
1905.944580 6880.000000
1907.294067 6536.000000
1908.643066 6663.000000
1909.991211 5889.000000
1911.338745 6211.000000
1912.685547 6352.000000
1914.030762 6812.000000
1915.375732 6103.000000
1916.719971 5443.000000
1918.063354 6463.000000
1919.405396 5969.000000
1920.747192 6732.000000
1922.088135 6939.000000
1923.428345 6154.000000
1924.767578 6303.000000
1926.105835 6338.000000
1927.443481 6549.000000
1928.780396 7047.000000
1930.116455 6764.000000
1931.451294 5587.000000
1932.785767 6664.000000
1934.119507 7255.000000
1935.452393 6303.000000
1936.783813 5745.000000
1938.115356 6355.000000
1939.445557 6632.000000
1940.775269 5830.000000
1942.104126 6039.000000
1943.431763 5826.000000
1944.758911 4994.000000
1946.085327 5832.000000
1947.411011 6573.000000
1948.735352 5794.000000
1950.059448 6664.000000
1951.382690 6345.000000
1952.705200 6408.000000
1954.026611 5803.000000
1955.347046 7461.000000
1956.666870 6065.000000
1957.986328 5571.000000
1959.304810 6872.000000
1960.621948 5931.000000
1961.938721 5835.000000
1963.254761 6535.000000
1964.570068 6639.000000
1965.883911 6332.000000
1967.197510 5635.000000
1968.510376 6247.000000
1969.822388 6018.000000
1971.133789 6015.000000
1972.443848 6280.000000
1973.753418 5835.000000
1975.062256 6155.000000
1976.370483 6561.000000
1977.677368 6078.000000
1978.983643 7216.000000
1980.289551 5579.000000
1981.594238 6443.000000
1982.898438 5923.000000
1984.201416 5701.000000
1985.504028 7616.000000
1986.805664 6079.000000
1988.106689 6787.000000
1989.406128 6138.000000
1990.705688 6627.000000
1992.004150 5344.000000
1993.302124 6078.000000
1994.598511 6135.000000
1995.894897 5808.000000
1997.190308 5594.000000
1998.484985 6544.000000
1999.778809 5708.000000
2001.071411 6506.000000
2002.363525 5785.000000
2003.655151 7180.000000
2004.946045 6481.000000
2006.235352 6405.000000
2007.524414 6808.000000
2008.812744 5943.000000
2010.100342 6016.000000
2011.387085 6611.000000
2012.672729 5687.000000
2013.958008 6316.000000
2015.242310 5963.000000
2016.526001 5577.000000
2017.808350 6051.000000
2019.090332 6575.000000
2020.371826 6765.000000
2021.652344 5842.000000
2022.932129 6171.000000
2024.210815 6766.000000
2025.488770 5871.000000
2026.766235 5923.000000
2028.043091 6301.000000
2029.318237 5754.000000
2030.593506 6672.000000
2031.867798 6102.000000
2033.141113 5999.000000
2034.413574 5962.000000
2035.685669 6177.000000
2036.956665 7005.000000
2038.227417 6620.000000
2039.496826 6010.000000
2040.765137 6745.000000
2042.033447 6619.000000
2043.300781 5926.000000
2044.567383 6041.000000
2045.832764 5576.000000
2047.097534 5898.000000
2048.362061 5447.000000
2049.625244 5864.000000
2050.888184 6394.000000
2052.149170 6173.000000
2053.410645 6109.000000
2054.670898 5866.000000
2055.930420 6604.000000
2057.189209 6333.000000
2058.447021 6954.000000
2059.704346 6190.000000
2060.960938 5980.000000
2062.216064 6509.000000
2063.471191 5695.000000
2064.725342 5648.000000
2065.978760 5648.000000
2067.231445 6881.000000
2068.482910 6310.000000
2069.734131 6383.000000
2070.984619 5548.000000
2072.234375 5424.000000
2073.482666 6179.000000
2074.730957 6521.000000
2075.978271 7458.000000
2077.224854 5560.000000
2078.470703 5996.000000
2079.715332 7078.000000
2080.959473 7579.000000
2082.203125 5565.000000
2083.445801 6040.000000
2084.687256 6985.000000
2085.928467 5980.000000
2087.169189 6403.000000
2088.408936 6751.000000
2089.647461 7145.000000
2090.885498 6238.000000
2092.122803 5784.000000
2093.359863 6651.000000
2094.595459 6158.000000
2095.830322 6203.000000
2097.064941 6044.000000
2098.298584 5640.000000
2099.531250 6062.000000
2100.763184 6912.000000
2101.994629 6491.000000
2103.225098 6805.000000
2104.454834 5984.000000
2105.684326 5965.000000
2106.911865 5996.000000
2108.139648 5967.000000
2109.366699 6378.000000
2110.592773 5461.000000
2111.817383 6407.000000
2113.042236 6960.000000
2114.265869 7090.000000
2115.489014 6285.000000
2116.710938 7531.000000
2117.932617 6022.000000
2119.153320 6901.000000
2120.373291 6089.000000
2121.592773 6119.000000
2122.810791 6610.000000
2124.028809 7121.000000
2125.245850 5806.000000
2126.462402 5774.000000
2127.677246 6618.000000
2128.892334 6409.000000
2130.106445 6987.000000
2131.319824 5709.000000
2132.532471 6101.000000
2133.743652 5825.000000
2134.955078 6466.000000
2136.165283 6631.000000
2137.375000 5990.000000
2138.583252 6186.000000
2139.791504 5658.000000
2140.999023 5908.000000
2142.205322 7722.000000
2143.410889 5965.000000
2144.616211 5705.000000
2145.820557 5528.000000
2147.024170 6317.000000
2148.227295 6288.000000
2149.428955 6426.000000
2150.630371 5351.000000
2151.831055 6316.000000
2153.031006 6115.000000
2154.229736 6021.000000
2155.428223 6937.000000
2156.626221 6134.000000
2157.823242 6036.000000
2159.019531 5203.000000
2160.214600 5262.000000
2161.409424 6130.000000
2162.603516 5577.000000
2163.796631 6164.000000
2164.988770 6931.000000
2166.180664 5953.000000
2167.371826 6345.000000
2168.562012 6302.000000
2169.751465 6500.000000
2170.940430 6762.000000
2172.128418 5995.000000
2173.316162 5758.000000
2174.502441 5872.000000
2175.687988 6592.000000
2176.873291 5980.000000
2178.058105 5891.000000
2179.241699 6401.000000
2180.424561 7568.000000
2181.606445 6304.000000
2182.788086 5929.000000
2183.969238 6566.000000
2185.149170 5762.000000
2186.328125 5568.000000
2187.506592 6401.000000
2188.684814 6898.000000
2189.861816 7229.000000
2191.037842 6752.000000
2192.213623 6120.000000
2193.388916 5602.000000
2194.562744 6676.000000
2195.736084 6142.000000
2196.909180 6136.000000
2198.081055 6557.000000
2199.252441 7129.000000
2200.423340 6321.000000
2201.592529 6857.000000
2202.761719 7584.000000
2203.930420 6262.000000
2205.098145 5898.000000
2206.264893 5675.000000
2207.430908 7170.000000
2208.596436 6656.000000
2209.761719 5980.000000
2210.925537 6765.000000
2212.088867 5446.000000
2213.250977 6221.000000
2214.413330 6120.000000
2215.574463 6761.000000
2216.734619 6663.000000
2217.894287 6301.000000
2219.053711 6599.000000
2220.211914 6340.000000
2221.369141 6386.000000
2222.526123 6754.000000
2223.682373 6707.000000
2224.837891 6779.000000
2225.992676 6337.000000
2227.146484 6449.000000
2228.299316 6057.000000
2229.452637 6935.000000
2230.604004 6247.000000
2231.755127 6126.000000
2232.905518 6618.000000
2234.055420 7702.000000
2235.204346 6342.000000
2236.352783 5215.000000
2237.499756 6781.000000
2238.646973 6969.000000
2239.792969 6057.000000
2240.938721 7304.000000
2242.082764 7387.000000
2243.227051 6754.000000
2244.370361 6230.000000
2245.512939 5991.000000
2246.654541 5768.000000
2247.795898 5850.000000
2248.936279 6392.000000
2250.075928 6453.000000
2251.215088 5859.000000
2252.353027 5904.000000
2253.490967 6177.000000
2254.627930 5289.000000
2255.764160 6302.000000
2256.899414 6083.000000
2258.033936 7257.000000
2259.168213 6346.000000
2260.302002 5374.000000
2261.434326 6100.000000
2262.566162 6851.000000
2263.697510 6287.000000
2264.827881 6512.000000
2265.958008 8081.000000
2267.086914 6693.000000
2268.215332 6134.000000
2269.343262 5566.000000
2270.470215 6149.000000
2271.596436 5927.000000
2272.721680 6783.000000
2273.846924 6489.000000
2274.971436 6460.000000
2276.094727 5930.000000
2277.217285 6306.000000
2278.339355 5958.000000
2279.460938 7366.000000
2280.581787 6425.000000
2281.701416 6396.000000
2282.820557 7136.000000
2283.939453 7672.000000
2285.057617 7236.000000
2286.174805 5902.000000
2287.291016 6453.000000
2288.406982 7049.000000
2289.522217 6865.000000
2290.636719 7421.000000
2291.750000 5833.000000
2292.863281 6374.000000
2293.975830 6063.000000
2295.087646 5399.000000
2296.198730 6751.000000
2297.308594 6470.000000
2298.417969 6197.000000
2299.527100 6727.000000
2300.635254 6322.000000
2301.742432 6775.000000
2302.849365 5908.000000
2303.955566 6215.000000
2305.061279 6642.000000
2306.165527 6633.000000
2307.269531 5438.000000
2308.373047 5728.000000
2309.476074 6534.000000
2310.577881 7421.000000
2311.678955 7339.000000
2312.779541 6593.000000
2313.879639 5516.000000
2314.979004 6401.000000
2316.076904 6643.000000
2317.175293 7066.000000
2318.272217 8251.000000
2319.368896 6913.000000
2320.465088 5795.000000
2321.559570 6851.000000
2322.654053 7629.000000
2323.747803 5791.000000
2324.841309 6006.000000
2325.933105 6499.000000
2327.024902 7015.000000
2328.115967 6127.000000
2329.206299 6267.000000
2330.295654 6972.000000
2331.385010 6063.000000
2332.473145 6406.000000
2333.560791 6866.000000
2334.648193 6498.000000
2335.733887 6673.000000
2336.819336 7731.000000
2337.904541 6268.000000
2338.988770 6769.000000
2340.072021 5989.000000
2341.155029 6431.000000
2342.237061 7123.000000
2343.318848 5985.000000
2344.399902 7466.000000
2345.479736 6619.000000
2346.559082 5751.000000
2347.637939 6738.000000
2348.716309 6535.000000
2349.793213 6337.000000
2350.869873 6954.000000
2351.946289 6050.000000
2353.021729 6529.000000
2354.096191 5922.000000
2355.170410 6306.000000
2356.243896 6785.000000
2357.316895 6313.000000
2358.388672 7046.000000
2359.460205 6252.000000
2360.530762 6832.000000
2361.601074 7467.000000
2362.670410 7542.000000
2363.738770 6796.000000
2364.806885 6784.000000
2365.874268 7124.000000
2366.941162 7178.000000
2368.007324 6076.000000
2369.072266 6936.000000
2370.137207 7000.000000
2371.201416 6377.000000
2372.264893 6904.000000
2373.327148 5832.000000
2374.389404 6336.000000
2375.450684 6368.000000
2376.511719 5898.000000
2377.571533 6313.000000
2378.630615 7953.000000
2379.689697 6476.000000
2380.747803 7608.000000
2381.805176 6908.000000
2382.861572 8018.000000
2383.917725 7818.000000
2384.973389 6209.000000
2386.028320 6997.000000
2387.081787 6741.000000
2388.135498 6705.000000
2389.188232 6276.000000
2390.240479 6782.000000
2391.291992 6182.000000
2392.342529 6607.000000
2393.392822 6503.000000
2394.442139 6309.000000
2395.491455 6256.000000
2396.539307 6940.000000
2397.586670 7043.000000
2398.633789 6259.000000
2399.679932 6695.000000
2400.725342 6208.000000
2401.770020 6732.000000
2402.814697 7766.000000
2403.857910 7462.000000
2404.901123 6550.000000
2405.942871 5769.000000
2406.984863 6669.000000
2408.026123 7165.000000
2409.066406 6120.000000
2410.105957 6360.000000
2411.144531 6335.000000
2412.183350 5950.000000
2413.220947 6526.000000
2414.258301 6881.000000
2415.294434 7441.000000
2416.330322 6227.000000
2417.365479 6300.000000
2418.400146 6613.000000
2419.433350 7239.000000
2420.466797 6482.000000
2421.499268 6746.000000
2422.531494 6824.000000
2423.562256 6978.000000
2424.593018 6318.000000
2425.623291 6836.000000
2426.652344 6869.000000
2427.681396 6625.000000
2428.708740 7405.000000
2429.736572 6704.000000
2430.763184 7272.000000
2431.789551 6935.000000
2432.814453 7774.000000
2433.839600 6538.000000
2434.863770 7156.000000
2435.887695 6721.000000
2436.910400 5814.000000
2437.932373 6381.000000
2438.954102 6616.000000
2439.975098 6704.000000
2440.995605 5963.000000
2442.014893 6600.000000
2443.034180 6563.000000
2444.052490 8517.000000
2445.070557 6280.000000
2446.087158 6434.000000
2447.103760 6568.000000
2448.119629 5979.000000
2449.135498 7059.000000
2450.149902 6861.000000
2451.163574 5560.000000
2452.176758 7249.000000
2453.189697 5999.000000
2454.201904 7218.000000
2455.213135 6730.000000
2456.224121 7732.000000
2457.234375 6354.000000
2458.244141 7639.000000
2459.252930 5889.000000
2460.260986 5977.000000
2461.269043 6349.000000
2462.275879 7332.000000
2463.282471 5451.000000
2464.287842 7430.000000
2465.292969 6943.000000
2466.297852 5831.000000
2467.301514 6593.000000
2468.304932 6387.000000
2469.307373 7645.000000
2470.309570 7326.000000
2471.311279 6882.000000
2472.312012 6574.000000
2473.311768 6934.000000
2474.311523 6742.000000
2475.310303 5720.000000
2476.308594 6557.000000
2477.305908 7084.000000
2478.302979 6136.000000
2479.300049 6992.000000
2480.295654 5793.000000
2481.291260 7111.000000
2482.285156 6737.000000
2483.279053 8121.000000
2484.272461 6917.000000
2485.265381 6679.000000
2486.257324 7507.000000
2487.248535 7254.000000
2488.239502 6739.000000
2489.229980 5850.000000
2490.219482 6606.000000
2491.208252 6515.000000
2492.197021 5628.000000
2493.184814 6818.000000
2494.171387 6597.000000
2495.157959 7981.000000
2496.144043 6731.000000
2497.129395 6948.000000
2498.113770 8256.000000
2499.097900 6106.000000
2500.082031 6887.000000
2501.064697 5714.000000
2502.046875 6977.000000
2503.028564 7020.000000
2504.009521 7213.000000
2504.989990 6463.000000
2505.970215 5780.000000
2506.948975 6323.000000
2507.927490 7593.000000
2508.905518 6662.000000
2509.883057 7047.000000
2510.859619 6069.000000
2511.835938 5975.000000
2512.811523 6427.000000
2513.786621 6212.000000
2514.761230 6474.000000
2515.734619 7671.000000
2516.707764 6831.000000
2517.680664 6875.000000
2518.652588 6149.000000
2519.623779 6877.000000
2520.594482 6947.000000
2521.564941 7806.000000
2522.534668 8094.000000
2523.503418 6170.000000
2524.471436 6110.000000
2525.439453 7747.000000
2526.406494 6360.000000
2527.373291 5505.000000
2528.338867 7241.000000
2529.304443 7028.000000
2530.269287 7762.000000
2531.233643 6345.000000
2532.196777 6402.000000
2533.160156 5895.000000
2534.122559 5965.000000
2535.084717 6724.000000
2536.045654 6407.000000
2537.005859 6105.000000
2537.966309 6139.000000
2538.925781 6746.000000
2539.884521 6845.000000
2540.842285 6695.000000
2541.800293 6198.000000
2542.757568 6755.000000
2543.713867 6085.000000
2544.669922 7094.000000
2545.624756 6282.000000
2546.579834 7744.000000
2547.534180 6947.000000
2548.487793 6375.000000
2549.440430 7236.000000
2550.392822 6784.000000
2551.344727 7009.000000
2552.295898 6430.000000
2553.246338 7699.000000
2554.196289 7280.000000
2555.145996 7460.000000
2556.094971 6614.000000
2557.043457 6288.000000
2557.990723 7082.000000
2558.937988 6289.000000
2559.884521 6508.000000
2560.830566 6732.000000
2561.775635 7377.000000
2562.720459 6693.000000
2563.664795 7154.000000
2564.608643 6841.000000
2565.552002 6656.000000
2566.493896 6570.000000
2567.436035 6591.000000
2568.377441 6213.000000
2569.318115 7143.000000
2570.258057 7280.000000
2571.197998 5701.000000
2572.136963 6147.000000
2573.075684 7579.000000
2574.013428 7206.000000
2574.950928 5469.000000
2575.887695 7054.000000
2576.823730 6862.000000
2577.759277 7514.000000
2578.694092 6245.000000
2579.628906 5979.000000
2580.562744 7041.000000
2581.496094 7268.000000
2582.428711 5877.000000
2583.361084 6862.000000
2584.292725 5443.000000
2585.223877 7119.000000
2586.154541 7000.000000
2587.083984 6890.000000
2588.013428 7265.000000
2588.942383 6479.000000
2589.871094 7459.000000
2590.798096 7329.000000
2591.725342 5897.000000
2592.652100 6851.000000
2593.578125 6350.000000
2594.503906 5703.000000
2595.428467 7555.000000
2596.352783 7550.000000
2597.276611 5354.000000
2598.199951 7373.000000
2599.122314 6255.000000
2600.044434 6839.000000
2600.966064 8340.000000
2601.886963 6425.000000
2602.807129 5807.000000
2603.727051 6358.000000
2604.646484 6438.000000
2605.565674 6437.000000
2606.483887 5811.000000
2607.400879 6030.000000
2608.318115 7269.000000
2609.235107 5880.000000
2610.151123 7559.000000
2611.065918 6687.000000
2611.981201 6688.000000
2612.895752 6575.000000
2613.809326 6545.000000
2614.722900 6134.000000
2615.635254 7635.000000
2616.547607 7016.000000
2617.458984 6750.000000
2618.370117 5807.000000
2619.280518 7165.000000
2620.190674 6667.000000
2621.100098 6125.000000
2622.009033 6633.000000
2622.916992 6231.000000
2623.825195 6938.000000
2624.732422 6651.000000
2625.639160 6999.000000
2626.545166 5967.000000
2627.450928 6494.000000
2628.355957 6593.000000
2629.260742 7851.000000
2630.164795 6499.000000
2631.067871 6455.000000
2631.970947 6416.000000
2632.873047 5639.000000
2633.775146 6771.000000
2634.677002 6959.000000
2635.577148 6811.000000
2636.477539 6421.000000
2637.377197 6422.000000
2638.276611 6059.000000
2639.174561 6898.000000
2640.072998 6811.000000
2640.970947 6383.000000
2641.868164 6116.000000
2642.764160 6203.000000
2643.660156 6789.000000
2644.555908 6082.000000
2645.450928 6483.000000
2646.345703 6648.000000
2647.239014 7254.000000
2648.132324 6323.000000
2649.025391 6812.000000
2649.918213 6455.000000
2650.809326 7477.000000
2651.700684 6420.000000
2652.591553 7655.000000
2653.481689 7305.000000
2654.371582 6631.000000
2655.260254 7299.000000
2656.149170 6545.000000
2657.037598 6619.000000
2657.925049 7355.000000
2658.811523 6499.000000
2659.698486 7010.000000
2660.584717 6871.000000
2661.470459 6782.000000
2662.354980 6542.000000
2663.239502 6403.000000
2664.123779 6193.000000
2665.007324 7022.000000
2665.890381 7761.000000
2666.772705 7332.000000
2667.654541 6246.000000
2668.535645 6618.000000
2669.416992 6069.000000
2670.296875 6546.000000
2671.177002 7377.000000
2672.056396 7213.000000
2672.935791 6320.000000
2673.814453 6214.000000
2674.691406 6421.000000
2675.569092 6726.000000
2676.446045 6390.000000
2677.322266 8121.000000
2678.197998 7192.000000
2679.072998 6238.000000
2679.948242 7789.000000
2680.822510 7052.000000
2681.696289 7355.000000
2682.569336 7021.000000
2683.442139 6233.000000
2684.314697 6090.000000
2685.186523 6937.000000
2686.057617 6527.000000
2686.928467 6899.000000
2687.798828 7183.000000
2688.668945 6736.000000
2689.537354 6274.000000
2690.406494 7350.000000
2691.274902 7058.000000
2692.143066 6763.000000
2693.010498 6864.000000
2693.876709 5864.000000
2694.743408 7232.000000
2695.609131 7401.000000
2696.474854 7158.000000
2697.339111 7953.000000
2698.204102 6588.000000
2699.067627 7216.000000
2699.931396 5858.000000
2700.793701 7405.000000
2701.656494 6866.000000
2702.518311 5937.000000
2703.379639 6929.000000
2704.240967 6740.000000
2705.101074 7431.000000
2705.961182 7324.000000
2706.820801 6614.000000
2707.680176 6875.000000
2708.537842 7204.000000
2709.395752 6838.000000
2710.254150 7340.000000
2711.111328 6669.000000
2711.967773 5971.000000
2712.823730 6845.000000
2713.679688 6201.000000
2714.534912 6928.000000
2715.389404 6038.000000
2716.243408 6782.000000
2717.097412 7254.000000
2717.950439 6251.000000
2718.803711 6696.000000
2719.655273 7749.000000
2720.507324 6812.000000
2721.359131 6261.000000
2722.209717 6487.000000
2723.060303 6433.000000
2723.910400 7055.000000
2724.759766 7049.000000
2725.609131 6994.000000
2726.457275 6631.000000
2727.304932 6606.000000
2728.153076 7031.000000
2729.000000 6835.000000
2729.847412 5577.000000
2730.693359 7526.000000
2731.538574 7016.000000
2732.384277 6395.000000
2733.229004 6970.000000
2734.073730 7414.000000
2734.917236 6937.000000
2735.760986 7777.000000
2736.604004 7179.000000
2737.446533 6136.000000
2738.288086 6224.000000
2739.130127 6823.000000
2739.971191 7611.000000
2740.812012 5742.000000
2741.652588 5972.000000
2742.491943 7781.000000
2743.331299 6870.000000
2744.170654 6942.000000
2745.008789 6729.000000
2745.846436 7812.000000
2746.684082 6339.000000
2747.521240 7085.000000
2748.358154 6205.000000
2749.194580 6027.000000
2750.029785 6641.000000
2750.865234 6335.000000
2751.700195 6402.000000
2752.534424 6234.000000
2753.368408 6815.000000
2754.201904 6855.000000
2755.035400 7995.000000
2755.867920 6809.000000
2756.699951 7277.000000
2757.531494 6843.000000
2758.363037 7126.000000
2759.193604 7278.000000
2760.024414 7295.000000
2760.854004 7266.000000
2761.683594 6683.000000
2762.512939 7300.000000
2763.341553 6852.000000
2764.169678 6774.000000
2764.997314 6885.000000
2765.824951 6594.000000
2766.652100 7893.000000
2767.478516 5813.000000
2768.304443 7436.000000
2769.129883 6851.000000
2769.955078 7901.000000
2770.780273 7086.000000
2771.604248 6755.000000
2772.428223 6448.000000
2773.252197 7667.000000
2774.074951 6575.000000
2774.897949 7004.000000
2775.719727 6959.000000
2776.541504 6997.000000
2777.363281 6478.000000
2778.184082 7927.000000
2779.004150 6484.000000
2779.824463 6987.000000
2780.644287 7283.000000
2781.464111 6477.000000
2782.281982 5971.000000
2783.101074 8056.000000
2783.918945 6502.000000
2784.736572 6702.000000
2785.553711 7118.000000
2786.370361 7263.000000
2787.186768 7212.000000
2788.002686 6256.000000
2788.818359 5936.000000
2789.633057 6400.000000
2790.448242 6994.000000
2791.262695 7189.000000
2792.076660 6616.000000
2792.890381 7461.000000
2793.702881 8729.000000
2794.515625 6984.000000
2795.327881 7470.000000
2796.139648 7237.000000
2796.950684 7402.000000
2797.762451 6467.000000
2798.572998 7149.000000
2799.383545 7005.000000
2800.192627 7347.000000
2801.002441 8201.000000
2801.811523 7791.000000
2802.620361 6699.000000
2803.428711 7210.000000
2804.236084 6174.000000
2805.043945 6526.000000
2805.851074 6891.000000
2806.657959 6954.000000
2807.463623 7205.000000
2808.269775 6648.000000
2809.075195 6493.000000
2809.880615 7338.000000
2810.685303 6185.000000
2811.489014 7643.000000
2812.293213 7509.000000
2813.096924 6291.000000
2813.900391 6197.000000
2814.702393 6510.000000
2815.505127 7418.000000
2816.307129 7831.000000
2817.108887 6175.000000
2817.910156 6498.000000
2818.710938 7293.000000
2819.511230 6517.000000
2820.311768 6674.000000
2821.111328 8063.000000
2821.910400 7157.000000
2822.709473 6454.000000
2823.508301 6862.000000
2824.306641 6324.000000
2825.104004 7023.000000
2825.901611 7134.000000
2826.698486 6645.000000
2827.495605 7349.000000
2828.291992 7961.000000
2829.087646 7031.000000
2829.883301 7368.000000
2830.678711 7547.000000
2831.473633 7499.000000
2832.267822 6654.000000
2833.062012 6843.000000
2833.855957 5705.000000
2834.649414 6863.000000
2835.442139 7158.000000
2836.234619 8117.000000
2837.027100 7663.000000
2837.819336 7487.000000
2838.611084 6415.000000
2839.401855 6785.000000
2840.192627 8862.000000
2840.983643 7527.000000
2841.773682 6199.000000
2842.563232 7739.000000
2843.353027 7126.000000
2844.141846 7332.000000
2844.930664 7843.000000
2845.719482 7719.000000
2846.507324 7530.000000
2847.294678 7225.000000
2848.082275 7513.000000
2848.869385 7338.000000
2849.655762 6698.000000
2850.442139 7437.000000
2851.228271 7274.000000
2852.013916 7543.000000
2852.798584 7193.000000
2853.583740 6880.000000
2854.368652 7471.000000
2855.152832 7144.000000
2855.937012 6946.000000
2856.719971 8319.000000
2857.503174 6788.000000
2858.286133 6766.000000
2859.068604 7773.000000
2859.850830 6289.000000
2860.632568 6770.000000
2861.414063 7641.000000
2862.195801 7473.000000
2862.976807 7655.000000
2863.757080 6586.000000
2864.537109 6753.000000
2865.317139 8207.000000
2866.096924 7499.000000
2866.875732 8135.000000
2867.654785 7669.000000
2868.433350 6822.000000
2869.211670 6978.000000
2869.989502 7255.000000
2870.767090 6975.000000
2871.544434 7458.000000
2872.321533 7025.000000
2873.098145 6428.000000
2873.874268 7538.000000
2874.650391 7230.000000
2875.426025 8313.000000
2876.201416 7282.000000
2876.976318 6693.000000
2877.750977 8120.000000
2878.525635 6744.000000
2879.300049 7907.000000
2880.073730 6889.000000
2880.846680 7250.000000
2881.620361 6753.000000
2882.393066 7641.000000
2883.165771 7919.000000
2883.937744 8267.000000
2884.709473 6301.000000
2885.481689 6791.000000
2886.252686 6907.000000
2887.023193 6139.000000
2887.794189 8346.000000
2888.565186 7394.000000
2889.335449 7971.000000
2890.104736 7666.000000
2890.874268 7023.000000
2891.643799 7213.000000
2892.412842 7309.000000
2893.181396 7954.000000
2893.949951 7708.000000
2894.717529 6967.000000
2895.485596 6595.000000
2896.253174 7474.000000
2897.020752 8412.000000
2897.787109 7372.000000
2898.554443 6526.000000
2899.320557 7226.000000
2900.086914 6957.000000
2900.851807 8320.000000
2901.617188 7004.000000
2902.383057 6425.000000
2903.147461 7760.000000
2903.911865 7778.000000
2904.676514 8365.000000
2905.440186 6656.000000
2906.204590 8494.000000
2906.968262 6660.000000
2907.731201 8453.000000
2908.493896 6510.000000
2909.257080 9125.000000
2910.019775 7005.000000
2910.781250 6880.000000
2911.543213 6880.000000
