scanname Analyse084
timestamp 2017-02-10 22:04:20
ccdbias 954.742676
ccdgain 3.473401
sigmaread 8.960639
laserwavenum -0.533235
wavenumcorrection -0.010271
scancount 1
totalexposurems 10000
singleexposurems 10000
measurementstate Unknown
scanmode Manual
snr 321.285522 10.458590 8.933641
replacelist 4
672 53465.000000 31308.000000
754 53464.000000 19123.000000
889 53166.000000 20644.000000
948 52902.000000 19543.000000
peaks 89
278.376282 0.721652 0.000000 1.432823 0.000185
284.673004 0.721415 0.000000 0.849458 0.000063
293.303284 0.723327 0.000000 0.649870 0.000029
303.249725 0.724339 0.000000 0.121423 0.000021
332.327118 0.744500 0.000000 0.897047 0.000148
342.181488 0.745115 0.000000 0.786051 0.000035
348.710358 0.748406 0.000000 0.759434 0.000027
359.915161 0.749440 0.000000 0.314980 0.000017
386.119141 0.751697 0.000000 1.389167 0.000303
459.038788 0.765785 0.000000 0.202516 0.000038
487.322998 0.781659 0.000000 0.880099 0.000112
534.813538 0.784659 0.000000 0.672962 0.000150
559.575745 0.824256 0.000000 1.351000 0.000235
571.781250 0.831935 0.000000 0.579873 0.000150
582.477112 0.825323 0.000000 0.611138 0.000102
661.969849 0.862887 0.000000 2.048796 0.000523
673.175293 0.855665 0.000000 1.446432 0.000277
715.762512 0.875583 0.000000 5.560333 0.001171
724.495972 0.857360 0.000000 1.262544 0.000054
742.773071 0.882365 0.000000 1.109423 0.000120
757.139160 0.907228 0.000000 5.946856 0.000683
779.205872 0.909680 0.000000 8.375937 0.001311
825.846130 0.915829 0.000000 1.091206 0.000054
831.537292 0.907062 0.000000 0.426809 0.000167
855.035767 0.941037 0.000000 0.992048 0.000269
867.256287 0.936238 0.000000 0.479064 0.000123
937.245483 1.014043 0.000000 0.895869 0.000450
954.207397 0.991827 0.000000 3.452033 0.001059
1005.088867 1.032197 0.000000 1.002605 0.000112
1013.518921 1.036488 0.000000 1.942338 0.000760
1026.858643 1.050598 0.000000 0.675028 0.000270
1044.149902 1.047398 0.000000 4.297848 0.001403
1104.433228 1.068835 0.000000 2.210389 0.000617
1117.675903 1.109524 0.000000 2.293090 0.000661
1134.526245 1.087216 0.000000 1.969013 0.000873
1150.270996 1.069515 0.000000 2.265119 0.000946
1174.323120 1.103325 0.000000 1.523804 0.000511
1187.421875 1.108860 0.000000 0.854562 0.000071
1211.025879 1.184214 0.000000 0.887939 0.000267
1222.477051 1.197788 0.000000 1.599194 0.000593
1232.388916 1.179065 0.000000 1.223608 0.000336
1259.906738 1.215870 0.000000 2.623916 0.001283
1279.596924 1.158453 0.000000 0.227704 0.000425
1313.899902 1.223926 0.000000 1.994251 0.000763
1332.002197 1.298462 0.000000 3.861674 0.001364
1347.761353 1.298942 0.000000 0.674098 0.000690
1389.666626 1.282711 0.000000 0.761956 0.000302
1414.518433 1.365043 0.000000 2.765181 0.001697
1429.240601 1.388922 0.000000 1.305597 0.000181
1434.184570 1.422605 0.000000 1.719011 0.000858
1446.945313 1.414737 0.000000 1.469467 0.000537
1459.994019 1.412550 0.000000 2.216644 0.001540
1489.846558 1.491669 0.000000 4.300977 0.002672
1518.046875 1.434663 0.000000 0.210458 0.000148
1532.901489 1.525257 0.000000 0.923926 0.001049
1547.551636 1.549126 0.000000 0.630276 0.000369
1558.175781 1.573702 0.000000 1.507875 0.000952
1578.073853 1.565867 0.000000 1.545447 0.001476
1598.654541 1.556715 0.000000 0.279771 0.000275
1617.210205 1.608997 0.000000 12.909762 0.008452
1635.312012 1.623343 0.000000 5.436625 0.001495
1671.428101 1.744833 0.000000 1.465425 0.001124
1687.753784 1.770358 0.000000 0.850136 0.000559
1699.212036 1.786799 0.000000 1.137165 0.001563
1711.679077 1.762806 0.000000 0.989969 0.000928
1762.284912 1.818842 0.000000 0.846184 0.000616
1778.813721 1.945253 0.000000 5.574265 0.005563
1796.220581 1.945684 0.000000 0.755868 0.000635
1810.429565 1.971175 0.000000 3.360802 0.003911
1856.211548 2.002424 0.000000 1.273087 0.002167
1872.655762 2.062933 0.000000 1.215327 0.000968
1890.410889 2.117688 0.000000 1.738928 0.002876
1902.031250 2.116954 0.000000 1.554243 0.001798
1912.616699 2.093553 0.000000 0.641640 0.000708
1943.055908 2.097838 0.000000 0.476020 0.000973
1973.088745 2.108535 0.000000 0.852366 0.000472
1991.731567 2.104474 0.000000 0.914837 0.002336
2012.136108 2.102827 0.000000 0.396807 0.000465
2024.773193 2.098768 0.000000 0.794553 0.000966
2046.164673 2.045497 0.000000 0.667822 0.002165
2065.099121 2.025637 0.000000 0.304354 0.001763
2093.950195 1.986649 0.000000 0.500682 0.000837
2108.771484 1.986334 0.000000 0.820207 0.001673
2131.734375 1.949852 0.000000 1.639429 0.003953
2140.593994 1.920797 0.000000 0.324820 0.000741
2160.489990 1.887363 0.000000 1.228498 0.003452
2175.116943 1.866816 0.000000 0.712570 0.001154
2188.427246 1.858747 0.000000 0.576451 0.000305
2194.642578 1.863250 0.000000 1.017305 0.001475
finalresult GLS_NoMatch 0
spectrum 2048
-97.068222 47331.000000
-94.441353 47331.000000
-91.816360 47478.000000
-89.193260 47100.000000
-86.572029 47718.000000
-83.952698 47251.000000
-81.335228 47449.000000
-78.719635 47084.000000
-76.105919 47264.000000
-73.494080 47656.000000
-70.884102 47422.000000
-68.276009 47618.000000
-65.669762 47597.000000
-63.065388 47504.000000
-60.462879 47457.000000
-57.862225 47956.000000
-55.263432 47260.000000
-52.666496 46673.000000
-50.071415 47032.000000
-47.478188 47037.000000
-44.886810 47276.000000
-42.297279 46824.000000
-39.709591 47674.000000
-37.123753 47508.000000
-34.539757 47103.000000
-31.957600 47861.000000
-29.377287 47231.000000
-26.798801 47845.000000
-24.222158 47421.000000
-21.647341 47305.000000
-19.074364 47102.000000
-16.503206 47054.000000
-13.933883 46759.000000
-11.366385 45794.000000
-8.800705 47246.000000
-6.236851 47081.000000
-3.674810 47624.000000
-1.114594 47743.000000
1.443814 47391.000000
4.000401 46663.000000
6.555183 46887.000000
9.108148 47487.000000
11.659312 46814.000000
14.208664 47119.000000
16.756220 46826.000000
19.301964 47550.000000
21.845915 47839.000000
24.388062 46900.000000
26.928411 46814.000000
29.466976 46708.000000
32.003746 47329.000000
34.538712 47747.000000
37.071899 46269.000000
39.603306 47196.000000
42.132919 46388.000000
44.660736 47031.000000
47.186794 45686.000000
49.711063 47869.000000
52.233562 47329.000000
54.754265 46840.000000
57.273212 47222.000000
59.790386 47095.000000
62.305782 46869.000000
64.819397 47975.000000
67.331261 47808.000000
69.841377 47012.000000
72.349701 47038.000000
74.856270 47626.000000
77.361092 47193.000000
79.864159 47136.000000
82.365448 47252.000000
84.864998 47344.000000
87.362793 47204.000000
89.858856 47754.000000
92.353142 46328.000000
94.845688 47751.000000
97.336517 46581.000000
99.825577 46447.000000
102.312889 47151.000000
104.798477 47271.000000
107.282326 47202.000000
109.764427 47803.000000
112.244804 46954.000000
114.723457 47321.000000
117.200386 47105.000000
119.675560 46368.000000
122.149025 46714.000000
124.620758 47608.000000
127.090782 46769.000000
129.559052 47310.000000
132.025650 47228.000000
134.490494 47873.000000
136.953644 47372.000000
139.415054 46195.000000
141.874771 46731.000000
144.332764 47180.000000
146.789063 47557.000000
149.243652 47721.000000
151.696518 46698.000000
154.147705 47235.000000
156.597198 46976.000000
159.044968 47469.000000
161.491028 46974.000000
163.935410 44805.000000
166.378113 47066.000000
168.819122 46768.000000
171.258423 47398.000000
173.696014 46264.000000
176.131973 46881.000000
178.566193 46579.000000
180.998734 46364.000000
183.429626 46891.000000
185.858795 46699.000000
188.286316 46843.000000
190.712158 47169.000000
193.136322 46841.000000
195.558823 46438.000000
197.979630 46181.000000
200.398773 47078.000000
202.816254 47545.000000
205.232040 45935.000000
207.646179 46471.000000
210.058685 47166.000000
212.469513 47439.000000
214.878662 47342.000000
217.286179 46110.000000
219.691986 47386.000000
222.096207 47044.000000
224.498718 46851.000000
226.899612 46568.000000
229.298859 47112.000000
231.696442 46685.000000
234.092361 46268.000000
236.486664 46985.000000
238.879303 47720.000000
241.270325 46708.000000
243.659683 47002.000000
246.047424 47245.000000
248.433517 46557.000000
250.817978 47463.000000
253.200790 45656.000000
255.582031 46883.000000
257.961578 46910.000000
260.339539 47066.000000
262.715820 46006.000000
265.090546 45977.000000
267.463623 45697.000000
269.835052 47320.000000
272.204834 47100.000000
274.573059 47649.000000
276.939636 47230.000000
279.304626 46786.000000
281.667999 47509.000000
284.029724 47323.000000
286.389862 46402.000000
288.748383 47457.000000
291.105316 47048.000000
293.460632 47102.000000
295.814362 47586.000000
298.166443 47552.000000
300.516968 47170.000000
302.865906 47196.000000
305.213196 46681.000000
307.558960 47095.000000
309.903046 47025.000000
312.245605 46173.000000
314.586548 45872.000000
316.925873 46419.000000
319.263641 46479.000000
321.599854 45378.000000
323.934418 47214.000000
326.267426 47052.000000
328.598877 47598.000000
330.928741 46894.000000
333.257019 47103.000000
335.583679 46344.000000
337.908844 47172.000000
340.232391 47272.000000
342.554382 47459.000000
344.874817 45994.000000
347.193634 45835.000000
349.510895 47469.000000
351.826630 47700.000000
354.140778 46527.000000
356.453339 47161.000000
358.764343 47042.000000
361.073822 46421.000000
363.381775 47164.000000
365.688110 47809.000000
367.992859 47138.000000
370.296143 47141.000000
372.597809 47261.000000
374.897980 47135.000000
377.196594 47126.000000
379.493652 47767.000000
381.789154 47433.000000
384.083130 47622.000000
386.375519 48163.000000
388.666412 47965.000000
390.955780 47323.000000
393.243561 47231.000000
395.529816 46965.000000
397.814575 46545.000000
400.097717 47486.000000
402.379425 47081.000000
404.659607 47358.000000
406.938202 46265.000000
409.215271 47045.000000
411.490814 46845.000000
413.764832 47030.000000
416.037415 47119.000000
418.308380 47274.000000
420.577850 47002.000000
422.845825 46382.000000
425.112244 46304.000000
427.377167 47269.000000
429.640625 47203.000000
431.902496 47075.000000
434.162903 47507.000000
436.421753 46876.000000
438.679138 47346.000000
440.935028 47851.000000
443.189423 47711.000000
445.442291 48071.000000
447.693604 46608.000000
449.943512 47388.000000
452.191833 47146.000000
454.438721 47797.000000
456.684143 46978.000000
458.928009 47051.000000
461.170380 46675.000000
463.411255 47841.000000
465.650726 46830.000000
467.888611 48048.000000
470.125061 47685.000000
472.359985 47417.000000
474.593445 46118.000000
476.825470 46805.000000
479.055969 47935.000000
481.284973 47022.000000
483.512512 47182.000000
485.738556 47532.000000
487.963165 46945.000000
490.186310 47651.000000
492.407990 47128.000000
494.628113 46767.000000
496.846832 47836.000000
499.064056 47183.000000
501.279907 47922.000000
503.494141 47292.000000
505.707062 47039.000000
507.918396 47080.000000
510.128296 46629.000000
512.336731 46979.000000
514.543823 46901.000000
516.749329 47098.000000
518.953430 46976.000000
521.156006 47363.000000
523.357178 46930.000000
525.557007 46839.000000
527.755310 46580.000000
529.952087 48228.000000
532.147522 47718.000000
534.341431 47921.000000
536.533997 46018.000000
538.725037 46840.000000
540.914673 47469.000000
543.102905 46589.000000
545.289612 46373.000000
547.474854 46609.000000
549.658813 47212.000000
551.841187 47061.000000
554.022217 47362.000000
556.201721 47478.000000
558.379944 47633.000000
560.556641 47473.000000
562.731934 47094.000000
564.905823 46996.000000
567.078247 47608.000000
569.249268 47473.000000
571.418823 47178.000000
573.587097 48204.000000
575.753845 47100.000000
577.919128 47232.000000
580.083008 47415.000000
582.245605 47776.000000
584.406677 47528.000000
586.566345 47833.000000
588.724670 47765.000000
590.881470 47382.000000
593.036926 46907.000000
595.190979 47704.000000
597.343689 47377.000000
599.494873 46254.000000
601.644714 46657.000000
603.793213 46871.000000
605.940125 47439.000000
608.085815 47003.000000
610.230103 47057.000000
612.372925 46522.000000
614.514282 47382.000000
616.654419 46985.000000
618.793030 45826.000000
620.930359 47746.000000
623.066223 46896.000000
625.200684 46532.000000
627.333679 46294.000000
629.465515 46812.000000
631.595886 46908.000000
633.724854 46723.000000
635.852356 47044.000000
637.978577 47272.000000
640.103271 46144.000000
642.226746 47079.000000
644.348877 46694.000000
646.469543 46717.000000
648.588867 46915.000000
650.706787 47863.000000
652.823364 47783.000000
654.938538 46996.000000
657.052368 46994.000000
659.164734 47694.000000
661.275879 47393.000000
663.385620 48113.000000
665.493896 46900.000000
667.601013 47239.000000
669.706665 46704.000000
671.810852 47730.000000
673.913818 47775.000000
676.015381 46572.000000
678.115601 48202.000000
680.214417 46723.000000
682.311890 47160.000000
684.408081 46494.000000
686.502808 47300.000000
688.596313 46516.000000
690.688477 46662.000000
692.779114 45544.000000
694.868530 46875.000000
696.956665 47064.000000
699.043335 47479.000000
701.128784 46804.000000
703.212708 48317.000000
705.295410 47638.000000
707.376831 47552.000000
709.456787 45889.000000
711.535522 47220.000000
713.612793 47915.000000
715.688782 46888.000000
717.763489 47444.000000
719.836914 46482.000000
721.908813 47224.000000
723.979553 46018.000000
726.048950 47699.000000
728.116943 46952.000000
730.183594 47112.000000
732.249023 46400.000000
734.313110 47724.000000
736.375854 47334.000000
738.437256 46900.000000
740.497375 46908.000000
742.556091 47496.000000
744.613586 46852.000000
746.669800 46941.000000
748.724609 46804.000000
750.778137 47125.000000
752.830261 46009.000000
754.881165 47703.000000
756.930847 46761.000000
758.979065 47115.000000
761.026062 47290.000000
763.071777 46585.000000
765.116089 48142.000000
767.159119 47770.000000
769.200928 38523.000000
771.241394 46452.000000
773.280457 47110.000000
775.318359 47401.000000
777.354919 47499.000000
779.390259 48178.000000
781.424255 47707.000000
783.456848 46627.000000
785.488281 48026.000000
787.518311 41451.000000
789.547058 47443.000000
791.574646 47134.000000
793.600891 47055.000000
795.625732 47689.000000
797.649475 47995.000000
799.671814 47057.000000
801.692932 47588.000000
803.712708 46826.000000
805.731201 48638.000000
807.748474 46773.000000
809.764343 46681.000000
811.779053 47748.000000
813.792419 47116.000000
815.804565 47229.000000
817.815491 47394.000000
819.825073 46903.000000
821.833435 48149.000000
823.840393 47756.000000
825.846130 47502.000000
827.850647 47760.000000
829.853882 47802.000000
831.855835 46925.000000
833.856506 47413.000000
835.855957 47584.000000
837.854065 47140.000000
839.851074 46476.000000
841.846680 47234.000000
843.841125 47581.000000
845.834229 47243.000000
847.826111 46643.000000
849.816650 47772.000000
851.805908 46623.000000
853.794128 47541.000000
855.780945 47674.000000
857.766541 47038.000000
859.750854 46252.000000
861.734070 47138.000000
863.715881 47210.000000
865.696472 47693.000000
867.675781 45688.000000
869.653931 46341.000000
871.630737 47320.000000
873.606262 47328.000000
875.580750 47283.000000
877.553772 47468.000000
879.525757 48046.000000
881.496399 47108.000000
883.465881 47383.000000
885.434021 47910.000000
887.401001 48224.000000
889.366638 47337.000000
891.331116 47696.000000
893.294373 47485.000000
895.256409 47008.000000
897.217163 47643.000000
899.176697 47081.000000
901.134949 46793.000000
903.092102 47118.000000
905.048096 47499.000000
907.002686 46563.000000
908.956055 46978.000000
910.908264 47105.000000
912.859253 47113.000000
914.808960 46379.000000
916.757507 47121.000000
918.704834 47300.000000
920.650879 47291.000000
922.595642 47373.000000
924.539368 47203.000000
926.481934 47569.000000
928.423218 47891.000000
930.363159 47017.000000
932.302002 47842.000000
934.239563 48031.000000
936.175903 47569.000000
938.111084 47619.000000
940.044983 47375.000000
941.977783 47536.000000
943.909363 46765.000000
945.839783 48250.000000
947.768982 47045.000000
949.696838 46434.000000
951.623657 46880.000000
953.549194 47522.000000
955.473450 48075.000000
957.396606 47430.000000
959.318604 46743.000000
961.239319 46188.000000
963.158875 47003.000000
965.077271 48118.000000
966.994629 47052.000000
968.910522 47082.000000
970.825317 47367.000000
972.738892 47529.000000
974.651306 47105.000000
976.562500 47024.000000
978.472534 47956.000000
980.381287 47259.000000
982.289001 47335.000000
984.195496 47081.000000
986.100769 47724.000000
988.004944 46608.000000
989.907898 47325.000000
991.809631 46665.000000
993.710205 47078.000000
995.609619 46916.000000
997.507813 48133.000000
999.404846 46966.000000
1001.300659 46942.000000
1003.195313 45920.000000
1005.088867 47928.000000
1006.981140 46401.000000
1008.872498 47360.000000
1010.762512 48145.000000
1012.651306 46887.000000
1014.538940 47076.000000
1016.425415 46505.000000
1018.310730 46716.000000
1020.194885 47535.000000
1022.077820 47710.000000
1023.959717 47176.000000
1025.840332 48315.000000
1027.719849 47591.000000
1029.598389 47407.000000
1031.475586 48088.000000
1033.351440 47223.000000
1035.226318 47603.000000
1037.100220 46891.000000
1038.972656 46418.000000
1040.844116 46815.000000
1042.714233 47975.000000
1044.583374 48035.000000
1046.451294 47657.000000
1048.318115 46329.000000
1050.183838 46733.000000
1052.048340 47039.000000
1053.911743 47074.000000
1055.773804 47049.000000
1057.634888 47618.000000
1059.494873 46903.000000
1061.353516 46771.000000
1063.211060 47663.000000
1065.067505 46723.000000
1066.922852 47592.000000
1068.776978 47663.000000
1070.630249 47223.000000
1072.482056 47067.000000
1074.332886 47322.000000
1076.182495 47232.000000
1078.030884 47697.000000
1079.878418 45555.000000
1081.724609 47887.000000
1083.569580 47248.000000
1085.413696 48133.000000
1087.256470 47978.000000
1089.098022 46981.000000
1090.938843 48002.000000
1092.778076 47725.000000
1094.616577 47434.000000
1096.453735 47487.000000
1098.289673 46702.000000
1100.124634 46820.000000
1101.958374 47974.000000
1103.791138 47808.000000
1105.622559 47291.000000
1107.453125 46273.000000
1109.282349 46875.000000
1111.110596 47000.000000
1112.937622 46309.000000
1114.763672 48078.000000
1116.588501 47143.000000
1118.412231 46362.000000
1120.234741 47380.000000
1122.056152 47543.000000
1123.876709 47635.000000
1125.695801 46851.000000
1127.514038 46380.000000
1129.330933 46593.000000
1131.146973 46790.000000
1132.961792 47054.000000
1134.775513 47846.000000
1136.588135 47648.000000
1138.399536 47801.000000
1140.209961 47372.000000
1142.019287 46763.000000
1143.827271 46531.000000
1145.634521 47524.000000
1147.440308 47561.000000
1149.245239 48043.000000
1151.049072 47975.000000
1152.851685 47362.000000
1154.653442 47384.000000
1156.453735 47427.000000
1158.253052 47429.000000
1160.051392 47614.000000
1161.848389 48016.000000
1163.644653 47551.000000
1165.439575 47418.000000
1167.233398 47215.000000
1169.026367 45764.000000
1170.817993 47763.000000
1172.608643 47023.000000
1174.398315 47453.000000
1176.186523 47605.000000
1177.973877 45987.000000
1179.760132 46569.000000
1181.545288 47673.000000
1183.329346 47506.000000
1185.112305 45805.000000
1186.894287 47674.000000
1188.675049 47545.000000
1190.454834 47141.000000
1192.233521 46475.000000
1194.011230 46830.000000
1195.787720 46292.000000
1197.563110 46911.000000
1199.337402 46886.000000
1201.110596 46773.000000
1202.882935 46924.000000
1204.653931 46748.000000
1206.424072 47841.000000
1208.192993 47321.000000
1209.960815 47130.000000
1211.727783 47628.000000
1213.493408 47525.000000
1215.258057 46513.000000
1217.021606 46925.000000
1218.784058 47476.000000
1220.545654 46816.000000
1222.306030 47626.000000
1224.065308 47209.000000
1225.823730 47349.000000
1227.580933 46324.000000
1229.337036 47048.000000
1231.092041 47915.000000
1232.846191 47441.000000
1234.598999 47689.000000
1236.350830 47428.000000
1238.101807 47447.000000
1239.851440 48607.000000
1241.600220 46475.000000
1243.347656 47053.000000
1245.094360 46816.000000
1246.839844 46993.000000
1248.584473 47015.000000
1250.327759 46703.000000
1252.070068 46770.000000
1253.811279 48121.000000
1255.551636 48421.000000
1257.290894 47689.000000
1259.028931 46882.000000
1260.766113 46252.000000
1262.502075 47253.000000
1264.237061 46950.000000
1265.971069 46310.000000
1267.704102 47508.000000
1269.435913 47269.000000
1271.166748 46926.000000
1272.896362 46164.000000
1274.625122 47488.000000
1276.352783 47727.000000
1278.079346 47925.000000
1279.805054 47916.000000
1281.529419 47012.000000
1283.252930 48312.000000
1284.975464 46597.000000
1286.697021 46785.000000
1288.417358 47300.000000
1290.136719 46764.000000
1291.854980 46184.000000
1293.572266 47067.000000
1295.288574 47802.000000
1297.003662 47103.000000
1298.717773 47364.000000
1300.430908 47649.000000
1302.143188 47023.000000
1303.854248 45124.000000
1305.564331 48246.000000
1307.273315 47175.000000
1308.981079 46854.000000
1310.688232 46446.000000
1312.393921 47676.000000
1314.098877 46500.000000
1315.802856 47298.000000
1317.505615 47464.000000
1319.207397 46953.000000
1320.908325 47473.000000
1322.607910 43428.000000
1324.306641 45621.500000
1326.004639 47815.000000
1327.701294 47031.000000
1329.396851 46298.000000
1331.091553 46571.000000
1332.785034 47711.000000
1334.477661 48030.000000
1336.169434 46122.000000
1337.859863 47283.000000
1339.549561 46849.000000
1341.238159 47394.000000
1342.925659 45888.000000
1344.612183 47836.000000
1346.297607 46762.000000
1347.982056 47466.000000
1349.665649 46185.000000
1351.348022 47076.000000
1353.029419 47536.000000
1354.709961 46999.000000
1356.389282 46720.000000
1358.067993 47598.000000
1359.745361 46891.000000
1361.421631 47659.000000
1363.096924 47855.000000
1364.771484 46893.000000
1366.444824 47016.000000
1368.117188 46726.000000
1369.788574 48294.000000
1371.458984 46710.000000
1373.128296 47299.000000
1374.796631 47777.000000
1376.464111 47484.000000
1378.130493 47115.000000
1379.795898 47296.000000
1381.460327 47625.000000
1383.123535 47525.000000
1384.786133 47784.000000
1386.447388 47099.000000
1388.107788 46921.000000
1389.767090 47022.000000
1391.425415 46910.000000
1393.083008 46685.000000
1394.739380 46954.000000
1396.394897 46429.000000
1398.049194 47147.000000
1399.702637 47596.000000
1401.354980 47242.000000
1403.006592 46948.000000
1404.656982 46313.000000
1406.306274 47207.000000
1407.954834 46060.000000
1409.602295 45577.000000
1411.248779 47365.000000
1412.894409 47174.000000
1414.539063 47446.000000
1416.182495 46340.000000
1417.825073 46310.000000
1419.466553 46525.000000
1421.107178 46960.000000
1422.746826 46957.000000
1424.385376 47376.000000
1426.023071 46812.000000
1427.659668 47054.000000
1429.295288 47473.000000
1430.930176 47106.000000
1432.563965 47588.000000
1434.196655 47264.000000
1435.828369 47868.000000
1437.459229 47361.000000
1439.088989 47419.000000
1440.717651 45608.000000
1442.345703 47483.000000
1443.972656 47223.000000
1445.598389 47255.000000
1447.223511 47306.000000
1448.847534 46837.000000
1450.470581 47462.000000
1452.092651 47405.000000
1453.713623 46089.000000
1455.333618 47124.000000
1456.952881 46521.000000
1458.570801 47721.000000
1460.188110 47816.000000
1461.804443 47911.000000
1463.419556 46168.000000
1465.033813 47125.000000
1466.647217 48225.000000
1468.259521 47814.000000
1469.870972 47166.000000
1471.481567 47137.000000
1473.090942 47478.000000
1474.699341 47494.000000
1476.306885 47213.000000
1477.913452 46703.000000
1479.519287 48175.000000
1481.123901 47143.000000
1482.727661 47908.000000
1484.330200 46634.000000
1485.932129 47938.000000
1487.532837 47922.000000
1489.132813 47805.000000
1490.731689 47172.000000
1492.329712 46985.000000
1493.926636 46716.000000
1495.522705 47040.000000
1497.117798 47410.000000
1498.711914 47833.000000
1500.305298 46867.000000
1501.897583 47911.000000
1503.488647 47217.000000
1505.079224 46612.000000
1506.668457 46902.000000
1508.257080 47219.000000
1509.844604 46890.000000
1511.431030 46539.000000
1513.016724 47209.000000
1514.601318 46740.000000
1516.185059 47142.000000
1517.767700 47212.000000
1519.349609 46829.000000
1520.930420 46685.000000
1522.510498 47296.000000
1524.089355 47113.000000
1525.667358 46917.000000
1527.244629 47098.000000
1528.820679 47730.000000
1530.395996 47467.000000
1531.970215 47107.000000
1533.543701 47914.000000
1535.115967 47417.000000
1536.687500 46967.000000
1538.258057 46941.000000
1539.827759 47078.000000
1541.396240 47964.000000
1542.963989 46762.000000
1544.530884 47802.000000
1546.096558 46646.000000
1547.661499 47443.000000
1549.225342 48280.000000
1550.788574 45933.000000
1552.350464 47024.000000
1553.911743 47420.000000
1555.471924 47679.000000
1557.031372 47624.000000
1558.589722 47413.000000
1560.147339 47084.000000
1561.703857 46336.000000
1563.259155 47466.000000
1564.813843 46995.000000
1566.367798 47702.000000
1567.920776 47052.000000
1569.472412 47680.000000
1571.023315 47447.000000
1572.573486 47174.000000
1574.122681 46985.000000
1575.670532 47608.000000
1577.217896 47845.000000
1578.764282 47627.000000
1580.309814 48272.000000
1581.854370 46669.000000
1583.397705 47031.000000
1584.940430 46686.000000
1586.482300 46894.000000
1588.023071 46557.000000
1589.562866 47527.000000
1591.101929 46638.000000
1592.639893 47409.000000
1594.177368 47244.000000
1595.713501 47470.000000
1597.248535 46642.000000
1598.783081 47068.000000
1600.316650 47354.000000
1601.849365 47368.000000
1603.380493 47085.000000
1604.911377 47044.000000
1606.441406 47532.000000
1607.970215 47221.000000
1609.497925 47173.000000
1611.025024 47342.000000
1612.551392 47468.000000
1614.076782 47069.000000
1615.601318 47497.000000
1617.124512 47519.000000
1618.646973 47657.000000
1620.168701 46752.000000
1621.689575 46366.000000
1623.208984 37675.000000
1624.727905 47178.000000
1626.246094 47197.000000
1627.763428 47356.000000
1629.279663 46960.000000
1630.794556 46254.000000
1632.308960 46456.000000
1633.822632 47478.000000
1635.335205 46304.000000
1636.846558 47252.000000
1638.357544 46704.000000
1639.867432 46980.000000
1641.376465 46979.000000
1642.884155 47560.000000
1644.391479 47104.000000
1645.897949 46112.000000
1647.403442 46931.000000
1648.908081 46342.000000
1650.411255 47052.000000
1651.913818 46712.000000
1653.416016 46813.000000
1654.916870 46541.000000
1656.416626 45623.000000
1657.915527 47221.000000
1659.414063 46669.000000
1660.911377 46882.000000
1662.407959 47223.000000
1663.902954 46734.000000
1665.397705 46810.000000
1666.891602 47917.000000
1668.384521 47416.000000
1669.876099 47079.500000
1671.367188 46743.000000
1672.857666 47076.000000
1674.347046 47234.000000
1675.834961 46115.000000
1677.322632 46244.000000
1678.809326 47053.000000
1680.295166 47689.000000
1681.780151 47000.000000
1683.263672 46963.000000
1684.746948 46732.000000
1686.229370 47182.000000
1687.710693 46857.000000
1689.190552 46820.000000
1690.670166 47517.000000
1692.149048 46500.000000
1693.626953 47095.000000
1695.103882 46946.000000
1696.579590 47277.000000
1698.054932 47023.000000
1699.529053 46763.000000
1701.002563 47613.000000
1702.474609 47459.000000
1703.946411 46182.000000
1705.417236 46721.000000
1706.887207 46031.000000
1708.355835 47889.000000
1709.823975 47257.000000
1711.291382 46681.000000
1712.757690 47606.000000
1714.223389 47313.000000
1715.687378 46798.000000
1717.151245 47067.000000
1718.614258 46085.000000
1720.076294 46731.000000
1721.537109 46577.000000
1722.997314 47601.000000
1724.456787 47378.000000
1725.915405 46861.000000
1727.373047 47022.000000
1728.829346 46722.000000
1730.285400 47058.000000
1731.740479 46536.000000
1733.194580 46883.000000
1734.647461 46053.000000
1736.100098 47063.000000
1737.551636 46036.000000
1739.002441 46996.000000
1740.452271 46461.000000
1741.900757 47051.000000
1743.348877 45593.000000
1744.796143 46344.000000
1746.242676 46268.000000
1747.687622 46190.000000
1749.132324 46774.000000
1750.576172 47075.000000
1752.019165 47416.000000
1753.460693 46345.000000
1754.901978 46524.000000
1756.342407 46535.000000
1757.781860 46546.000000
1759.220337 47519.000000
1760.657837 46781.000000
1762.094849 45257.000000
1763.530884 46943.000000
1764.966064 45671.000000
1766.399780 46603.000000
1767.833374 46307.000000
1769.265991 46050.000000
1770.697754 46862.000000
1772.128662 46914.000000
1773.558350 46334.000000
1774.987305 46462.000000
1776.415771 46413.000000
1777.843262 45969.000000
1779.269409 46317.000000
1780.695313 47025.000000
1782.120117 45635.000000
1783.544312 47029.000000
1784.967041 45919.000000
1786.389282 46014.000000
1787.810791 45717.000000
1789.231567 46618.000000
1790.651367 46374.000000
1792.069824 46274.000000
1793.487793 45652.000000
1794.905151 47049.000000
1796.321655 46459.000000
1797.736694 45915.000000
1799.151367 46660.000000
1800.565430 45852.000000
1801.978271 46530.000000
1803.390503 45493.000000
1804.801392 45334.000000
1806.211792 44700.000000
1807.621460 46049.000000
1809.030151 46504.000000
1810.437744 47078.000000
1811.844849 45912.000000
1813.251099 46099.000000
1814.656372 45703.000000
1816.060547 46481.000000
1817.464355 46460.000000
1818.867188 46268.000000
1820.269165 46366.000000
1821.670532 46550.000000
1823.070435 45947.000000
1824.469727 45840.000000
1825.868530 45720.000000
1827.266479 44909.000000
1828.663086 46612.000000
1830.059082 45519.000000
1831.454346 46348.000000
1832.848999 44097.000000
1834.242676 46293.000000
1835.635010 45408.000000
1837.026855 45829.000000
1838.418091 46368.000000
1839.808350 45130.000000
1841.197388 46139.000000
1842.586060 46105.000000
1843.973755 46090.000000
1845.360718 46325.000000
1846.746338 45245.000000
1848.131714 46267.000000
1849.516235 45650.000000
1850.900024 45800.000000
1852.282715 45635.000000
1853.664185 46618.000000
1855.045166 45510.000000
1856.425659 45607.000000
1857.805176 46139.000000
1859.183228 45930.000000
1860.561157 45553.000000
1861.938110 43920.000000
1863.314331 45662.000000
1864.689697 45610.000000
1866.063599 46072.000000
1867.437378 45961.000000
1868.810303 45475.000000
1870.182129 45616.000000
1871.552979 44708.000000
1872.923462 46127.000000
1874.292847 45534.000000
1875.661743 45503.000000
1877.029053 44292.000000
1878.396240 45416.000000
1879.762451 45502.000000
1881.127930 44707.000000
1882.492676 43883.000000
1883.855835 44660.000000
1885.218872 44547.000000
1886.581055 44984.000000
1887.942383 44914.000000
1889.302368 45721.000000
1890.661987 45559.000000
1892.020996 45199.000000
1893.379028 44631.000000
1894.736206 44008.000000
1896.092163 45277.000000
1897.447876 43679.000000
1898.802612 45466.000000
1900.156494 45713.000000
1901.509277 45240.000000
1902.861572 45239.000000
1904.213135 45319.000000
1905.563843 44412.000000
1906.913330 44698.000000
1908.262329 44551.000000
1909.610474 45433.000000
1910.958008 45014.000000
1912.304810 44907.000000
1913.650024 44347.000000
1914.994995 45041.000000
1916.339233 45678.000000
1917.682617 44571.000000
1919.024658 45090.000000
1920.366455 44366.000000
1921.707397 43983.000000
1923.047607 44883.000000
1924.386841 44679.000000
1925.725098 44616.000000
1927.062744 44424.000000
1928.399658 43825.000000
1929.735718 44005.000000
1931.070557 45171.000000
1932.405029 43997.000000
1933.738770 43356.000000
1935.071655 44349.000000
1936.403076 44722.000000
1937.734619 44099.000000
1939.064819 43775.000000
1940.394531 44516.000000
1941.723389 44186.000000
1943.051025 44388.000000
1944.378174 45062.000000
1945.704590 44207.000000
1947.030273 43425.000000
1948.354614 44113.000000
1949.678711 43207.000000
1951.001953 43456.000000
1952.324463 43135.000000
1953.645874 43743.000000
1954.966309 42061.000000
1956.286133 43318.000000
1957.605591 43696.000000
1958.924072 42369.000000
1960.241211 43258.000000
1961.557983 43213.000000
1962.874023 42492.000000
1964.189331 42355.000000
1965.503174 42562.000000
1966.816772 43060.000000
1968.129639 42354.000000
1969.441650 42548.000000
1970.753052 42387.000000
1972.063110 42009.000000
1973.372681 42296.000000
1974.681519 41895.000000
1975.989746 41363.000000
1977.296631 41782.000000
1978.602905 40478.000000
1979.908813 41996.000000
1981.213501 40969.000000
1982.517700 41383.000000
1983.820679 41380.000000
1985.123291 39360.000000
1986.424927 40760.000000
1987.725952 39753.000000
1989.025391 40290.000000
1990.324951 39556.000000
1991.623413 40828.000000
1992.921387 39884.000000
1994.217773 39725.000000
1995.514160 40136.000000
1996.809570 40145.000000
1998.104248 39189.000000
1999.398071 39928.000000
2000.690674 39067.000000
2001.982788 39779.000000
2003.274414 38343.000000
2004.565308 39026.000000
2005.854614 39199.000000
2007.143677 38402.000000
2008.432007 39149.000000
2009.719604 39195.000000
2011.006348 38412.000000
2012.291992 39375.000000
2013.577271 38524.000000
2014.861572 38923.000000
2016.145264 39295.000000
2017.427612 38792.000000
2018.709595 38403.000000
2019.991089 38008.000000
2021.271606 38862.000000
2022.551392 38679.000000
2023.830078 37968.000000
2025.108032 38886.000000
2026.385498 38784.000000
2027.662354 38452.000000
2028.937500 38937.000000
2030.212769 38035.000000
2031.487061 38656.000000
2032.760376 38716.000000
2034.032837 38624.000000
2035.304932 38361.000000
2036.575928 37458.000000
2037.846680 37735.000000
2039.116089 38205.000000
2040.384399 37249.000000
2041.652710 37466.000000
2042.920044 37985.000000
2044.186646 37750.000000
2045.452026 38006.000000
2046.716797 38010.000000
2047.981323 38073.000000
2049.244629 37606.000000
2050.507568 37025.000000
2051.768555 37123.000000
2053.030029 37072.000000
2054.290283 37130.000000
2055.549805 36565.000000
2056.808594 36662.000000
2058.066406 35998.000000
2059.323730 36587.000000
2060.580322 36569.000000
2061.835449 35963.000000
2063.090576 36821.000000
2064.344727 36755.000000
2065.598145 36651.000000
2066.850830 35490.000000
2068.102295 35991.000000
2069.353516 35882.000000
2070.604004 36385.000000
2071.853760 36606.000000
2073.102051 35744.000000
2074.350342 35454.000000
2075.597656 34476.000000
2076.844238 35862.000000
2078.090088 35332.000000
2079.334717 34509.000000
2080.578857 33640.000000
2081.822510 35531.000000
2083.065186 34880.000000
2084.306641 34080.000000
2085.547852 34897.000000
2086.788574 34407.000000
2088.028320 34018.000000
2089.266846 33553.000000
2090.504883 34140.000000
2091.742188 34321.000000
2092.979248 33578.000000
2094.214844 33945.000000
2095.449707 33922.000000
2096.684326 33865.000000
2097.917969 34221.000000
2099.150635 33789.000000
2100.382568 32845.000000
2101.614014 33172.000000
2102.844482 32575.000000
2104.074219 33157.000000
2105.303711 33034.000000
2106.531250 32899.000000
2107.759033 32743.000000
2108.986084 32470.000000
2110.212158 33342.000000
2111.436768 32663.000000
2112.661621 32061.000000
2113.885254 31982.000000
2115.108398 32679.000000
2116.330322 31408.000000
2117.552002 32911.000000
2118.772705 31983.000000
2119.992676 32761.000000
2121.212158 32671.000000
2122.430176 32252.000000
2123.648193 31823.000000
2124.865234 32874.000000
2126.081787 32798.000000
2127.296631 31998.000000
2128.511719 32147.000000
2129.725830 31613.000000
2130.939209 32411.000000
2132.151855 31919.000000
2133.363037 32296.000000
2134.574463 31658.000000
2135.784668 31315.000000
2136.994385 32013.000000
2138.202637 31689.000000
2139.410889 32125.000000
2140.618408 31831.000000
2141.824707 30230.000000
2143.030273 31586.000000
2144.235596 31575.000000
2145.439941 31645.000000
2146.643555 30958.000000
2147.846680 31012.000000
2149.048340 30460.000000
2150.249756 31565.000000
2151.450439 30487.000000
2152.650391 30716.000000
2153.849121 30652.000000
2155.047607 29397.000000
2156.245605 30054.000000
2157.442627 29834.000000
2158.638916 30364.000000
2159.833984 30197.000000
2161.028809 29315.000000
2162.222900 29853.000000
2163.416016 29383.000000
2164.608154 28521.000000
2165.800049 29302.000000
2166.991211 28646.000000
2168.181396 28570.000000
2169.370850 28247.000000
2170.559814 27709.000000
2171.747803 28028.000000
2172.935547 28251.000000
2174.121826 27996.000000
2175.307373 27371.000000
2176.492676 27723.000000
2177.677490 28008.000000
2178.861084 27613.000000
2180.043945 26632.000000
2181.225830 27545.000000
2182.407471 27801.000000
2183.588623 27132.000000
2184.768555 27974.000000
2185.947510 28057.000000
2187.125977 27442.000000
2188.304199 27030.000000
2189.481201 26756.000000
2190.657227 26983.000000
2191.833008 27547.000000
2193.008301 28035.000000
2194.182129 27124.000000
2195.355469 27729.000000
2196.528564 27705.000000
2197.700439 27654.000000
2198.871826 27018.000000
2200.042725 27684.000000
2201.211914 27098.000000
2202.381104 26373.000000
2203.549805 27300.000000
2204.717529 27407.000000
2205.884277 27628.000000
2207.050293 26356.000000
2208.215820 26666.000000
2209.381104 27200.000000
2210.544922 26389.000000
2211.708252 27403.000000
2212.870361 26768.000000
2214.032715 26769.000000
2215.193848 26344.000000
2216.354004 26250.000000
2217.513672 26415.000000
2218.673096 26052.000000
2219.831299 26175.000000
2220.988525 26216.000000
2222.145508 25837.000000
2223.301758 25901.000000
2224.457275 25569.000000
2225.612061 25834.000000
2226.765869 25567.000000
2227.918701 25855.000000
2229.072021 25162.000000
2230.223389 25611.000000
2231.374512 25588.000000
2232.524902 25410.000000
2233.674805 24438.000000
2234.823730 25048.000000
2235.972168 25742.000000
2237.119141 24788.000000
2238.266357 24492.000000
2239.412354 24983.000000
2240.558105 24153.000000
2241.702148 23840.000000
2242.846436 23832.000000
2243.989746 23851.000000
2245.132324 23986.000000
2246.273926 23817.000000
2247.415283 23629.000000
2248.555664 23423.000000
2249.695313 23265.000000
2250.834473 23176.000000
2251.972412 23222.000000
2253.110352 22954.000000
2254.247314 23266.000000
2255.383545 22901.000000
2256.518799 23115.000000
2257.653320 22704.000000
2258.787598 22760.000000
2259.921387 23677.000000
2261.053711 23614.000000
2262.185547 22902.000000
2263.316895 22725.000000
2264.447266 22552.000000
2265.577393 21830.000000
2266.706299 22045.000000
2267.834717 21823.000000
2268.962646 21933.000000
2270.089600 21873.000000
2271.215820 22021.000000
2272.341064 21894.000000
2273.466309 22101.000000
2274.590820 22170.000000
2275.714111 21975.000000
2276.836670 21946.000000
2277.958740 22173.000000
2279.080322 21627.000000
2280.201172 21788.000000
2281.320801 21737.000000
2282.439941 21591.000000
2283.558838 21089.000000
2284.677002 20906.000000
2285.794189 21287.000000
2286.910400 21235.000000
2288.026367 21127.000000
2289.141602 21289.000000
2290.256104 21329.000000
2291.369385 21742.000000
2292.482666 21497.000000
2293.595215 21441.000000
2294.707031 21755.000000
2295.818115 21402.000000
2296.927979 21656.000000
2298.037354 21690.000000
2299.146484 21575.000000
2300.254639 21718.000000
2301.361816 21591.000000
2302.468750 21595.000000
2303.574951 21593.000000
2304.680664 21581.000000
2305.784912 21212.000000
2306.888916 21138.000000
2307.992432 21229.000000
2309.095459 20983.000000
2310.197266 20733.000000
2311.298340 20640.000000
2312.398926 20625.000000
2313.499023 20654.000000
2314.598389 20651.000000
2315.696289 20466.000000
2316.794678 20495.000000
2317.891602 20322.000000
2318.988281 20380.000000
2320.084473 20414.000000
2321.178955 20111.000000
2322.273438 19779.000000
2323.367188 20048.000000
2324.460693 19763.000000
2325.552490 19781.000000
2326.644287 19499.000000
2327.735352 19789.000000
2328.825684 19720.000000
2329.915039 19606.000000
2331.004395 19642.000000
2332.092529 19583.000000
2333.180176 19514.000000
2334.267578 19300.000000
2335.353271 19280.000000
2336.438721 19121.000000
2337.523926 19059.000000
2338.608154 18940.000000
2339.691406 18888.000000
2340.774414 18649.000000
2341.856445 18437.000000
2342.938232 18438.000000
2344.019287 18396.000000
2345.099121 18299.000000
2346.178467 18338.000000
2347.257324 18122.000000
2348.335693 18096.000000
2349.412598 18137.000000
2350.489258 18090.000000
2351.565674 18055.000000
2352.641113 18000.000000
2353.715576 17983.000000
2354.789795 17678.000000
2355.863281 17684.000000
2356.936279 17691.000000
2358.008057 17480.000000
2359.079590 17421.000000
2360.150146 17341.000000
2361.220459 17360.000000
2362.289795 17167.000000
2363.358154 17164.000000
2364.426270 17287.000000
2365.493652 17133.000000
2366.560547 17032.000000
2367.626709 17018.000000
2368.691650 16888.000000
2369.756592 16910.000000
2370.820801 16726.000000
2371.884277 16791.000000
2372.946533 16800.000000
2374.008789 16736.000000
2375.070068 16655.000000
2376.131104 16641.000000
2377.190918 16590.000000
2378.250000 16872.000000
2379.309082 16661.000000
2380.367188 16407.000000
2381.424561 16594.000000
2382.480957 16423.000000
2383.537109 16420.000000
2384.592773 16274.000000
2385.647705 16334.000000
2386.701172 16301.000000
2387.754883 16106.000000
2388.807617 16009.000000
2389.859863 16317.000000
2390.911377 16271.000000
2391.961914 16370.000000
2393.012207 16365.000000
2394.061523 16377.000000
2395.110840 16334.000000
2396.158691 16019.000000
2397.206055 16013.000000
2398.253174 16075.000000
2399.299316 16091.000000
2400.344727 15993.000000
2401.389404 16006.000000
2402.434082 15922.000000
2403.477295 15721.000000
2404.520508 15742.000000
2405.562256 15987.000000
2406.604248 15992.000000
2407.645508 15764.000000
2408.685791 15950.000000
2409.725342 16032.000000
2410.763916 15830.000000
2411.802734 15784.000000
2412.840332 15659.000000
2413.877686 15764.000000
2414.913818 15683.000000
2415.949707 15736.000000
2416.984863 15681.000000
2418.019531 15515.000000
2419.052734 15671.000000
2420.086182 15582.000000
2421.118652 15403.000000
2422.150879 15410.000000
2423.181641 15373.000000
2424.212402 15366.000000
2425.242676 15439.000000
2426.271729 15026.000000
2427.300781 15112.000000
2428.328125 14941.000000
2429.355957 14961.000000
2430.382568 14762.000000
2431.408936 14828.000000
2432.433838 14563.000000
2433.458984 14598.000000
2434.483154 14554.000000
2435.507080 14437.000000
2436.529785 14452.000000
2437.551758 14278.000000
2438.573486 14232.000000
2439.594482 14344.000000
2440.614990 13999.000000
2441.634277 13920.000000
2442.653564 13891.000000
2443.671875 13800.000000
2444.689941 13851.000000
2445.706543 13727.000000
2446.723145 13679.000000
2447.739014 13775.000000
2448.754883 13620.000000
2449.769287 13551.000000
2450.782959 13550.000000
2451.796143 13374.000000
2452.809082 13459.000000
2453.821289 13437.000000
2454.832520 13319.000000
2455.843506 13423.000000
2456.853760 13359.000000
2457.863525 13178.000000
2458.872314 13185.000000
2459.880371 13053.000000
2460.888428 13057.000000
2461.895264 13085.000000
2462.901855 12833.000000
2463.907227 12623.000000
2464.912354 12719.000000
2465.917236 12758.000000
2466.920898 12687.000000
2467.924316 12710.000000
2468.926758 12694.000000
2469.928955 12894.000000
2470.930664 12835.000000
2471.931396 12749.000000
2472.931152 12603.000000
2473.930908 12489.000000
2474.929688 12536.000000
2475.927979 12559.000000
2476.925293 12487.000000
2477.922363 12433.000000
2478.919434 12378.000000
2479.915039 12476.000000
2480.910645 12314.000000
2481.904541 12537.000000
2482.898438 12470.000000
2483.891846 12519.000000
2484.884766 12452.000000
2485.876709 12537.000000
2486.867920 12526.000000
2487.858887 12461.000000
2488.849365 12422.000000
2489.838867 12505.000000
2490.827637 12531.000000
2491.816406 12565.000000
2492.804199 12489.000000
2493.790771 12441.000000
2494.777344 12585.000000
2495.763428 12294.000000
2496.748779 12366.000000
2497.733154 12302.000000
2498.717285 12335.000000
2499.701416 12226.000000
2500.684082 12249.000000
2501.666260 12084.000000
2502.647949 12047.000000
2503.628906 12059.000000
2504.609375 12060.000000
2505.589600 12053.000000
2506.568359 12024.000000
2507.546875 11762.000000
2508.524902 11970.000000
2509.502441 11804.000000
2510.479004 11961.000000
2511.455322 11832.000000
2512.430908 11899.000000
2513.406006 11699.000000
2514.380615 11741.000000
2515.354004 11618.000000
2516.327148 11440.000000
2517.300049 11454.000000
2518.271973 11521.000000
2519.243164 11339.000000
2520.213867 11380.000000
2521.184326 11341.000000
2522.154053 11089.000000
2523.122803 11061.000000
2524.090820 10999.000000
2525.058838 11200.000000
2526.025879 11177.000000
2526.992676 10978.000000
2527.958252 10963.000000
2528.923828 10813.000000
2529.888672 10873.000000
2530.853027 10829.000000
2531.816162 10849.000000
2532.779541 10747.000000
2533.741943 10787.000000
2534.704102 10778.000000
2535.665039 10955.000000
2536.625244 10878.000000
2537.585693 10683.000000
2538.545166 10790.000000
2539.503906 10828.000000
2540.461670 10613.000000
2541.419678 10276.000000
2542.376953 10305.000000
2543.333252 10328.000000
2544.289307 10364.000000
2545.244141 10266.000000
2546.199219 10015.000000
2547.153564 10033.000000
2548.107178 10419.000000
2549.059814 10007.000000
2550.012207 10004.000000
2550.964111 9947.000000
2551.915283 10054.000000
2552.865723 9705.000000
2553.815674 9942.000000
2554.765381 9865.000000
2555.714355 9758.000000
2556.662842 9929.000000
2557.610107 9674.000000
2558.557373 9752.000000
2559.503906 9710.000000
2560.449951 9724.000000
2561.395020 9643.000000
2562.339844 9688.000000
2563.284180 9416.000000
2564.228027 9436.000000
2565.171387 9444.000000
2566.113281 9463.000000
2567.055420 9240.000000
2567.996826 9416.000000
2568.937500 9227.000000
2569.877441 9383.000000
2570.817383 9435.000000
2571.756348 9376.000000
2572.695068 9216.000000
2573.632813 9215.000000
2574.570313 9275.000000
2575.507080 9402.000000
2576.443115 9416.000000
2577.378662 9385.000000
2578.313477 9409.000000
2579.248291 9374.000000
2580.182129 9256.000000
2581.115479 9275.000000
2582.048096 9246.000000
2582.980469 9066.000000
2583.912109 9249.000000
2584.843262 9109.000000
2585.773926 9074.000000
2586.703369 9163.000000
2587.632813 9159.000000
2588.561768 9126.000000
2589.490479 9026.000000
2590.417480 8967.000000
2591.344727 9082.000000
2592.271484 8975.000000
2593.197510 9096.000000
2594.123291 9089.000000
2595.047852 9055.000000
2595.972168 8932.000000
2596.895996 9098.000000
2597.819336 8912.000000
2598.741699 8934.000000
2599.663818 8978.000000
2600.585449 8877.000000
2601.506348 8873.000000
2602.426514 8928.000000
2603.346436 8917.000000
2604.265869 8912.000000
2605.185059 8766.000000
2606.103271 8751.000000
2607.020264 8843.000000
2607.937500 8545.000000
2608.854492 8613.000000
2609.770508 8548.000000
2610.685303 8522.000000
2611.600586 8621.000000
2612.515137 8430.000000
2613.428711 8357.000000
2614.342285 8423.000000
2615.254639 8359.000000
2616.166992 8325.000000
2617.078369 8348.000000
2617.989502 8386.000000
2618.899902 8289.000000
2619.810059 8154.000000
2620.719482 8206.000000
2621.628418 8157.000000
2622.536377 8084.000000
2623.444580 8117.000000
2624.351807 8008.000000
2625.258545 7992.000000
2626.164551 7950.000000
2627.070313 7928.000000
2627.975342 7922.000000
2628.880127 7783.000000
2629.784180 7789.000000
2630.687256 7911.000000
2631.590332 7760.000000
2632.492432 7657.000000
2633.394531 7677.000000
2634.296387 7555.000000
2635.196533 7633.000000
2636.096924 7656.000000
2636.996582 7642.000000
2637.895996 7634.000000
2638.793945 7613.000000
2639.692383 7574.000000
2640.590332 7540.000000
2641.487549 7444.000000
2642.383545 7516.000000
2643.279541 7650.000000
2644.175293 7289.000000
2645.070313 7392.000000
2645.965088 7363.000000
2646.858398 7217.000000
2647.751709 7300.000000
2648.644775 7195.000000
2649.537598 7163.000000
2650.428711 7162.000000
2651.320068 7302.000000
2652.210938 7120.000000
2653.101074 7089.000000
2653.990967 7010.000000
2654.879639 7043.000000
2655.768555 7100.000000
2656.656982 6993.000000
2657.544434 6958.000000
2658.430908 6840.000000
2659.317871 6853.000000
2660.204102 6928.000000
2661.089844 6885.000000
2661.974365 7003.000000
2662.858887 7004.000000
2663.743164 6969.000000
2664.626709 6929.000000
2665.509766 6954.000000
2666.392090 6882.000000
2667.273926 7023.000000
2668.155029 6963.000000
2669.036377 7033.000000
2669.916260 7039.000000
2670.796387 6980.000000
2671.675781 6874.000000
2672.555176 6905.000000
2673.433838 6934.000000
2674.310791 7022.000000
2675.188477 6996.000000
2676.065430 6772.000000
2676.941650 6795.000000
2677.817383 6808.000000
2678.692383 6771.000000
2679.567627 6733.000000
2680.441895 6752.000000
2681.315674 6506.000000
2682.188721 6669.000000
2683.061523 6557.000000
2683.934082 6589.000000
2684.805908 6527.000000
2685.677002 6504.000000
2686.547852 6430.000000
2687.418213 6495.000000
2688.288330 6394.000000
2689.156738 6423.000000
2690.025879 6268.000000
2690.894287 6309.000000
2691.762451 6214.000000
2692.629883 6292.000000
2693.496094 6339.000000
2694.362793 6189.000000
2695.228516 6242.000000
2696.094238 6159.000000
2696.958496 6193.000000
2697.823486 6194.000000
2698.687012 6230.000000
2699.550781 6177.000000
2700.413086 6137.000000
2701.275879 6177.000000
2702.137695 6169.000000
2702.999023 6171.000000
2703.860352 5998.000000
2704.720459 5938.000000
2705.580566 6014.000000
2706.440186 6075.000000
2707.299561 5914.000000
2708.157227 5936.000000
2709.015137 5952.000000
2709.873535 5768.000000
2710.730713 5953.000000
2711.587158 5920.000000
2712.443115 5825.000000
2713.299072 5893.000000
2714.154297 5844.000000
2715.008789 5714.000000
2715.862793 5728.000000
2716.716797 5626.000000
2717.569824 5769.000000
2718.423096 5721.000000
2719.274658 5612.000000
2720.126709 5661.000000
2720.978516 5588.000000
2721.829102 5611.000000
2722.679688 5642.000000
2723.529785 5477.000000
2724.379150 5494.000000
2725.228516 5664.000000
2726.076660 5613.000000
2726.924316 5604.000000
2727.772461 5531.000000
2728.619385 5465.000000
2729.466797 5608.000000
2730.312744 5491.000000
2731.157959 5473.000000
2732.003662 5481.000000
2732.848389 5563.000000
2733.693115 5424.000000
2734.536621 5434.000000
2735.380371 5431.000000
2736.223389 5446.000000
2737.065918 5450.000000
2737.907471 5419.000000
2738.749512 5391.000000
2739.590576 5365.000000
2740.431396 5309.000000
2741.271973 5368.000000
2742.111328 5237.000000
2742.950684 5354.000000
2743.790039 5346.000000
2744.628174 5354.000000
2745.465820 5336.000000
2746.303467 5362.000000
2747.140625 5369.000000
2747.977539 5436.000000
2748.813965 5289.000000
2749.649170 5312.000000
2750.484619 5280.000000
2751.319580 5314.000000
2752.153809 5205.000000
2752.987793 5205.000000
2753.821289 5129.000000
2754.654785 5141.000000
2755.487305 5145.000000
2756.319336 5094.000000
2757.150879 5091.000000
2757.982422 5097.000000
2758.812988 5061.000000
2759.643799 5042.000000
2760.473389 5056.000000
2761.302979 5130.000000
2762.132324 5094.000000
2762.960938 4921.000000
2763.789063 4936.000000
2764.616699 4968.000000
2765.444336 4997.000000
2766.271484 4892.000000
2767.097900 4874.000000
2767.923828 4784.000000
2768.749268 4708.000000
2769.574463 4851.000000
2770.399658 4684.000000
2771.223633 4712.000000
2772.047607 4877.000000
2772.871582 4669.000000
2773.694336 4633.000000
2774.517334 4600.000000
2775.339111 4572.000000
2776.160889 4574.000000
2776.982666 4550.000000
2777.803467 4415.000000
2778.623535 4501.000000
2779.443848 4543.000000
2780.263672 4459.000000
2781.083496 4501.000000
2781.901367 4515.000000
2782.720459 4437.000000
2783.538330 4590.000000
2784.355957 4569.000000
2785.173096 4553.000000
2785.989746 4345.000000
2786.806152 4421.000000
2787.622070 4327.000000
2788.437744 4493.000000
2789.252441 4373.000000
2790.067627 4322.000000
2790.882080 4421.000000
2791.696045 4373.000000
2792.509766 4337.000000
2793.322266 4234.000000
2794.135010 4284.000000
2794.947266 4173.000000
2795.759033 4238.000000
2796.570068 4318.000000
2797.381836 4243.000000
2798.192383 4283.000000
2799.002930 4289.000000
2799.812012 4224.000000
2800.621826 4112.000000
2801.430908 4154.000000
2802.239746 4215.000000
2803.048096 4261.000000
2803.855469 4256.000000
2804.663330 4244.000000
2805.470459 4248.000000
2806.277344 4229.000000
2807.083008 4075.000000
2807.889160 4131.000000
2808.694580 4172.000000
2809.500000 4048.000000
2810.304688 4167.000000
2811.108398 4001.000000
2811.912598 4107.000000
2812.716309 4140.000000
2813.519775 4041.000000
2814.321777 4087.000000
2815.124512 4007.000000
2815.926514 3973.000000
2816.728271 3967.000000
2817.529541 3998.000000
2818.330322 4026.000000
2819.130615 3898.000000
2819.931152 3914.000000
2820.730713 3974.000000
2821.529785 3896.000000
2822.328857 3955.000000
2823.127686 3907.000000
2823.926025 3868.000000
2824.723389 3977.000000
2825.520996 3915.000000
2826.317871 3971.000000
2827.114990 3826.000000
2827.911377 3872.000000
2828.707031 3871.000000
2829.502686 3698.000000
2830.298096 3831.000000
2831.093018 3848.000000
2831.887207 3727.000000
2832.681396 3733.000000
2833.475342 3831.000000
2834.268799 3794.000000
2835.061523 3728.000000
2835.854004 3714.000000
2836.646484 3559.000000
2837.438721 3702.000000
2838.230469 3708.000000
2839.021240 3693.000000
2839.812012 3612.000000
2840.603027 3746.000000
2841.393066 3783.000000
2842.182617 3601.000000
2842.972412 3637.000000
2843.761230 3653.000000
2844.550049 3624.000000
2845.338867 3622.000000
2846.126709 3602.000000
2846.914063 3526.000000
2847.701660 3558.000000
2848.488770 3533.000000
2849.275146 3620.000000
2850.061523 3397.000000
2850.847656 3483.000000
2851.633301 3545.000000
2852.417969 3434.000000
2853.203125 3516.000000
2853.988037 3421.000000
2854.772217 3546.000000
2855.556396 3490.000000
2856.339355 3488.000000
2857.122559 3480.000000
2857.905518 3474.000000
2858.687988 3459.000000
2859.470215 3412.000000
2860.251953 3392.000000
2861.033447 3376.000000
2861.815186 3407.000000
2862.596191 3261.000000
2863.376465 3409.000000
2864.156494 3419.000000
2864.936523 3423.000000
2865.716309 3411.000000
2866.495117 3501.000000
2867.274170 3469.000000
2868.052734 3382.000000
2868.831055 3643.000000
2869.608887 3398.000000
2870.386475 3533.000000
2871.163818 3482.000000
2871.940918 3456.000000
2872.717529 3589.000000
2873.493652 3595.000000
2874.269775 3530.000000
2875.045410 3599.000000
2875.820801 3553.000000
2876.595703 3682.000000
2877.370361 3525.000000
2878.145020 3540.000000
2878.919434 3586.000000
2879.693115 3585.000000
2880.466064 3452.000000
2881.239746 3443.000000
2882.012451 3424.000000
2882.785156 3579.000000
2883.557129 3462.000000
2884.328857 3463.000000
2885.101074 3386.000000
2885.872070 3421.000000
2886.642578 3534.000000
2887.413574 3368.000000
2888.184570 3418.000000
2888.954834 3456.000000
2889.724121 3335.000000
2890.493652 3356.000000
2891.263184 3304.000000
2892.032227 3328.000000
2892.800781 3455.000000
2893.569336 3322.000000
2894.336914 3489.000000
2895.104980 3424.000000
2895.872559 3276.000000
2896.640137 3374.000000
2897.406494 3288.000000
2898.173828 3378.000000
2898.939941 3161.000000
2899.706299 3204.000000
2900.471191 3125.000000
2901.236572 3249.000000
2902.002441 3105.000000
2902.766846 3085.000000
2903.531250 3028.000000
2904.295898 3001.000000
2905.059570 3138.000000
2905.823975 3010.000000
2906.587646 2987.000000
2907.350586 3092.000000
2908.113281 3046.000000
2908.876465 2908.000000
2909.639160 3040.000000
2910.400635 3110.000000
2911.162598 3110.000000
spectrumdark 2048
-97.068222 6223.000000
-94.441353 6223.000000
-91.816360 6067.000000
-89.193260 6465.000000
-86.572029 5817.000000
-83.952698 6260.000000
-81.335228 6115.000000
-78.719635 6446.000000
-76.105919 6287.000000
-73.494080 5922.000000
-70.884102 6165.000000
-68.276009 5970.000000
-65.669762 5956.000000
-63.065388 6054.000000
-60.462879 6128.000000
-57.862225 5611.000000
-55.263432 6309.000000
-52.666496 6885.000000
-50.071415 6533.000000
-47.478188 6525.000000
-44.886810 6314.000000
-42.297279 6759.000000
-39.709591 5947.000000
-37.123753 6095.000000
-34.539757 6482.000000
-31.957600 5720.000000
-29.377287 6323.000000
-26.798801 5734.000000
-24.222158 6162.000000
-21.647341 6269.000000
-19.074364 6481.000000
-16.503206 6530.000000
-13.933883 6808.000000
-11.366385 7789.000000
-8.800705 6339.000000
-6.236851 6478.000000
-3.674810 5972.000000
-1.114594 5832.000000
1.443814 6227.000000
4.000401 6947.000000
6.555183 6708.000000
9.108148 6073.000000
11.659312 6765.000000
14.208664 6470.000000
16.756220 6783.000000
19.301964 6044.000000
21.845915 5758.000000
24.388062 6723.000000
26.928411 6796.000000
29.466976 6907.000000
32.003746 6212.000000
34.538712 5840.000000
37.071899 7302.000000
39.603306 6385.000000
42.132919 7170.000000
44.660736 6544.000000
47.186794 7852.000000
49.711063 5709.000000
52.233562 6242.000000
54.754265 6748.000000
57.273212 6324.000000
59.790386 6497.000000
62.305782 6659.000000
64.819397 5624.000000
67.331261 5761.000000
69.841377 6548.000000
72.349701 6562.000000
74.856270 5915.000000
77.361092 6353.000000
79.864159 6410.000000
82.365448 6328.000000
84.864998 6232.000000
87.362793 6346.000000
89.858856 5795.000000
92.353142 7292.000000
94.845688 5805.000000
97.336517 6964.000000
99.825577 7165.000000
102.312889 6399.000000
104.798477 6293.000000
107.282326 6382.000000
109.764427 5780.000000
112.244804 6639.000000
114.723457 6247.000000
117.200386 6491.000000
119.675560 7216.000000
122.149025 6837.000000
124.620758 5983.000000
127.090782 6811.000000
129.559052 6267.000000
132.025650 6340.000000
134.490494 5726.000000
136.953644 6251.000000
139.415054 7378.000000
141.874771 6863.000000
144.332764 6420.000000
146.789063 6041.000000
149.243652 5838.000000
151.696518 6868.000000
154.147705 6370.000000
156.597198 6596.000000
159.044968 6111.000000
161.491028 6596.000000
163.935410 8764.000000
166.378113 6485.000000
168.819122 6797.000000
171.258423 6199.000000
173.696014 7261.000000
176.131973 6665.000000
178.566193 6963.000000
180.998734 7218.000000
183.429626 6707.000000
185.858795 6875.000000
188.286316 6754.000000
190.712158 6387.000000
193.136322 6760.000000
195.558823 7119.000000
197.979630 7375.000000
200.398773 6485.000000
202.816254 6027.000000
205.232040 7668.000000
207.646179 7099.000000
210.058685 6402.000000
212.469513 6131.000000
214.878662 6262.000000
217.286179 7449.000000
219.691986 6159.000000
222.096207 6509.000000
224.498718 6746.000000
226.899612 7013.000000
229.298859 6475.000000
231.696442 6882.000000
234.092361 7255.000000
236.486664 6585.000000
238.879303 5842.000000
241.270325 6854.000000
243.659683 6577.000000
246.047424 6350.000000
248.433517 6999.000000
250.817978 6133.000000
253.200790 7953.000000
255.582031 6679.000000
257.961578 6629.000000
260.339539 6483.000000
262.715820 7551.000000
265.090546 7606.000000
267.463623 7815.000000
269.835052 6238.000000
272.204834 6454.000000
274.573059 5934.000000
276.939636 6368.000000
279.304626 6798.000000
281.667999 6064.000000
284.029724 6249.000000
286.389862 7140.000000
288.748383 6120.000000
291.105316 6516.000000
293.460632 6452.000000
295.814362 6038.000000
298.166443 6013.000000
300.516968 6417.000000
302.865906 6364.000000
305.213196 6884.000000
307.558960 6477.000000
309.903046 6534.000000
312.245605 7402.000000
314.586548 7709.000000
316.925873 7152.000000
319.263641 7062.000000
321.599854 8157.000000
323.934418 6317.000000
326.267426 6498.000000
328.598877 5984.000000
330.928741 6644.000000
333.257019 6415.000000
335.583679 7211.000000
337.908844 6393.000000
340.232391 6236.000000
342.554382 6117.000000
344.874817 7550.000000
347.193634 7771.000000
349.510895 6094.000000
351.826630 5853.000000
354.140778 7014.000000
356.453339 6372.000000
358.764343 6495.000000
361.073822 7113.000000
363.381775 6399.000000
365.688110 5749.000000
367.992859 6416.000000
370.296143 6434.000000
372.597809 6307.000000
374.897980 6439.000000
377.196594 6427.000000
379.493652 5789.000000
381.789154 6133.000000
384.083130 5922.000000
386.375519 5370.000000
388.666412 5602.000000
390.955780 6242.000000
393.243561 6310.000000
395.529816 6592.000000
397.814575 7049.000000
400.097717 6064.000000
402.379425 6473.000000
404.659607 6193.000000
406.938202 7301.000000
409.215271 6511.000000
411.490814 6728.000000
413.764832 6558.000000
416.037415 6463.000000
418.308380 6342.000000
420.577850 6578.000000
422.845825 7193.000000
425.112244 7241.000000
427.377167 6323.000000
429.640625 6369.000000
431.902496 6469.000000
434.162903 6051.000000
436.421753 6667.000000
438.679138 6187.000000
440.935028 5698.000000
443.189423 5858.000000
445.442291 5490.000000
447.693604 6947.000000
449.943512 6143.000000
452.191833 6385.000000
454.438721 5765.000000
456.684143 6596.000000
458.928009 6487.000000
461.170380 6879.000000
463.411255 5698.000000
465.650726 6751.000000
467.888611 5488.000000
470.125061 5851.000000
472.359985 6107.000000
474.593445 7409.000000
476.825470 6718.000000
479.055969 5597.000000
481.284973 6475.000000
483.512512 6330.000000
485.738556 6003.000000
487.963165 6573.000000
490.186310 5894.000000
492.407990 6403.000000
494.628113 6741.000000
496.846832 5711.000000
499.064056 6350.000000
501.279907 5616.000000
503.494141 6227.000000
505.707062 6466.000000
507.918396 6462.000000
510.128296 6909.000000
512.336731 6569.000000
514.543823 6618.000000
516.749329 6441.000000
518.953430 6596.000000
521.156006 6222.000000
523.357178 6626.000000
525.557007 6704.000000
527.755310 6990.000000
529.952087 5348.000000
532.147522 5845.000000
534.341431 5620.000000
536.533997 7532.000000
538.725037 6736.000000
540.914673 6052.000000
543.102905 6918.000000
545.289612 7153.000000
547.474854 6880.000000
549.658813 6324.000000
551.841187 6489.000000
554.022217 6209.000000
556.201721 6099.000000
558.379944 5941.000000
560.556641 6040.000000
562.731934 6430.000000
564.905823 6539.000000
567.078247 5950.000000
569.249268 6095.000000
571.418823 6369.000000
573.587097 5301.000000
575.753845 6446.000000
577.919128 6348.000000
580.083008 6166.000000
582.245605 5771.000000
584.406677 6003.000000
586.566345 5708.000000
588.724670 5772.000000
590.881470 6148.000000
593.036926 6643.000000
595.190979 5799.000000
597.343689 6145.000000
599.494873 7265.000000
601.644714 6824.000000
603.793213 6690.000000
605.940125 6055.000000
608.085815 6522.000000
610.230103 6498.000000
612.372925 6985.000000
614.514282 6149.000000
616.654419 6547.000000
618.793030 7709.000000
620.930359 5760.000000
623.066223 6627.000000
625.200684 6987.000000
627.333679 7246.000000
629.465515 6706.000000
631.595886 6620.000000
633.724854 6783.000000
635.852356 6502.000000
637.978577 6240.000000
640.103271 7368.000000
642.226746 6413.000000
644.348877 6799.000000
646.469543 6816.000000
648.588867 6617.000000
650.706787 5689.000000
652.823364 5726.000000
654.938538 6530.000000
657.052368 6520.000000
659.164734 5850.000000
661.275879 6159.000000
663.385620 5437.000000
665.493896 6636.000000
667.601013 6297.000000
669.706665 6865.000000
671.810852 5818.000000
673.913818 5770.000000
676.015381 6969.000000
678.115601 5334.000000
680.214417 6787.000000
682.311890 6344.000000
684.408081 7037.000000
686.502808 6243.000000
688.596313 7029.000000
690.688477 6870.000000
692.779114 7960.000000
694.868530 6691.000000
696.956665 6498.000000
699.043335 6059.000000
701.128784 6693.000000
703.212708 5204.000000
705.295410 5902.000000
707.376831 5984.000000
709.456787 7651.000000
711.535522 6303.000000
713.612793 5620.000000
715.688782 6629.000000
717.763489 6092.000000
719.836914 7070.000000
721.908813 6311.000000
723.979553 7505.000000
726.048950 5811.000000
728.116943 6541.000000
730.183594 6408.000000
732.249023 7123.000000
734.313110 5762.000000
736.375854 6198.000000
738.437256 6603.000000
740.497375 6580.000000
742.556091 6035.000000
744.613586 6660.000000
746.669800 6540.000000
748.724609 6718.000000
750.778137 6396.000000
752.830261 7510.000000
754.881165 5825.000000
756.930847 6733.000000
758.979065 6377.000000
761.026062 6245.000000
763.071777 6917.000000
765.116089 5394.000000
767.159119 5803.000000
769.200928 14998.000000
771.241394 7051.000000
773.280457 6419.000000
775.318359 6132.000000
777.354919 6043.000000
779.390259 5369.000000
781.424255 5831.000000
783.456848 6883.000000
785.488281 5544.000000
787.518311 12146.000000
789.547058 6083.000000
791.574646 6395.000000
793.600891 6446.000000
795.625732 5844.000000
797.649475 5544.000000
799.671814 6459.000000
801.692932 5907.000000
803.712708 6677.000000
805.731201 4905.000000
807.748474 6745.000000
809.764343 6847.000000
811.779053 5763.000000
813.792419 6423.000000
815.804565 6294.000000
817.815491 6071.000000
819.825073 6622.000000
821.833435 5358.000000
823.840393 5711.000000
825.846130 6049.000000
827.850647 5786.000000
829.853882 5709.000000
831.855835 6573.000000
833.856506 6102.000000
835.855957 5958.000000
837.854065 6404.000000
839.851074 6998.000000
841.846680 6274.000000
843.841125 5877.000000
845.834229 6217.000000
847.826111 6845.000000
849.816650 5697.000000
851.805908 6881.000000
853.794128 5967.000000
855.780945 5847.000000
857.766541 6443.000000
859.750854 7283.000000
861.734070 6375.000000
863.715881 6339.000000
865.696472 5858.000000
867.675781 7791.000000
869.653931 7162.000000
871.630737 6207.000000
873.606262 6155.000000
875.580750 6240.000000
877.553772 6054.000000
879.525757 5485.000000
881.496399 6442.000000
883.465881 6151.000000
885.434021 5608.000000
887.401001 5269.000000
889.366638 6138.000000
891.331116 5853.000000
893.294373 6039.000000
895.256409 6532.000000
897.217163 5871.000000
899.176697 6465.000000
901.134949 6694.000000
903.092102 6411.000000
905.048096 6017.000000
907.002686 6962.000000
908.956055 6555.000000
910.908264 6445.000000
912.859253 6430.000000
914.808960 7130.000000
916.757507 6357.000000
918.704834 6191.000000
920.650879 6198.000000
922.595642 6121.000000
924.539368 6332.000000
926.481934 5939.000000
928.423218 5623.000000
930.363159 6497.000000
932.302002 5691.000000
934.239563 5508.000000
936.175903 5947.000000
938.111084 5870.000000
940.044983 6118.000000
941.977783 5967.000000
943.909363 6789.000000
945.839783 5254.000000
947.768982 6449.000000
949.696838 7080.000000
951.623657 6670.000000
953.549194 5963.000000
955.473450 5425.000000
957.396606 6078.000000
959.318604 6741.000000
961.239319 7324.000000
963.158875 6519.000000
965.077271 5379.000000
966.994629 6492.000000
968.910522 6446.000000
970.825317 6145.000000
972.738892 6003.000000
974.651306 6382.000000
976.562500 6489.000000
978.472534 5533.000000
980.381287 6242.000000
982.289001 6154.000000
984.195496 6425.000000
986.100769 5743.000000
988.004944 6867.000000
989.907898 6181.000000
991.809631 6829.000000
993.710205 6438.000000
995.609619 6567.000000
997.507813 5362.000000
999.404846 6575.000000
1001.300659 6587.000000
1003.195313 7648.000000
1005.088867 5582.000000
1006.981140 7133.000000
1008.872498 6127.000000
1010.762512 5358.000000
1012.651306 6661.000000
1014.538940 6460.000000
1016.425415 7019.000000
1018.310730 6791.000000
1020.194885 6008.000000
1022.077820 5842.000000
1023.959717 6353.000000
1025.840332 5230.000000
1027.719849 5907.000000
1029.598389 6116.000000
1031.475586 5436.000000
1033.351440 6311.000000
1035.226318 5936.000000
1037.100220 6590.000000
1038.972656 7089.000000
1040.844116 6721.000000
1042.714233 5570.000000
1044.583374 5500.000000
1046.451294 5865.000000
1048.318115 7222.000000
1050.183838 6799.000000
1052.048340 6504.000000
1053.911743 6456.000000
1055.773804 6467.000000
1057.634888 5925.000000
1059.494873 6582.000000
1061.353516 6716.000000
1063.211060 5845.000000
1065.067505 6766.000000
1066.922852 5931.000000
1068.776978 5880.000000
1070.630249 6292.000000
1072.482056 6450.000000
1074.332886 6192.000000
1076.182495 6251.000000
1078.030884 5813.000000
1079.878418 7984.000000
1081.724609 5636.000000
1083.569580 6252.000000
1085.413696 5394.000000
1087.256470 5562.000000
1089.098022 6537.000000
1090.938843 5537.000000
1092.778076 5804.000000
1094.616577 6116.000000
1096.453735 6049.000000
1098.289673 6823.000000
1100.124634 6671.000000
1101.958374 5501.000000
1103.791138 5717.000000
1105.622559 6230.000000
1107.453125 7246.000000
1109.282349 6635.000000
1111.110596 6491.000000
1112.937622 7162.000000
1114.763672 5424.000000
1116.588501 6348.000000
1118.412231 7163.000000
1120.234741 6131.000000
1122.056152 5952.000000
1123.876709 5865.000000
1125.695801 6624.000000
1127.514038 7099.000000
1129.330933 6886.000000
1131.146973 6713.000000
1132.961792 6450.000000
1134.775513 5684.000000
1136.588135 5859.000000
1138.399536 5677.000000
1140.209961 6115.000000
1142.019287 6761.000000
1143.827271 7005.000000
1145.634521 5979.000000
1147.440308 5955.000000
1149.245239 5427.000000
1151.049072 5522.000000
1152.851685 6158.000000
1154.653442 6163.000000
1156.453735 6110.000000
1158.253052 6107.000000
1160.051392 5912.000000
1161.848389 5489.000000
1163.644653 5931.000000
1165.439575 6072.000000
1167.233398 6314.000000
1169.026367 7741.000000
1170.817993 5727.000000
1172.608643 6482.000000
1174.398315 6040.000000
1176.186523 5889.000000
1177.973877 7491.000000
1179.760132 6947.000000
1181.545288 5849.000000
1183.329346 5997.000000
1185.112305 7735.000000
1186.894287 5875.000000
1188.675049 5971.000000
1190.454834 6379.000000
1192.233521 7023.000000
1194.011230 6691.000000
1195.787720 7202.000000
1197.563110 6570.000000
1199.337402 6579.000000
1201.110596 6731.000000
1202.882935 6582.000000
1204.653931 6756.000000
1206.424072 5677.000000
1208.192993 6190.000000
1209.960815 6347.000000
1211.727783 5828.000000
1213.493408 5932.000000
1215.258057 6963.000000
1217.021606 6553.000000
1218.784058 5983.000000
1220.545654 6717.000000
1222.306030 5909.000000
1224.065308 6295.000000
1225.823730 6139.000000
1227.580933 7183.000000
1229.337036 6491.000000
1231.092041 5575.000000
1232.846191 6067.000000
1234.598999 5831.000000
1236.350830 6059.000000
1238.101807 6035.000000
1239.851440 4918.000000
1241.600220 7054.000000
1243.347656 6475.000000
1245.094360 6694.000000
1246.839844 6499.000000
1248.584473 6488.000000
1250.327759 6796.000000
1252.070068 6762.000000
1253.811279 5432.000000
1255.551636 5103.000000
1257.290894 5789.000000
1259.028931 6592.000000
1260.766113 7193.000000
1262.502075 6205.000000
1264.237061 6482.000000
1265.971069 7231.000000
1267.704102 5993.000000
1269.435913 6254.000000
1271.166748 6535.000000
1272.896362 7365.000000
1274.625122 5982.000000
1276.352783 5787.000000
1278.079346 5597.000000
1279.805054 5594.000000
1281.529419 6495.000000
1283.252930 5220.000000
1284.975464 6911.000000
1286.697021 6707.000000
1288.417358 6197.000000
1290.136719 6723.000000
1291.854980 7316.000000
1293.572266 6446.000000
1295.288574 5734.000000
1297.003662 6387.000000
1298.717773 6170.000000
1300.430908 5836.000000
1302.143188 6464.000000
1303.854248 8352.000000
1305.564331 5226.000000
1307.273315 6317.000000
1308.981079 6652.000000
1310.688232 7020.000000
1312.393921 5804.000000
1314.098877 6992.000000
1315.802856 6154.000000
1317.505615 6013.000000
1319.207397 6572.000000
1320.908325 6028.000000
1322.607910 10020.000000
1324.306641 7851.500000
1326.004639 5683.000000
1327.701294 6464.000000
1329.396851 7220.000000
1331.091553 6909.000000
1332.785034 5800.000000
1334.477661 5467.000000
1336.169434 7344.000000
1337.859863 6205.000000
1339.549561 6647.000000
1341.238159 6121.000000
1342.925659 7602.000000
1344.612183 5644.000000
1346.297607 6742.000000
1347.982056 5987.000000
1349.665649 7314.000000
1351.348022 6429.000000
1353.029419 5988.000000
1354.709961 6521.000000
1356.389282 6774.000000
1358.067993 5901.000000
1359.745361 6591.000000
1361.421631 5833.000000
1363.096924 5686.000000
1364.771484 6604.000000
1366.444824 6486.000000
1368.117188 6794.000000
1369.788574 5235.000000
1371.458984 6789.000000
1373.128296 6228.000000
1374.796631 5736.000000
1376.464111 6053.000000
1378.130493 6407.000000
1379.795898 6242.000000
1381.460327 5881.000000
1383.123535 5957.000000
1384.786133 5703.000000
1386.447388 6394.000000
1388.107788 6540.000000
1389.767090 6463.000000
1391.425415 6551.000000
1393.083008 6822.000000
1394.739380 6544.000000
1396.394897 7033.000000
1398.049194 6355.000000
1399.702637 5890.000000
1401.354980 6205.000000
1403.006592 6517.000000
1404.656982 7147.000000
1406.306274 6274.000000
1407.954834 7428.000000
1409.602295 7898.000000
1411.248779 6130.000000
1412.894409 6322.000000
1414.539063 6017.000000
1416.182495 7125.000000
1417.825073 7108.000000
1419.466553 6921.000000
1421.107178 6512.000000
1422.746826 6498.000000
1424.385376 6075.000000
1426.023071 6632.000000
1427.659668 6403.000000
1429.295288 6012.000000
1430.930176 6344.000000
1432.563965 5903.000000
1434.196655 6201.000000
1435.828369 5647.000000
1437.459229 6145.000000
1439.088989 6049.000000
1440.717651 7870.000000
1442.345703 5999.000000
1443.972656 6267.000000
1445.598389 6210.000000
1447.223511 6150.000000
1448.847534 6616.000000
1450.470581 6003.000000
1452.092651 6047.000000
1453.713623 7393.000000
1455.333618 6333.000000
1456.952881 6921.000000
1458.570801 5710.000000
1460.188110 5640.000000
1461.804443 5570.000000
1463.419556 7279.000000
1465.033813 6323.000000
1466.647217 5241.000000
1468.259521 5663.000000
1469.870972 6332.000000
1471.481567 6342.000000
1473.090942 5995.000000
1474.699341 5998.000000
1476.306885 6262.000000
1477.913452 6753.000000
1479.519287 5292.000000
1481.123901 6319.000000
1482.727661 5557.000000
1484.330200 6832.000000
1485.932129 5522.000000
1487.532837 5552.000000
1489.132813 5671.000000
1490.731689 6278.000000
1492.329712 6476.000000
1493.926636 6741.000000
1495.522705 6380.000000
1497.117798 6006.000000
1498.711914 5596.000000
1500.305298 6604.000000
1501.897583 5579.000000
1503.488647 6200.000000
1505.079224 6820.000000
1506.668457 6513.000000
1508.257080 6196.000000
1509.844604 6595.000000
1511.431030 6888.000000
1513.016724 6204.000000
1514.601318 6662.000000
1516.185059 6265.000000
1517.767700 6198.000000
1519.349609 6597.000000
1520.930420 6725.000000
1522.510498 6096.000000
1524.089355 6298.000000
1525.667358 6480.000000
1527.244629 6323.000000
1528.820679 5694.000000
1530.395996 5949.000000
1531.970215 6284.000000
1533.543701 5496.000000
1535.115967 5970.000000
1536.687500 6393.000000
1538.258057 6455.000000
1539.827759 6333.000000
1541.396240 5473.000000
1542.963989 6620.000000
1544.530884 5622.000000
1546.096558 6803.000000
1547.661499 5959.000000
1549.225342 5134.000000
1550.788574 7484.000000
1552.350464 6348.000000
1553.911743 5999.000000
1555.471924 5726.000000
1557.031372 5793.000000
1558.589722 6033.000000
1560.147339 6332.000000
1561.703857 7062.000000
1563.259155 5920.000000
1564.813843 6411.000000
1566.367798 5670.000000
1567.920776 6341.000000
1569.472412 5737.000000
1571.023315 5921.000000
1572.573486 6222.000000
1574.122681 6404.000000
1575.670532 5771.000000
1577.217896 5554.000000
1578.764282 5782.000000
1580.309814 5117.000000
1581.854370 6673.000000
1583.397705 6355.000000
1584.940430 6697.000000
1586.482300 6501.000000
1588.023071 6818.000000
1589.562866 5858.000000
1591.101929 6722.000000
1592.639893 5966.000000
1594.177368 6131.000000
1595.713501 5904.000000
1597.248535 6696.000000
1598.783081 6312.000000
1600.316650 6009.000000
1601.849365 5995.000000
1603.380493 6304.000000
1604.911377 6316.000000
1606.441406 5821.000000
1607.970215 6154.000000
1609.497925 6202.000000
1611.025024 6048.000000
1612.551392 5909.000000
1614.076782 6298.000000
1615.601318 5853.000000
1617.124512 5828.000000
1618.646973 5688.000000
1620.168701 6595.000000
1621.689575 7008.000000
1623.208984 15610.000000
1624.727905 6149.000000
1626.246094 6085.000000
1627.763428 5939.000000
1629.279663 6348.000000
1630.794556 7052.000000
1632.308960 6827.000000
1633.822632 5791.000000
1635.335205 6915.000000
1636.846558 6000.000000
1638.357544 6549.000000
1639.867432 6271.000000
1641.376465 6255.000000
1642.884155 5690.000000
1644.391479 6141.000000
1645.897949 7102.000000
1647.403442 6291.000000
1648.908081 6910.000000
1650.411255 6216.000000
1651.913818 6554.000000
1653.416016 6400.000000
1654.916870 6699.000000
1656.416626 7629.000000
1657.915527 5988.000000
1659.414063 6552.000000
1660.911377 6324.000000
1662.407959 5978.000000
1663.902954 6490.000000
1665.397705 6404.000000
1666.891602 5253.000000
1668.384521 5725.000000
1669.876099 6073.000000
1671.367188 6421.000000
1672.857666 6097.000000
1674.347046 5959.000000
1675.834961 7071.000000
1677.322632 6893.000000
1678.809326 6107.000000
1680.295166 5434.000000
1681.780151 6131.000000
1683.263672 6198.000000
1684.746948 6386.000000
1686.229370 5942.000000
1687.710693 6269.000000
1689.190552 6315.000000
1690.670166 5581.000000
1692.149048 6645.000000
1693.626953 6053.000000
1695.103882 6182.000000
1696.579590 5794.000000
1698.054932 6074.000000
1699.529053 6343.000000
1701.002563 5527.000000
1702.474609 5613.000000
1703.946411 6925.000000
1705.417236 6373.000000
1706.887207 7090.000000
1708.355835 5167.000000
1709.823975 5839.000000
1711.291382 6390.000000
1712.757690 5495.000000
1714.223389 5777.000000
1715.687378 6290.000000
1717.151245 6010.000000
1718.614258 7025.000000
1720.076294 6391.000000
1721.537109 6511.000000
1722.997314 5488.000000
1724.456787 5673.000000
1725.915405 6223.000000
1727.373047 6018.000000
1728.829346 6299.000000
1730.285400 6009.000000
1731.740479 6503.000000
1733.194580 6130.000000
1734.647461 6944.000000
1736.100098 5987.000000
1737.551636 6974.000000
1739.002441 6022.000000
1740.452271 6557.000000
1741.900757 5924.000000
1743.348877 7379.000000
1744.796143 6641.000000
1746.242676 6692.000000
1747.687622 6726.000000
1749.132324 6169.000000
1750.576172 5854.000000
1752.019165 5519.000000
1753.460693 6564.000000
1754.901978 6396.000000
1756.342407 6364.000000
1757.781860 6332.000000
1759.220337 5335.000000
1760.657837 6033.000000
1762.094849 7572.000000
1763.530884 5866.000000
1764.966064 7161.000000
1766.399780 6162.000000
1767.833374 6490.000000
1769.265991 6688.000000
1770.697754 5853.000000
1772.128662 5802.000000
1773.558350 6369.000000
1774.987305 6256.000000
1776.415771 6272.000000
1777.843262 6706.000000
1779.269409 6324.000000
1780.695313 5622.000000
1782.120117 6973.000000
1783.544312 5601.000000
1784.967041 6676.000000
1786.389282 6568.000000
1787.810791 6889.000000
1789.231567 5975.000000
1790.651367 6187.000000
1792.069824 6257.000000
1793.487793 6892.000000
1794.905151 5503.000000
1796.321655 6099.000000
1797.736694 6599.000000
1799.151367 5874.000000
1800.565430 6685.000000
1801.978271 6022.000000
1803.390503 6995.000000
1804.801392 7162.000000
1806.211792 7820.000000
1807.621460 6490.000000
1809.030151 5996.000000
1810.437744 5379.000000
1811.844849 6561.000000
1813.251099 6369.000000
1814.656372 6764.000000
1816.060547 5984.000000
1817.464355 5987.000000
1818.867188 6186.000000
1820.269165 6071.000000
1821.670532 5892.000000
1823.070435 6460.000000
1824.469727 6531.000000
1825.868530 6684.000000
1827.266479 7466.000000
1828.663086 5732.000000
1830.059082 6804.000000
1831.454346 5978.000000
1832.848999 8232.000000
1834.242676 6009.000000
1835.635010 6860.000000
1837.026855 6445.000000
1838.418091 5897.000000
1839.808350 7089.000000
1841.197388 6062.000000
1842.586060 6104.000000
1843.973755 6050.000000
1845.360718 5842.000000
1846.746338 6926.000000
1848.131714 5868.000000
1849.516235 6453.000000
1850.900024 6285.000000
1852.282715 6428.000000
1853.664185 5396.000000
1855.045166 6493.000000
1856.425659 6343.000000
1857.805176 5795.000000
1859.183228 5961.000000
1860.561157 6256.000000
1861.938110 7890.000000
1863.314331 6122.000000
1864.689697 6115.000000
1866.063599 5667.000000
1867.437378 5713.000000
1868.810303 6161.000000
1870.182129 6012.000000
1871.552979 6919.000000
1872.923462 5471.000000
1874.292847 6054.000000
1875.661743 6086.000000
1877.029053 7284.000000
1878.396240 6099.000000
1879.762451 6015.000000
1881.127930 6801.000000
1882.492676 7580.000000
1883.855835 6817.000000
1885.218872 6907.000000
1886.581055 6403.000000
1887.942383 6502.000000
1889.302368 5649.000000
1890.661987 5775.000000
1892.020996 6142.000000
1893.379028 6675.000000
1894.736206 7344.000000
1896.092163 6067.000000
1897.447876 7638.000000
1898.802612 5868.000000
1900.156494 5567.000000
1901.509277 6028.000000
1902.861572 6050.000000
1904.213135 5992.000000
1905.563843 6848.000000
1906.913330 6566.000000
1908.262329 6685.000000
1909.610474 5821.000000
1910.958008 6189.000000
1912.304810 6297.000000
1913.650024 6837.000000
1914.994995 6135.000000
1916.339233 5494.000000
1917.682617 6551.000000
1919.024658 6035.000000
1920.366455 6706.000000
1921.707397 7054.000000
1923.047607 6133.000000
1924.386841 6298.000000
1925.725098 6319.000000
1927.062744 6489.000000
1928.399658 7045.000000
1929.735718 6823.000000
1931.070557 5608.000000
1932.405029 6726.000000
1933.738770 7303.000000
1935.071655 6251.000000
1936.403076 5823.000000
1937.734619 6384.000000
1939.064819 6652.000000
1940.394531 5830.000000
1941.723389 6098.000000
1943.051025 5846.000000
1944.378174 5088.000000
1945.704590 5832.000000
1947.030273 6568.000000
1948.354614 5808.000000
1949.678711 6621.000000
1951.001953 6296.000000
1952.324463 6496.000000
1953.645874 5828.000000
1954.966309 7461.000000
1956.286133 6070.000000
1957.605591 5609.000000
1958.924072 6889.000000
1960.241211 5940.000000
1961.557983 5907.000000
1962.874023 6593.000000
1964.189331 6627.000000
1965.503174 6350.000000
1966.816772 5765.000000
1968.129639 6323.000000
1969.441650 6038.000000
1970.753052 6114.000000
1972.063110 6340.000000
1973.372681 5879.000000
1974.681519 6183.000000
1975.989746 6617.000000
1977.296631 6096.000000
1978.602905 7260.000000
1979.908813 5614.000000
1981.213501 6447.000000
1982.517700 5922.000000
1983.820679 5721.000000
1985.123291 7588.000000
1986.424927 6113.000000
1987.725952 6823.000000
1989.025391 6081.000000
1990.324951 6659.000000
1991.623413 5293.000000
1992.921387 6090.000000
1994.217773 6203.000000
1995.514160 5743.000000
1996.809570 5626.000000
1998.104248 6542.000000
1999.398071 5777.000000
2000.690674 6574.000000
2001.982788 5803.000000
2003.274414 7160.000000
2004.565308 6453.000000
2005.854614 6215.000000
2007.143677 6884.000000
2008.432007 6051.000000
2009.719604 5980.000000
2011.006348 6699.000000
2012.291992 5678.000000
2013.577271 6440.000000
2014.861572 6038.000000
2016.145264 5624.000000
2017.427612 6063.000000
2018.709595 6500.000000
2019.991089 6872.000000
2021.271606 5953.000000
2022.551392 6080.000000
2023.830078 6754.000000
2025.108032 5860.000000
2026.385498 5932.000000
2027.662354 6270.000000
2028.937500 5805.000000
2030.212769 6689.000000
2031.487061 6064.000000
2032.760376 5928.000000
2034.032837 5957.000000
2035.304932 6163.000000
2036.575928 7014.000000
2037.846680 6649.000000
2039.116089 6060.000000
2040.384399 6918.000000
2041.652710 6630.000000
2042.920044 5932.000000
2044.186646 6043.000000
2045.452026 5733.000000
2046.716797 5597.000000
2047.981323 5476.000000
2049.244629 5909.000000
2050.507568 6414.000000
2051.768555 6247.000000
2053.030029 6115.000000
2054.290283 5961.000000
2055.549805 6478.000000
2056.808594 6348.000000
2058.066406 6906.000000
2059.323730 6219.000000
2060.580322 6046.000000
2061.835449 6564.000000
2063.090576 5640.000000
2064.344727 5617.000000
2065.598145 5694.000000
2066.850830 6856.000000
2068.102295 6312.000000
2069.353516 6280.000000
2070.604004 5695.000000
2071.853760 5421.000000
2073.102051 6229.000000
2074.350342 6500.000000
2075.597656 7361.000000
2076.844238 5651.000000
2078.090088 6066.000000
2079.334717 6970.000000
2080.578857 7693.000000
2081.822510 5515.000000
2083.065186 6114.000000
2084.306641 6933.000000
2085.547852 5985.000000
2086.788574 6431.000000
2088.028320 6754.000000
2089.266846 7048.000000
2090.504883 6235.000000
2091.742188 5879.000000
2092.979248 6663.000000
2094.214844 6156.000000
2095.449707 6145.000000
2096.684326 6126.000000
2097.917969 5679.000000
2099.150635 6090.000000
2100.382568 6913.000000
2101.614014 6411.000000
2102.844482 6816.000000
2104.074219 6059.000000
2105.303711 6000.000000
2106.531250 6026.000000
2107.759033 6055.000000
2108.986084 6341.000000
2110.212158 5523.000000
2111.436768 6353.000000
2112.661621 7045.000000
2113.885254 7078.000000
2115.108398 6299.000000
2116.330322 7603.000000
2117.552002 6014.000000
2118.772705 6894.000000
2119.992676 6052.000000
2121.212158 6206.000000
2122.430176 6630.000000
2123.648193 7056.000000
2124.865234 5793.000000
2126.081787 5768.000000
2127.296631 6613.000000
2128.511719 6413.000000
2129.725830 6805.000000
2130.939209 5783.000000
2132.151855 6173.000000
2133.363037 5878.000000
2134.574463 6579.000000
2135.784668 6862.000000
2136.994385 5939.000000
2138.202637 6179.000000
2139.410889 5696.000000
2140.618408 5887.000000
2141.824707 7481.000000
2143.030273 5926.000000
2144.235596 5710.000000
2145.439941 5649.000000
2146.643555 6366.000000
2147.846680 6255.000000
2149.048340 6608.000000
2150.249756 5361.000000
2151.450439 6370.000000
2152.650391 6049.000000
2153.849121 5982.000000
2155.047607 7116.000000
2156.245605 6202.000000
2157.442627 6060.000000
2158.638916 5254.000000
2159.833984 5316.000000
2161.028809 6220.000000
2162.222900 5632.000000
2163.416016 6037.000000
2164.608154 6872.000000
2165.800049 5917.000000
2166.991211 6369.000000
2168.181396 6316.000000
2169.370850 6498.000000
2170.559814 6825.000000
2171.747803 6250.000000
2172.935547 5759.000000
2174.121826 5948.000000
2175.307373 6572.000000
2176.492676 6110.000000
2177.677490 5872.000000
2178.861084 6371.000000
2180.043945 7504.000000
2181.225830 6413.000000
2182.407471 5997.000000
2183.588623 6637.000000
2184.768555 5722.000000
2185.947510 5604.000000
2187.125977 6398.000000
2188.304199 6955.000000
2189.481201 7223.000000
2190.657227 6857.000000
2191.833008 6108.000000
2193.008301 5633.000000
2194.182129 6734.000000
2195.355469 6162.000000
2196.528564 6231.000000
2197.700439 6397.000000
2198.871826 7107.000000
2200.042725 6361.000000
2201.211914 6932.000000
2202.381104 7635.000000
2203.549805 6278.000000
2204.717529 5915.000000
2205.884277 5722.000000
2207.050293 7189.000000
2208.215820 6771.000000
2209.381104 5993.000000
2210.544922 6767.000000
2211.708252 5541.000000
2212.870361 6219.000000
2214.032715 6270.000000
2215.193848 6722.000000
2216.354004 6726.000000
2217.513672 6306.000000
2218.673096 6618.000000
2219.831299 6424.000000
2220.988525 6309.000000
2222.145508 6780.000000
2223.301758 6621.000000
2224.457275 6812.000000
2225.612061 6292.000000
2226.765869 6483.000000
2227.918701 6096.000000
2229.072021 6946.000000
2230.223389 6240.000000
2231.374512 6200.000000
2232.524902 6495.000000
2233.674805 7668.000000
2234.823730 6337.000000
2235.972168 5217.000000
2237.119141 6772.000000
2238.266357 7059.000000
2239.412354 6117.000000
2240.558105 7286.000000
2241.702148 7387.000000
2242.846436 6820.000000
2243.989746 6275.000000
2245.132324 5966.000000
2246.273926 5757.000000
2247.415283 5882.000000
2248.555664 6441.000000
2249.695313 6451.000000
2250.834473 5873.000000
2251.972412 5903.000000
2253.110352 6280.000000
2254.247314 5306.000000
2255.383545 6395.000000
2256.518799 6215.000000
2257.653320 7271.000000
2258.787598 6476.000000
2259.921387 5420.000000
2261.053711 6159.000000
2262.185547 6815.000000
2263.316895 6290.000000
2264.447266 6473.000000
2265.577393 8124.000000
2266.706299 6754.000000
2267.834717 6151.000000
2268.962646 5597.000000
2270.089600 6154.000000
2271.215820 5904.000000
2272.341064 6753.000000
2273.466309 6543.000000
2274.590820 6466.000000
2275.714111 6004.000000
2276.836670 6393.000000
2277.958740 5942.000000
2279.080322 7398.000000
2280.201172 6461.000000
2281.320801 6477.000000
2282.439941 7179.000000
2283.558838 7729.000000
2284.677002 7269.000000
2285.794189 5875.000000
2286.910400 6514.000000
2288.026367 7022.000000
2289.141602 6923.000000
2290.256104 7438.000000
2291.369385 5839.000000
2292.482666 6409.000000
2293.595215 6109.000000
2294.707031 5434.000000
2295.818115 6829.000000
2296.927979 6463.000000
2298.037354 6235.000000
2299.146484 6718.000000
2300.254639 6341.000000
2301.361816 6811.000000
2302.468750 5887.000000
2303.574951 6262.000000
2304.680664 6609.000000
2305.784912 6614.000000
2306.888916 5507.000000
2307.992432 5787.000000
2309.095459 6612.000000
2310.197266 7455.000000
2311.298340 7397.000000
2312.398926 6594.000000
2313.499023 5623.000000
2314.598389 6332.000000
2315.696289 6647.000000
2316.794678 7039.000000
2317.891602 8221.000000
2318.988281 6911.000000
2320.084473 5849.000000
2321.178955 6935.000000
2322.273438 7622.000000
2323.367188 5843.000000
2324.460693 6071.000000
2325.552490 6494.000000
2326.644287 7086.000000
2327.735352 6125.000000
2328.825684 6302.000000
2329.915039 6974.000000
2331.004395 6016.000000
2332.092529 6312.000000
2333.180176 6899.000000
2334.267578 6628.000000
2335.353271 6712.000000
2336.438721 7792.000000
2337.523926 6372.000000
2338.608154 6718.000000
2339.691406 5909.000000
2340.774414 6488.000000
2341.856445 7181.000000
2342.938232 6073.000000
2344.019287 7460.000000
2345.099121 6699.000000
2346.178467 5721.000000
2347.257324 6790.000000
2348.335693 6619.000000
2349.412598 6332.000000
2350.489258 7014.000000
2351.565674 6015.000000
2352.641113 6497.000000
2353.715576 5911.000000
2354.789795 6345.000000
2355.863281 6796.000000
2356.936279 6242.000000
2358.008057 7034.000000
2359.079590 6311.000000
2360.150146 6790.000000
2361.220459 7521.000000
2362.289795 7580.000000
2363.358154 6909.000000
2364.426270 6774.000000
2365.493652 7033.000000
2366.560547 7139.000000
2367.626709 6141.000000
2368.691650 6815.000000
2369.756592 7041.000000
2370.820801 6354.000000
2371.884277 6951.000000
2372.946533 5759.000000
2374.008789 6387.000000
2375.070068 6355.000000
2376.131104 5936.000000
2377.190918 6326.000000
2378.250000 7855.000000
2379.309082 6498.000000
2380.367188 7662.000000
2381.424561 6957.000000
2382.480957 8061.000000
2383.537109 7815.000000
2384.592773 6324.000000
2385.647705 7097.000000
2386.701172 6782.000000
2387.754883 6586.000000
2388.807617 6366.000000
2389.859863 6764.000000
2390.911377 6199.000000
2391.961914 6668.000000
2393.012207 6492.000000
2394.061523 6233.000000
2395.110840 6184.000000
2396.158691 6958.000000
2397.206055 6988.000000
2398.253174 6352.000000
2399.299316 6686.000000
2400.344727 6216.000000
2401.389404 6736.000000
2402.434082 7697.000000
2403.477295 7561.000000
2404.520508 6604.000000
2405.562256 5800.000000
2406.604248 6668.000000
2407.645508 7178.000000
2408.685791 6118.000000
2409.725342 6476.000000
2410.763916 6373.000000
2411.802734 5976.000000
2412.840332 6637.000000
2413.877686 6900.000000
2414.913818 7421.000000
2415.949707 6258.000000
2416.984863 6340.000000
2418.019531 6690.000000
2419.052734 7253.000000
2420.086182 6538.000000
2421.118652 6749.000000
2422.150879 6840.000000
2423.181641 7109.000000
2424.212402 6402.000000
2425.242676 6801.000000
2426.271729 6966.000000
2427.300781 6641.000000
2428.328125 7443.000000
2429.355957 6740.000000
2430.382568 7242.000000
2431.408936 6932.000000
2432.433838 7803.000000
2433.458984 6591.000000
2434.483154 7157.000000
2435.507080 6712.000000
2436.529785 5833.000000
2437.551758 6414.000000
2438.573486 6686.000000
2439.594482 6674.000000
2440.614990 6064.000000
2441.634277 6555.000000
2442.653564 6537.000000
2443.671875 8457.000000
2444.689941 6285.000000
2445.706543 6468.000000
2446.723145 6575.000000
2447.739014 6030.000000
2448.754883 7078.000000
2449.769287 6886.000000
2450.782959 5616.000000
2451.796143 7271.000000
2452.809082 5952.000000
2453.821289 7140.000000
2454.832520 6668.000000
2455.843506 7685.000000
2456.853760 6363.000000
2457.863525 7640.000000
2458.872314 5949.000000
2459.880371 5957.000000
2460.888428 6391.000000
2461.895264 7327.000000
2462.901855 5444.000000
2463.907227 7434.000000
2464.912354 6970.000000
2465.917236 5903.000000
2466.920898 6558.000000
2467.924316 6428.000000
2468.926758 7637.000000
2469.928955 7396.000000
2470.930664 6887.000000
2471.931396 6577.000000
2472.931152 6921.000000
2473.930908 6826.000000
2474.929688 5696.000000
2475.927979 6618.000000
2476.925293 7058.000000
2477.922363 6243.000000
2478.919434 7009.000000
2479.915039 5853.000000
2480.910645 7229.000000
2481.904541 6741.000000
2482.898438 8094.000000
2483.891846 6891.000000
2484.884766 6791.000000
2485.876709 7474.000000
2486.867920 7263.000000
2487.858887 6744.000000
2488.849365 5831.000000
2489.838867 6670.000000
2490.827637 6544.000000
2491.816406 5710.000000
2492.804199 6813.000000
2493.790771 6610.000000
2494.777344 7861.000000
2495.763428 6821.000000
2496.748779 7120.000000
2497.733154 8451.000000
2498.717285 6084.000000
2499.701416 6951.000000
2500.684082 5814.000000
2501.666260 7021.000000
2502.647949 6915.000000
2503.628906 7264.000000
2504.609375 6567.000000
2505.589600 5813.000000
2506.568359 6366.000000
2507.546875 7698.000000
2508.524902 6785.000000
2509.502441 7098.000000
2510.479004 6079.000000
2511.455322 6017.000000
2512.430908 6437.000000
2513.406006 6295.000000
2514.380615 6484.000000
2515.354004 7566.000000
2516.327148 6874.000000
2517.300049 6866.000000
2518.271973 6115.000000
2519.243164 6828.000000
2520.213867 6964.000000
2521.184326 7736.000000
2522.154053 8080.000000
2523.122803 6115.000000
2524.090820 6176.000000
2525.058838 7773.000000
2526.025879 6325.000000
2526.992676 5600.000000
2527.958252 7318.000000
2528.923828 7017.000000
2529.888672 7722.000000
2530.853027 6323.000000
2531.816162 6328.000000
2532.779541 5940.000000
2533.741943 6018.000000
2534.704102 6688.000000
2535.665039 6426.000000
2536.625244 6180.000000
2537.585693 6188.000000
2538.545166 6833.000000
2539.503906 6865.000000
2540.461670 6749.000000
2541.419678 6320.000000
2542.376953 6793.000000
2543.333252 6130.000000
2544.289307 7071.000000
2545.244141 6234.000000
2546.199219 7745.000000
2547.153564 7059.000000
2548.107178 6721.000000
2549.059814 7247.000000
2550.012207 6733.000000
2550.964111 6986.000000
2551.915283 6430.000000
2552.865723 7847.000000
2553.815674 7283.000000
2554.765381 7426.000000
2555.714355 6704.000000
2556.662842 6252.000000
2557.610107 7163.000000
2558.557373 6299.000000
2559.503906 6601.000000
2560.449951 6772.000000
2561.395020 7564.000000
2562.339844 6743.000000
2563.284180 7270.000000
2564.228027 6886.000000
2565.171387 6676.000000
2566.113281 6632.000000
2567.055420 6595.000000
2567.996826 6180.000000
2568.937500 7221.000000
2569.877441 7301.000000
2570.817383 5776.000000
2571.756348 6187.000000
2572.695068 7541.000000
2573.632813 7254.000000
2574.570313 5534.000000
2575.507080 6984.000000
2576.443115 6822.000000
2577.378662 7494.000000
2578.313477 6369.000000
2579.248291 5957.000000
2580.182129 7117.000000
2581.115479 7261.000000
2582.048096 5885.000000
2582.980469 7027.000000
2583.912109 5462.000000
2584.843262 7046.000000
2585.773926 7039.000000
2586.703369 6899.000000
2587.632813 7227.000000
2588.561768 6460.000000
2589.490479 7440.000000
2590.417480 7355.000000
2591.344727 5923.000000
2592.271484 6886.000000
2593.197510 6329.000000
2594.123291 5604.000000
2595.047852 7598.000000
2595.972168 7639.000000
2596.895996 5389.000000
2597.819336 7335.000000
2598.741699 6320.000000
2599.663818 6896.000000
2600.585449 8338.000000
2601.506348 6482.000000
2602.426514 5954.000000
2603.346436 6380.000000
2604.265869 6436.000000
2605.185059 6472.000000
2606.103271 5884.000000
2607.020264 6001.000000
2607.937500 7333.000000
2608.854492 5932.000000
2609.770508 7625.000000
2610.685303 6629.000000
2611.600586 6659.000000
2612.515137 6586.000000
2613.428711 6541.000000
2614.342285 6175.000000
2615.254639 7663.000000
2616.166992 7107.000000
2617.078369 6864.000000
2617.989502 5654.000000
2618.899902 7271.000000
2619.810059 6678.000000
2620.719482 6174.000000
2621.628418 6616.000000
2622.536377 6293.000000
2623.444580 6855.000000
2624.351807 6709.000000
2625.258545 7120.000000
2626.164551 6160.000000
2627.070313 6646.000000
2627.975342 6511.000000
2628.880127 7835.000000
2629.784180 6496.000000
2630.687256 6409.000000
2631.590332 6384.000000
2632.492432 5698.000000
2633.394531 6771.000000
2634.296387 7048.000000
2635.196533 6751.000000
2636.096924 6477.000000
2636.996582 6480.000000
2637.895996 6027.000000
2638.793945 6917.000000
2639.692383 6759.000000
2640.590332 6398.000000
2641.487549 6153.000000
2642.383545 6170.000000
2643.279541 6747.000000
2644.175293 6158.000000
2645.070313 6440.000000
2645.965088 6675.000000
2646.858398 7128.000000
2647.751709 6299.000000
2648.644775 6812.000000
2649.537598 6437.000000
2650.428711 7527.000000
2651.320068 6400.000000
2652.210938 7658.000000
2653.101074 7361.000000
2653.990967 6643.000000
2654.879639 7335.000000
2655.768555 6621.000000
2656.656982 6644.000000
2657.544434 7339.000000
2658.430908 6539.000000
2659.317871 7147.000000
2660.204102 6863.000000
2661.089844 6853.000000
2661.974365 6535.000000
2662.858887 6406.000000
2663.743164 6255.000000
2664.626709 7082.000000
2665.509766 7826.000000
2666.392090 7454.000000
2667.273926 6249.000000
2668.155029 6646.000000
2669.036377 6077.000000
2669.916260 6581.000000
2670.796387 7425.000000
2671.675781 7259.000000
2672.555176 6281.000000
2673.433838 6166.000000
2674.310791 6406.000000
2675.188477 6763.000000
2676.065430 6374.000000
2676.941650 8142.000000
2677.817383 7241.000000
2678.692383 6301.000000
2679.567627 7786.000000
2680.441895 6989.000000
2681.315674 7429.000000
2682.188721 7034.000000
2683.061523 6307.000000
2683.934082 6173.000000
2684.805908 6991.000000
2685.677002 6539.000000
2686.547852 6908.000000
2687.418213 7094.000000
2688.288330 6774.000000
2689.156738 6342.000000
2690.025879 7387.000000
2690.894287 7152.000000
2691.762451 6812.000000
2692.629883 6949.000000
2693.496094 5892.000000
2694.362793 7186.000000
2695.228516 7468.000000
2696.094238 7269.000000
2696.958496 7950.000000
2697.823486 6613.000000
2698.687012 7232.000000
2699.550781 5904.000000
2700.413086 7427.000000
2701.275879 6773.000000
2702.137695 5954.000000
2702.999023 6905.000000
2703.860352 6868.000000
2704.720459 7494.000000
2705.580566 7307.000000
2706.440186 6576.000000
2707.299561 6882.000000
2708.157227 7168.000000
2709.015137 6929.000000
2709.873535 7419.000000
2710.730713 6773.000000
2711.587158 6029.000000
2712.443115 6912.000000
2713.299072 6090.000000
2714.154297 6959.000000
2715.008789 6155.000000
2715.862793 6847.000000
2716.716797 7408.000000
2717.569824 6309.000000
2718.423096 6506.000000
2719.274658 7786.000000
2720.126709 6766.000000
2720.978516 6333.000000
2721.829102 6534.000000
2722.679688 6496.000000
2723.529785 7140.000000
2724.379150 7088.000000
2725.228516 6999.000000
2726.076660 6601.000000
2726.924316 6600.000000
2727.772461 7052.000000
2728.619385 6884.000000
2729.466797 5535.000000
2730.312744 7502.000000
2731.157959 7036.000000
2732.003662 6473.000000
2732.848389 6968.000000
2733.693115 7427.000000
2734.536621 6944.000000
2735.380371 7852.000000
2736.223389 7243.000000
2737.065918 6064.000000
2737.907471 6295.000000
2738.749512 6861.000000
2739.590576 6953.000000
2740.431396 5854.000000
2741.271973 5980.000000
2742.111328 7839.000000
2742.950684 6903.000000
2743.790039 6951.000000
2744.628174 6808.000000
2745.465820 7932.000000
2746.303467 6399.000000
2747.140625 7178.000000
2747.977539 6175.000000
2748.813965 6056.000000
2749.649170 6693.000000
2750.484619 6343.000000
2751.319580 6365.000000
2752.153809 6290.000000
2752.987793 6909.000000
2753.821289 6842.000000
2754.654785 8050.000000
2755.487305 6846.000000
2756.319336 7329.000000
2757.150879 6850.000000
2757.982422 7153.000000
2758.812988 7229.000000
2759.643799 7332.000000
2760.473389 7315.000000
2761.302979 6696.000000
2762.132324 7251.000000
2762.960938 6935.000000
2763.789063 6824.000000
2764.616699 7023.000000
2765.444336 6700.000000
2766.271484 7927.000000
2767.097900 5847.000000
2767.923828 7565.000000
2768.749268 6891.000000
2769.574463 7828.000000
2770.399658 7111.000000
2771.223633 6827.000000
2772.047607 6482.000000
2772.871582 7710.000000
2773.694336 6689.000000
2774.517334 6919.000000
2775.339111 6991.000000
2776.160889 6992.000000
2776.982666 6577.000000
2777.803467 8050.000000
2778.623535 6634.000000
2779.443848 7043.000000
2780.263672 7337.000000
2781.083496 6486.000000
2781.901367 5976.000000
2782.720459 8093.000000
2783.538330 6506.000000
2784.355957 6779.000000
2785.173096 7173.000000
2785.989746 7337.000000
2786.806152 7203.000000
2787.622070 6305.000000
2788.437744 5943.000000
2789.252441 6435.000000
2790.067627 7090.000000
2790.882080 7131.000000
2791.696045 6563.000000
2792.509766 7455.000000
2793.322266 8774.000000
2794.135010 7061.000000
2794.947266 7531.000000
2795.759033 7230.000000
2796.570068 7398.000000
2797.381836 6589.000000
2798.192383 7227.000000
2799.002930 7019.000000
2799.812012 7425.000000
2800.621826 8361.000000
2801.430908 7846.000000
2802.239746 6702.000000
2803.048096 7207.000000
2803.855469 6115.000000
2804.663330 6446.000000
2805.470459 6957.000000
2806.277344 7045.000000
2807.083008 7130.000000
2807.889160 6695.000000
2808.694580 6501.000000
2809.500000 7418.000000
2810.304688 6210.000000
2811.108398 7709.000000
2811.912598 7450.000000
2812.716309 6354.000000
2813.519775 6088.000000
2814.321777 6340.000000
2815.124512 7390.000000
2815.926514 7877.000000
2816.728271 6225.000000
2817.529541 6576.000000
2818.330322 7297.000000
2819.130615 6617.000000
2819.931152 6706.000000
2820.730713 8023.000000
2821.529785 7252.000000
2822.328857 6519.000000
2823.127686 7011.000000
2823.926025 6400.000000
2824.723389 7082.000000
2825.520996 7081.000000
2826.317871 6690.000000
2827.114990 7419.000000
2827.911377 8049.000000
2828.707031 6984.000000
2829.502686 7450.000000
2830.298096 7620.000000
2831.093018 7466.000000
2831.887207 6703.000000
2832.681396 6849.000000
2833.475342 5617.000000
2834.268799 6900.000000
2835.061523 7160.000000
2835.854004 8227.000000
2836.646484 7746.000000
2837.438721 7755.000000
2838.230469 6529.000000
2839.021240 6860.000000
2839.812012 8878.000000
2840.603027 7533.000000
2841.393066 6247.000000
2842.182617 7694.000000
2842.972412 7185.000000
2843.761230 7412.000000
2844.550049 7855.000000
2845.338867 7763.000000
2846.126709 7593.000000
2846.914063 7263.000000
2847.701660 7549.000000
2848.488770 7346.000000
2849.275146 6694.000000
2850.061523 7554.000000
2850.847656 7243.000000
2851.633301 7598.000000
2852.417969 7184.000000
2853.203125 6949.000000
2853.988037 7505.000000
2854.772217 7147.000000
2855.556396 6953.000000
2856.339355 8308.000000
2857.122559 6835.000000
2857.905518 6847.000000
2858.687988 7815.000000
2859.470215 6330.000000
2860.251953 6697.000000
2861.033447 7667.000000
2861.815186 7491.000000
2862.596191 7703.000000
2863.376465 6620.000000
2864.156494 6751.000000
2864.936523 8219.000000
2865.716309 7542.000000
2866.495117 8155.000000
2867.274170 7717.000000
2868.052734 6867.000000
2868.831055 6902.000000
2869.608887 7308.000000
2870.386475 6991.000000
2871.163818 7547.000000
2871.940918 7007.000000
2872.717529 6473.000000
2873.493652 7473.000000
2874.269775 7203.000000
2875.045410 8291.000000
2875.820801 7254.000000
2876.595703 6651.000000
2877.370361 8007.000000
2878.145020 6642.000000
2878.919434 7850.000000
2879.693115 6761.000000
2880.466064 7238.000000
2881.239746 6778.000000
2882.012451 7705.000000
2882.785156 7813.000000
2883.557129 8250.000000
2884.328857 6237.000000
2885.101074 6812.000000
2885.872070 6990.000000
2886.642578 6111.000000
2887.413574 8384.000000
2888.184570 7371.000000
2888.954834 7948.000000
2889.724121 7720.000000
2890.493652 7023.000000
2891.263184 7300.000000
2892.032227 7362.000000
2892.800781 7869.000000
2893.569336 7732.000000
2894.336914 6974.000000
2895.104980 6656.000000
2895.872559 7504.000000
2896.640137 8298.000000
2897.406494 7361.000000
2898.173828 6533.000000
2898.939941 7304.000000
2899.706299 7028.000000
2900.471191 8364.000000
2901.236572 6938.000000
2902.002441 6554.000000
2902.766846 7825.000000
2903.531250 7784.000000
2904.295898 8517.000000
2905.059570 6644.000000
2905.823975 8572.000000
2906.587646 6746.000000
2907.350586 8400.000000
2908.113281 6539.000000
2908.876465 9081.000000
2909.639160 7016.000000
2910.400635 6840.000000
2911.162598 6840.000000
