scanname Analyse036
timestamp 2017-02-10 20:46:05
ccdbias 900.659180
ccdgain 3.473401
sigmaread 8.960639
laserwavenum -0.899925
wavenumcorrection -0.376961
scancount 1
totalexposurems 10000
singleexposurems 10000
measurementstate Unknown
scanmode Manual
snr 248.743256 6.875996 5.887349
replacelist 3
374 48329.000000 15080.000000
672 38040.000000 30809.000000
673 33485.000000 5556.000000
peaks 48
278.521576 0.691448 0.000000 1.426834 0.000181
285.030365 0.690963 0.000000 0.775123 0.000059
293.698181 0.692793 0.000000 0.587113 0.000027
302.436829 0.693973 0.000000 0.258645 0.000026
330.288391 0.709163 0.000000 0.873577 0.000142
341.528381 0.711146 0.000000 0.759157 0.000034
350.156311 0.714351 0.000000 0.531281 0.000021
386.594910 0.721155 0.000000 1.469685 0.000308
457.468201 0.728587 0.000000 0.248133 0.000040
487.646271 0.740496 0.000000 0.454535 0.000053
534.286438 0.740728 0.000000 0.559261 0.000135
559.607056 0.773716 0.000000 1.275168 0.000221
566.431458 0.778382 0.000000 1.152309 0.000100
572.458313 0.781806 0.000000 0.645348 0.000154
583.596313 0.776331 0.000000 0.752760 0.000111
661.073669 0.785586 0.000000 1.070017 0.000104
673.672363 0.785133 0.000000 1.428022 0.000266
680.581116 0.784390 0.000000 0.560827 0.000052
715.995361 0.786845 0.000000 5.087492 0.001041
720.824463 0.768091 0.000000 1.090336 0.000046
741.543579 0.781259 0.000000 0.856455 0.000097
751.610352 0.783160 0.000000 0.684793 0.000036
765.723145 0.801124 0.000000 1.425892 0.000444
774.034668 0.803018 0.000000 3.862852 0.000442
802.440613 0.763209 0.000000 2.633887 0.000169
831.272766 0.767397 0.000000 0.892803 0.000105
840.077209 0.767145 0.000000 0.458949 0.000030
853.965088 0.786783 0.000000 0.802539 0.000222
874.686218 0.792966 0.000000 1.455077 0.000489
937.424011 0.769585 0.000000 0.873496 0.000250
955.138855 0.768625 0.000000 3.744092 0.001020
1029.562866 0.754206 0.000000 0.693008 0.000160
1045.188232 0.768186 0.000000 3.689526 0.001099
1088.355225 0.738608 0.000000 1.925807 0.000323
1102.135498 0.728382 0.000000 1.218578 0.000352
1121.172852 0.736515 0.000000 0.838068 0.000195
1136.658447 0.733225 0.000000 1.631738 0.000664
1150.228027 0.728850 0.000000 2.272039 0.000814
1177.426147 0.708079 0.000000 0.649251 0.000067
1212.317993 0.713097 0.000000 0.418079 0.000151
1237.154785 0.718561 0.000000 1.101189 0.000590
1261.944336 0.718639 0.000000 1.361686 0.000305
1277.535767 0.706920 0.000000 0.501268 0.000428
1319.946655 0.792411 0.000000 19.402031 0.006630
1453.193726 0.730216 0.000000 5.773734 0.001825
1616.498047 0.655134 0.000000 2.713669 0.001139
1665.217773 0.670658 0.000000 9.455883 0.005267
1756.533447 0.611365 0.000000 1.855089 0.001535
finalresult GLS_NoMatch 0
spectrum 2048
-96.701530 46054.000000
-94.074661 46054.000000
-91.449669 46519.000000
-88.826569 46315.000000
-86.205338 47170.000000
-83.586006 46811.000000
-80.968536 47087.000000
-78.352943 46825.000000
-75.739227 47119.000000
-73.127388 47516.000000
-70.517410 47338.000000
-67.909317 47466.000000
-65.303070 47490.000000
-62.698700 47506.000000
-60.096191 47372.000000
-57.495537 47780.000000
-54.896744 47176.000000
-52.299809 46579.000000
-49.704727 46949.000000
-47.111500 46884.000000
-44.520123 47115.000000
-41.930592 46680.000000
-39.342903 47545.000000
-36.757065 47342.000000
-34.173069 46827.000000
-31.590910 47654.000000
-29.010597 47080.000000
-26.432112 47682.000000
-23.855469 47169.000000
-21.280651 47074.000000
-18.707674 46863.000000
-16.136517 46852.000000
-13.567193 46455.000000
-10.999695 45454.000000
-8.434015 46924.000000
-5.870162 46761.000000
-3.308121 47144.000000
-0.747905 47198.000000
1.810503 46837.000000
4.367090 45912.000000
6.921872 46074.000000
9.474837 46637.000000
12.026002 45673.000000
14.575354 45681.000000
17.122910 44949.000000
19.668653 45068.000000
22.212605 44527.000000
24.754751 42042.000000
27.295101 39402.000000
29.833666 35994.000000
32.370434 32356.000000
34.905399 27114.000000
37.438587 16084.000000
39.969994 9983.000000
42.499607 8980.000000
45.027424 8055.000000
47.553482 7301.000000
50.077751 6271.000000
52.600250 5683.000000
55.120953 5325.000000
57.639900 5586.000000
60.157074 6893.000000
62.672470 8531.000000
65.186089 8867.000000
67.697952 8367.000000
70.208069 6519.000000
72.716393 4914.000000
75.222961 4226.000000
77.727783 3474.000000
80.230850 2759.000000
82.732140 2350.000000
85.231689 2289.000000
87.729485 2191.000000
90.225548 2324.000000
92.719833 2849.000000
95.212379 3157.000000
97.703209 3262.000000
100.192268 3197.000000
102.679581 2640.000000
105.165169 1798.000000
107.649017 1794.000000
110.131119 1623.000000
112.611496 1513.000000
115.090149 1421.000000
117.567078 1468.000000
120.042252 1491.000000
122.515717 1454.000000
124.987450 1437.000000
127.457474 1546.000000
129.925735 1675.000000
132.392334 1866.000000
134.857178 2108.000000
137.320328 2501.000000
139.781738 2836.000000
142.241455 3493.000000
144.699448 4333.000000
147.155746 5345.000000
149.610336 6738.000000
152.063202 8145.000000
154.514389 10098.000000
156.963882 12143.000000
159.411652 14419.000000
161.857712 17629.000000
164.302094 20361.000000
166.744797 24901.000000
169.185806 26251.000000
171.625107 28114.000000
174.062698 28374.000000
176.498657 30150.000000
178.932877 31234.000000
181.365417 32879.000000
183.796310 34684.000000
186.225479 35197.000000
188.653000 36555.000000
191.078842 37717.000000
193.503006 38183.000000
195.925507 38549.000000
198.346313 39282.000000
200.765457 41175.000000
203.182938 42590.000000
205.598724 41661.000000
208.012863 42414.000000
210.425369 43732.000000
212.836197 44290.000000
215.245346 44420.000000
217.652863 43457.000000
220.058670 44903.000000
222.462891 44711.000000
224.865402 44736.000000
227.266296 44548.000000
229.665543 45134.000000
232.063126 44742.000000
234.459045 44386.000000
236.853348 45176.000000
239.245987 45840.000000
241.637009 44945.000000
244.026367 45096.000000
246.414108 45343.000000
248.800201 44668.000000
251.184662 45533.000000
253.567474 43850.000000
255.948715 45055.000000
258.328247 45073.000000
260.706207 45115.000000
263.082489 44127.000000
265.457214 44048.000000
267.830292 43745.000000
270.201721 45449.000000
272.571503 45202.000000
274.939728 45599.000000
277.306305 45260.000000
279.671295 44787.000000
282.034668 45530.000000
284.396393 45304.000000
286.756531 44401.000000
289.115051 45460.000000
291.471985 45038.000000
293.827301 45171.000000
296.181030 45644.000000
298.533112 45526.000000
300.883636 45148.000000
303.232574 45164.000000
305.579865 44707.000000
307.925629 45144.000000
310.269714 45055.000000
312.612274 44199.000000
314.953217 43899.000000
317.292542 44278.000000
319.630310 44532.000000
321.966522 43390.000000
324.301086 45166.000000
326.634094 45013.000000
328.965546 45425.000000
331.295410 44792.000000
333.623688 45052.000000
335.950348 44197.000000
338.275513 45029.000000
340.599060 45154.000000
342.921051 45309.000000
345.241486 43872.000000
347.560303 43610.000000
349.877563 45359.000000
352.193298 45551.000000
354.507446 44466.000000
356.820007 45047.000000
359.131012 45013.000000
361.440491 44330.000000
363.748444 45022.000000
366.054779 45769.000000
368.359528 45017.000000
370.662811 45027.000000
372.964478 45160.000000
375.264648 45075.000000
377.563263 45195.000000
379.860321 45754.000000
382.155823 45433.000000
384.449799 45672.000000
386.742188 46367.000000
389.033081 45887.000000
391.322449 45356.000000
393.610229 45334.000000
395.896484 45000.000000
398.181244 44550.000000
400.464386 45539.000000
402.746094 45176.000000
405.026276 45356.000000
407.304871 44320.000000
409.581940 45173.000000
411.857483 44758.000000
414.131500 45011.000000
416.404083 45092.000000
418.675049 45180.000000
420.944519 45103.000000
423.212494 44377.000000
425.478912 44207.000000
427.743835 45132.000000
430.007294 45099.000000
432.269165 44850.000000
434.529572 45291.000000
436.788422 44677.000000
439.045807 45173.000000
441.301697 45609.000000
443.556091 45556.000000
445.808960 45786.000000
448.060272 44381.000000
450.310181 45110.000000
452.558502 44906.000000
454.805389 45611.000000
457.050812 44655.000000
459.294678 44706.000000
461.537048 44415.000000
463.777924 45531.000000
466.017395 44407.000000
468.255280 45659.000000
470.491730 45292.000000
472.726654 45107.000000
474.960114 43797.000000
477.192139 44491.000000
479.422638 45438.000000
481.651642 44596.000000
483.879181 44867.000000
486.105225 45085.000000
488.329834 44670.000000
490.552979 45280.000000
492.774658 44732.000000
494.994781 44483.000000
497.213501 45541.000000
499.430725 44916.000000
501.646576 45597.000000
503.860809 45004.000000
506.073730 44690.000000
508.285065 44725.000000
510.494965 44191.000000
512.703430 44681.000000
514.910522 44631.000000
517.116028 44676.000000
519.320129 44506.000000
521.522705 44906.000000
523.723877 44483.000000
525.923706 44354.000000
528.122009 44107.000000
530.318787 45632.000000
532.514221 45093.000000
534.708130 45273.000000
536.900696 43308.000000
539.091736 44154.000000
541.281372 44796.000000
543.469604 43866.000000
545.656311 43638.000000
547.841553 43880.000000
550.025513 44425.000000
552.207886 44227.000000
554.388916 44412.000000
556.568420 44636.000000
558.746643 44755.000000
560.923340 44574.000000
563.098633 44149.000000
565.272522 44084.000000
567.444946 44705.000000
569.615967 44562.000000
571.785522 44344.000000
573.953796 45375.000000
576.120544 44232.000000
578.285828 44343.000000
580.449707 44585.000000
582.612305 44965.000000
584.773376 44657.000000
586.933044 45104.000000
589.091370 44926.000000
591.248169 44525.000000
593.403625 44082.000000
595.557678 44946.000000
597.710388 44487.000000
599.861572 43400.000000
602.011414 43862.000000
604.159912 43964.000000
606.306824 44655.000000
608.452515 44082.000000
610.596802 44104.000000
612.739624 43508.000000
614.880981 44308.000000
617.021118 43995.000000
619.159729 42780.000000
621.297058 44647.000000
623.432922 43689.000000
625.567383 43340.000000
627.700378 43002.000000
629.832214 43467.000000
631.962585 43443.000000
634.091553 43217.000000
636.219055 43448.000000
638.345276 43636.000000
640.469971 42481.000000
642.593445 43342.000000
644.715576 42839.000000
646.836243 42779.000000
648.955566 43060.000000
651.073486 43906.000000
653.190063 43847.000000
655.305237 43126.000000
657.419067 43058.000000
659.531433 43644.000000
661.642578 43368.000000
663.752319 44054.000000
665.860596 43536.000000
667.967712 43276.000000
670.073364 42831.000000
672.177551 43916.000000
674.280518 43841.000000
676.382080 42536.000000
678.482300 44268.000000
680.581116 42885.000000
682.678589 43397.000000
684.774780 42539.000000
686.869507 43148.000000
688.963013 42495.000000
691.055176 42853.000000
693.145813 41445.000000
695.235229 42705.000000
697.323364 42840.000000
699.410034 43158.000000
701.495483 42371.000000
703.579407 43938.000000
705.662109 43073.000000
707.743530 42861.000000
709.823486 41336.000000
711.902222 42565.000000
713.979492 43069.000000
716.055481 42102.000000
718.130188 42625.000000
720.203613 41731.000000
722.275513 42355.000000
724.346252 41229.000000
726.415649 42692.000000
728.483643 41877.000000
730.550293 42065.000000
732.615723 41239.000000
734.679810 42390.000000
736.742554 42016.000000
738.803955 41651.000000
740.864075 41551.000000
742.922791 42035.000000
744.980286 41448.000000
747.036499 41516.000000
749.091309 41325.000000
751.144836 41650.000000
753.196960 40549.000000
755.247864 42255.000000
757.297546 41217.000000
759.345764 41642.000000
761.392761 41859.000000
763.438477 41130.000000
765.482788 42829.000000
767.525818 42503.000000
769.567627 41958.500000
771.608093 41414.000000
773.647156 41664.000000
775.685059 41918.000000
777.721619 42082.000000
779.756958 42773.000000
781.790955 42477.000000
783.823547 41423.000000
785.854980 42821.000000
787.885010 36231.000000
789.913757 42246.000000
791.941345 41730.000000
793.967590 41598.000000
795.992432 42078.000000
798.016174 42318.000000
800.038513 41481.000000
802.059631 41904.000000
804.079407 40997.000000
806.097900 42772.000000
808.115173 40747.000000
810.131042 40469.000000
812.145752 41485.000000
814.159119 40527.000000
816.171265 40608.000000
818.182190 40574.000000
820.191772 39934.000000
822.200134 41074.000000
824.207092 40574.000000
826.212830 40156.000000
828.217346 40404.000000
830.220581 40419.000000
832.222534 39543.000000
834.223206 39941.000000
836.222656 40032.000000
838.220764 39556.000000
840.217773 38945.000000
842.213379 39626.000000
844.207825 39762.000000
846.200928 39579.000000
848.192810 38904.000000
850.183350 40097.000000
852.172607 38861.000000
854.160828 39801.000000
856.147644 40075.000000
858.133240 39436.000000
860.117554 38674.000000
862.100769 39678.000000
864.082581 39629.000000
866.063171 40290.000000
868.042480 38388.000000
870.020630 39071.000000
871.997437 40044.000000
873.972961 40178.000000
875.947449 40037.000000
877.920471 40160.000000
879.892456 40777.000000
881.863098 39552.000000
883.832581 39689.000000
885.800720 39995.000000
887.767700 40116.000000
889.733337 39142.000000
891.697815 39351.000000
893.661072 38938.000000
895.623108 38347.000000
897.583862 38899.000000
899.543396 38131.000000
901.501648 37786.000000
903.458801 37980.000000
905.414795 38202.000000
907.369385 37198.000000
909.322754 37518.000000
911.274963 37332.000000
913.225952 37229.000000
915.175659 36344.000000
917.124207 36904.000000
919.071533 36744.000000
921.017578 36628.000000
922.962341 36466.000000
924.906067 36115.000000
926.848633 36292.000000
928.789917 36481.000000
930.729858 35545.000000
932.668701 36305.000000
934.606262 36442.000000
936.542603 36055.000000
938.477783 36317.000000
940.411682 36101.000000
942.344482 36409.000000
944.276062 35612.000000
946.206482 37254.000000
948.135681 36098.000000
950.063538 35594.000000
951.990356 36006.000000
953.915894 36732.000000
955.840149 37368.000000
957.763306 36864.000000
959.685303 36208.000000
961.606018 35685.000000
963.525574 36528.000000
965.443970 37640.000000
967.361328 36579.000000
969.277222 36612.000000
971.192017 36786.000000
973.105591 37008.000000
975.018005 36556.000000
976.929199 36367.000000
978.839233 37257.000000
980.747986 36513.000000
982.655701 36557.000000
984.562195 36200.000000
986.467468 36778.000000
988.371643 35678.000000
990.274597 36203.000000
992.176331 35414.000000
994.076904 35668.000000
995.976318 35305.000000
997.874512 36404.000000
999.771545 34842.000000
1001.667358 34755.000000
1003.562012 33296.000000
1005.455566 35058.000000
1007.347839 33291.000000
1009.239197 34167.000000
1011.129211 34634.000000
1013.018005 33529.000000
1014.905640 33800.000000
1016.792114 33246.000000
1018.677429 33319.000000
1020.561584 33940.000000
1022.444519 33922.000000
1024.326416 33704.000000
1026.207031 34593.000000
1028.086548 34113.000000
1029.965088 33953.000000
1031.842285 34771.000000
1033.718140 34077.000000
1035.593018 34577.000000
1037.466919 34022.000000
1039.339355 33647.000000
1041.210815 33931.000000
1043.080933 35141.000000
1044.950073 35141.000000
1046.817993 35165.000000
1048.684814 34194.000000
1050.550537 34515.000000
1052.415039 34793.000000
1054.278442 34713.000000
1056.140503 34794.000000
1058.001587 35253.000000
1059.861572 34698.000000
1061.720215 34522.000000
1063.577759 35369.000000
1065.434204 34419.000000
1067.289551 35158.000000
1069.143677 35253.000000
1070.996948 34863.000000
1072.848755 34729.000000
1074.699585 34878.000000
1076.549194 34880.000000
1078.397583 35202.000000
1080.245117 32997.000000
1082.091309 35011.000000
1083.936279 34208.000000
1085.780396 34888.000000
1087.623169 34592.000000
1089.464722 33619.000000
1091.305542 34375.000000
1093.144775 33833.000000
1094.983276 33425.000000
1096.820435 33176.000000
1098.656372 32234.000000
1100.491333 32126.000000
1102.325073 32842.000000
1104.157837 32537.000000
1105.989258 32208.000000
1107.819824 31124.000000
1109.649048 31460.000000
1111.477295 31159.000000
1113.304321 30498.000000
1115.130371 32145.000000
1116.955200 31252.000000
1118.778931 30529.000000
1120.601440 31461.000000
1122.422852 31692.000000
1124.243408 31755.000000
1126.062500 31336.000000
1127.880737 31001.000000
1129.697632 31173.000000
1131.513672 31356.000000
1133.328491 31461.000000
1135.142212 32252.000000
1136.954834 32257.000000
1138.766235 32546.000000
1140.576660 32323.000000
1142.385986 31881.000000
1144.193970 31516.000000
1146.001221 32515.000000
1147.807007 32297.000000
1149.611938 32781.000000
1151.415771 32743.000000
1153.218384 32017.000000
1155.020142 32061.000000
1156.820435 32002.000000
1158.619751 31745.000000
1160.418091 31830.000000
1162.215088 32118.000000
1164.011353 31518.000000
1165.806274 31225.000000
1167.600098 31022.000000
1169.393066 29431.000000
1171.184692 31125.000000
1172.975342 30123.000000
1174.765015 30666.000000
1176.553223 30691.000000
1178.340576 29218.000000
1180.126831 29806.000000
1181.911987 30646.000000
1183.696045 30328.000000
1185.479004 28699.000000
1187.260986 30399.000000
1189.041748 30180.000000
1190.821533 29788.000000
1192.600220 29084.000000
1194.377930 29187.000000
1196.154419 28495.000000
1197.929810 28847.000000
1199.704102 28620.000000
1201.477295 28287.000000
1203.249634 28230.000000
1205.020630 28050.000000
1206.790771 28951.000000
1208.559692 28364.000000
1210.327515 28327.000000
1212.094482 28817.000000
1213.860107 28589.000000
1215.624756 27718.000000
1217.388306 28084.000000
1219.150757 28567.000000
1220.912354 27673.000000
1222.672729 28666.000000
1224.432007 28079.000000
1226.190430 28515.000000
1227.947632 27574.000000
1229.703735 28242.000000
1231.458740 29108.000000
1233.212891 28658.000000
1234.965698 28998.000000
1236.717529 28984.000000
1238.468506 29099.000000
1240.218140 30139.000000
1241.966919 28309.000000
1243.714355 28901.000000
1245.461060 28688.000000
1247.206543 28603.000000
1248.951172 28631.000000
1250.694458 28091.000000
1252.436768 27997.000000
1254.177979 28908.000000
1255.918335 28938.000000
1257.657593 28282.000000
1259.395630 27546.000000
1261.132813 27158.000000
1262.868774 28319.000000
1264.603760 28263.000000
1266.337769 27636.000000
1268.070801 29020.000000
1269.802612 28912.000000
1271.533447 28798.000000
1273.263062 28022.000000
1274.991821 29252.000000
1276.719482 29240.000000
1278.446045 29408.000000
1280.171753 29388.000000
1281.896118 28493.000000
1283.619629 29691.000000
1285.342163 28043.000000
1287.063721 28256.000000
1288.784058 28547.000000
1290.503418 27882.000000
1292.221680 27367.000000
1293.938965 27966.000000
1295.655273 28365.000000
1297.370361 27767.000000
1299.084473 27924.000000
1300.797607 28169.000000
1302.509888 27473.000000
1304.220947 25606.000000
1305.931030 28402.000000
1307.640015 27356.000000
1309.347778 27118.000000
1311.054932 26894.000000
1312.760620 28148.000000
1314.465576 27404.000000
1316.169556 28444.000000
1317.872314 29068.000000
1319.574097 29016.000000
1321.275024 30140.000000
1322.974609 28024.000000
1324.673340 27976.500000
1326.371338 16477.000000
1328.067993 25723.000000
1329.763550 25283.000000
1331.458252 25308.000000
1333.151733 25847.000000
1334.844360 26286.000000
1336.536133 24702.000000
1338.226563 25558.000000
1339.916260 25203.000000
1341.604858 25702.000000
1343.292358 24431.000000
1344.978882 25832.000000
1346.664307 24920.000000
1348.348755 25737.000000
1350.032349 24772.000000
1351.714722 25598.000000
1353.396118 26095.000000
1355.076660 25808.000000
1356.755981 25826.000000
1358.434692 26513.000000
1360.112061 26012.000000
1361.788330 26810.000000
1363.463623 27011.000000
1365.138184 26260.000000
1366.811523 26261.000000
1368.483887 25960.000000
1370.155273 27187.000000
1371.825684 25690.000000
1373.494995 26156.000000
1375.163330 26462.000000
1376.830811 26308.000000
1378.497192 25742.000000
1380.162598 26004.000000
1381.827026 26065.000000
1383.490234 25788.000000
1385.152832 25797.000000
1386.814087 25383.000000
1388.474487 25092.000000
1390.133789 25222.000000
1391.792114 25243.000000
1393.449707 24930.000000
1395.106079 25259.000000
1396.761597 24849.000000
1398.415894 25232.000000
1400.069336 25610.000000
1401.721680 25557.000000
1403.373291 25346.000000
1405.023682 24541.000000
1406.672974 24893.000000
1408.321533 23815.000000
1409.968994 23271.000000
1411.615479 23824.000000
1413.261108 23649.000000
1414.905762 23783.000000
1416.549194 23202.000000
1418.191772 23027.000000
1419.833252 22973.000000
1421.473877 23226.000000
1423.113525 23194.000000
1424.752075 23163.000000
1426.389771 22809.000000
1428.026367 22873.000000
1429.661987 22975.000000
1431.296875 22697.000000
1432.930664 22846.000000
1434.563354 22711.000000
1436.195068 22710.000000
1437.825928 22691.000000
1439.455688 23027.000000
1441.084351 22228.000000
1442.712402 22878.000000
1444.339355 22801.000000
1445.965088 22901.000000
1447.590210 23251.000000
1449.214233 23236.000000
1450.837280 23792.000000
1452.459351 24057.000000
1454.080322 23491.000000
1455.700317 24485.000000
1457.319580 24483.000000
1458.937500 26256.000000
1460.554810 18486.000000
1462.171143 23935.000000
1463.786255 22814.000000
1465.400513 23111.000000
1467.013916 23716.000000
1468.626221 23727.000000
1470.237671 23274.000000
1471.848267 23271.000000
1473.457642 23229.000000
1475.066040 23335.000000
1476.673584 23445.000000
1478.280151 23168.000000
1479.885986 23590.000000
1481.490601 23117.000000
1483.094360 23106.000000
1484.696899 22101.000000
1486.298828 21776.000000
1487.899536 21839.000000
1489.499512 21551.000000
1491.098389 21288.000000
1492.696411 21530.000000
1494.293335 21320.000000
1495.889404 22243.000000
1497.484497 22781.000000
1499.078613 22864.000000
1500.671997 22479.000000
1502.264282 22724.000000
1503.855347 22622.000000
1505.445923 22230.000000
1507.035156 22076.000000
1508.623779 21997.000000
1510.211304 21780.000000
1511.797729 21535.000000
1513.383423 21808.000000
1514.968018 21523.000000
1516.551758 21762.000000
1518.134399 21628.000000
1519.716309 21423.000000
1521.297119 21459.000000
1522.877197 21226.000000
1524.456055 21040.000000
1526.034058 20931.000000
1527.611328 20693.000000
1529.187378 20721.000000
1530.762695 20581.000000
1532.336914 20171.000000
1533.910400 20529.000000
1535.482666 20410.000000
1537.054199 20326.000000
1538.624756 20361.000000
1540.194458 20229.000000
1541.762939 20310.000000
1543.330688 20175.000000
1544.897583 20197.000000
1546.463257 19922.000000
1548.028198 20026.000000
1549.592041 19965.000000
1551.155273 19707.000000
1552.717163 19926.000000
1554.278442 19876.000000
1555.838623 19713.000000
1557.398071 19654.000000
1558.956421 19705.000000
1560.514038 19440.000000
1562.070557 19556.000000
1563.625854 19539.000000
1565.180542 19473.000000
1566.734497 19679.000000
1568.287476 19468.000000
1569.839111 19556.000000
1571.390015 19658.000000
1572.940186 19683.000000
1574.489380 19586.000000
1576.037231 19756.000000
1577.584595 19764.000000
1579.130981 19847.000000
1580.676514 19922.000000
1582.221069 19677.000000
1583.764404 19968.000000
1585.307129 19632.000000
1586.848999 19695.000000
1588.389771 19679.000000
1589.929565 19789.000000
1591.468628 19513.000000
1593.006592 19473.000000
1594.544067 19286.000000
1596.080200 19505.000000
1597.615234 19498.000000
1599.149780 19030.000000
1600.683350 19231.000000
1602.216064 19323.000000
1603.747192 19519.000000
1605.278076 19432.000000
1606.808105 19449.000000
1608.336914 19103.000000
1609.864624 19426.000000
1611.391724 19390.000000
1612.918091 19649.000000
1614.443481 19370.000000
1615.968018 19338.000000
1617.491211 19208.000000
1619.013672 19368.000000
1620.535400 19609.000000
1622.056274 21472.000000
1623.575684 16156.000000
1625.094604 19172.000000
1626.612793 19043.000000
1628.130127 18919.000000
1629.646362 18823.000000
1631.161255 18744.000000
1632.675659 18655.000000
1634.189331 18658.000000
1635.701904 18774.000000
1637.213257 18605.000000
1638.724243 18393.000000
1640.234131 18469.000000
1641.743164 18644.000000
1643.250854 18269.000000
1644.758179 18186.000000
1646.264648 18193.000000
1647.770142 18293.000000
1649.274780 18132.000000
1650.777954 18278.000000
1652.280518 18183.000000
1653.782715 17986.000000
1655.283569 17998.000000
1656.783325 17563.000000
1658.282227 17659.000000
1659.780762 17586.000000
1661.278076 17485.000000
1662.774658 17609.000000
1664.269653 17325.000000
1665.764404 17242.000000
1667.258301 17284.000000
1668.751221 21711.000000
1670.242798 11669.000000
1671.733887 16734.000000
1673.224365 16793.000000
1674.713745 16580.000000
1676.201660 16581.000000
1677.689331 16714.000000
1679.176025 16984.000000
1680.661865 16902.000000
1682.146851 16744.000000
1683.630371 16423.000000
1685.113647 16313.000000
1686.596069 16484.000000
1688.077393 16463.000000
1689.557251 16340.000000
1691.036865 16374.000000
1692.515747 16229.000000
1693.993652 16189.000000
1695.470581 16207.000000
1696.946289 16247.000000
1698.421631 16152.000000
1699.895752 15950.000000
1701.369263 16126.000000
1702.841309 16170.000000
1704.313110 16142.000000
1705.783936 16149.000000
1707.253906 16155.000000
1708.722534 16288.000000
1710.190674 16400.000000
1711.658081 16379.000000
1713.124390 16253.000000
1714.590088 16206.000000
1716.054077 16321.000000
1717.517944 16329.000000
1718.980957 16162.000000
1720.442993 16186.000000
1721.903809 16208.000000
1723.364014 16334.000000
1724.823486 16237.000000
1726.282104 16260.000000
1727.739746 16208.000000
1729.196045 16064.000000
1730.652100 16103.000000
1732.107178 15969.000000
1733.561279 15963.000000
1735.014160 15895.000000
1736.466797 16131.000000
1737.918335 15973.000000
1739.369141 15993.000000
1740.818970 15887.000000
1742.267456 15798.000000
1743.715576 15738.000000
1745.162842 15539.000000
1746.609375 15562.000000
1748.054321 15409.000000
1749.499023 15484.000000
1750.942871 15500.000000
1752.385864 15566.000000
1753.827393 15419.000000
1755.268677 15374.000000
1756.709106 17096.000000
1758.148560 15159.000000
1759.587036 15204.000000
1761.024536 15063.000000
1762.461548 14789.000000
1763.897583 14900.000000
1765.332764 14899.000000
1766.766479 14896.000000
1768.200073 15193.000000
1769.632690 14906.000000
1771.064453 15049.000000
1772.495361 15178.000000
1773.925049 14865.000000
1775.354004 14506.000000
1776.782471 14577.000000
1778.209961 13905.000000
1779.636108 13392.000000
1781.062012 14162.000000
1782.486816 14101.000000
1783.911011 14279.000000
1785.333740 14042.000000
1786.755981 13953.000000
1788.177490 14039.000000
1789.598267 14063.000000
1791.018066 13829.000000
1792.436523 13841.000000
1793.854492 13642.000000
1795.271851 13767.000000
1796.688354 13698.000000
1798.103394 13629.000000
1799.518066 13731.000000
1800.932129 13673.000000
1802.344971 13627.000000
1803.757202 13668.000000
1805.168091 13477.000000
1806.578491 13406.000000
1807.988159 13534.000000
1809.396851 13550.000000
1810.804443 13600.000000
1812.211548 13501.000000
1813.617798 13481.000000
1815.023071 13732.000000
1816.427246 13599.000000
1817.831055 13448.000000
1819.233887 13647.000000
1820.635864 13591.000000
1822.037231 13577.000000
1823.437134 13558.000000
1824.836426 13676.000000
1826.235229 13526.000000
1827.633179 13441.000000
1829.029785 13618.000000
1830.425781 13431.000000
1831.821045 13567.000000
1833.215698 13273.000000
1834.609375 13430.000000
1836.001709 13420.000000
1837.393555 13410.000000
1838.784790 13314.000000
1840.175049 13295.000000
1841.564087 13356.000000
1842.952759 13308.000000
1844.340454 13335.000000
1845.727417 13248.000000
1847.113037 13155.000000
1848.498413 13096.000000
1849.882935 13160.000000
1851.266724 13030.000000
1852.649414 13072.000000
1854.030884 12973.000000
1855.411865 12747.000000
1856.792358 12763.000000
1858.171875 12737.000000
1859.549927 12799.000000
1860.927856 12683.000000
1862.304810 12538.000000
1863.681030 12751.000000
1865.056396 12398.000000
1866.430298 12459.000000
1867.804077 12294.000000
1869.177002 12276.000000
1870.548828 12209.000000
1871.919678 12248.000000
1873.290161 12082.000000
1874.659546 11944.000000
1876.028442 12100.000000
1877.395752 11974.000000
1878.762939 11933.000000
1880.129150 11932.000000
1881.494629 11719.000000
1882.859375 11831.000000
1884.222534 11872.000000
1885.585571 11791.000000
1886.947754 11677.000000
1888.309082 11685.000000
1889.669067 11698.000000
1891.028687 11700.000000
1892.387695 11662.000000
1893.745728 11751.000000
1895.102905 11421.000000
1896.458862 11540.000000
1897.814575 11476.000000
1899.169312 11641.000000
1900.523193 11571.000000
1901.875977 11558.000000
1903.228271 11457.000000
1904.579834 11520.000000
1905.930542 11634.000000
1907.280029 11475.000000
1908.629028 11552.000000
1909.977173 11630.000000
1911.324707 11411.000000
1912.671509 11401.000000
1914.016724 11562.000000
1915.361694 11696.000000
1916.705933 11612.000000
1918.049316 11618.000000
1919.391357 11547.000000
1920.733154 11563.000000
1922.074097 11453.000000
1923.414307 11583.000000
1924.753540 11441.000000
1926.091797 11613.000000
1927.429443 11610.000000
1928.766357 11638.000000
1930.102417 11433.000000
1931.437256 11590.000000
1932.771729 11441.000000
1934.105469 11316.000000
1935.438354 11340.000000
1936.769775 11322.000000
1938.101318 11288.000000
1939.431519 11102.000000
1940.761230 11195.000000
1942.090088 11264.000000
1943.417725 11196.000000
1944.744873 11284.000000
1946.071289 11213.000000
1947.396973 11150.000000
1948.721313 11064.000000
1950.045410 11023.000000
1951.368652 10892.000000
1952.691162 10983.000000
1954.012573 11024.000000
1955.333008 10871.000000
1956.652832 10910.000000
1957.972290 10905.000000
1959.290771 10798.000000
1960.607910 10788.000000
1961.924683 10661.000000
1963.240723 10667.000000
1964.556030 10650.000000
1965.869873 10644.000000
1967.183472 10653.000000
1968.496338 10566.000000
1969.808350 10666.000000
1971.119751 10561.000000
1972.429810 10496.000000
1973.739380 10399.000000
1975.048218 10217.000000
1976.356445 10188.000000
1977.663330 10119.000000
1978.969604 10244.000000
1980.275513 10298.000000
1981.580200 10263.000000
1982.884399 10227.000000
1984.187378 10214.000000
1985.489990 10012.000000
1986.791626 10051.000000
1988.092651 9951.000000
1989.392090 9866.000000
1990.691650 9624.000000
1991.990112 9817.000000
1993.288086 9766.000000
1994.584473 9791.000000
1995.880859 9756.000000
1997.176270 9620.000000
1998.470947 9707.000000
1999.764771 9527.000000
2001.057373 9562.000000
2002.349487 9415.000000
2003.641113 9408.000000
2004.932007 9402.000000
2006.221313 9510.000000
2007.510376 9411.000000
2008.798706 9434.000000
2010.086304 9383.000000
2011.373047 9403.000000
2012.658691 9188.000000
2013.943970 9326.000000
2015.228271 9328.000000
2016.511963 9350.000000
2017.794312 9234.000000
2019.076294 9195.000000
2020.357788 9209.000000
2021.638306 9336.000000
2022.918091 9129.000000
2024.196777 9232.000000
2025.474731 9222.000000
2026.752197 9198.000000
2028.029053 9160.000000
2029.304199 9250.000000
2030.579468 9265.000000
2031.853760 9233.000000
2033.127075 9228.000000
2034.399536 9304.000000
2035.671631 9419.000000
2036.942627 9302.000000
2038.213379 9214.000000
2039.482788 9316.000000
2040.751099 9412.000000
2042.019409 9273.000000
2043.286743 9211.000000
2044.553345 9184.000000
2045.818726 9177.000000
2047.083496 9327.000000
2048.348145 9130.000000
2049.611328 9061.000000
2050.874268 9084.000000
2052.135254 8959.000000
2053.396729 8961.000000
2054.656982 8889.000000
2055.916504 8827.000000
2057.175293 8929.000000
2058.433105 8835.000000
2059.690430 8857.000000
2060.947021 8929.000000
2062.202148 8630.000000
2063.457275 8794.000000
2064.711426 8867.000000
2065.964844 8758.000000
2067.217529 8723.000000
2068.468994 8745.000000
2069.720215 8664.000000
2070.970703 8671.000000
2072.220459 8767.000000
2073.468750 8615.000000
2074.717041 8534.000000
2075.964355 8423.000000
2077.210938 8634.000000
2078.456787 8595.000000
2079.701416 8497.000000
2080.945557 8439.000000
2082.189209 8391.000000
2083.431885 8400.000000
2084.673340 8338.000000
2085.914551 8446.000000
2087.155273 8269.000000
2088.395020 8219.000000
2089.633545 8161.000000
2090.871582 8300.000000
2092.108887 8240.000000
2093.345947 8103.000000
2094.581543 8062.000000
2095.816406 8189.000000
2097.051025 8171.000000
2098.284668 8243.000000
2099.517334 8066.000000
2100.749268 7965.000000
2101.980713 8158.000000
2103.211182 7991.000000
2104.440918 7982.000000
2105.670410 7860.000000
2106.897949 7982.000000
2108.125732 7804.000000
2109.352783 7807.000000
2110.578857 7797.000000
2111.803467 7695.000000
2113.028320 7664.000000
2114.251953 7775.000000
2115.475098 7609.000000
2116.697021 7518.000000
2117.918701 7642.000000
2119.139404 7728.000000
2120.359375 7747.000000
2121.578857 7750.000000
2122.796875 7760.000000
2124.014893 7892.000000
2125.231934 7532.000000
2126.448486 7753.000000
2127.663330 7775.000000
2128.878418 7713.000000
2130.092529 7677.000000
2131.305908 7760.000000
2132.518555 7465.000000
2133.729736 7598.000000
2134.941162 7690.000000
2136.151367 7637.000000
2137.361084 7520.000000
2138.569336 7682.000000
2139.777588 7684.000000
2140.985107 7599.000000
2142.191406 7351.000000
2143.396973 7596.000000
2144.602295 7656.000000
2145.806641 7636.000000
2147.010254 7498.000000
2148.213379 7546.000000
2149.415039 7636.000000
2150.616455 7559.000000
2151.817139 7436.000000
2153.017090 7444.000000
2154.215820 7351.000000
2155.414307 7384.000000
2156.612305 7521.000000
2157.809326 7464.000000
2159.005615 7243.000000
2160.200684 7210.000000
2161.395508 7208.000000
2162.589600 6918.000000
2163.782715 7116.000000
2164.974854 7006.000000
2166.166748 6999.000000
2167.357910 6968.000000
2168.548096 6932.000000
2169.737549 6837.000000
2170.926514 6823.000000
2172.114502 6749.000000
2173.302246 6707.000000
2174.488525 6671.000000
2175.674072 6591.000000
2176.859375 6539.000000
2178.044189 6549.000000
2179.227783 6571.000000
2180.410645 6510.000000
2181.592529 6557.000000
2182.774170 6563.000000
2183.955322 6507.000000
2185.135254 6551.000000
2186.314209 6452.000000
2187.492676 6367.000000
2188.670898 6374.000000
2189.847900 6502.000000
2191.023926 6297.000000
2192.199707 6544.000000
2193.375000 6506.000000
2194.548828 6575.000000
2195.722168 6513.000000
2196.895264 6454.000000
2198.067139 6501.000000
2199.238525 6564.000000
2200.409424 6579.000000
2201.578613 6542.000000
2202.747803 6487.000000
2203.916504 6430.000000
2205.084229 6571.000000
2206.250977 6558.000000
2207.416992 6489.000000
2208.582520 6458.000000
2209.747803 6400.000000
2210.911621 6406.000000
2212.074951 6559.000000
2213.237061 6403.000000
2214.399414 6431.000000
2215.560547 6365.000000
2216.720703 6312.000000
2217.880371 6407.000000
2219.039795 6363.000000
2220.197998 6333.000000
2221.355225 6305.000000
2222.512207 6363.000000
2223.668457 6194.000000
2224.823975 6186.000000
2225.978760 6211.000000
2227.132568 6175.000000
2228.285400 6134.000000
2229.438721 6140.000000
2230.590088 6051.000000
2231.741211 6171.000000
2232.891602 6006.000000
2234.041504 6040.000000
2235.190430 5979.000000
2236.338867 6077.000000
2237.485840 5922.000000
2238.633057 5951.000000
2239.779053 5789.000000
2240.924805 5771.000000
2242.068848 5846.000000
2243.213135 5776.000000
2244.356445 5798.000000
2245.499023 5674.000000
2246.640625 5697.000000
2247.781982 5609.000000
2248.922363 5633.000000
2250.062012 5580.000000
2251.201172 5480.000000
2252.339111 5555.000000
2253.477051 5518.000000
2254.614014 5529.000000
2255.750244 5556.000000
2256.885498 5532.000000
2258.020020 5461.000000
2259.154297 5435.000000
2260.288086 5603.000000
2261.420410 5661.000000
2262.552246 5431.000000
2263.683594 5374.000000
2264.813965 5466.000000
2265.944092 5335.000000
2267.072998 5271.000000
2268.201416 5273.000000
2269.329346 5324.000000
2270.456299 5259.000000
2271.582520 5163.000000
2272.707764 5294.000000
2273.833008 5243.000000
2274.957520 5280.000000
2276.080811 5195.000000
2277.203369 5250.000000
2278.325439 5176.000000
2279.447021 5305.000000
2280.567871 5205.000000
2281.687500 5218.000000
2282.806641 5032.000000
2283.925537 5077.000000
2285.043701 5042.000000
2286.160889 5097.000000
2287.277100 4984.000000
2288.393066 5013.000000
2289.508301 4998.000000
2290.622803 5161.000000
2291.736084 5089.000000
2292.849365 5120.000000
2293.961914 5210.000000
2295.073730 5176.000000
2296.184814 5149.000000
2297.294678 5130.000000
2298.404053 5205.000000
2299.513184 5128.000000
2300.621338 5204.000000
2301.728516 5186.000000
2302.835449 5248.000000
2303.941650 5151.000000
2305.047363 5212.000000
2306.151611 5124.000000
2307.255615 5016.000000
2308.359131 5073.000000
2309.462158 5070.000000
2310.563965 5048.000000
2311.665039 5036.000000
2312.765625 4948.000000
2313.865723 4999.000000
2314.965088 4972.000000
2316.062988 4895.000000
2317.161377 5027.000000
2318.258301 4887.000000
2319.354980 5106.000000
2320.451172 4895.000000
2321.545654 4881.000000
2322.640137 4810.000000
2323.733887 4826.000000
2324.827393 4883.000000
2325.919189 4745.000000
2327.010986 4986.000000
2328.102051 4855.000000
2329.192383 4835.000000
2330.281738 4838.000000
2331.371094 4846.000000
2332.459229 4863.000000
2333.546875 4846.000000
2334.634277 4794.000000
2335.719971 4644.000000
2336.805420 4708.000000
2337.890625 4602.000000
2338.974854 4564.000000
2340.058105 4580.000000
2341.141113 4559.000000
2342.223145 4440.000000
2343.304932 4559.000000
2344.385986 4428.000000
2345.465820 4399.000000
2346.545166 4421.000000
2347.624023 4331.000000
2348.702393 4302.000000
2349.779297 4281.000000
2350.855957 4289.000000
2351.932373 4253.000000
2353.007813 4330.000000
2354.082275 4249.000000
2355.156494 4310.000000
2356.229980 4267.000000
2357.302979 4289.000000
2358.374756 4280.000000
2359.446289 4294.000000
2360.516846 4215.000000
2361.587158 4046.000000
2362.656494 4218.000000
2363.724854 4109.000000
2364.792969 4044.000000
2365.860352 4018.000000
2366.927246 4145.000000
2367.993408 4027.000000
2369.058350 3946.000000
2370.123291 4000.000000
2371.187500 4015.000000
2372.250977 3999.000000
2373.313232 3995.000000
2374.375488 3996.000000
2375.436768 4113.000000
2376.497803 3946.000000
2377.557617 3937.000000
2378.616699 3994.000000
2379.675781 4004.000000
2380.733887 3966.000000
2381.791260 3972.000000
2382.847656 3929.000000
2383.903809 4017.000000
2384.959473 3932.000000
2386.014404 3957.000000
2387.067871 3872.000000
2388.121582 3926.000000
2389.174316 3843.000000
2390.226563 3915.000000
2391.278076 3894.000000
2392.328613 3775.000000
2393.378906 3892.000000
2394.428223 3895.000000
2395.477539 3903.000000
2396.525391 3888.000000
2397.572754 3926.000000
2398.619873 3940.000000
2399.666016 4007.000000
2400.711426 3798.000000
2401.756104 3725.000000
2402.800781 3817.000000
2403.843994 3633.000000
2404.887207 3865.000000
2405.928955 3875.000000
2406.970947 3813.000000
2408.012207 3911.000000
2409.052490 3870.000000
2410.092041 3766.000000
2411.130615 3783.000000
2412.169434 3855.000000
2413.207031 3818.000000
2414.244385 3683.000000
2415.280518 3832.000000
2416.316406 3901.000000
2417.351563 3755.000000
2418.386230 3767.000000
2419.419434 3703.000000
2420.452881 3768.000000
2421.485352 3646.000000
2422.517578 3663.000000
2423.548340 3682.000000
2424.579102 3722.000000
2425.609375 3588.000000
2426.638428 3732.000000
2427.667480 3629.000000
2428.694824 3749.000000
2429.722656 3641.000000
2430.749268 3656.000000
2431.775635 3656.000000
2432.800537 3486.000000
2433.825684 3587.000000
2434.849854 3502.000000
2435.873779 3564.000000
2436.896484 3392.000000
2437.918457 3447.000000
2438.940186 3494.000000
2439.961182 3423.000000
2440.981689 3499.000000
2442.000977 3427.000000
2443.020264 3414.000000
2444.038574 3300.000000
2445.056641 3466.000000
2446.073242 3338.000000
2447.089844 3246.000000
2448.105713 3347.000000
2449.121582 3404.000000
2450.135986 3260.000000
2451.149658 3279.000000
2452.162842 3332.000000
2453.175781 3273.000000
2454.187988 3288.000000
2455.199219 3321.000000
2456.210205 3229.000000
2457.220459 3324.000000
2458.230225 3253.000000
2459.239014 3152.000000
2460.247070 3054.000000
2461.255127 3189.000000
2462.261963 3132.000000
2463.268555 3175.000000
2464.273926 3111.000000
2465.279053 3081.000000
2466.283936 3094.000000
2467.287598 3172.000000
2468.291016 3141.000000
2469.293457 3078.000000
2470.295654 3178.000000
2471.297363 3185.000000
2472.298096 3056.000000
2473.297852 3039.000000
2474.297607 2997.000000
2475.296387 3020.000000
2476.294678 2930.000000
2477.291992 2973.000000
2478.289063 3033.000000
2479.286133 3078.000000
2480.281738 3016.000000
2481.277344 2964.000000
2482.271240 3042.000000
2483.265137 2973.000000
2484.258545 2896.000000
2485.251465 2940.000000
2486.243408 3028.000000
2487.234619 2980.000000
2488.225586 2989.000000
2489.216064 2943.000000
2490.205566 2933.000000
2491.194336 3045.000000
2492.183105 3011.000000
2493.170898 3026.000000
2494.157471 2949.000000
2495.144043 2843.000000
2496.130127 2965.000000
2497.115479 2993.000000
2498.099854 3004.000000
2499.083984 3018.000000
2500.068115 3105.000000
2501.050781 2942.000000
2502.032959 3045.000000
2503.014648 2956.000000
2503.995605 2904.000000
2504.976074 3013.000000
2505.956299 2972.000000
2506.935059 2886.000000
2507.913574 2928.000000
2508.891602 2968.000000
2509.869141 2790.000000
2510.845703 2892.000000
2511.822021 3016.000000
2512.797607 2923.000000
2513.772705 2779.000000
2514.747314 2875.000000
2515.720703 2892.000000
2516.693848 2764.000000
2517.666748 2771.000000
2518.638672 2871.000000
2519.609863 2819.000000
2520.580566 2820.000000
2521.551025 2844.000000
2522.520752 2731.000000
2523.489502 2714.000000
2524.457520 2775.000000
2525.425537 2687.000000
2526.392578 2751.000000
2527.359375 2655.000000
2528.324951 2741.000000
2529.290527 2594.000000
2530.255371 2651.000000
2531.219727 2633.000000
2532.182861 2686.000000
2533.146240 2705.000000
2534.108643 2679.000000
2535.070801 2730.000000
2536.031738 2627.000000
2536.991943 2644.000000
2537.952393 2693.000000
2538.911865 2622.000000
2539.870605 2632.000000
2540.828369 2597.000000
2541.786377 2547.000000
2542.743652 2545.000000
2543.699951 2556.000000
2544.656006 2549.000000
2545.610840 2531.000000
2546.565918 2541.000000
2547.520264 2503.000000
2548.473877 2924.000000
2549.426514 2526.000000
2550.378906 2486.000000
2551.330811 2403.000000
2552.281982 2535.000000
2553.232422 2528.000000
2554.182373 2408.000000
2555.132080 2452.000000
2556.081055 2346.000000
2557.029541 2401.000000
2557.976807 2421.000000
2558.924072 2308.000000
2559.870605 2408.000000
2560.816650 2401.000000
2561.761719 2475.000000
2562.706543 2342.000000
2563.650879 2375.000000
2564.594727 2336.000000
2565.538086 2313.000000
2566.479980 2326.000000
2567.422119 2380.000000
2568.363525 2410.000000
2569.304199 2325.000000
2570.244141 2293.000000
2571.184082 2291.000000
2572.123047 2361.000000
2573.061768 2255.000000
2573.999512 2395.000000
2574.937012 2306.000000
2575.873779 2342.000000
2576.809814 2345.000000
2577.745361 2262.000000
2578.680176 2246.000000
2579.614990 2425.000000
2580.548828 2323.000000
2581.482178 2359.000000
2582.414795 2411.000000
2583.347168 2337.000000
2584.278809 2370.000000
2585.209961 2258.000000
2586.140625 2199.000000
2587.070068 2253.000000
2587.999512 2206.000000
2588.928467 2228.000000
2589.857178 2403.000000
2590.784180 2254.000000
2591.711426 2254.000000
2592.638184 2160.000000
2593.564209 2275.000000
2594.489990 2325.000000
2595.414551 2311.000000
2596.338867 2212.000000
2597.262695 2140.000000
2598.186035 2313.000000
2599.108398 2182.000000
2600.030518 2207.000000
2600.952148 2183.000000
2601.873047 2220.000000
2602.793213 2198.000000
2603.713135 2136.000000
2604.632568 2249.000000
2605.551758 2133.000000
2606.469971 2281.000000
2607.386963 2159.000000
2608.304199 2225.000000
2609.221191 2122.000000
2610.137207 2094.000000
2611.052002 2167.000000
2611.967285 2094.000000
2612.881836 2129.000000
2613.795410 2069.000000
2614.708984 2160.000000
2615.621338 2139.000000
2616.533691 2132.000000
2617.445068 2175.000000
2618.356201 2122.000000
2619.266602 2072.000000
2620.176758 2089.000000
2621.086182 2057.000000
2621.995117 2010.000000
2622.903076 1992.000000
2623.811279 2024.000000
2624.718506 2010.000000
2625.625244 2066.000000
2626.531250 2004.000000
2627.437012 1913.000000
2628.342041 1889.000000
2629.246826 1967.000000
2630.150879 1980.000000
2631.053955 2028.000000
2631.957031 1949.000000
2632.859131 1986.000000
2633.761230 1863.000000
2634.663086 2001.000000
2635.563232 1953.000000
2636.463623 1962.000000
2637.363281 1943.000000
2638.262695 1962.000000
2639.160645 1922.000000
2640.059082 1914.000000
2640.957031 1804.000000
2641.854248 1918.000000
2642.750244 1893.000000
2643.646240 1867.000000
2644.541992 1852.000000
2645.437012 1815.000000
2646.331787 1785.000000
2647.225098 1794.000000
2648.118408 1863.000000
2649.011475 1915.000000
2649.904297 1765.000000
2650.795410 1862.000000
2651.686768 1896.000000
2652.577637 1819.000000
2653.467773 1838.000000
2654.357666 1737.000000
2655.246338 1787.000000
2656.135254 1753.000000
2657.023682 1770.000000
2657.911133 1888.000000
2658.797607 1807.000000
2659.684570 1767.000000
2660.570801 1634.000000
2661.456543 1703.000000
2662.341064 1775.000000
2663.225586 1718.000000
2664.109863 1737.000000
2664.993408 1724.000000
2665.876465 1769.000000
2666.758789 1705.000000
2667.640625 1741.000000
2668.521729 1798.000000
2669.403076 1685.000000
2670.282959 1718.000000
2671.163086 1787.000000
2672.042480 1750.000000
2672.921875 1732.000000
2673.800537 1627.000000
2674.677490 1775.000000
2675.555176 1702.000000
2676.432129 1676.000000
2677.308350 1584.000000
2678.184082 1571.000000
2679.059082 1638.000000
2679.934326 1664.000000
2680.808594 1640.000000
2681.682373 1665.000000
2682.555420 1630.000000
2683.428223 1727.000000
2684.300781 1748.000000
2685.172607 1692.000000
2686.043701 1690.000000
2686.914551 1624.000000
2687.784912 1589.000000
2688.655029 1559.000000
2689.523438 1657.000000
2690.392578 1661.000000
2691.260986 1616.000000
2692.129150 1675.000000
2692.996582 1630.000000
2693.862793 1606.000000
2694.729492 1579.000000
2695.595215 1545.000000
2696.460938 1489.000000
2697.325195 1641.000000
2698.190186 1551.000000
2699.053711 1617.000000
2699.917480 1582.000000
2700.779785 1597.000000
2701.642578 1591.000000
2702.504395 1666.000000
2703.365723 1634.000000
2704.227051 1669.000000
2705.087158 1625.000000
2705.947266 1598.000000
2706.806885 1569.000000
2707.666260 1615.000000
2708.523926 1498.000000
2709.381836 1526.000000
2710.240234 1520.000000
2711.097412 1583.000000
2711.953857 1533.000000
2712.809814 1508.000000
2713.665771 1524.000000
2714.520996 1583.000000
2715.375488 1506.000000
2716.229492 1567.000000
2717.083496 1400.000000
2717.936523 1513.000000
2718.789795 1454.000000
2719.641357 1349.000000
2720.493408 1446.000000
2721.345215 1596.000000
2722.195801 1446.000000
2723.046387 1407.000000
2723.896484 1522.000000
2724.745850 1504.000000
2725.595215 1464.000000
2726.443359 1439.000000
2727.291016 1430.000000
2728.139160 1523.000000
2728.986084 1360.000000
2729.833496 1352.000000
2730.679443 1439.000000
2731.524658 1444.000000
2732.370361 1459.000000
2733.215088 1364.000000
2734.059814 1452.000000
2734.903320 1443.000000
2735.747070 1389.000000
2736.590088 1450.000000
2737.432617 1424.000000
2738.274170 1359.000000
2739.116211 1343.000000
2739.957275 1406.000000
2740.798096 1384.000000
2741.638672 1335.000000
2742.478027 1422.000000
2743.317383 1426.000000
2744.156738 1376.000000
2744.994873 1424.000000
2745.832520 1410.000000
2746.670166 1368.000000
2747.507324 1287.000000
2748.344238 1336.000000
2749.180664 1333.000000
2750.015869 1375.000000
2750.851318 1340.000000
2751.686279 1406.000000
2752.520508 1327.000000
2753.354492 1443.000000
2754.187988 1270.000000
2755.021484 1393.000000
2755.854004 1348.000000
2756.686035 1269.000000
2757.517578 1287.000000
2758.349121 1276.000000
2759.179688 1366.000000
2760.010498 1284.000000
2760.840088 1334.000000
2761.669678 1342.000000
2762.499023 1283.000000
2763.327637 1256.000000
2764.155762 1164.000000
2764.983398 1291.000000
2765.811035 1272.000000
2766.638184 1286.000000
2767.464600 1293.000000
2768.290527 1251.000000
2769.115967 1262.000000
2769.941162 1260.000000
2770.766357 1188.000000
2771.590332 1082.000000
2772.414307 1126.000000
2773.238281 1243.000000
2774.061035 1263.000000
2774.884033 1232.000000
2775.705811 1212.000000
2776.527588 1171.000000
2777.349365 1299.000000
2778.170166 1221.000000
2778.990234 1223.000000
2779.810547 1089.000000
2780.630371 1161.000000
2781.450195 1245.000000
2782.268066 1193.000000
2783.087158 1174.000000
2783.905029 1217.000000
2784.722656 1127.000000
2785.539795 1173.000000
2786.356445 1077.000000
2787.172852 1207.000000
2787.988770 1142.000000
2788.804443 1162.000000
2789.619141 1159.000000
2790.434326 1158.000000
2791.248779 1114.000000
2792.062744 1123.000000
2792.876465 1128.000000
2793.688965 1045.000000
2794.501709 1104.000000
2795.313965 1244.000000
2796.125732 1075.000000
2796.936768 1183.000000
2797.748535 1119.000000
2798.559082 1064.000000
2799.369629 1088.000000
2800.178711 982.000000
2800.988525 1051.000000
2801.797607 1101.000000
2802.606445 1135.000000
2803.414795 1153.000000
2804.222168 1028.000000
2805.030029 1050.000000
2805.837158 1078.000000
2806.644043 1097.000000
2807.449707 1175.000000
2808.255859 1012.000000
2809.061279 1039.000000
2809.866699 1124.000000
2810.671387 1066.000000
2811.475098 1145.000000
2812.279297 1019.000000
2813.083008 1174.000000
2813.886475 980.000000
2814.688477 1067.000000
2815.491211 1042.000000
2816.293213 1055.000000
2817.094971 1116.000000
2817.896240 1089.000000
2818.697021 1105.000000
2819.497314 1124.000000
2820.297852 887.000000
2821.097412 1072.000000
2821.896484 1069.000000
2822.695557 1002.000000
2823.494385 1043.000000
2824.292725 1049.000000
2825.090088 1012.000000
2825.887695 811.000000
2826.684570 1092.000000
2827.481689 991.000000
2828.278076 1059.000000
2829.073730 1003.000000
2829.869385 1023.000000
2830.664795 1007.000000
2831.459717 1034.000000
2832.253906 1070.000000
2833.048096 1073.000000
2833.842041 1150.000000
2834.635498 1043.000000
2835.428223 1123.000000
2836.220703 997.000000
2837.013184 1031.000000
2837.805420 1080.000000
2838.597168 1050.000000
2839.387939 1043.000000
2840.178711 969.000000
2840.969727 998.000000
2841.759766 1008.000000
2842.549316 977.000000
2843.339111 1081.000000
2844.127930 935.000000
2844.916748 941.000000
2845.705566 988.000000
2846.493408 1019.000000
2847.280762 958.000000
2848.068359 933.000000
2848.855469 966.000000
2849.641846 969.000000
2850.428223 1030.000000
2851.214355 888.000000
2852.000000 1045.000000
2852.784668 983.000000
2853.569824 990.000000
2854.354736 1012.000000
2855.138916 1008.000000
2855.923096 905.000000
2856.706055 913.000000
2857.489258 980.000000
2858.272217 1009.000000
2859.054688 892.000000
2859.836914 971.000000
2860.618652 1011.000000
2861.400146 996.000000
2862.181885 1010.000000
2862.962891 932.000000
2863.743164 943.000000
2864.523193 987.000000
2865.303223 980.000000
2866.083008 936.000000
2866.861816 969.000000
2867.640869 1029.000000
2868.419434 1106.000000
2869.197754 1132.000000
2869.975586 1023.000000
2870.753174 1106.000000
2871.530518 1057.000000
2872.307617 960.000000
2873.084229 1080.000000
2873.860352 1143.000000
2874.636475 1208.000000
2875.412109 1115.000000
2876.187500 1024.000000
2876.962402 1120.000000
2877.737061 1134.000000
2878.511719 1192.000000
2879.286133 1189.000000
2880.059814 1149.000000
2880.832764 1180.000000
2881.606445 1119.000000
2882.379150 1111.000000
2883.151855 1143.000000
2883.923828 1082.000000
2884.695557 1111.000000
2885.467773 1055.000000
2886.238770 1085.000000
2887.009277 1058.000000
2887.780273 1115.000000
2888.551270 1105.000000
2889.321533 1161.000000
2890.090820 1021.000000
2890.860352 996.000000
2891.629883 1089.000000
2892.398926 1143.000000
2893.167480 1111.000000
2893.936035 1049.000000
2894.703613 1120.000000
2895.471680 1029.000000
2896.239258 1083.000000
2897.006836 998.000000
2897.773193 1097.000000
2898.540527 1024.000000
2899.306641 959.000000
2900.072998 1117.000000
2900.837891 1029.000000
2901.603271 970.000000
2902.369141 1036.000000
2903.133545 1037.000000
2903.897949 1047.000000
2904.662598 1053.000000
2905.426270 924.000000
2906.190674 1069.000000
2906.954346 1038.000000
2907.717285 929.000000
2908.479980 1034.000000
2909.243164 955.000000
2910.005859 981.000000
2910.767334 937.000000
2911.529297 937.000000
spectrumdark 2048
-96.701530 6198.000000
-94.074661 6198.000000
-91.449669 6022.000000
-88.826569 6470.000000
-86.205338 5788.000000
-83.586006 6242.000000
-80.968536 6089.000000
-78.352943 6409.000000
-75.739227 6212.000000
-73.127388 5832.000000
-70.517410 6065.000000
-67.909317 5971.000000
-65.303070 5947.000000
-62.698700 5976.000000
-60.096191 6105.000000
-57.495537 5670.000000
-54.896744 6255.000000
-52.299809 6851.000000
-49.704727 6480.000000
-47.111500 6511.000000
-44.520123 6309.000000
-41.930592 6718.000000
-39.342903 5867.000000
-36.757065 6017.000000
-34.173069 6555.000000
-31.590910 5727.000000
-29.010597 6312.000000
-26.432112 5686.000000
-23.855469 6198.000000
-21.280651 6271.000000
-18.707674 6475.000000
-16.136517 6480.000000
-13.567193 6801.000000
-10.999695 7796.000000
-8.434015 6283.000000
-5.870162 6407.000000
-3.308121 5952.000000
-0.747905 5839.000000
1.810503 6132.000000
4.367090 6890.000000
6.921872 6674.000000
9.474837 5956.000000
12.026002 6734.000000
14.575354 6401.000000
17.122910 6752.000000
19.668653 6020.000000
22.212605 5700.000000
24.754751 6676.000000
27.295101 6818.000000
29.833666 6808.000000
32.370434 6216.000000
34.905399 5753.000000
37.438587 7185.000000
39.969994 6285.000000
42.499607 7137.000000
45.027424 6441.000000
47.553482 7790.000000
50.077751 5695.000000
52.600250 6194.000000
55.120953 6798.000000
57.639900 6319.000000
60.157074 6433.000000
62.672470 6654.000000
65.186089 5576.000000
67.697952 5700.000000
70.208069 6527.000000
72.716393 6511.000000
75.222961 5953.000000
77.727783 6277.000000
80.230850 6400.000000
82.732140 6242.000000
85.231689 6130.000000
87.729485 6267.000000
90.225548 5695.000000
92.719833 7189.000000
95.212379 5736.000000
97.703209 6961.000000
100.192268 7107.000000
102.679581 6286.000000
105.165169 6239.000000
107.649017 6341.000000
110.131119 5731.000000
112.611496 6563.000000
115.090149 6184.000000
117.567078 6426.000000
120.042252 7195.000000
122.515717 6798.000000
124.987450 5903.000000
127.457474 6756.000000
129.925735 6313.000000
132.392334 6311.000000
134.857178 5680.000000
137.320328 6135.000000
139.781738 7285.000000
142.241455 6923.000000
144.699448 6326.000000
147.155746 5920.000000
149.610336 5791.000000
152.063202 6882.000000
154.514389 6298.000000
156.963882 6612.000000
159.411652 6036.000000
161.857712 6494.000000
164.302094 8713.000000
166.744797 6380.000000
169.185806 6756.000000
171.625107 6185.000000
174.062698 7192.000000
176.498657 6603.000000
178.932877 6952.000000
181.365417 7096.000000
183.796310 6682.000000
186.225479 7152.000000
188.653000 6711.000000
191.078842 6316.000000
193.503006 6624.000000
195.925507 7100.000000
198.346313 7384.000000
200.765457 6474.000000
203.182938 5984.000000
205.598724 7533.000000
208.012863 7153.000000
210.425369 6296.000000
212.836197 6064.000000
215.245346 6244.000000
217.652863 7399.000000
220.058670 6183.000000
222.462891 6521.000000
224.865402 6633.000000
227.266296 6944.000000
229.665543 6430.000000
232.063126 6851.000000
234.459045 7255.000000
236.853348 6438.000000
239.245987 5788.000000
241.637009 6744.000000
244.026367 6559.000000
246.414108 6299.000000
248.800201 6988.000000
251.184662 6132.000000
253.567474 7852.000000
255.948715 6595.000000
258.328247 6619.000000
260.706207 6517.000000
263.082489 7532.000000
265.457214 7581.000000
267.830292 7843.000000
270.201721 6139.000000
272.571503 6374.000000
274.939728 5952.000000
277.306305 6311.000000
279.671295 6742.000000
282.034668 5982.000000
284.396393 6221.000000
286.756531 7105.000000
289.115051 6051.000000
291.471985 6477.000000
293.827301 6349.000000
296.181030 5874.000000
298.533112 5982.000000
300.883636 6334.000000
303.232574 6350.000000
305.579865 6810.000000
307.925629 6365.000000
310.269714 6473.000000
312.612274 7293.000000
314.953217 7589.000000
317.292542 7201.000000
319.630310 6955.000000
321.966522 8086.000000
324.301086 6295.000000
326.634094 6435.000000
328.965546 5958.000000
331.295410 6590.000000
333.623688 6336.000000
335.950348 7194.000000
338.275513 6367.000000
340.599060 6201.000000
342.921051 6092.000000
345.241486 7517.000000
347.560303 7773.000000
349.877563 6006.000000
352.193298 5843.000000
354.507446 6928.000000
356.820007 6355.000000
359.131012 6374.000000
361.440491 7085.000000
363.748444 6382.000000
366.054779 5632.000000
368.359528 6383.000000
370.662811 6388.000000
372.964478 6270.000000
375.264648 6377.000000
377.563263 6264.000000
379.860321 5707.000000
382.155823 6069.000000
384.449799 5832.000000
386.742188 5150.000000
389.033081 5632.000000
391.322449 6199.000000
393.610229 6223.000000
395.896484 6528.000000
398.181244 6997.000000
400.464386 6028.000000
402.746094 6414.000000
405.026276 6179.000000
407.304871 7225.000000
409.581940 6394.000000
411.857483 6764.000000
414.131500 6457.000000
416.404083 6371.000000
418.675049 6254.000000
420.944519 6360.000000
423.212494 7080.000000
425.478912 7206.000000
427.743835 6287.000000
430.007294 6305.000000
432.269165 6476.000000
434.529572 6028.000000
436.788422 6637.000000
439.045807 6114.000000
441.301697 5691.000000
443.556091 5724.000000
445.808960 5457.000000
448.060272 6839.000000
450.310181 6092.000000
452.558502 6286.000000
454.805389 5581.000000
457.050812 6519.000000
459.294678 6463.000000
461.537048 6765.000000
463.777924 5613.000000
466.017395 6714.000000
468.255280 5486.000000
470.491730 5827.000000
472.726654 6070.000000
474.960114 7359.000000
477.192139 6660.000000
479.422638 5721.000000
481.651642 6518.000000
483.879181 6284.000000
486.105225 6031.000000
488.329834 6477.000000
490.552979 5859.000000
492.774658 6449.000000
494.994781 6680.000000
497.213501 5643.000000
499.430725 6242.000000
501.646576 5538.000000
503.860809 6211.000000
506.073730 6465.000000
508.285065 6435.000000
510.494965 6929.000000
512.703430 6481.000000
514.910522 6523.000000
517.116028 6443.000000
519.320129 6571.000000
521.522705 6162.000000
523.723877 6554.000000
525.923706 6691.000000
528.122009 6863.000000
530.318787 5314.000000
532.514221 5816.000000
534.708130 5585.000000
536.900696 7575.000000
539.091736 6679.000000
541.281372 6017.000000
543.469604 6953.000000
545.656311 7131.000000
547.841553 6843.000000
550.025513 6234.000000
552.207886 6435.000000
554.388916 6218.000000
556.568420 5991.000000
558.746643 5859.000000
560.923340 5992.000000
563.098633 6415.000000
565.272522 6465.000000
567.444946 5874.000000
569.615967 6039.000000
571.785522 6277.000000
573.953796 5242.000000
576.120544 6402.000000
578.285828 6308.000000
580.449707 6074.000000
582.612305 5718.000000
584.773376 6045.000000
586.933044 5561.000000
589.091370 5740.000000
591.248169 6161.000000
593.403625 6549.000000
595.557678 5746.000000
597.710388 6171.000000
599.861572 7281.000000
602.011414 6790.000000
604.159912 6670.000000
606.306824 5989.000000
608.452515 6503.000000
610.596802 6446.000000
612.739624 7017.000000
614.880981 6196.000000
617.021118 6478.000000
619.159729 7639.000000
621.297058 5697.000000
623.432922 6598.000000
625.567383 6853.000000
627.700378 7192.000000
629.832214 6651.000000
631.962585 6582.000000
634.091553 6773.000000
636.219055 6462.000000
638.345276 6224.000000
640.469971 7311.000000
642.593445 6365.000000
644.715576 6850.000000
646.836243 6853.000000
648.955566 6528.000000
651.073486 5682.000000
653.190063 5719.000000
655.305237 6361.000000
657.419067 6463.000000
659.531433 5837.000000
661.642578 6145.000000
663.752319 5442.000000
665.860596 6031.000000
667.967712 6282.000000
670.073364 6747.000000
672.177551 5667.000000
674.280518 5692.000000
676.382080 7006.000000
678.482300 5305.000000
680.581116 6707.000000
682.678589 6194.000000
684.774780 6996.000000
686.869507 6373.000000
688.963013 6979.000000
691.055176 6579.000000
693.145813 7925.000000
695.235229 6649.000000
697.323364 6434.000000
699.410034 5999.000000
701.495483 6690.000000
703.579407 5091.000000
705.662109 5903.000000
707.743530 6044.000000
709.823486 7511.000000
711.902222 6209.000000
713.979492 5590.000000
716.055481 6570.000000
718.130188 6049.000000
720.203613 6975.000000
722.275513 6294.000000
724.346252 7353.000000
726.415649 5784.000000
728.483643 6507.000000
730.550293 6299.000000
732.615723 7024.000000
734.679810 5798.000000
736.742554 6100.000000
738.803955 6478.000000
740.864075 6554.000000
742.922791 6056.000000
744.980286 6624.000000
747.036499 6476.000000
749.091309 6681.000000
751.144836 6364.000000
753.196960 7489.000000
755.247864 5761.000000
757.297546 6760.000000
759.345764 6394.000000
761.392761 6157.000000
763.438477 6994.000000
765.482788 5355.000000
767.525818 5728.000000
769.567627 6325.500000
771.608093 6923.000000
773.647156 6337.000000
775.685059 6090.000000
777.721619 5972.000000
779.756958 5357.000000
781.790955 5734.000000
783.823547 6847.000000
785.854980 5504.000000
787.885010 12117.000000
789.913757 6058.000000
791.941345 6277.000000
793.967590 6378.000000
795.992432 5841.000000
798.016174 5578.000000
800.038513 6396.000000
802.059631 5938.000000
804.079407 6708.000000
806.097900 4854.000000
808.115173 6685.000000
810.131042 6873.000000
812.145752 5704.000000
814.159119 6456.000000
816.171265 6221.000000
818.182190 6039.000000
820.191772 6551.000000
822.200134 5285.000000
824.207092 5633.000000
826.212830 6022.000000
828.217346 5706.000000
830.220581 5655.000000
832.222534 6471.000000
834.223206 6090.000000
836.222656 5952.000000
838.220764 6381.000000
840.217773 7011.000000
842.213379 6238.000000
844.207825 6012.000000
846.200928 6169.000000
848.192810 6831.000000
850.183350 5623.000000
852.172607 6840.000000
854.160828 5964.000000
856.147644 5726.000000
858.133240 6434.000000
860.117554 7274.000000
862.100769 6301.000000
864.082581 6333.000000
866.063171 5784.000000
868.042480 7709.000000
870.020630 7141.000000
871.997437 6118.000000
873.972961 6035.000000
875.947449 6188.000000
877.920471 6035.000000
879.892456 5371.000000
881.863098 6424.000000
883.832581 6138.000000
885.800720 5600.000000
887.767700 5258.000000
889.733337 6102.000000
891.697815 5761.000000
893.661072 6001.000000
895.623108 6476.000000
897.583862 5837.000000
899.543396 6417.000000
901.501648 6679.000000
903.458801 6366.000000
905.414795 6044.000000
907.369385 6898.000000
909.322754 6443.000000
911.274963 6486.000000
913.225952 6392.000000
915.175659 7104.000000
917.124207 6316.000000
919.071533 6210.000000
921.017578 6161.000000
922.962341 6048.000000
924.906067 6237.000000
926.848633 5949.000000
928.789917 5612.000000
930.729858 6458.000000
932.668701 5700.000000
934.606262 5507.000000
936.542603 5971.000000
938.477783 5813.000000
940.411682 6085.000000
942.344482 5881.000000
944.276062 6778.000000
946.206482 5195.000000
948.135681 6403.000000
950.063538 7042.000000
951.990356 6650.000000
953.915894 5948.000000
955.840149 5327.000000
957.763306 5982.000000
959.685303 6725.000000
961.606018 7332.000000
963.525574 6493.000000
965.443970 5306.000000
967.361328 6381.000000
969.277222 6403.000000
971.192017 6157.000000
973.105591 5903.000000
975.018005 6341.000000
976.929199 6450.000000
978.839233 5466.000000
980.747986 6170.000000
982.655701 6126.000000
984.562195 6386.000000
986.467468 5732.000000
988.371643 6752.000000
990.274597 6184.000000
992.176331 6829.000000
994.076904 6400.000000
995.976318 6548.000000
997.874512 5236.000000
999.771545 6617.000000
1001.667358 6527.000000
1003.562012 7708.000000
1005.455566 5572.000000
1007.347839 7185.000000
1009.239197 6071.000000
1011.129211 5362.000000
1013.018005 6572.000000
1014.905640 6301.000000
1016.792114 6870.000000
1018.677429 6722.000000
1020.561584 5981.000000
1022.444519 5916.000000
1024.326416 6195.000000
1026.207031 5212.000000
1028.086548 5821.000000
1029.965088 6114.000000
1031.842285 5381.000000
1033.718140 6198.000000
1035.593018 5889.000000
1037.466919 6602.000000
1039.339355 7044.000000
1041.210815 6710.000000
1043.080933 5425.000000
1044.950073 5539.000000
1046.817993 5740.000000
1048.684814 6993.000000
1050.550537 6724.000000
1052.415039 6427.000000
1054.278442 6499.000000
1056.140503 6440.000000
1058.001587 5902.000000
1059.861572 6484.000000
1061.720215 6638.000000
1063.577759 5747.000000
1065.434204 6733.000000
1067.289551 5980.000000
1069.143677 5760.000000
1070.996948 6189.000000
1072.848755 6359.000000
1074.699585 6158.000000
1076.549194 6072.000000
1078.397583 5745.000000
1080.245117 7955.000000
1082.091309 5630.000000
1083.936279 6248.000000
1085.780396 5380.000000
1087.623169 5571.000000
1089.464722 6526.000000
1091.305542 5444.000000
1093.144775 5696.000000
1094.983276 6004.000000
1096.820435 6051.000000
1098.656372 6804.000000
1100.491333 6520.000000
1102.325073 5420.000000
1104.157837 5657.000000
1105.989258 6151.000000
1107.819824 7269.000000
1109.649048 6617.000000
1111.477295 6533.000000
1113.304321 7114.000000
1115.130371 5354.000000
1116.955200 6271.000000
1118.778931 7122.000000
1120.601440 6063.000000
1122.422852 5832.000000
1124.243408 5920.000000
1126.062500 6547.000000
1127.880737 7037.000000
1129.697632 6859.000000
1131.513672 6616.000000
1133.328491 6481.000000
1135.142212 5642.000000
1136.954834 5791.000000
1138.766235 5674.000000
1140.576660 6125.000000
1142.385986 6699.000000
1144.193970 7061.000000
1146.001221 5862.000000
1147.807007 5924.000000
1149.611938 5355.000000
1151.415771 5366.000000
1153.218384 6166.000000
1155.020142 6101.000000
1156.820435 6020.000000
1158.619751 6087.000000
1160.418091 5880.000000
1162.215088 5424.000000
1164.011353 5934.000000
1165.806274 6136.000000
1167.600098 6271.000000
1169.393066 7737.000000
1171.184692 5760.000000
1172.975342 6529.000000
1174.765015 5957.000000
1176.553223 5927.000000
1178.340576 7495.000000
1180.126831 6800.000000
1181.911987 5755.000000
1183.696045 5998.000000
1185.479004 7706.000000
1187.260986 5851.000000
1189.041748 5892.000000
1190.821533 6287.000000
1192.600220 6944.000000
1194.377930 6668.000000
1196.154419 7166.000000
1197.929810 6505.000000
1199.704102 6466.000000
1201.477295 6693.000000
1203.249634 6609.000000
1205.020630 6677.000000
1206.790771 5662.000000
1208.559692 6184.000000
1210.327515 6226.000000
1212.094482 5706.000000
1213.860107 5930.000000
1215.624756 6905.000000
1217.388306 6524.000000
1219.150757 5916.000000
1220.912354 6821.000000
1222.672729 5824.000000
1224.432007 6367.000000
1226.190430 6033.000000
1227.947632 7121.000000
1229.703735 6442.000000
1231.458740 5497.000000
1233.212891 6014.000000
1234.965698 5794.000000
1236.717529 5982.000000
1238.468506 5973.000000
1240.218140 4971.000000
1241.966919 7032.000000
1243.714355 6460.000000
1245.461060 6573.000000
1247.206543 6534.000000
1248.951172 6374.000000
1250.694458 6752.000000
1252.436768 6637.000000
1254.177979 5371.000000
1255.918335 5141.000000
1257.657593 5792.000000
1259.395630 6605.000000
1261.132813 7114.000000
1262.868774 6083.000000
1264.603760 6403.000000
1266.337769 7257.000000
1268.070801 6015.000000
1269.802612 6165.000000
1271.533447 6427.000000
1273.263062 7250.000000
1274.991821 5879.000000
1276.719482 5698.000000
1278.446045 5523.000000
1280.171753 5546.000000
1281.896118 6452.000000
1283.619629 5211.000000
1285.342163 6897.000000
1287.063721 6639.000000
1288.784058 6181.000000
1290.503418 6732.000000
1292.221680 7174.000000
1293.938965 6450.000000
1295.655273 5770.000000
1297.370361 6330.000000
1299.084473 6132.000000
1300.797607 5785.000000
1302.509888 6432.000000
1304.220947 8289.000000
1305.931030 5205.000000
1307.640015 6260.000000
1309.347778 6683.000000
1311.054932 6993.000000
1312.760620 5802.000000
1314.465576 6831.000000
1316.169556 6168.000000
1317.872314 5974.000000
1319.574097 6606.000000
1321.275024 6060.000000
1322.974609 9147.000000
1324.673340 7351.500000
1326.371338 18683.000000
1328.067993 6557.000000
1329.763550 7113.000000
1331.458252 6786.000000
1333.151733 5738.000000
1334.844360 5372.000000
1336.536133 7407.000000
1338.226563 6271.000000
1339.916260 6645.000000
1341.604858 6100.000000
1343.292358 7553.000000
1344.978882 5634.000000
1346.664307 6794.000000
1348.348755 5999.000000
1350.032349 7261.000000
1351.714722 6338.000000
1353.396118 5989.000000
1355.076660 6540.000000
1356.755981 6670.000000
1358.434692 5922.000000
1360.112061 6581.000000
1361.788330 5791.000000
1363.463623 5589.000000
1365.138184 6561.000000
1366.811523 6513.000000
1368.483887 6722.000000
1370.155273 5179.000000
1371.825684 6815.000000
1373.494995 6179.000000
1375.163330 5654.000000
1376.830811 5956.000000
1378.497192 6523.000000
1380.162598 6114.000000
1381.827026 5798.000000
1383.490234 5920.000000
1385.152832 5736.000000
1386.814087 6363.000000
1388.474487 6605.000000
1390.133789 6424.000000
1391.792114 6453.000000
1393.449707 6888.000000
1395.106079 6518.000000
1396.761597 6978.000000
1398.415894 6369.000000
1400.069336 5855.000000
1401.721680 6060.000000
1403.373291 6409.000000
1405.023682 7161.000000
1406.672974 6222.000000
1408.321533 7463.000000
1409.968994 7836.000000
1411.615479 6122.000000
1413.261108 6143.000000
1414.905762 5992.000000
1416.549194 7075.000000
1418.191772 7180.000000
1419.833252 6912.000000
1421.473877 6450.000000
1423.113525 6405.000000
1424.752075 6039.000000
1426.389771 6633.000000
1428.026367 6313.000000
1429.661987 6001.000000
1431.296875 6386.000000
1432.930664 5859.000000
1434.563354 6122.000000
1436.195068 5659.000000
1437.825928 6178.000000
1439.455688 6056.000000
1441.084351 7819.000000
1442.712402 6001.000000
1444.339355 6250.000000
1445.965088 6201.000000
1447.590210 6088.000000
1449.214233 6470.000000
1450.837280 5982.000000
1452.459351 6021.000000
1454.080322 7406.000000
1455.700317 6301.000000
1457.319580 6889.000000
1458.937500 5693.000000
1460.554810 14542.000000
1462.171143 5476.000000
1463.786255 7235.000000
1465.400513 6306.000000
1467.013916 5162.000000
1468.626221 5549.000000
1470.237671 6256.000000
1471.848267 6271.000000
1473.457642 5953.000000
1475.066040 5969.000000
1476.673584 6243.000000
1478.280151 6652.000000
1479.885986 5378.000000
1481.490601 6287.000000
1483.094360 5514.000000
1484.696899 6871.000000
1486.298828 5497.000000
1487.899536 5481.000000
1489.499512 5590.000000
1491.098389 6236.000000
1492.696411 6499.000000
1494.293335 6655.000000
1495.889404 6294.000000
1497.484497 5953.000000
1499.078613 5525.000000
1500.671997 6523.000000
1502.264282 5522.000000
1503.855347 6129.000000
1505.445923 6758.000000
1507.035156 6431.000000
1508.623779 6183.000000
1510.211304 6529.000000
1511.797729 6843.000000
1513.383423 6049.000000
1514.968018 6663.000000
1516.551758 6395.000000
1518.134399 6114.000000
1519.716309 6550.000000
1521.297119 6667.000000
1522.877197 6083.000000
1524.456055 6246.000000
1526.034058 6373.000000
1527.611328 6289.000000
1529.187378 5659.000000
1530.762695 5842.000000
1532.336914 6377.000000
1533.910400 5463.000000
1535.482666 5907.000000
1537.054199 6375.000000
1538.624756 6461.000000
1540.194458 6323.000000
1541.762939 5434.000000
1543.330688 6571.000000
1544.897583 5614.000000
1546.463257 6790.000000
1548.028198 5995.000000
1549.592041 5080.000000
1551.155273 7450.000000
1552.717163 6261.000000
1554.278442 5964.000000
1555.838623 5698.000000
1557.398071 5752.000000
1558.956421 5933.000000
1560.514038 6246.000000
1562.070557 7004.000000
1563.625854 5880.000000
1565.180542 6344.000000
1566.734497 5662.000000
1568.287476 6308.000000
1569.839111 5641.000000
1571.390015 5852.000000
1572.940186 6196.000000
1574.489380 6349.000000
1576.037231 5708.000000
1577.584595 5474.000000
1579.130981 5745.000000
1580.676514 5125.000000
1582.221069 6714.000000
1583.764404 6292.000000
1585.307129 6568.000000
1586.848999 6406.000000
1588.389771 6679.000000
1589.929565 5813.000000
1591.468628 6684.000000
1593.006592 5960.000000
1594.544067 6176.000000
1596.080200 5927.000000
1597.615234 6714.000000
1599.149780 6353.000000
1600.683350 5928.000000
1602.216064 6113.000000
1603.747192 6306.000000
1605.278076 6225.000000
1606.808105 5718.000000
1608.336914 6128.000000
1609.864624 6158.000000
1611.391724 6025.000000
1612.918091 5826.000000
1614.443481 6265.000000
1615.968018 5828.000000
1617.491211 5812.000000
1619.013672 5599.000000
1620.535400 6521.000000
1622.056274 6955.000000
1623.575684 15568.000000
1625.094604 6204.000000
1626.612793 6051.000000
1628.130127 5966.000000
1629.646362 6403.000000
1631.161255 7012.000000
1632.675659 6809.000000
1634.189331 5755.000000
1635.701904 6769.000000
1637.213257 5935.000000
1638.724243 6468.000000
1640.234131 6331.000000
1641.743164 6134.000000
1643.250854 5622.000000
1644.758179 6126.000000
1646.264648 7089.000000
1647.770142 6299.000000
1649.274780 6868.000000
1650.777954 6112.000000
1652.280518 6585.000000
1653.782715 6343.000000
1655.283569 6623.000000
1656.783325 7593.000000
1658.282227 5937.000000
1659.780762 6511.000000
1661.278076 6282.000000
1662.774658 5890.000000
1664.269653 6475.000000
1665.764404 6395.000000
1667.258301 5206.000000
1668.751221 5612.000000
1670.242798 20957.000000
1671.733887 6502.000000
1673.224365 6074.000000
1674.713745 5969.000000
1676.201660 6921.000000
1677.689331 6870.000000
1679.176025 6060.000000
1680.661865 5392.000000
1682.146851 6075.000000
1683.630371 6162.000000
1685.113647 6180.000000
1686.596069 5908.000000
1688.077393 6249.000000
1689.557251 6190.000000
1691.036865 5456.000000
1692.515747 6533.000000
1693.993652 6004.000000
1695.470581 6174.000000
1696.946289 5757.000000
1698.421631 6037.000000
1699.895752 6363.000000
1701.369263 5509.000000
1702.841309 5569.000000
1704.313110 6886.000000
1705.783936 6418.000000
1707.253906 7095.000000
1708.722534 5159.000000
1710.190674 5791.000000
1711.658081 6341.000000
1713.124390 5481.000000
1714.590088 5718.000000
1716.054077 6178.000000
1717.517944 5950.000000
1718.980957 6982.000000
1720.442993 6359.000000
1721.903809 6585.000000
1723.364014 5445.000000
1724.823486 6349.000000
1726.282104 6128.000000
1727.739746 6010.000000
1729.196045 6235.000000
1730.652100 6031.000000
1732.107178 6479.000000
1733.561279 6017.000000
1735.014160 6937.000000
1736.466797 5951.000000
1737.918335 6743.000000
1739.369141 5963.000000
1740.818970 6574.000000
1742.267456 5942.000000
1743.715576 7607.000000
1745.162842 6566.000000
1746.609375 6686.000000
1748.054321 6649.000000
1749.499023 6220.000000
1750.942871 5803.000000
1752.385864 5504.000000
1753.827393 6533.000000
1755.268677 6386.000000
1756.709106 8068.000000
1758.148560 6299.000000
1759.587036 5256.000000
1761.024536 6090.000000
1762.461548 7532.000000
1763.897583 5865.000000
1765.332764 7114.000000
1766.766479 6140.000000
1768.200073 6485.000000
1769.632690 6700.000000
1771.064453 5798.000000
1772.495361 5749.000000
1773.925049 6388.000000
1775.354004 6138.000000
1776.782471 6272.000000
1778.209961 6677.000000
1779.636108 6310.000000
1781.062012 5585.000000
1782.486816 6904.000000
1783.911011 5524.000000
1785.333740 6666.000000
1786.755981 6524.000000
1788.177490 6887.000000
1789.598267 5884.000000
1791.018066 5985.000000
1792.436523 6176.000000
1793.854492 6864.000000
1795.271851 5494.000000
1796.688354 6085.000000
1798.103394 6583.000000
1799.518066 5816.000000
1800.932129 6492.000000
1802.344971 5988.000000
1803.757202 6942.000000
1805.168091 7119.000000
1806.578491 7817.000000
1807.988159 6448.000000
1809.396851 5908.000000
1810.804443 5420.000000
1812.211548 6463.000000
1813.617798 6370.000000
1815.023071 6685.000000
1816.427246 6005.000000
1817.831055 6009.000000
1819.233887 6178.000000
1820.635864 6012.000000
1822.037231 5850.000000
1823.437134 6366.000000
1824.836426 6443.000000
1826.235229 6540.000000
1827.633179 7433.000000
1829.029785 5680.000000
1830.425781 6769.000000
1831.821045 5847.000000
1833.215698 8112.000000
1834.609375 6050.000000
1836.001709 6868.000000
1837.393555 6391.000000
1838.784790 5911.000000
1840.175049 7148.000000
1841.564087 5961.000000
1842.952759 6080.000000
1844.340454 5943.000000
1845.727417 5806.000000
1847.113037 6864.000000
1848.498413 5906.000000
1849.882935 6364.000000
1851.266724 6306.000000
1852.649414 6328.000000
1854.030884 5369.000000
1855.411865 6497.000000
1856.792358 6277.000000
1858.171875 5720.000000
1859.549927 5969.000000
1860.927856 6238.000000
1862.304810 7910.000000
1863.681030 6094.000000
1865.056396 6132.000000
1866.430298 5650.000000
1867.804077 5705.000000
1869.177002 6205.000000
1870.548828 5921.000000
1871.919678 6881.000000
1873.290161 5433.000000
1874.659546 6130.000000
1876.028442 6079.000000
1877.395752 7186.000000
1878.762939 6062.000000
1880.129150 5958.000000
1881.494629 6773.000000
1882.859375 7467.000000
1884.222534 6717.000000
1885.585571 6940.000000
1886.947754 6424.000000
1888.309082 6487.000000
1889.669067 5658.000000
1891.028687 5778.000000
1892.387695 6148.000000
1893.745728 6640.000000
1895.102905 7307.000000
1896.458862 5889.000000
1897.814575 7669.000000
1899.169312 5844.000000
1900.523193 5532.000000
1901.875977 5907.000000
1903.228271 5894.000000
1904.579834 5942.000000
1905.930542 6793.000000
1907.280029 6608.000000
1908.629028 6655.000000
1909.977173 5817.000000
1911.324707 6169.000000
1912.671509 6298.000000
1914.016724 6796.000000
1915.361694 6079.000000
1916.705933 5430.000000
1918.049316 6514.000000
1919.391357 6040.000000
1920.733154 6737.000000
1922.074097 6934.000000
1923.414307 6145.000000
1924.753540 6316.000000
1926.091797 6309.000000
1927.429443 6478.000000
1928.766357 7024.000000
1930.102417 6719.000000
1931.437256 5556.000000
1932.771729 6735.000000
1934.105469 7300.000000
1935.438354 6324.000000
1936.769775 5750.000000
1938.101318 6309.000000
1939.431519 6682.000000
1940.761230 5777.000000
1942.090088 6101.000000
1943.417725 5908.000000
1944.744873 4963.000000
1946.071289 5832.000000
1947.396973 6507.000000
1948.721313 5787.000000
1950.045410 6665.000000
1951.368652 6322.000000
1952.691162 6412.000000
1954.012573 5779.000000
1955.333008 7447.000000
1956.652832 5986.000000
1957.972290 5564.000000
1959.290771 6829.000000
1960.607910 5935.000000
1961.924683 5811.000000
1963.240723 6597.000000
1964.556030 6680.000000
1965.869873 6231.000000
1967.183472 5694.000000
1968.496338 6203.000000
1969.808350 6014.000000
1971.119751 6036.000000
1972.429810 6230.000000
1973.739380 5856.000000
1975.048218 6182.000000
1976.356445 6597.000000
1977.663330 6140.000000
1978.969604 7173.000000
1980.275513 5545.000000
1981.580200 6392.000000
1982.884399 5903.000000
1984.187378 5700.000000
1985.489990 7579.000000
1986.791626 6163.000000
1988.092651 6764.000000
1989.392090 6054.000000
1990.691650 6728.000000
1991.990112 5354.000000
1993.288086 6078.000000
1994.584473 6112.000000
1995.880859 5732.000000
1997.176270 5625.000000
1998.470947 6452.000000
1999.764771 5649.000000
2001.057373 6465.000000
2002.349487 5749.000000
2003.641113 7138.000000
2004.932007 6444.000000
2006.221313 6186.000000
2007.510376 6787.000000
2008.798706 5958.000000
2010.086304 6041.000000
2011.373047 6629.000000
2012.658691 5700.000000
2013.943970 6294.000000
2015.228271 6001.000000
2016.511963 5571.000000
2017.794312 6046.000000
2019.076294 6533.000000
2020.357788 6776.000000
2021.638306 5927.000000
2022.918091 6110.000000
2024.196777 6773.000000
2025.474731 5806.000000
2026.752197 5881.000000
2028.029053 6326.000000
2029.304199 5768.000000
2030.579468 6626.000000
2031.853760 6032.000000
2033.127075 5954.000000
2034.399536 5924.000000
2035.671631 6117.000000
2036.942627 6941.000000
2038.213379 6613.000000
2039.482788 5969.000000
2040.751099 6928.000000
2042.019409 6607.000000
2043.286743 5923.000000
2044.553345 5967.000000
2045.818726 5602.000000
2047.083496 5569.000000
2048.348145 5443.000000
2049.611328 5863.000000
2050.874268 6383.000000
2052.135254 6196.000000
2053.396729 6083.000000
2054.656982 5930.000000
2055.916504 6470.000000
2057.175293 6234.000000
2058.433105 6924.000000
2059.690430 6175.000000
2060.947021 5957.000000
2062.202148 6561.000000
2063.457275 5636.000000
2064.711426 5564.000000
2065.964844 5622.000000
2067.217529 6838.000000
2068.468994 6238.000000
2069.720215 6372.000000
2070.970703 5644.000000
2072.220459 5405.000000
2073.468750 6508.000000
2074.717041 6472.000000
2075.964355 7481.000000
2077.210938 5577.000000
2078.456787 6066.000000
2079.701416 7033.000000
2080.945557 7589.000000
2082.189209 5518.000000
2083.431885 6034.000000
2084.673340 6925.000000
2085.914551 5915.000000
2087.155273 6399.000000
2088.395020 6792.000000
2089.633545 7096.000000
2090.871582 6155.000000
2092.108887 5782.000000
2093.345947 6630.000000
2094.581543 6112.000000
2095.816406 6201.000000
2097.051025 6099.000000
2098.284668 5589.000000
2099.517334 6064.000000
2100.749268 6884.000000
2101.980713 6366.000000
2103.211182 6786.000000
2104.440918 6015.000000
2105.670410 6001.000000
2106.897949 6024.000000
2108.125732 5977.000000
2109.352783 6368.000000
2110.578857 5442.000000
2111.803467 6431.000000
2113.028320 6993.000000
2114.251953 7019.000000
2115.475098 6213.000000
2116.697021 7513.000000
2117.918701 6007.000000
2119.139404 6758.000000
2120.359375 6014.000000
2121.578857 6099.000000
2122.796875 6615.000000
2124.014893 7011.000000
2125.231934 5836.000000
2126.448486 5817.000000
2127.663330 6551.000000
2128.878418 6358.000000
2130.092529 6954.000000
2131.305908 5636.000000
2132.518555 6095.000000
2133.729736 5875.000000
2134.941162 6612.000000
2136.151367 6669.000000
2137.361084 5952.000000
2138.569336 6198.000000
2139.777588 5646.000000
2140.985107 5865.000000
2142.191406 7634.000000
2143.396973 5880.000000
2144.602295 5645.000000
2145.806641 5536.000000
2147.010254 6330.000000
2148.213379 6273.000000
2149.415039 6393.000000
2150.616455 5315.000000
2151.817139 6297.000000
2153.017090 6161.000000
2154.215820 6023.000000
2155.414307 6950.000000
2156.612305 6179.000000
2157.809326 5995.000000
2159.005615 5175.000000
2160.200684 5270.000000
2161.395508 6144.000000
2162.589600 5671.000000
2163.782715 6054.000000
2164.974854 6927.000000
2166.166748 5885.000000
2167.357910 6297.000000
2168.548096 6330.000000
2169.737549 6552.000000
2170.926514 6839.000000
2172.114502 6071.000000
2173.302246 5767.000000
2174.488525 5893.000000
2175.674072 6584.000000
2176.859375 5990.000000
2178.044189 5871.000000
2179.227783 6354.000000
2180.410645 7450.000000
2181.592529 6289.000000
2182.774170 5908.000000
2183.955322 6586.000000
2185.135254 5640.000000
2186.314209 5548.000000
2187.492676 6338.000000
2188.670898 6936.000000
2189.847900 7165.000000
2191.023926 6781.000000
2192.199707 6064.000000
2193.375000 5556.000000
2194.548828 6597.000000
2195.722168 6178.000000
2196.895264 6150.000000
2198.067139 6552.000000
2199.238525 7073.000000
2200.409424 6326.000000
2201.578613 6888.000000
2202.747803 7517.000000
2203.916504 6244.000000
2205.084229 5903.000000
2206.250977 5656.000000
2207.416992 7156.000000
2208.582520 6698.000000
2209.747803 5973.000000
2210.911621 6774.000000
2212.074951 5365.000000
2213.237061 6148.000000
2214.399414 6137.000000
2215.560547 6662.000000
2216.720703 6665.000000
2217.880371 6298.000000
2219.039795 6556.000000
2220.197998 6367.000000
2221.355225 6313.000000
2222.512207 6751.000000
2223.668457 6621.000000
2224.823975 6784.000000
2225.978760 6250.000000
2227.132568 6426.000000
2228.285400 5994.000000
2229.438721 6903.000000
2230.590088 6225.000000
2231.741211 6164.000000
2232.891602 6516.000000
2234.041504 7689.000000
2235.190430 6311.000000
2236.338867 5155.000000
2237.485840 6852.000000
2238.633057 7005.000000
2239.779053 6102.000000
2240.924805 7250.000000
2242.068848 7286.000000
2243.213135 6764.000000
2244.356445 6167.000000
2245.499023 6008.000000
2246.640625 5785.000000
2247.781982 5836.000000
2248.922363 6388.000000
2250.062012 6419.000000
2251.201172 5828.000000
2252.339111 5846.000000
2253.477051 6156.000000
2254.614014 5285.000000
2255.750244 6315.000000
2256.885498 6173.000000
2258.020020 7269.000000
2259.154297 6409.000000
2260.288086 5386.000000
2261.420410 6114.000000
2262.552246 6867.000000
2263.683594 6278.000000
2264.813965 6434.000000
2265.944092 8148.000000
2267.072998 6700.000000
2268.201416 6075.000000
2269.329346 5517.000000
2270.456299 6101.000000
2271.582520 5992.000000
2272.707764 6697.000000
2273.833008 6530.000000
2274.957520 6378.000000
2276.080811 5942.000000
2277.203369 6353.000000
2278.325439 5970.000000
2279.447021 7321.000000
2280.567871 6344.000000
2281.687500 6441.000000
2282.806641 7131.000000
2283.925537 7636.000000
2285.043701 7163.000000
2286.160889 5865.000000
2287.277100 6470.000000
2288.393066 6998.000000
2289.508301 6968.000000
2290.622803 7350.000000
2291.736084 5843.000000
2292.849365 6297.000000
2293.961914 5997.000000
2295.073730 5364.000000
2296.184814 6717.000000
2297.294678 6443.000000
2298.404053 6134.000000
2299.513184 6674.000000
2300.621338 6321.000000
2301.728516 6759.000000
2302.835449 5867.000000
2303.941650 6252.000000
2305.047363 6569.000000
2306.151611 6630.000000
2307.255615 5454.000000
2308.359131 5758.000000
2309.462158 6496.000000
2310.563965 7458.000000
2311.665039 7381.000000
2312.765625 6584.000000
2313.865723 5464.000000
2314.965088 6348.000000
2316.062988 6637.000000
2317.161377 6959.000000
2318.258301 8233.000000
2319.354980 6781.000000
2320.451172 5801.000000
2321.545654 6855.000000
2322.640137 7578.000000
2323.733887 5819.000000
2324.827393 6003.000000
2325.919189 6479.000000
2327.010986 6862.000000
2328.102051 6101.000000
2329.192383 6259.000000
2330.281738 6986.000000
2331.371094 6074.000000
2332.459229 6273.000000
2333.546875 6839.000000
2334.634277 6531.000000
2335.719971 6692.000000
2336.805420 7756.000000
2337.890625 6334.000000
2338.974854 6766.000000
2340.058105 5871.000000
2341.141113 6449.000000
2342.223145 7141.000000
2343.304932 5977.000000
2344.385986 7473.000000
2345.465820 6671.000000
2346.545166 5719.000000
2347.624023 6875.000000
2348.702393 6587.000000
2349.779297 6378.000000
2350.855957 6995.000000
2351.932373 6039.000000
2353.007813 6462.000000
2354.082275 5974.000000
2355.156494 6297.000000
2356.229980 6806.000000
2357.302979 6295.000000
2358.374756 7016.000000
2359.446289 6240.000000
2360.516846 6819.000000
2361.587158 7588.000000
2362.656494 7511.000000
2363.724854 6824.000000
2364.792969 6785.000000
2365.860352 7154.000000
2366.927246 7076.000000
2367.993408 6063.000000
2369.058350 6924.000000
2370.123291 7014.000000
2371.187500 6357.000000
2372.250977 6920.000000
2373.313232 5854.000000
2374.375488 6269.000000
2375.436768 6304.000000
2376.497803 5907.000000
2377.557617 6265.000000
2378.616699 7964.000000
2379.675781 6538.000000
2380.733887 7592.000000
2381.791260 6894.000000
2382.847656 8083.000000
2383.903809 7828.000000
2384.959473 6205.000000
2386.014404 7004.000000
2387.067871 6760.000000
2388.121582 6530.000000
2389.174316 6304.000000
2390.226563 6727.000000
2391.278076 6164.000000
2392.328613 6729.000000
2393.378906 6500.000000
2394.428223 6304.000000
2395.477539 6198.000000
2396.525391 6917.000000
2397.572754 6926.000000
2398.619873 6313.000000
2399.666016 6608.000000
2400.711426 6192.000000
2401.756104 6802.000000
2402.800781 7740.000000
2403.843994 7530.000000
2404.887207 6565.000000
2405.928955 5745.000000
2406.970947 6709.000000
2408.012207 7140.000000
2409.052490 6113.000000
2410.092041 6426.000000
2411.130615 6390.000000
2412.169434 5922.000000
2413.207031 6529.000000
2414.244385 6963.000000
2415.280518 7329.000000
2416.316406 6137.000000
2417.351563 6296.000000
2418.386230 6639.000000
2419.419434 7278.000000
2420.452881 6447.000000
2421.485352 6766.000000
2422.517578 6788.000000
2423.548340 7110.000000
2424.579102 6396.000000
2425.609375 6855.000000
2426.638428 6885.000000
2427.667480 6601.000000
2428.694824 7384.000000
2429.722656 6684.000000
2430.749268 7239.000000
2431.775635 6938.000000
2432.800537 7786.000000
2433.825684 6520.000000
2434.849854 7172.000000
2435.873779 6699.000000
2436.896484 5849.000000
2437.918457 6381.000000
2438.940186 6637.000000
2439.961182 6661.000000
2440.981689 5983.000000
2442.000977 6543.000000
2443.020264 6506.000000
2444.038574 8427.000000
2445.056641 6286.000000
2446.073242 6526.000000
2447.089844 6618.000000
2448.105713 6001.000000
2449.121582 6995.000000
2450.135986 6833.000000
2451.149658 5533.000000
2452.162842 7249.000000
2453.175781 5987.000000
2454.187988 7174.000000
2455.199219 6678.000000
2456.210205 7699.000000
2457.220459 6355.000000
2458.230225 7607.000000
2459.239014 5984.000000
2460.247070 5968.000000
2461.255127 6275.000000
2462.261963 7366.000000
2463.268555 5378.000000
2464.273926 7381.000000
2465.279053 6880.000000
2466.283936 5866.000000
2467.287598 6457.000000
2468.291016 6357.000000
2469.293457 7582.000000
2470.295654 7308.000000
2471.297363 6824.000000
2472.298096 6591.000000
2473.297852 7054.000000
2474.297607 6804.000000
2475.296387 5705.000000
2476.294678 6612.000000
2477.291992 7030.000000
2478.289063 6101.000000
2479.286133 6989.000000
2480.281738 5843.000000
2481.277344 7117.000000
2482.271240 6685.000000
2483.265137 8091.000000
2484.258545 6914.000000
2485.251465 6738.000000
2486.243408 7439.000000
2487.234619 7227.000000
2488.225586 6759.000000
2489.216064 5821.000000
2490.205566 6564.000000
2491.194336 6510.000000
2492.183105 5619.000000
2493.170898 6802.000000
2494.157471 6595.000000
2495.144043 7840.000000
2496.130127 6793.000000
2497.115479 7095.000000
2498.099854 8025.000000
2499.083984 6066.000000
2500.068115 6805.000000
2501.050781 5774.000000
2502.032959 7003.000000
2503.014648 6823.000000
2503.995605 7240.000000
2504.976074 6515.000000
2505.956299 5729.000000
2506.935059 6342.000000
2507.913574 7515.000000
2508.891602 6688.000000
2509.869141 7059.000000
2510.845703 6087.000000
2511.822021 5848.000000
2512.797607 6419.000000
2513.772705 6273.000000
2514.747314 6487.000000
2515.720703 7630.000000
2516.693848 6773.000000
2517.666748 6974.000000
2518.638672 6130.000000
2519.609863 6814.000000
2520.580566 6880.000000
2521.551025 7790.000000
2522.520752 8048.000000
2523.489502 6137.000000
2524.457520 6092.000000
2525.425537 7717.000000
2526.392578 6305.000000
2527.359375 5588.000000
2528.324951 7222.000000
2529.290527 7057.000000
2530.255371 7790.000000
2531.219727 6351.000000
2532.182861 6365.000000
2533.146240 5829.000000
2534.108643 5995.000000
2535.070801 6677.000000
2536.031738 6434.000000
2536.991943 6155.000000
2537.952393 6151.000000
2538.911865 6754.000000
2539.870605 6862.000000
2540.828369 6769.000000
2541.786377 6243.000000
2542.743652 6791.000000
2543.699951 6088.000000
2544.656006 7100.000000
2545.610840 6262.000000
2546.565918 7707.000000
2547.520264 7014.000000
2548.473877 6321.000000
2549.426514 7161.000000
2550.378906 6712.000000
2551.330811 6950.000000
2552.281982 6360.000000
2553.232422 7654.000000
2554.182373 7263.000000
2555.132080 7364.000000
2556.081055 6644.000000
2557.029541 6237.000000
2557.976807 7112.000000
2558.924072 6322.000000
2559.870605 6556.000000
2560.816650 6756.000000
2561.761719 7502.000000
2562.706543 6741.000000
2563.650879 7189.000000
2564.594727 6872.000000
2565.538086 6665.000000
2566.479980 6617.000000
2567.422119 6567.000000
2568.363525 6130.000000
2569.304199 7140.000000
2570.244141 7315.000000
2571.184082 5703.000000
2572.123047 6134.000000
2573.061768 7501.000000
2573.999512 7204.000000
2574.937012 5451.000000
2575.873779 6974.000000
2576.809814 6777.000000
2577.745361 7571.000000
2578.680176 6441.000000
2579.614990 5946.000000
2580.548828 7045.000000
2581.482178 7114.000000
2582.414795 5791.000000
2583.347168 6866.000000
2584.278809 5453.000000
2585.209961 7046.000000
2586.140625 7052.000000
2587.070068 6883.000000
2587.999512 7261.000000
2588.928467 6502.000000
2589.857178 7413.000000
2590.784180 7337.000000
2591.711426 5939.000000
2592.638184 6874.000000
2593.564209 6277.000000
2594.489990 5595.000000
2595.414551 7595.000000
2596.338867 7623.000000
2597.262695 5388.000000
2598.186035 7227.000000
2599.108398 6298.000000
2600.030518 6886.000000
2600.952148 8283.000000
2601.873047 6392.000000
2602.793213 5783.000000
2603.713135 6369.000000
2604.632568 6373.000000
2605.551758 6427.000000
2606.469971 5788.000000
2607.386963 5995.000000
2608.304199 7202.000000
2609.221191 5927.000000
2610.137207 7631.000000
2611.052002 6592.000000
2611.967285 6626.000000
2612.881836 6545.000000
2613.795410 6602.000000
2614.708984 6074.000000
2615.621338 7568.000000
2616.533691 7048.000000
2617.445068 6818.000000
2618.356201 5692.000000
2619.266602 7164.000000
2620.176758 6641.000000
2621.086182 6112.000000
2621.995117 6585.000000
2622.903076 6308.000000
2623.811279 6824.000000
2624.718506 6678.000000
2625.625244 6988.000000
2626.531250 6042.000000
2627.437012 6652.000000
2628.342041 6556.000000
2629.246826 7845.000000
2630.150879 6480.000000
2631.053955 6385.000000
2631.957031 6465.000000
2632.859131 5652.000000
2633.761230 6774.000000
2634.663086 6928.000000
2635.563232 6698.000000
2636.463623 6387.000000
2637.363281 6401.000000
2638.262695 5989.000000
2639.160645 6912.000000
2640.059082 6732.000000
2640.957031 6406.000000
2641.854248 6087.000000
2642.750244 6138.000000
2643.646240 6761.000000
2644.541992 6113.000000
2645.437012 6457.000000
2646.331787 6686.000000
2647.225098 7260.000000
2648.118408 6258.000000
2649.011475 6759.000000
2649.904297 6499.000000
2650.795410 7449.000000
2651.686768 6361.000000
2652.577637 7616.000000
2653.467773 7295.000000
2654.357666 6611.000000
2655.246338 7279.000000
2656.135254 6618.000000
2657.023682 6572.000000
2657.911133 7310.000000
2658.797607 6446.000000
2659.684570 7130.000000
2660.570801 6876.000000
2661.456543 6865.000000
2662.341064 6557.000000
2663.225586 6397.000000
2664.109863 6225.000000
2664.993408 7072.000000
2665.876465 7743.000000
2666.758789 7287.000000
2667.640625 6190.000000
2668.521729 6598.000000
2669.403076 6112.000000
2670.282959 6547.000000
2671.163086 7350.000000
2672.042480 7172.000000
2672.921875 6377.000000
2673.800537 6208.000000
2674.677490 6395.000000
2675.555176 6785.000000
2676.432129 6396.000000
2677.308350 8171.000000
2678.184082 7228.000000
2679.059082 6283.000000
2679.934326 7778.000000
2680.808594 7001.000000
2681.682373 7314.000000
2682.555420 7037.000000
2683.428223 6199.000000
2684.300781 6068.000000
2685.172607 6899.000000
2686.043701 6485.000000
2686.914551 6887.000000
2687.784912 7163.000000
2688.655029 6785.000000
2689.523438 6302.000000
2690.392578 7326.000000
2691.260986 7114.000000
2692.129150 6646.000000
2692.996582 6943.000000
2693.862793 5893.000000
2694.729492 7160.000000
2695.595215 7428.000000
2696.460938 7297.000000
2697.325195 7882.000000
2698.190186 6631.000000
2699.053711 7217.000000
2699.917480 5869.000000
2700.779785 7475.000000
2701.642578 6772.000000
2702.504395 5851.000000
2703.365723 6838.000000
2704.227051 6658.000000
2705.087158 7427.000000
2705.947266 7309.000000
2706.806885 6578.000000
2707.666260 6829.000000
2708.523926 7145.000000
2709.381836 6922.000000
2710.240234 7351.000000
2711.097412 6704.000000
2711.953857 5983.000000
2712.809814 6846.000000
2713.665771 6065.000000
2714.520996 6871.000000
2715.375488 6124.000000
2716.229492 6758.000000
2717.083496 7320.000000
2717.936523 6262.000000
2718.789795 6587.000000
2719.641357 7744.000000
2720.493408 6792.000000
2721.345215 6217.000000
2722.195801 6488.000000
2723.046387 6427.000000
2723.896484 7153.000000
2724.745850 7013.000000
2725.595215 6982.000000
2726.443359 6685.000000
2727.291016 6571.000000
2728.139160 7003.000000
2728.986084 6895.000000
2729.833496 5605.000000
2730.679443 7454.000000
2731.524658 6955.000000
2732.370361 6422.000000
2733.215088 7018.000000
2734.059814 7342.000000
2734.903320 6848.000000
2735.747070 7810.000000
2736.590088 7125.000000
2737.432617 6005.000000
2738.274170 6261.000000
2739.116211 6808.000000
2739.957275 6877.000000
2740.798096 5790.000000
2741.638672 5951.000000
2742.478027 7783.000000
2743.317383 6849.000000
2744.156738 6883.000000
2744.994873 6753.000000
2745.832520 7815.000000
2746.670166 6346.000000
2747.507324 7187.000000
2748.344238 6191.000000
2749.180664 6026.000000
2750.015869 6647.000000
2750.851318 6297.000000
2751.686279 6303.000000
2752.520508 6271.000000
2753.354492 6864.000000
2754.187988 6882.000000
2755.021484 7938.000000
2755.854004 6759.000000
2756.686035 7299.000000
2757.517578 6844.000000
2758.349121 7149.000000
2759.179688 7233.000000
2760.010498 7259.000000
2760.840088 7299.000000
2761.669678 6640.000000
2762.499023 7271.000000
2763.327637 6875.000000
2764.155762 6826.000000
2764.983398 6851.000000
2765.811035 6641.000000
2766.638184 7914.000000
2767.464600 5802.000000
2768.290527 7521.000000
2769.115967 6866.000000
2769.941162 7795.000000
2770.766357 7089.000000
2771.590332 6864.000000
2772.414307 6615.000000
2773.238281 7609.000000
2774.061035 6591.000000
2774.884033 6930.000000
2775.705811 6900.000000
2776.527588 6963.000000
2777.349365 6418.000000
2778.170166 7915.000000
2778.990234 6537.000000
2779.810547 7052.000000
2780.630371 7259.000000
2781.450195 6421.000000
2782.268066 5963.000000
2783.087158 8067.000000
2783.905029 6505.000000
2784.722656 6794.000000
2785.539795 7167.000000
2786.356445 7315.000000
2787.172852 7175.000000
2787.988770 6258.000000
2788.804443 5925.000000
2789.619141 6382.000000
2790.434326 7002.000000
2791.248779 7187.000000
2792.062744 6565.000000
2792.876465 7442.000000
2793.688965 8801.000000
2794.501709 6997.000000
2795.313965 7379.000000
2796.125732 7190.000000
2796.936768 7321.000000
2797.748535 6542.000000
2798.559082 7222.000000
2799.369629 7047.000000
2800.178711 7469.000000
2800.988525 8218.000000
2801.797607 7753.000000
2802.606445 6597.000000
2803.414795 7206.000000
2804.222168 6215.000000
2805.030029 6448.000000
2805.837158 6914.000000
2806.644043 6979.000000
2807.449707 7164.000000
2808.255859 6695.000000
2809.061279 6449.000000
2809.866699 7233.000000
2810.671387 6170.000000
2811.475098 7633.000000
2812.279297 7515.000000
2813.083008 6287.000000
2813.886475 6143.000000
2814.688477 6577.000000
2815.491211 7327.000000
2816.293213 7798.000000
2817.094971 6159.000000
2817.896240 6534.000000
2818.697021 7235.000000
2819.497314 6459.000000
2820.297852 6772.000000
2821.097412 8022.000000
2821.896484 7173.000000
2822.695557 6482.000000
2823.494385 6907.000000
2824.292725 6353.000000
2825.090088 7069.000000
2825.887695 7390.000000
2826.684570 6653.000000
2827.481689 7422.000000
2828.278076 7910.000000
2829.073730 7175.000000
2829.869385 7368.000000
2830.664795 7607.000000
2831.459717 7453.000000
2832.253906 6620.000000
2833.048096 6847.000000
2833.842041 5613.000000
2834.635498 6858.000000
2835.428223 7095.000000
2836.220703 8180.000000
2837.013184 7666.000000
2837.805420 7718.000000
2838.597168 6416.000000
2839.387939 6786.000000
2840.178711 8845.000000
2840.969727 7441.000000
2841.759766 6236.000000
2842.549316 7632.000000
2843.339111 7113.000000
2844.127930 7406.000000
2844.916748 7838.000000
2845.705566 7720.000000
2846.493408 7476.000000
2847.280762 7235.000000
2848.068359 7537.000000
2848.855469 7372.000000
2849.641846 6656.000000
2850.428223 7449.000000
2851.214355 7298.000000
2852.000000 7531.000000
2852.784668 7205.000000
2853.569824 6900.000000
2854.354736 7446.000000
2855.138916 7113.000000
2855.923096 6987.000000
2856.706055 8343.000000
2857.489258 6816.000000
2858.272217 6800.000000
2859.054688 7774.000000
2859.836914 6246.000000
2860.618652 6598.000000
2861.400146 7605.000000
2862.181885 7485.000000
2862.962891 7712.000000
2863.743164 6564.000000
2864.523193 6712.000000
2865.303223 8139.000000
2866.083008 7499.000000
2866.861816 8112.000000
2867.640869 7649.000000
2868.419434 6800.000000
2869.197754 6907.000000
2869.975586 7207.000000
2870.753174 6949.000000
2871.530518 7507.000000
2872.307617 7029.000000
2873.084229 6406.000000
2873.860352 7410.000000
2874.636475 7107.000000
2875.412109 8278.000000
2876.187500 7278.000000
2876.962402 6616.000000
2877.737061 8001.000000
2878.511719 6535.000000
2879.286133 7781.000000
2880.059814 6732.000000
2880.832764 7141.000000
2881.606445 6815.000000
2882.379150 7595.000000
2883.151855 7850.000000
2883.923828 8188.000000
2884.695557 6251.000000
2885.467773 6814.000000
2886.238770 6863.000000
2887.009277 6189.000000
2887.780273 8281.000000
2888.551270 7339.000000
2889.321533 7937.000000
2890.090820 7663.000000
2890.860352 6995.000000
2891.629883 7191.000000
2892.398926 7386.000000
2893.167480 7890.000000
2893.936035 7767.000000
2894.703613 6963.000000
2895.471680 6655.000000
2896.239258 7388.000000
2897.006836 8377.000000
2897.773193 7375.000000
2898.540527 6522.000000
2899.306641 7246.000000
2900.072998 6941.000000
2900.837891 8314.000000
2901.603271 7006.000000
2902.369141 6476.000000
2903.133545 7773.000000
2903.897949 7698.000000
2904.662598 8457.000000
2905.426270 6701.000000
2906.190674 8500.000000
2906.954346 6683.000000
2907.717285 8421.000000
2908.479980 6454.000000
2909.243164 9107.000000
2910.005859 7001.000000
2910.767334 6846.000000
2911.529297 6846.000000
