scanname Analyse035
timestamp 2017-02-10 20:44:33
ccdbias 900.958496
ccdgain 3.473401
sigmaread 8.960639
laserwavenum -0.878576
wavenumcorrection -0.355612
scancount 1
totalexposurems 10000
singleexposurems 10000
measurementstate Unknown
scanmode Manual
snr 88.743706 1.044479 0.637232
replacelist 1
671 18833.000000 9118.000000
peaks 8
393.272705 0.230360 0.000000 0.230174 0.000018
809.618713 0.207703 0.000000 0.257291 0.000084
839.705017 0.202218 0.000000 0.110551 0.000022
878.807312 0.197980 0.000000 0.185239 0.000036
1154.413574 0.172542 0.000000 0.373116 0.000059
1315.667969 0.171831 0.000000 6.459723 0.001265
1331.259521 0.180156 0.000000 8.487725 0.002348
1458.741211 0.157033 0.000000 0.246273 0.000057
finalresult GLS_NotPositive 94
A15973	Silver azide	4.694816e-002
A6025	2-Nitrothiophene	3.521457e-002
A3574	Sodium hexanitrocobaltate(III)	2.657742e-002
A8797	6-Nitroindoline	2.104223e-002
A13180	Polypropylene (lot B)	1.051349e-002
A13500	Poly(propylene-co-ethylene)	9.071081e-003
A0115	Polypropylene	8.815030e-003
A5772	trans-4-Bromo-beta-nitrostyrene	8.293992e-003
A5797	5-Nitroindazole	8.272207e-003
A3222	Potassium nitrite	7.308162e-003
A3573	Ammonium tartrate dibasic	6.622138e-003
A8360	5-Chloro-2-nitroaniline	5.687045e-003
A8248	5-Hydroxy-2-nitrobenzaldehyde	5.579834e-003
A1531	Ethyl formate	5.459734e-003
A0518	Propylene glycol	5.389827e-003
A2782	Acetamide	5.386395e-003
A9092	p-Tolyl ether	5.359823e-003
A7387	4-Hydroxypiperidine	5.289706e-003
A2703	Acetaldehyde dimethyl acetal	5.247329e-003
A9546	4-Methoxy-alpha-methylbenzyl alcohol	5.202799e-003
A11101	Hydrogen peroxide, 70%	5.197795e-003
A1270	Methyl DL-lactate	5.186418e-003
A12040	Ethanol w/ sweetener	5.168416e-003
A6290	Bis(2,2,2-trifluoroethyl) phosphite	5.167106e-003
A2017	Isopropylamine	5.146619e-003
A0113	Hydrogen peroxide	5.128001e-003
A1351	Sodium propionate	5.121089e-003
A8460	Ethanol	5.115710e-003
A2721	Formaldehyde diethyl acetal	5.104386e-003
A0273	Denatured Solvent Alcohol	5.098260e-003
A1676	Trifluoroacetic acid	5.093581e-003
A8610	5-Methyl-2-pyrrolidinone	5.089547e-003
A0524	Propionic acid	5.071770e-003
A0251	Ethylamine	5.026540e-003
A2313	Barium peroxide	5.016392e-003
A1550	Nitroethane	5.012551e-003
A0400	Potassium permanganate	4.999694e-003
A0138	Dibutyl ether	4.997760e-003
A7633	2-Nitro-p-cymene	4.981939e-003
A11872	Poly(methyl methacrylate)	4.976568e-003
A1871	Methyl salicylate	4.923923e-003
A5310	4-Methyl-3-nitroanisole	4.912328e-003
A4881	2-(2-Chloroethoxy)tetrahydro-2H-pyran	4.903793e-003
A4722	1,3-Dicyclohexylurea	4.901121e-003
A6700	4'-Methoxypropiophenone	4.900649e-003
A7262	2-(Trifluoromethyl)benzenesulfonyl chloride	4.896730e-003
A7284	4-Chloro-3,5-dinitrobenzoic acid	4.884251e-003
A2210	Calcium peroxide hydrate	4.880945e-003
A4807	2-(2-Nitroethoxy)tetrahydropyran	4.880708e-003
A5382	3-Methoxypropionic acid	4.878604e-003
A11100	Hydrogen peroxide, 50%	4.875579e-003
A3419	Lewisite (blister agent)	4.852339e-003
A3362	2-Nitro-para-xylene	4.847236e-003
A2943	Potassium binoxalate	4.831161e-003
A0369	2,4,6-Tribromophenol	4.807873e-003
A3938	Lead(II) acetylacetonate	4.803073e-003
A4972	Boric acid	4.801660e-003
A0673	Hexachlorocyclopentadiene	4.783070e-003
A7885	beta-Carotene	4.774792e-003
A9459	1-(4-Nitrophenyl)-3-pyrrolidino-2-pyrazolin-5-one	4.765139e-003
A1547	Isovaleric acid	4.757861e-003
A6013	Glycine methyl ester hydrochloride	4.752896e-003
A0365	Tris(2-butoxyethyl) phosphate	4.747625e-003
A13507	Poly(methyl methacrylate-co-ethyl acrylate)	4.743129e-003
A14340	Titanium(IV) fluoride	4.742441e-003
A6278	6-Methylnicotinamide	4.726736e-003
A3082	Methyl n-propyl ether	4.718930e-003
A13320	Titanium tetrachloride	4.700602e-003
A7001	Creatine	4.697871e-003
A1754	N,N-Dimethylhydrazine	4.695826e-003
A5708	Methyl 3,5-dibromo-4-hydroxybenzoate	4.686799e-003
A3184	Selenourea	4.666875e-003
A2435	Sodium percarbonate	4.663937e-003
A16018	L (lewisite blister agent, lot D)	4.637172e-003
A3227	Selenium oxychloride	4.634944e-003
A0419	Sodium chlorite	4.633842e-003
A8580	Sodium permanganate solution	4.628966e-003
A12448	Tribromofluoromethane	4.616029e-003
A1629	Butyl methyl ether	4.599330e-003
A8663	4-Methyl-3,5-dinitrobenzoic acid	4.579002e-003
A7078	L-Pyroglutamic acid	4.577894e-003
A5377	4-Methyl-2-nitroanisole	4.542267e-003
A1007	4-Ethylphenol	4.528626e-003
A9660	3-(4-Methoxybenzoyl)propionic acid	4.508383e-003
A3132	4-Methyl-3-nitrobenzoic acid	4.449036e-003
A1149	Methyl 2-aminobenzoate	4.353951e-003
A0544	1,4-Dioxane	4.347830e-003
A2471	1,2,3,4-Tetrachloronaphthalene	4.305246e-003
A1748	3,4-Dihydro-2H-pyran	4.137226e-003
A0098	Roundup (weed and grass killer)	4.132006e-003
A3285	4,N,N-Trimethylaniline	4.038227e-003
A0636	2,4-Dinitroaniline	4.027108e-003
A7119	2-Deoxy-D-ribose	3.906625e-003
A4025	2,4-Dimethylpentane	3.325064e-003
spectrum 2048
-96.722878 46132.000000
-94.096008 46132.000000
-91.471016 46494.000000
-88.847916 46361.000000
-86.226685 47234.000000
-83.607353 46897.000000
-80.989883 47147.000000
-78.374290 46856.000000
-75.760574 47133.000000
-73.148735 47421.000000
-70.538757 47291.000000
-67.930664 47433.000000
-65.324417 47525.000000
-62.720051 47491.000000
-60.117542 47366.000000
-57.516888 47823.000000
-54.918095 47274.000000
-52.321159 46571.000000
-49.726078 47042.000000
-47.132851 46937.000000
-44.541473 47142.000000
-41.951942 46648.000000
-39.364254 47578.000000
-36.778416 47396.000000
-34.194420 46999.000000
-31.612259 47739.000000
-29.031946 47140.000000
-26.453461 47741.000000
-23.876818 47180.000000
-21.302000 47190.000000
-18.729023 46850.000000
-16.157866 46777.000000
-13.588542 46498.000000
-11.021044 45465.000000
-8.455364 46932.000000
-5.891510 46687.000000
-3.329470 47174.000000
-0.769254 47313.000000
1.789154 46678.000000
4.345741 45952.000000
6.900523 46050.000000
9.453488 46576.000000
12.004653 45585.000000
14.554005 45568.000000
17.101561 44887.000000
19.647305 44989.000000
22.191256 44368.000000
24.733402 41833.000000
27.273752 39203.000000
29.812317 35851.000000
32.349083 32318.000000
34.884048 25937.000000
37.417236 15078.000000
39.948643 9678.000000
42.478256 8767.000000
45.006073 8012.000000
47.532131 7153.000000
50.056400 6331.000000
52.578899 5603.000000
55.099602 5257.000000
57.618549 5516.000000
60.135723 6379.000000
62.651119 8110.000000
65.164742 8514.000000
67.676605 8013.000000
70.186722 6468.000000
72.695045 4738.000000
75.201614 3956.000000
77.706436 3352.000000
80.209503 2633.000000
82.710793 2269.000000
85.210342 2184.000000
87.708138 2108.000000
90.204201 2240.000000
92.698486 2663.000000
95.191032 2954.000000
97.681862 3151.000000
100.170921 3045.000000
102.658234 2460.000000
105.143822 1858.000000
107.627670 1595.000000
110.109772 1539.000000
112.590149 1579.000000
115.068802 1324.000000
117.545731 1188.000000
120.020905 1171.000000
122.494370 1131.000000
124.966103 1210.000000
127.436127 1187.000000
129.904388 1296.000000
132.370987 1262.000000
134.835831 1309.000000
137.298981 1248.000000
139.760391 1470.000000
142.220108 1632.000000
144.678101 1831.000000
147.134399 2162.000000
149.588989 2420.000000
152.041855 2877.000000
154.493042 3271.000000
156.942535 3882.000000
159.390305 4376.000000
161.836365 5280.000000
164.280746 5874.000000
166.723450 6618.000000
169.164459 7033.000000
171.603760 7355.000000
174.041351 7693.000000
176.477310 7913.000000
178.911530 7937.000000
181.344070 7962.000000
183.774963 8098.000000
186.204132 8039.000000
188.631653 8097.000000
191.057495 8234.000000
193.481659 8167.000000
195.904160 8252.000000
198.324966 8362.000000
200.744110 8607.000000
203.161591 8712.000000
205.577377 9077.000000
207.991516 9499.000000
210.404022 9844.000000
212.814850 10458.000000
215.223999 10988.000000
217.631516 11630.000000
220.037323 12342.000000
222.441544 13216.000000
224.844055 13556.000000
227.244949 14032.000000
229.644196 14611.000000
232.041779 14833.000000
234.437698 14925.000000
236.832001 14936.000000
239.224640 15100.000000
241.615662 15143.000000
244.005020 15110.000000
246.392761 15191.000000
248.778854 15312.000000
251.163315 15228.000000
253.546127 15090.000000
255.927368 15444.000000
258.306915 15394.000000
260.684875 15411.000000
263.061157 15240.000000
265.435883 15335.000000
267.808960 15172.000000
270.180389 15100.000000
272.550171 15299.000000
274.918396 15168.000000
277.284973 15118.000000
279.649963 15173.000000
282.013336 15172.000000
284.375061 15098.000000
286.735199 15009.000000
289.093719 15033.000000
291.450653 15155.000000
293.805969 15128.000000
296.159698 15175.000000
298.511780 15091.000000
300.862305 14971.000000
303.211243 15195.000000
305.558533 14880.000000
307.904297 14917.000000
310.248383 14691.000000
312.590942 14794.000000
314.931885 14711.000000
317.271210 14809.000000
319.608978 14691.000000
321.945190 14765.000000
324.279755 14840.000000
326.612762 14791.000000
328.944214 14611.000000
331.274078 14501.000000
333.602356 14587.000000
335.929016 14495.000000
338.254181 14698.000000
340.577728 14533.000000
342.899719 14569.000000
345.220154 14353.000000
347.538971 14426.000000
349.856232 14328.000000
352.171967 14441.000000
354.486115 14351.000000
356.798676 14529.000000
359.109680 14396.000000
361.419159 14372.000000
363.727112 14397.000000
366.033447 14451.000000
368.338196 14499.000000
370.641479 14409.000000
372.943146 14468.000000
375.243317 14378.000000
377.541931 14306.000000
379.838989 14385.000000
382.134491 14518.000000
384.428467 14517.000000
386.720856 14724.000000
389.011749 14685.000000
391.301117 14606.000000
393.588898 14721.000000
395.875153 14849.000000
398.159912 14947.000000
400.443054 15094.000000
402.724762 14916.000000
405.004944 14755.000000
407.283539 14646.000000
409.560608 14793.000000
411.836151 14496.000000
414.110168 14651.000000
416.382751 14531.000000
418.653717 14624.000000
420.923187 14594.000000
423.191162 14524.000000
425.457581 14535.000000
427.722504 14399.000000
429.985962 14416.000000
432.247833 14397.000000
434.508240 14365.000000
436.767090 14293.000000
439.024475 14241.000000
441.280365 14152.000000
443.534760 14163.000000
445.787628 14210.000000
448.038940 14034.000000
450.288849 13998.000000
452.537170 13933.000000
454.784058 13985.000000
457.029480 13768.000000
459.273346 13757.000000
461.515717 13712.000000
463.756592 13830.000000
465.996063 13890.000000
468.233948 13880.000000
470.470398 13783.000000
472.705322 13719.000000
474.938782 13616.000000
477.170807 13657.000000
479.401306 13591.000000
481.630310 13413.000000
483.857849 13550.000000
486.083893 13643.000000
488.308502 13510.000000
490.531647 13579.000000
492.753326 13486.000000
494.973450 13645.000000
497.192169 13727.000000
499.409393 13537.000000
501.625244 13625.000000
503.839478 13557.000000
506.052399 13591.000000
508.263733 13586.000000
510.473633 13634.000000
512.682068 13701.000000
514.889160 13777.000000
517.094666 13586.000000
519.298767 13781.000000
521.501343 13749.000000
523.702515 13598.000000
525.902344 13550.000000
528.100647 13584.000000
530.297424 13702.000000
532.492859 13619.000000
534.686768 13561.000000
536.879333 13359.000000
539.070374 13477.000000
541.260010 13460.000000
543.448242 13363.000000
545.634949 13154.000000
547.820190 13134.000000
550.004150 12882.000000
552.186523 12873.000000
554.367554 12941.000000
556.547058 12795.000000
558.725281 12864.000000
560.901978 12744.000000
563.077271 12767.000000
565.251160 12674.000000
567.423584 12603.000000
569.594604 12636.000000
571.764160 12668.000000
573.932434 12710.000000
576.099182 12631.000000
578.264465 12774.000000
580.428345 12688.000000
582.590942 12801.000000
584.752014 12712.000000
586.911682 12827.000000
589.070007 12864.000000
591.226807 12863.000000
593.382263 12622.000000
595.536316 12976.000000
597.689026 12990.000000
599.840210 12844.000000
601.990051 12890.000000
604.138550 12892.000000
606.285461 12881.000000
608.431152 12927.000000
610.575439 12841.000000
612.718262 12709.000000
614.859619 12837.000000
616.999756 13010.000000
619.138367 12649.000000
621.275696 12818.000000
623.411560 12838.000000
625.546021 12711.000000
627.679016 12472.000000
629.810852 12607.000000
631.941223 12473.000000
634.070190 12500.000000
636.197693 12398.000000
638.323914 12389.000000
640.448608 12207.000000
642.572083 12218.000000
644.694214 12204.000000
646.814880 11917.000000
648.934204 12066.000000
651.052124 12134.000000
653.168701 11905.000000
655.283875 11980.000000
657.397705 11830.000000
659.510071 11732.000000
661.621216 11849.000000
663.730957 11825.000000
665.839233 11709.000000
667.946350 11844.000000
670.052002 11691.000000
672.156189 11850.000000
674.259155 11834.000000
676.360718 11799.000000
678.460938 11919.000000
680.559753 12022.000000
682.657227 11948.000000
684.753418 12012.000000
686.848145 11966.000000
688.941650 11906.000000
691.033813 11763.000000
693.124451 11873.000000
695.213867 12056.000000
697.302002 12169.000000
699.388672 12136.000000
701.474121 12158.000000
703.558044 11991.000000
705.640747 12101.000000
707.722168 11922.000000
709.802124 11755.000000
711.880859 11345.000000
713.958130 11375.000000
716.034119 11482.000000
718.108826 11424.000000
720.182251 11331.000000
722.254150 11829.000000
724.324890 11718.000000
726.394287 11385.000000
728.462280 11360.000000
730.528931 11183.000000
732.594360 11135.000000
734.658447 11244.000000
736.721191 11205.000000
738.782593 11185.000000
740.842712 11110.000000
742.901428 11082.000000
744.958923 11020.000000
747.015137 10954.000000
749.069946 10851.000000
751.123474 10820.000000
753.175598 10780.000000
755.226501 10824.000000
757.276184 10797.000000
759.324402 10870.000000
761.371399 10903.000000
763.417114 10820.000000
765.461426 10813.000000
767.504456 10785.000000
769.546265 10308.000000
771.586731 10798.000000
773.625793 10848.000000
775.663696 10726.000000
777.700256 10759.000000
779.735596 10916.000000
781.769592 10951.000000
783.802185 10796.000000
785.833618 10892.000000
787.863647 10726.000000
789.892395 10893.000000
791.919983 11010.000000
793.946228 11052.000000
795.971069 11001.000000
797.994812 11176.000000
800.017151 11219.000000
802.038269 11249.000000
804.058044 11232.000000
806.076538 11415.000000
808.093811 11368.000000
810.109680 11554.000000
812.124390 11422.000000
814.137756 11212.000000
816.149902 11075.000000
818.160828 10917.000000
820.170410 10812.000000
822.178772 10781.000000
824.185730 10617.000000
826.191467 10654.000000
828.195984 10534.000000
830.199219 10479.000000
832.201172 10467.000000
834.201843 10418.000000
836.201294 10351.000000
838.199402 10449.000000
840.196411 10503.000000
842.192017 10503.000000
844.186462 10489.000000
846.179565 10290.000000
848.171448 10159.000000
850.161987 10098.000000
852.151245 9939.000000
854.139465 9979.000000
856.126282 9817.000000
858.111877 9891.000000
860.096191 9785.000000
862.079407 9713.000000
864.061218 9767.000000
866.041809 9762.000000
868.021118 9638.000000
869.999268 9659.000000
871.976074 9991.000000
873.951599 9993.000000
875.926086 10087.000000
877.899109 10249.000000
879.871094 10338.000000
881.841736 10218.000000
883.811218 10187.000000
885.779358 10285.000000
887.746338 10221.000000
889.711975 10220.000000
891.676453 10144.000000
893.639709 10110.000000
895.601746 10082.000000
897.562500 9937.000000
899.522034 9888.000000
901.480286 9905.000000
903.437439 9760.000000
905.393433 9855.000000
907.348022 9922.000000
909.301392 9851.000000
911.253601 9850.000000
913.204590 9645.000000
915.154297 9617.000000
917.102844 9428.000000
919.050171 9522.000000
920.996216 9428.000000
922.940979 9199.000000
924.884705 9229.000000
926.827271 9135.000000
928.768555 9005.000000
930.708496 8905.000000
932.647339 8894.000000
934.584900 8810.000000
936.521240 8682.000000
938.456421 8742.000000
940.390320 8710.000000
942.323120 8732.000000
944.254700 8688.000000
946.185120 8835.000000
948.114319 8672.000000
950.042175 8855.000000
951.968994 8841.000000
953.894531 8909.000000
955.818787 8849.000000
957.741943 8872.000000
959.663940 8939.000000
961.584656 8954.000000
963.504211 9083.000000
965.422607 9001.000000
967.339966 9120.000000
969.255859 9081.000000
971.170654 9112.000000
973.084229 9155.000000
974.996643 9174.000000
976.907837 9159.000000
978.817871 9090.000000
980.726624 9124.000000
982.634338 9007.000000
984.540833 9116.000000
986.446106 8986.000000
988.350281 8933.000000
990.253235 8964.000000
992.154968 8994.000000
994.055542 8832.000000
995.954956 8960.000000
997.853149 8855.000000
999.750183 8795.000000
1001.645996 8597.000000
1003.540649 8548.000000
1005.434204 8413.000000
1007.326477 8370.000000
1009.217834 8258.000000
1011.107849 8290.000000
1012.996643 8079.000000
1014.884277 8074.000000
1016.770752 8063.000000
1018.656067 8065.000000
1020.540222 8063.000000
1022.423157 8105.000000
1024.305054 8040.000000
1026.185669 8061.000000
1028.065186 8183.000000
1029.943726 8005.000000
1031.820923 8059.000000
1033.696777 8105.000000
1035.571655 8102.000000
1037.445557 8141.000000
1039.317993 8185.000000
1041.189453 8186.000000
1043.059570 8109.000000
1044.928711 7992.000000
1046.796631 7997.000000
1048.663452 8098.000000
1050.529175 8268.000000
1052.393677 8130.000000
1054.257080 8216.000000
1056.119141 8170.000000
1057.980225 8244.000000
1059.840210 8077.000000
1061.698853 8144.000000
1063.556396 8245.000000
1065.412842 8160.000000
1067.268188 8177.000000
1069.122314 8302.000000
1070.975586 8124.000000
1072.827393 8274.000000
1074.678223 8199.000000
1076.527832 8147.000000
1078.376221 8143.000000
1080.223755 8020.000000
1082.069946 8039.000000
1083.914917 8082.000000
1085.759033 8083.000000
1087.601807 8017.000000
1089.443359 8099.000000
1091.284180 7933.000000
1093.123413 7836.000000
1094.961914 7887.000000
1096.799072 7897.000000
1098.635010 7718.000000
1100.469971 7705.000000
1102.303711 7415.000000
1104.136475 7390.000000
1105.967896 7490.000000
1107.798462 7693.000000
1109.627686 7455.000000
1111.455933 7190.000000
1113.282959 7072.000000
1115.109009 7195.000000
1116.933838 7338.000000
1118.757568 7214.000000
1120.580078 7228.000000
1122.401489 7117.000000
1124.222046 7147.000000
1126.041138 7248.000000
1127.859375 7180.000000
1129.676270 7197.000000
1131.492310 7273.000000
1133.307129 7267.000000
1135.120850 7280.000000
1136.933472 7340.000000
1138.744873 7403.000000
1140.555298 7501.000000
1142.364624 7585.000000
1144.172607 7451.000000
1145.979858 7660.000000
1147.785645 7658.000000
1149.590576 7709.000000
1151.394409 7646.000000
1153.197021 7775.000000
1154.998779 7808.000000
1156.799072 7828.000000
1158.598389 7519.000000
1160.396729 7533.000000
1162.193726 7586.000000
1163.989990 7467.000000
1165.784912 7301.000000
1167.578735 7407.000000
1169.371704 7438.000000
1171.163330 7287.000000
1172.953979 7169.000000
1174.743652 7049.000000
1176.531860 7026.000000
1178.319214 6884.000000
1180.105469 7051.000000
1181.890625 6966.000000
1183.674683 6961.000000
1185.457642 6924.000000
1187.239624 6923.000000
1189.020386 6938.000000
1190.800171 6848.000000
1192.578857 6817.000000
1194.356567 6871.000000
1196.133057 6790.000000
1197.908447 6656.000000
1199.682739 6609.000000
1201.455933 6630.000000
1203.228271 6409.000000
1204.999268 6464.000000
1206.769409 6552.000000
1208.538330 6462.000000
1210.306152 6569.000000
1212.073120 6375.000000
1213.838745 6408.000000
1215.603394 6440.000000
1217.366943 6612.000000
1219.129395 6559.000000
1220.890991 6354.000000
1222.651367 6484.000000
1224.410645 6412.000000
1226.169067 6304.000000
1227.926270 6333.000000
1229.682373 6464.000000
1231.437378 6533.000000
1233.191528 6367.000000
1234.944336 6528.000000
1236.696167 6618.000000
1238.447144 6536.000000
1240.196777 6618.000000
1241.945557 6650.000000
1243.692993 6697.000000
1245.439697 6624.000000
1247.185181 6591.000000
1248.929810 6705.000000
1250.673096 6596.000000
1252.415405 6573.000000
1254.156616 6580.000000
1255.896973 6479.000000
1257.636230 6307.000000
1259.374268 6164.000000
1261.111450 6165.000000
1262.847412 6184.000000
1264.582397 6230.000000
1266.316406 6221.000000
1268.049438 6484.000000
1269.781250 6550.000000
1271.512085 6532.000000
1273.241699 6504.000000
1274.970459 6545.000000
1276.698120 6531.000000
1278.424683 6516.000000
1280.150391 6649.000000
1281.874756 6587.000000
1283.598267 6534.000000
1285.320801 6403.000000
1287.042358 6488.000000
1288.762695 6494.000000
1290.482056 6450.000000
1292.200317 6355.000000
1293.917603 6338.000000
1295.633911 6337.000000
1297.348999 6407.000000
1299.063110 6391.000000
1300.776245 6346.000000
1302.488525 6317.000000
1304.199585 6222.000000
1305.909668 6106.000000
1307.618652 6135.000000
1309.326416 6003.000000
1311.033569 6114.000000
1312.739258 6067.000000
1314.444214 6011.000000
1316.148193 6082.000000
1317.850952 6290.000000
1319.552734 6344.000000
1321.253662 6254.000000
1322.953247 4094.500000
1324.651978 1935.000000
1326.349976 5972.000000
1328.046631 6024.000000
1329.742188 6097.000000
1331.436890 6010.000000
1333.130371 6006.000000
1334.822998 5968.000000
1336.514771 5640.000000
1338.205200 5685.000000
1339.894897 5817.000000
1341.583496 5753.000000
1343.270996 5607.000000
1344.957520 5624.000000
1346.642944 5667.000000
1348.327393 5761.000000
1350.010986 5783.000000
1351.693359 5762.000000
1353.374756 5747.000000
1355.055298 5978.000000
1356.734619 5895.000000
1358.413330 5971.000000
1360.090698 6056.000000
1361.766968 6155.000000
1363.442261 6029.000000
1365.116821 6065.000000
1366.790161 6026.000000
1368.462524 5979.000000
1370.133911 6069.000000
1371.804321 5993.000000
1373.473633 5881.000000
1375.141968 5837.000000
1376.809448 5927.000000
1378.475830 5859.000000
1380.141235 5906.000000
1381.805664 5910.000000
1383.468872 5826.000000
1385.131470 5751.000000
1386.792725 5694.000000
1388.453125 5617.000000
1390.112427 5660.000000
1391.770752 5649.000000
1393.428345 5641.000000
1395.084717 5661.000000
1396.740234 5637.000000
1398.394531 5560.000000
1400.047974 5634.000000
1401.700317 5683.000000
1403.351929 5593.000000
1405.002319 5543.000000
1406.651611 5456.000000
1408.300171 5257.000000
1409.947632 5238.000000
1411.594116 5179.000000
1413.239746 5154.000000
1414.884399 5105.000000
1416.527832 5078.000000
1418.170410 5199.000000
1419.811890 5126.000000
1421.452515 5028.000000
1423.092163 5101.000000
1424.730713 5112.000000
1426.368408 5097.000000
1428.005005 5051.000000
1429.640625 5049.000000
1431.275513 5135.000000
1432.909302 5116.000000
1434.541992 5162.000000
1436.173706 5042.000000
1437.804565 5171.000000
1439.434326 5118.000000
1441.062988 5072.000000
1442.691040 4940.000000
1444.317993 5027.000000
1445.943726 5027.000000
1447.568848 5052.000000
1449.192871 5112.000000
1450.815918 5123.000000
1452.437988 5209.000000
1454.058960 5294.000000
1455.678955 5384.000000
1457.298218 5307.000000
1458.916138 5273.000000
1460.533447 5258.000000
1462.149780 5281.000000
1463.764893 5232.000000
1465.379150 5142.000000
1466.992554 5194.000000
1468.604858 5283.000000
1470.216309 5197.000000
1471.826904 5035.000000
1473.436279 5141.000000
1475.044678 5125.000000
1476.652222 5165.000000
1478.258789 5330.000000
1479.864624 5151.000000
1481.469238 5101.000000
1483.072998 4974.000000
1484.675537 4746.000000
1486.277466 4700.000000
1487.878174 4682.000000
1489.478149 4662.000000
1491.077026 4493.000000
1492.675049 4557.000000
1494.271973 4716.000000
1495.868042 4831.000000
1497.463135 4992.000000
1499.057251 4793.000000
1500.650635 4871.000000
1502.242920 4875.000000
1503.833984 4765.000000
1505.424561 4947.000000
1507.013794 4779.000000
1508.602417 4718.000000
1510.189941 4778.000000
1511.776367 4718.000000
1513.362061 4555.000000
1514.946655 4575.000000
1516.530396 4577.000000
1518.113037 4569.000000
1519.694946 4608.000000
1521.275757 4730.000000
1522.855835 4555.000000
1524.434692 4462.000000
1526.012695 4502.000000
1527.589966 4503.000000
1529.166016 4484.000000
1530.741333 4307.000000
1532.315552 4332.000000
1533.889038 4332.000000
1535.461304 4330.000000
1537.032837 4280.000000
1538.603394 4343.000000
1540.173096 4275.000000
1541.741577 4359.000000
1543.309326 4284.000000
1544.876221 4264.000000
1546.441895 4246.000000
1548.006836 4150.000000
1549.570679 4186.000000
1551.133911 4180.000000
1552.695801 4215.000000
1554.257080 4237.000000
1555.817261 4277.000000
1557.376709 4248.000000
1558.935059 4193.000000
1560.492676 4105.000000
1562.049194 4117.000000
1563.604492 4193.000000
1565.159180 4087.000000
1566.713135 4174.000000
1568.266113 4163.000000
1569.817749 4134.000000
1571.368652 4198.000000
1572.918823 4125.000000
1574.468018 4092.000000
1576.015869 4130.000000
1577.563232 4084.000000
1579.109619 4123.000000
1580.655151 4247.000000
1582.199707 4080.000000
1583.743042 4107.000000
1585.285767 4291.000000
1586.827637 4102.000000
1588.368408 4165.000000
1589.908203 4151.000000
1591.447266 4031.000000
1592.985229 4022.000000
1594.522705 4032.000000
1596.058838 3997.000000
1597.593872 4105.000000
1599.128418 4035.000000
1600.661987 3996.000000
1602.194702 4020.000000
1603.725830 4126.000000
1605.256714 4114.000000
1606.786743 4023.000000
1608.315552 3948.000000
1609.843262 4088.000000
1611.370361 4076.000000
1612.896729 4036.000000
1614.422119 4074.000000
1615.946655 4000.000000
1617.469849 4007.000000
1618.992310 3977.000000
1620.514038 3960.000000
1622.034912 4084.000000
1623.554321 3900.000000
1625.073242 3994.000000
1626.591431 3857.000000
1628.108765 3921.000000
1629.625000 3899.000000
1631.139893 3865.000000
1632.654297 3919.000000
1634.167969 3890.000000
1635.680542 3930.000000
1637.191895 3890.000000
1638.702881 3770.000000
1640.212769 3758.000000
1641.721802 3812.000000
1643.229492 3768.000000
1644.736816 3811.000000
1646.243286 3768.000000
1647.748779 3844.000000
1649.253418 3705.000000
1650.756592 3804.000000
1652.259155 3618.000000
1653.761353 3657.000000
1655.262207 3759.000000
1656.761963 3733.000000
1658.260864 3581.000000
1659.759399 3671.000000
1661.256714 3627.000000
1662.753296 3465.000000
1664.248291 3542.000000
1665.743042 3574.000000
1667.236938 3534.000000
1668.729858 3383.000000
1670.221436 3629.000000
1671.712524 3376.000000
1673.203003 3319.000000
1674.692383 3369.000000
1676.180298 3406.000000
1677.667969 3375.000000
1679.154663 3361.000000
1680.640503 3490.000000
1682.125488 3414.000000
1683.609009 3445.000000
1685.092285 3366.000000
1686.574707 3213.000000
1688.056030 3409.000000
1689.535889 3424.000000
1691.015503 3358.000000
1692.494385 3308.000000
1693.972290 3313.000000
1695.449219 3333.000000
1696.924927 3329.000000
1698.400269 3284.000000
1699.874390 3228.000000
1701.347900 3263.000000
1702.819946 3330.000000
1704.291748 3362.000000
1705.762573 3300.000000
1707.232544 3301.000000
1708.701172 3362.000000
1710.169312 3279.000000
1711.636719 3332.000000
1713.103027 3220.000000
1714.568726 3226.000000
1716.032715 3245.000000
1717.496582 3282.000000
1718.959595 3244.000000
1720.421631 3236.000000
1721.882446 3288.000000
1723.342651 3329.000000
1724.802124 3381.000000
1726.260742 3244.000000
1727.718384 3325.000000
1729.174683 3247.000000
1730.630737 3283.000000
1732.085815 3186.000000
1733.539917 3232.000000
1734.992798 3181.000000
1736.445435 3250.000000
1737.896973 3045.000000
1739.347778 3285.000000
1740.797607 3236.000000
1742.246094 3121.000000
1743.694214 3200.000000
1745.141479 3154.000000
1746.588013 3074.000000
1748.032959 3088.000000
1749.477661 3138.000000
1750.921509 2964.000000
1752.364502 3097.000000
1753.806030 3048.000000
1755.247314 3076.000000
1756.687744 2877.000000
1758.127197 3076.000000
1759.565674 3003.000000
1761.003174 3016.000000
1762.440186 3048.000000
1763.876221 2998.000000
1765.311401 2871.000000
1766.745117 2997.000000
1768.178711 3080.000000
1769.611328 2945.000000
1771.043091 3092.000000
1772.473999 3066.000000
1773.903687 3002.000000
1775.332642 2977.000000
1776.761108 2870.000000
1778.188599 2781.000000
1779.614746 2677.000000
1781.040649 2768.000000
1782.465454 2863.000000
1783.889648 2829.000000
1785.312378 2730.000000
1786.734619 2741.000000
1788.156128 2848.000000
1789.576904 2778.000000
1790.996704 2723.000000
1792.415161 2721.000000
1793.833130 2674.000000
1795.250488 2652.000000
1796.666992 2657.000000
1798.082031 2786.000000
1799.496704 2642.000000
1800.910767 2740.000000
1802.323608 2609.000000
1803.735840 2646.000000
1805.146729 2555.000000
1806.557129 2649.000000
1807.966797 2660.000000
1809.375488 2687.000000
1810.783081 2716.000000
1812.190186 2590.000000
1813.596436 2542.000000
1815.001709 2621.000000
1816.405884 2770.000000
1817.809692 2641.000000
1819.212524 2656.000000
1820.614502 2660.000000
1822.015869 2610.000000
1823.415771 2664.000000
1824.815063 2678.000000
1826.213867 2587.000000
1827.611816 2701.000000
1829.008423 2672.000000
1830.404419 2599.000000
1831.799683 2576.000000
1833.194336 2570.000000
1834.588013 2617.000000
1835.980347 2544.000000
1837.372192 2615.000000
1838.763428 2577.000000
1840.153687 2613.000000
1841.542725 2558.000000
1842.931396 2655.000000
1844.319092 2610.000000
1845.706055 2578.000000
1847.091675 2569.000000
1848.477051 2628.000000
1849.861572 2583.000000
1851.245361 2519.000000
1852.628052 2389.000000
1854.009521 2475.000000
1855.390503 2481.000000
1856.770996 2421.000000
1858.150513 2363.000000
1859.528564 2477.000000
1860.906494 2454.000000
1862.283447 2570.000000
1863.659668 2431.000000
1865.035034 2409.000000
1866.408936 2494.000000
1867.782715 2457.000000
1869.155640 2384.000000
1870.527466 2410.000000
1871.898315 2410.000000
1873.268799 2333.000000
1874.638184 2329.000000
1876.007080 2268.000000
1877.374390 2292.000000
1878.741577 2263.000000
1880.107788 2254.000000
1881.473267 2299.000000
1882.838013 2283.000000
1884.201172 2265.000000
1885.564209 2242.000000
1886.926392 2256.000000
1888.287720 2246.000000
1889.647705 2277.000000
1891.007324 2147.000000
1892.366333 2209.000000
1893.724365 2280.000000
1895.081543 2197.000000
1896.437500 2251.000000
1897.793213 2279.000000
1899.147949 2162.000000
1900.501831 2157.000000
1901.854614 2206.000000
1903.206909 2234.000000
1904.558472 2189.000000
1905.909180 2200.000000
1907.258667 2185.000000
1908.607666 2204.000000
1909.955811 2200.000000
1911.303345 2279.000000
1912.650146 2139.000000
1913.995361 2178.000000
1915.340332 2220.000000
1916.684570 2196.000000
1918.027954 2215.000000
1919.369995 2106.000000
1920.711792 2136.000000
1922.052734 2241.000000
1923.392944 2245.000000
1924.732178 2221.000000
1926.070435 2244.000000
1927.408081 2109.000000
1928.744995 2146.000000
1930.081055 2183.000000
1931.415894 2234.000000
1932.750366 2108.000000
1934.084106 2142.000000
1935.416992 2116.000000
1936.748413 2150.000000
1938.079956 2131.000000
1939.410156 2148.000000
1940.739868 2097.000000
1942.068726 2075.000000
1943.396362 2088.000000
1944.723511 2134.000000
1946.049927 2132.000000
1947.375610 2122.000000
1948.699951 2098.000000
1950.024048 2072.000000
1951.347290 2061.000000
1952.669800 2040.000000
1953.991211 2020.000000
1955.311646 1960.000000
1956.631470 2103.000000
1957.950928 2015.000000
1959.269409 1928.000000
1960.586548 1992.000000
1961.903320 1867.000000
1963.219360 1939.000000
1964.534668 1986.000000
1965.848511 1955.000000
1967.162109 1949.000000
1968.474976 1974.000000
1969.786987 1991.000000
1971.098389 1912.000000
1972.408447 1914.000000
1973.718018 1926.000000
1975.026855 1853.000000
1976.335083 1898.000000
1977.641968 1892.000000
1978.948242 1929.000000
1980.254150 1884.000000
1981.558838 1906.000000
1982.863037 1901.000000
1984.166016 1791.000000
1985.468628 1886.000000
1986.770264 1791.000000
1988.071289 1839.000000
1989.370728 1751.000000
1990.670288 1810.000000
1991.968750 1827.000000
1993.266724 1885.000000
1994.563110 1779.000000
1995.859497 1790.000000
1997.154907 1769.000000
1998.449585 1726.000000
1999.743408 1741.000000
2001.036011 1737.000000
2002.328125 1679.000000
2003.619751 1759.000000
2004.910645 1685.000000
2006.199951 1757.000000
2007.489014 1694.000000
2008.777344 1673.000000
2010.064941 1697.000000
2011.351685 1663.000000
2012.637329 1747.000000
2013.922607 1627.000000
2015.206909 1602.000000
2016.490601 1670.000000
2017.772949 1623.000000
2019.054932 1717.000000
2020.336426 1695.000000
2021.616943 1624.000000
2022.896729 1609.000000
2024.175415 1622.000000
2025.453369 1577.000000
2026.730835 1690.000000
2028.007690 1732.000000
2029.282837 1658.000000
2030.558105 1636.000000
2031.832397 1657.000000
2033.105713 1725.000000
2034.378174 1653.000000
2035.650269 1724.000000
2036.921265 1716.000000
2038.192017 1650.000000
2039.461426 1554.000000
2040.729736 1657.000000
2041.998047 1653.000000
2043.265381 1655.000000
2044.531982 1636.000000
2045.797363 1668.000000
2047.062134 1265.000000
2048.326660 1674.000000
2049.590088 1773.000000
2050.853027 1652.000000
2052.114014 1565.000000
2053.375488 1481.000000
2054.635742 1549.000000
2055.895264 1649.000000
2057.154053 1504.000000
2058.411865 1683.000000
2059.669189 1521.000000
2060.925781 1534.000000
2062.180908 1573.000000
2063.436035 1508.000000
2064.690186 1549.000000
2065.943604 1558.000000
2067.196289 1544.000000
2068.447754 1481.000000
2069.698975 1472.000000
2070.949463 1522.000000
2072.199219 1500.000000
2073.447510 1141.000000
2074.695801 1525.000000
2075.943115 1500.000000
2077.189697 1523.000000
2078.435547 1460.000000
2079.680176 1550.000000
2080.924316 1486.000000
2082.167969 1516.000000
2083.410645 1477.000000
2084.652100 1455.000000
2085.893311 1397.000000
2087.134033 1360.000000
2088.373779 1379.000000
2089.612305 1442.000000
2090.850342 1449.000000
2092.087646 1495.000000
2093.324707 1355.000000
2094.560303 1457.000000
2095.795166 1380.000000
2097.029785 1503.000000
2098.263428 1383.000000
2099.496094 1371.000000
2100.728027 1435.000000
2101.959473 1329.000000
2103.189941 1447.000000
2104.419678 1366.000000
2105.649170 1494.000000
2106.876709 1393.000000
2108.104492 1457.000000
2109.331543 1366.000000
2110.557617 1329.000000
2111.782227 1347.000000
2113.007080 1362.000000
2114.230713 1298.000000
2115.453857 1316.000000
2116.675781 1325.000000
2117.897461 1354.000000
2119.118164 1219.000000
2120.338135 1359.000000
2121.557617 1297.000000
2122.775635 1478.000000
2123.993652 1396.000000
2125.210693 1282.000000
2126.427246 1418.000000
2127.642090 1311.000000
2128.857178 1343.000000
2130.071289 1337.000000
2131.284668 1332.000000
2132.497314 1244.000000
2133.708496 1262.000000
2134.919922 1102.000000
2136.130127 1342.000000
2137.339844 1239.000000
2138.548096 1295.000000
2139.756348 1312.000000
2140.963867 1236.000000
2142.170166 1208.000000
2143.375732 1274.000000
2144.581055 1274.000000
2145.785400 1428.000000
2146.989014 1291.000000
2148.192139 1292.000000
2149.393799 1275.000000
2150.595215 1264.000000
2151.795898 1283.000000
2152.995850 1343.000000
2154.194580 1272.000000
2155.393066 1199.000000
2156.591064 1189.000000
2157.788086 1251.000000
2158.984375 1126.000000
2160.179443 1248.000000
2161.374268 1255.000000
2162.568359 1166.000000
2163.761475 1226.000000
2164.953613 1145.000000
2166.145508 1188.000000
2167.336670 1253.000000
2168.526855 1100.000000
2169.716309 1096.000000
2170.905273 1159.000000
2172.093262 1132.000000
2173.281006 1058.000000
2174.467285 1085.000000
2175.652832 1116.000000
2176.838135 995.000000
2178.022949 1055.000000
2179.206543 1125.000000
2180.389404 1103.000000
2181.571289 1140.000000
2182.752930 1154.000000
2183.934082 1115.000000
2185.114014 1059.000000
2186.292969 1159.000000
2187.471436 1016.000000
2188.649658 1059.000000
2189.826660 1115.000000
2191.002686 1095.000000
2192.178467 1029.000000
2193.353760 1089.000000
2194.527588 1098.000000
2195.700928 1105.000000
2196.874023 998.000000
2198.045898 1006.000000
2199.217285 1107.000000
2200.388184 1127.000000
2201.557373 1026.000000
2202.726563 1071.000000
2203.895264 1116.000000
2205.062988 1082.000000
2206.229736 1082.000000
2207.395752 1065.000000
2208.561279 1181.000000
2209.726563 1027.000000
2210.890381 1045.000000
2212.053711 1031.000000
2213.215820 1102.000000
2214.378174 1102.000000
2215.539307 1062.000000
2216.699463 942.000000
2217.859131 1025.000000
2219.018555 955.000000
2220.176758 903.000000
2221.333984 1132.000000
2222.490967 1048.000000
2223.647217 1073.000000
2224.802734 945.000000
2225.957520 974.000000
2227.111328 981.000000
2228.264160 988.000000
2229.417480 1045.000000
2230.568848 1059.000000
2231.719971 897.000000
2232.870361 1027.000000
2234.020264 1023.000000
2235.169189 901.000000
2236.317627 914.000000
2237.464600 702.000000
2238.611816 946.000000
2239.757813 983.000000
2240.903564 981.000000
2242.047607 980.000000
2243.191895 897.000000
2244.335205 913.000000
2245.477783 934.000000
2246.619385 1078.000000
2247.760742 888.000000
2248.901123 833.000000
2250.040771 850.000000
2251.179932 880.000000
2252.317871 948.000000
2253.455811 781.000000
2254.592773 790.000000
2255.729004 861.000000
2256.864258 891.000000
2257.998779 975.000000
2259.133057 842.000000
2260.266846 920.000000
2261.399170 882.000000
2262.531006 857.000000
2263.662354 879.000000
2264.792725 976.000000
2265.922852 771.000000
2267.051758 893.000000
2268.180176 917.000000
2269.308105 814.000000
2270.435059 843.000000
2271.561279 842.000000
2272.686523 807.000000
2273.811768 865.000000
2274.936279 828.000000
2276.059570 741.000000
2277.182129 788.000000
2278.304199 858.000000
2279.425781 877.000000
2280.546631 836.000000
2281.666260 789.000000
2282.785400 727.000000
2283.904297 701.000000
2285.022461 858.000000
2286.139648 756.000000
2287.255859 759.000000
2288.371826 786.000000
2289.487061 794.000000
2290.601563 760.000000
2291.714844 819.000000
2292.828125 830.000000
2293.940674 865.000000
2295.052490 772.000000
2296.163574 775.000000
2297.273438 783.000000
2298.382813 841.000000
2299.491943 747.000000
2300.600098 856.000000
2301.707275 750.000000
2302.814209 791.000000
2303.920410 793.000000
2305.026123 738.000000
2306.130371 739.000000
2307.234375 732.000000
2308.337891 826.000000
2309.440918 746.000000
2310.542725 867.000000
2311.643799 725.000000
2312.744385 828.000000
2313.844482 791.000000
2314.943848 660.000000
2316.041748 726.000000
2317.140137 743.000000
2318.237061 756.000000
2319.333740 747.000000
2320.429932 801.000000
2321.524414 741.000000
2322.618896 961.000000
2323.712646 680.000000
2324.806152 758.000000
2325.897949 830.000000
2326.989746 805.000000
2328.080811 842.000000
2329.171143 880.000000
2330.260498 880.000000
2331.349854 871.000000
2332.437988 858.000000
2333.525635 865.000000
2334.613037 843.000000
2335.698730 804.000000
2336.784180 875.000000
2337.869385 632.000000
2338.953613 661.000000
2340.036865 719.000000
2341.119873 763.000000
2342.201904 1199.000000
2343.283691 599.000000
2344.364746 722.000000
2345.444580 731.000000
2346.523926 726.000000
2347.602783 641.000000
2348.681152 682.000000
2349.758057 689.000000
2350.834717 663.000000
2351.911133 620.000000
2352.986572 717.000000
2354.061035 628.000000
2355.135254 690.000000
2356.208740 681.000000
2357.281738 740.000000
2358.353516 589.000000
2359.425049 689.000000
2360.495605 625.000000
2361.565918 606.000000
2362.635254 653.000000
2363.703613 694.000000
2364.771729 666.000000
2365.839111 618.000000
2366.906006 609.000000
2367.972168 533.000000
2369.037109 627.000000
2370.102051 640.000000
2371.166260 545.000000
2372.229736 614.000000
2373.291992 582.000000
2374.354248 626.000000
2375.415527 588.000000
2376.476563 595.000000
2377.536377 599.000000
2378.595459 548.000000
2379.654541 596.000000
2380.712646 613.000000
2381.770020 570.000000
2382.826416 707.000000
2383.882568 625.000000
2384.938232 633.000000
2385.993164 570.000000
2387.046631 628.000000
2388.100342 571.000000
2389.153076 495.000000
2390.205322 678.000000
2391.256836 625.000000
2392.307373 567.000000
2393.357666 567.000000
2394.406982 598.000000
2395.456299 588.000000
2396.504150 549.000000
2397.551514 573.000000
2398.598633 578.000000
2399.644775 455.000000
2400.690186 505.000000
2401.734863 514.000000
2402.779541 574.000000
2403.822754 592.000000
2404.865967 558.000000
2405.907715 634.000000
2406.949707 611.000000
2407.990967 548.000000
2409.031250 601.000000
2410.070801 600.000000
2411.109375 517.000000
2412.148193 547.000000
2413.185791 572.000000
2414.223145 530.000000
2415.259277 552.000000
2416.295166 746.000000
2417.330322 583.000000
2418.364990 623.000000
2419.398193 571.000000
2420.431641 603.000000
2421.464111 615.000000
2422.496338 490.000000
2423.527100 482.000000
2424.557861 563.000000
2425.588135 497.000000
2426.617188 491.000000
2427.646240 561.000000
2428.673584 489.000000
2429.701416 545.000000
2430.728027 505.000000
2431.754395 455.000000
2432.779297 526.000000
2433.804443 489.000000
2434.828613 534.000000
2435.852539 470.000000
2436.875244 578.000000
2437.897217 413.000000
2438.918945 558.000000
2439.939941 512.000000
2440.960449 601.000000
2441.979736 512.000000
2442.999023 357.000000
2444.017334 392.000000
2445.035400 425.000000
2446.052002 462.000000
2447.068604 469.000000
2448.084473 483.000000
2449.100342 548.000000
2450.114746 434.000000
2451.128418 448.000000
2452.141602 379.000000
2453.154541 375.000000
2454.166748 419.000000
2455.177979 484.000000
2456.188965 496.000000
2457.199219 518.000000
2458.208984 522.000000
2459.217773 467.000000
2460.225830 516.000000
2461.233887 524.000000
2462.240723 411.000000
2463.247314 515.000000
2464.252686 426.000000
2465.257813 437.000000
2466.262695 476.000000
2467.266357 438.000000
2468.269775 474.000000
2469.272217 576.000000
2470.274414 505.000000
2471.276123 400.000000
2472.276855 449.000000
2473.276611 660.000000
2474.276367 432.000000
2475.275146 427.000000
2476.273438 384.000000
2477.270752 401.000000
2478.267822 456.000000
2479.264893 439.000000
2480.260498 463.000000
2481.256104 412.000000
2482.250000 483.000000
2483.243896 415.000000
2484.237305 481.000000
2485.230225 381.000000
2486.222168 419.000000
2487.213379 478.000000
2488.204346 414.000000
2489.194824 389.000000
2490.184326 339.000000
2491.173096 366.000000
2492.161865 477.000000
2493.149658 375.000000
2494.136230 450.000000
2495.122803 386.000000
2496.108887 373.000000
2497.094238 373.000000
2498.078613 418.000000
2499.062744 427.000000
2500.046875 416.000000
2501.029541 354.000000
2502.011719 362.000000
2502.993408 332.000000
2503.974365 365.000000
2504.954834 397.000000
2505.935059 376.000000
2506.913818 324.000000
2507.892334 356.000000
2508.870361 297.000000
2509.847900 435.000000
2510.824463 437.000000
2511.800781 463.000000
2512.776367 405.000000
2513.751465 398.000000
2514.726074 450.000000
2515.699463 373.000000
2516.672607 457.000000
2517.645508 395.000000
2518.617432 357.000000
2519.588623 345.000000
2520.559326 430.000000
2521.529785 410.000000
2522.499512 319.000000
2523.468262 393.000000
2524.436279 342.000000
2525.404297 317.000000
2526.371338 475.000000
2527.338135 326.000000
2528.303711 386.000000
2529.269287 288.000000
2530.234131 422.000000
2531.198486 426.000000
2532.161621 392.000000
2533.125000 409.000000
2534.087402 341.000000
2535.049561 437.000000
2536.010498 456.000000
2536.970703 412.000000
2537.931152 453.000000
2538.890625 422.000000
2539.849365 413.000000
2540.807129 340.000000
2541.765137 349.000000
2542.722412 394.000000
2543.678711 433.000000
2544.634766 399.000000
2545.589600 416.000000
2546.544678 330.000000
2547.499023 352.000000
2548.452637 302.000000
2549.405273 343.000000
2550.357666 401.000000
2551.309570 328.000000
2552.260742 319.000000
2553.211182 211.000000
2554.161133 362.000000
2555.110840 361.000000
2556.059814 259.000000
2557.008301 379.000000
2557.955566 262.000000
2558.902832 312.000000
2559.849365 345.000000
2560.795410 294.000000
2561.740479 359.000000
2562.685303 307.000000
2563.629639 381.000000
2564.573486 331.000000
2565.516846 328.000000
2566.458740 333.000000
2567.400879 382.000000
2568.342285 325.000000
2569.282959 297.000000
2570.222900 216.000000
2571.162842 295.000000
2572.101807 319.000000
2573.040527 311.000000
2573.978271 242.000000
2574.915771 241.000000
2575.852539 418.000000
2576.788574 257.000000
2577.724121 315.000000
2578.658936 425.000000
2579.593750 254.000000
2580.527588 296.000000
2581.460938 365.000000
2582.393555 318.000000
2583.325928 381.000000
2584.257568 269.000000
2585.188721 283.000000
2586.119385 302.000000
2587.048828 356.000000
2587.978271 398.000000
2588.907227 258.000000
2589.835938 313.000000
2590.762939 272.000000
2591.690186 273.000000
2592.616943 328.000000
2593.542969 336.000000
2594.468750 246.000000
2595.393311 215.000000
2596.317627 297.000000
2597.241455 272.000000
2598.164795 188.000000
2599.087158 321.000000
2600.009277 273.000000
2600.930908 277.000000
2601.851807 368.000000
2602.771973 311.000000
2603.691895 261.000000
2604.611328 309.000000
2605.530518 239.000000
2606.448730 292.000000
2607.365723 298.000000
2608.282959 262.000000
2609.199951 326.000000
2610.115967 302.000000
2611.030762 280.000000
2611.946045 224.000000
2612.860596 297.000000
2613.774170 236.000000
2614.687744 271.000000
2615.600098 289.000000
2616.512451 260.000000
2617.423828 285.000000
2618.334961 260.000000
2619.245361 305.000000
2620.155518 297.000000
2621.064941 368.000000
2621.973877 342.000000
2622.881836 268.000000
2623.790039 313.000000
2624.697266 254.000000
2625.604004 227.000000
2626.510010 296.000000
2627.415771 245.000000
2628.320801 190.000000
2629.225586 220.000000
2630.129639 209.000000
2631.032715 208.000000
2631.935791 246.000000
2632.837891 237.000000
2633.739990 260.000000
2634.641846 358.000000
2635.541992 232.000000
2636.442383 300.000000
2637.342041 307.000000
2638.241455 325.000000
2639.139404 228.000000
2640.037842 192.000000
2640.935791 287.000000
2641.833008 231.000000
2642.729004 259.000000
2643.625000 315.000000
2644.520752 319.000000
2645.415771 323.000000
2646.310547 222.000000
2647.203857 179.000000
2648.097168 282.000000
2648.990234 202.000000
2649.883057 270.000000
2650.774170 140.000000
2651.665527 262.000000
2652.556396 323.000000
2653.446533 208.000000
2654.336426 268.000000
2655.225098 212.000000
2656.114014 164.000000
2657.002441 230.000000
2657.889893 176.000000
2658.776367 212.000000
2659.663330 247.000000
2660.549561 231.000000
2661.435303 180.000000
2662.319824 309.000000
2663.204346 252.000000
2664.088623 191.000000
2664.972168 182.000000
2665.855225 287.000000
2666.737549 518.000000
2667.619385 217.000000
2668.500488 193.000000
2669.381836 275.000000
2670.261719 197.000000
2671.141846 135.000000
2672.021240 261.000000
2672.900635 253.000000
2673.779297 237.000000
2674.656250 214.000000
2675.533936 209.000000
2676.410889 113.000000
2677.287109 238.000000
2678.162842 221.000000
2679.037842 169.000000
2679.913086 310.000000
2680.787354 283.000000
2681.661133 320.000000
2682.534180 161.000000
2683.406982 167.000000
2684.279541 247.000000
2685.151367 221.000000
2686.022461 220.000000
2686.893311 281.000000
2687.763672 206.000000
2688.633789 282.000000
2689.502197 178.000000
2690.371338 159.000000
2691.239746 207.000000
2692.107910 189.000000
2692.975342 208.000000
2693.841553 148.000000
2694.708252 170.000000
2695.573975 237.000000
2696.439697 186.000000
2697.303955 265.000000
2698.168945 168.000000
2699.032471 156.000000
2699.896240 206.000000
2700.758545 161.000000
2701.621338 166.000000
2702.483154 267.000000
2703.344482 155.000000
2704.205811 239.000000
2705.065918 94.000000
2705.926025 204.000000
2706.785645 326.000000
2707.645020 234.000000
2708.502686 153.000000
2709.360596 176.000000
2710.218994 228.000000
2711.076172 225.000000
2711.932617 83.000000
2712.788574 143.000000
2713.644531 136.000000
2714.499756 247.000000
2715.354248 201.000000
2716.208252 210.000000
2717.062256 174.000000
2717.915283 209.000000
2718.768555 273.000000
2719.620117 218.000000
2720.472168 205.000000
2721.323975 201.000000
2722.174561 119.000000
2723.025146 199.000000
2723.875244 228.000000
2724.724609 246.000000
2725.573975 254.000000
2726.422119 154.000000
2727.269775 162.000000
2728.117920 144.000000
2728.964844 160.000000
2729.812256 181.000000
2730.658203 140.000000
2731.503418 124.000000
2732.349121 192.000000
2733.193848 193.000000
2734.038574 189.000000
2734.882080 152.000000
2735.725830 140.000000
2736.568848 120.000000
2737.411377 210.000000
2738.252930 194.000000
2739.094971 189.000000
2739.936035 89.000000
2740.776855 240.000000
2741.617432 196.000000
2742.456787 216.000000
2743.296143 109.000000
2744.135498 215.000000
2744.973633 72.000000
2745.811279 153.000000
2746.648926 127.000000
2747.486084 110.000000
2748.322998 177.000000
2749.159424 157.000000
2749.994629 154.000000
2750.830078 194.000000
2751.665039 207.000000
2752.499268 102.000000
2753.333252 158.000000
2754.166748 224.000000
2755.000244 221.000000
2755.832764 122.000000
2756.664795 196.000000
2757.496338 157.000000
2758.327881 180.000000
2759.158447 102.000000
2759.989258 180.000000
2760.818848 169.000000
2761.648438 146.000000
2762.477783 116.000000
2763.306396 221.000000
2764.134521 227.000000
2764.962158 207.000000
2765.789795 235.000000
2766.616943 40.000000
2767.443359 278.000000
2768.269287 211.000000
2769.094727 151.000000
2769.919922 161.000000
2770.745117 233.000000
2771.569092 247.000000
2772.393066 146.000000
2773.217041 125.000000
2774.039795 183.000000
2774.862793 118.000000
2775.684570 150.000000
2776.506348 147.000000
2777.328125 86.000000
2778.148926 97.000000
2778.968994 99.000000
2779.789307 164.000000
2780.609131 45.000000
2781.428955 88.000000
2782.246826 46.000000
2783.065918 137.000000
2783.883789 95.000000
2784.701416 185.000000
2785.518555 176.000000
2786.335205 184.000000
2787.151611 127.000000
2787.967529 182.000000
2788.783203 203.000000
2789.597900 168.000000
2790.413086 71.000000
2791.227539 102.000000
2792.041504 203.000000
2792.855225 173.000000
2793.667725 87.000000
2794.480469 90.000000
2795.292725 217.000000
2796.104492 103.000000
2796.915527 55.000000
2797.727295 153.000000
2798.537842 52.000000
2799.348389 242.000000
2800.157471 121.000000
2800.967285 131.000000
2801.776367 154.000000
2802.585205 103.000000
2803.393555 72.000000
2804.200928 157.000000
2805.008789 110.000000
2805.815918 32.000000
2806.622803 133.000000
2807.428467 225.000000
2808.234619 110.000000
2809.040039 196.000000
2809.845459 73.000000
2810.650146 125.000000
2811.453857 118.000000
2812.258057 136.000000
2813.061768 48.000000
2813.865234 131.000000
2814.667236 146.000000
2815.469971 45.000000
2816.271973 288.000000
2817.073730 145.000000
2817.875000 146.000000
2818.675781 84.000000
2819.476074 137.000000
2820.276611 117.000000
2821.076172 177.000000
2821.875244 87.000000
2822.674316 212.000000
2823.473145 135.000000
2824.271484 106.000000
2825.068848 42.000000
2825.866455 103.000000
2826.663330 99.000000
2827.460449 161.000000
2828.256836 289.000000
2829.052490 177.000000
2829.848145 86.000000
2830.643555 122.000000
2831.438477 141.000000
2832.232666 134.000000
2833.026855 162.000000
2833.820801 224.000000
2834.614258 88.000000
2835.406982 113.000000
2836.199463 184.000000
2836.991943 153.000000
2837.784180 265.000000
2838.575928 136.000000
2839.366699 22.000000
2840.157471 100.000000
2840.948486 33.000000
2841.738525 135.000000
2842.528076 132.000000
2843.317871 116.000000
2844.106689 73.000000
2844.895508 186.000000
2845.684326 81.000000
2846.472168 20.000000
2847.259521 127.000000
2848.047119 42.000000
2848.834229 131.000000
2849.620605 123.000000
2850.406982 104.000000
2851.193115 158.000000
2851.978760 137.000000
2852.763428 118.000000
2853.548584 18.000000
2854.333496 165.000000
2855.117676 129.000000
2855.901855 230.000000
2856.684814 216.000000
2857.468018 216.000000
2858.250977 170.000000
2859.033447 62.000000
2859.815674 84.000000
2860.597412 91.000000
2861.378906 83.000000
2862.160645 160.000000
2862.941650 149.000000
2863.721924 116.000000
2864.501953 74.000000
2865.281982 190.000000
2866.061768 68.000000
2866.840576 111.000000
2867.619629 128.000000
2868.398193 147.000000
2869.176514 116.000000
2869.954346 124.000000
2870.731934 185.000000
2871.509277 89.000000
2872.286377 78.000000
2873.062988 217.000000
2873.839111 148.000000
2874.615234 193.000000
2875.390869 123.000000
2876.166260 136.000000
2876.941162 165.000000
2877.715820 73.000000
2878.490479 294.000000
2879.264893 133.000000
2880.038574 128.000000
2880.811523 119.000000
2881.585205 167.000000
2882.357910 215.000000
2883.130615 61.000000
2883.902588 267.000000
2884.674316 239.000000
2885.446533 145.000000
2886.217529 82.000000
2886.988037 255.000000
2887.759033 190.000000
2888.530029 158.000000
2889.300293 107.000000
2890.069580 127.000000
2890.839111 109.000000
2891.608643 139.000000
2892.377686 148.000000
2893.146240 89.000000
2893.914795 170.000000
2894.682373 153.000000
2895.450439 137.000000
2896.218018 171.000000
2896.985596 126.000000
2897.751953 161.000000
2898.519287 166.000000
2899.285400 122.000000
2900.051758 214.000000
2900.816650 101.000000
2901.582031 125.000000
2902.347900 71.000000
2903.112305 80.000000
2903.876709 56.000000
2904.641357 202.000000
2905.405029 198.000000
2906.169434 157.000000
2906.933105 220.000000
2907.696045 164.000000
2908.458740 48.000000
2909.221924 111.000000
2909.984619 199.000000
2910.746094 65.000000
2911.508057 65.000000
spectrumdark 2048
-96.722878 6171.000000
-94.096008 6171.000000
-91.471016 6045.000000
-88.847916 6438.000000
-86.226685 5770.000000
-83.607353 6199.000000
-80.989883 6071.000000
-78.374290 6390.000000
-75.760574 6189.000000
-73.148735 5920.000000
-70.538757 6078.000000
-67.930664 5951.000000
-65.324417 5908.000000
-62.720051 6014.000000
-60.117542 6113.000000
-57.516888 5632.000000
-54.918095 6207.000000
-52.321159 6876.000000
-49.726078 6448.000000
-47.132851 6502.000000
-44.541473 6296.000000
-41.951942 6762.000000
-39.364254 5865.000000
-36.778416 6056.000000
-34.194420 6448.000000
-31.612259 5697.000000
-29.031946 6252.000000
-26.453461 5662.000000
-23.876818 6168.000000
-21.302000 6177.000000
-18.729023 6458.000000
-16.157866 6496.000000
-13.588542 6764.000000
-11.021044 7780.000000
-8.455364 6323.000000
-5.891510 6473.000000
-3.329470 5956.000000
-0.769254 5756.000000
1.789154 6264.000000
4.345741 6886.000000
6.900523 6647.000000
9.453488 5988.000000
12.004653 6741.000000
14.554005 6452.000000
17.101561 6713.000000
19.647305 6026.000000
22.191256 5757.000000
24.733402 6691.000000
27.273752 6781.000000
29.812317 6866.000000
32.349083 6197.000000
34.884048 5778.000000
37.417236 7219.000000
39.948643 6362.000000
42.478256 7092.000000
45.006073 6502.000000
47.532131 7805.000000
50.056400 5663.000000
52.578899 6257.000000
55.099602 6713.000000
57.618549 6289.000000
60.135723 6422.000000
62.651119 6558.000000
65.164742 5602.000000
67.676605 5687.000000
70.186722 6578.000000
72.695045 6509.000000
75.201614 5909.000000
77.706436 6309.000000
80.209503 6387.000000
82.710793 6260.000000
85.210342 6115.000000
87.708138 6375.000000
90.204201 5706.000000
92.698486 7230.000000
95.191032 5781.000000
97.681862 6911.000000
100.170921 7150.000000
102.658234 6380.000000
105.143822 6188.000000
107.627670 6387.000000
110.109772 5758.000000
112.590149 6536.000000
115.068802 6193.000000
117.545731 6540.000000
120.020905 7182.000000
122.494370 6808.000000
124.966103 5821.000000
127.436127 6755.000000
129.904388 6204.000000
132.370987 6236.000000
134.835831 5713.000000
137.298981 6226.000000
139.760391 7250.000000
142.220108 6937.000000
144.678101 6373.000000
147.134399 5942.000000
149.588989 5837.000000
152.041855 6836.000000
154.493042 6359.000000
156.942535 6603.000000
159.390305 6136.000000
161.836365 6602.000000
164.280746 8688.000000
166.723450 6379.000000
169.164459 6690.000000
171.603760 6289.000000
174.041351 7208.000000
176.477310 6588.000000
178.911530 6954.000000
181.344070 7157.000000
183.774963 6615.000000
186.204132 7104.000000
188.631653 6745.000000
191.057495 6300.000000
193.481659 6683.000000
195.904160 7111.000000
198.324966 7409.000000
200.744110 6522.000000
203.161591 6041.000000
205.577377 7507.000000
207.991516 7099.000000
210.404022 6371.000000
212.814850 6068.000000
215.223999 6295.000000
217.631516 7439.000000
220.037323 6199.000000
222.441544 6494.000000
224.844055 6712.000000
227.244949 6935.000000
229.644196 6471.000000
232.041779 6870.000000
234.437698 7284.000000
236.832001 6544.000000
239.224640 5835.000000
241.615662 6818.000000
244.005020 6552.000000
246.392761 6368.000000
248.778854 6968.000000
251.163315 6059.000000
253.546127 7892.000000
255.927368 6584.000000
258.306915 6705.000000
260.684875 6441.000000
263.061157 7546.000000
265.435883 7541.000000
267.808960 7769.000000
270.180389 6130.000000
272.550171 6362.000000
274.918396 5893.000000
277.284973 6294.000000
279.649963 6778.000000
282.013336 5980.000000
284.375061 6209.000000
286.735199 7110.000000
289.093719 6068.000000
291.450653 6544.000000
293.805969 6381.000000
296.159698 5959.000000
298.511780 5932.000000
300.862305 6352.000000
303.211243 6320.000000
305.558533 6787.000000
307.904297 6427.000000
310.248383 6576.000000
312.590942 7312.000000
314.931885 7624.000000
317.271210 7106.000000
319.608978 6930.000000
321.945190 8005.000000
324.279755 6216.000000
326.612762 6436.000000
328.944214 6020.000000
331.274078 6605.000000
333.602356 6374.000000
335.929016 7253.000000
338.254181 6348.000000
340.577728 6205.000000
342.899719 5983.000000
345.220154 7541.000000
347.538971 7722.000000
349.856232 5988.000000
352.171967 5823.000000
354.486115 6926.000000
356.798676 6283.000000
359.109680 6248.000000
361.419159 7013.000000
363.727112 6395.000000
366.033447 5652.000000
368.338196 6386.000000
370.641479 6420.000000
372.943146 6307.000000
375.243317 6347.000000
377.541931 6277.000000
379.838989 5681.000000
382.134491 6100.000000
384.428467 5826.000000
386.720856 5162.000000
389.011749 5570.000000
391.301117 6191.000000
393.588898 6276.000000
395.875153 6533.000000
398.159912 7017.000000
400.443054 5992.000000
402.724762 6411.000000
405.004944 6168.000000
407.283539 7235.000000
409.560608 6467.000000
411.836151 6853.000000
414.110168 6567.000000
416.382751 6472.000000
418.653717 6419.000000
420.923187 6479.000000
423.191162 7151.000000
425.457581 7242.000000
427.722504 6304.000000
429.985962 6299.000000
432.247833 6470.000000
434.508240 5950.000000
436.767090 6625.000000
439.024475 6113.000000
441.280365 5687.000000
443.534760 5808.000000
445.787628 5464.000000
448.038940 6879.000000
450.288849 6075.000000
452.537170 6258.000000
454.784058 5629.000000
457.029480 6576.000000
459.273346 6470.000000
461.515717 6774.000000
463.756592 5628.000000
465.996063 6622.000000
468.233948 5444.000000
470.470398 5892.000000
472.705322 6073.000000
474.938782 7384.000000
477.170807 6668.000000
479.401306 5609.000000
481.630310 6465.000000
483.857849 6327.000000
486.083893 5925.000000
488.308502 6604.000000
490.531647 5878.000000
492.753326 6403.000000
494.973450 6642.000000
497.192169 5662.000000
499.409393 6300.000000
501.625244 5529.000000
503.839478 6146.000000
506.052399 6400.000000
508.263733 6404.000000
510.473633 6888.000000
512.682068 6495.000000
514.889160 6521.000000
517.094666 6405.000000
519.298767 6560.000000
521.501343 6208.000000
523.702515 6566.000000
525.902344 6687.000000
528.100647 6930.000000
530.297424 5261.000000
532.492859 5820.000000
534.686768 5488.000000
536.879333 7555.000000
539.070374 6692.000000
541.260010 5978.000000
543.448242 6868.000000
545.634949 7137.000000
547.820190 6830.000000
550.004150 6281.000000
552.186523 6388.000000
554.367554 6197.000000
556.547058 6023.000000
558.725281 5913.000000
560.901978 5978.000000
563.077271 6392.000000
565.251160 6442.000000
567.423584 5930.000000
569.594604 6046.000000
571.764160 6272.000000
573.932434 5233.000000
576.099182 6457.000000
578.264465 6269.000000
580.428345 6141.000000
582.590942 5684.000000
584.752014 6047.000000
586.911682 5618.000000
589.070007 5775.000000
591.226807 6191.000000
593.382263 6585.000000
595.536316 5714.000000
597.689026 6088.000000
599.840210 7219.000000
601.990051 6767.000000
604.138550 6634.000000
606.285461 6020.000000
608.431152 6413.000000
610.575439 6418.000000
612.718262 6962.000000
614.859619 6152.000000
616.999756 6417.000000
619.138367 7719.000000
621.275696 5773.000000
623.411560 6572.000000
625.546021 6876.000000
627.679016 7267.000000
629.810852 6578.000000
631.941223 6694.000000
634.070190 6865.000000
636.197693 6453.000000
638.323914 6178.000000
640.448608 7364.000000
642.572083 6361.000000
644.694214 6826.000000
646.814880 6890.000000
648.934204 6540.000000
651.052124 5641.000000
653.168701 5706.000000
655.283875 6472.000000
657.397705 6416.000000
659.510071 5869.000000
661.621216 6102.000000
663.730957 5413.000000
665.839233 6100.000000
667.946350 6253.000000
670.052002 6855.000000
672.156189 5828.000000
674.259155 5647.000000
676.360718 6960.000000
678.460938 5339.000000
680.559753 6723.000000
682.657227 6277.000000
684.753418 7010.000000
686.848145 6325.000000
688.941650 6963.000000
691.033813 6687.000000
693.124451 7958.000000
695.213867 6645.000000
697.302002 6414.000000
699.388672 6015.000000
701.474121 6690.000000
703.558044 5212.000000
705.640747 5922.000000
707.722168 5913.000000
709.802124 7567.000000
711.880859 6256.000000
713.958130 5560.000000
716.034119 6605.000000
718.108826 6023.000000
720.182251 6962.000000
722.254150 6265.000000
724.324890 7368.000000
726.394287 5806.000000
728.462280 6426.000000
730.528931 6400.000000
732.594360 7114.000000
734.658447 5724.000000
736.721191 6173.000000
738.782593 6500.000000
740.842712 6584.000000
742.901428 5997.000000
744.958923 6645.000000
747.015137 6606.000000
749.069946 6720.000000
751.123474 6381.000000
753.175598 7531.000000
755.226501 5791.000000
757.276184 6680.000000
759.324402 6277.000000
761.371399 6163.000000
763.417114 6939.000000
765.461426 5286.000000
767.504456 5761.000000
769.546265 15007.000000
771.586731 6979.000000
773.625793 6391.000000
775.663696 6108.000000
777.700256 6014.000000
779.735596 5318.000000
781.769592 5791.000000
783.802185 6915.000000
785.833618 5529.000000
787.863647 12181.000000
789.892395 6028.000000
791.919983 6314.000000
793.946228 6335.000000
795.971069 5810.000000
797.994812 5491.000000
800.017151 6372.000000
802.038269 5912.000000
804.058044 6747.000000
806.076538 4888.000000
808.093811 6751.000000
810.109680 6793.000000
812.124390 5700.000000
814.137756 6475.000000
816.149902 6300.000000
818.160828 6090.000000
820.170410 6555.000000
822.178772 5288.000000
824.185730 5710.000000
826.191467 6048.000000
828.195984 5733.000000
830.199219 5667.000000
832.201172 6460.000000
834.201843 5925.000000
836.201294 5885.000000
838.199402 6374.000000
840.196411 7018.000000
842.192017 6192.000000
844.186462 5986.000000
846.179565 6175.000000
848.171448 6800.000000
850.161987 5585.000000
852.151245 6768.000000
854.139465 5968.000000
856.126282 5754.000000
858.111877 6368.000000
860.096191 7282.000000
862.079407 6333.000000
864.061218 6376.000000
866.041809 5849.000000
868.021118 7812.000000
869.999268 7096.000000
871.976074 6170.000000
873.951599 5965.000000
875.926086 6179.000000
877.899109 5980.000000
879.871094 5397.000000
881.841736 6412.000000
883.811218 6110.000000
885.779358 5563.000000
887.746338 5209.000000
889.711975 6067.000000
891.676453 5772.000000
893.639709 6012.000000
895.601746 6499.000000
897.562500 5855.000000
899.522034 6434.000000
901.480286 6676.000000
903.437439 6336.000000
905.393433 6015.000000
907.348022 6835.000000
909.301392 6501.000000
911.253601 6413.000000
913.204590 6428.000000
915.154297 7095.000000
917.102844 6318.000000
919.050171 6143.000000
920.996216 6086.000000
922.940979 6060.000000
924.884705 6287.000000
926.827271 5929.000000
928.768555 5594.000000
930.708496 6412.000000
932.647339 5676.000000
934.584900 5438.000000
936.521240 5954.000000
938.456421 5832.000000
940.390320 6145.000000
942.323120 5969.000000
944.254700 6772.000000
946.185120 5209.000000
948.114319 6372.000000
950.042175 7007.000000
951.968994 6598.000000
953.894531 5948.000000
955.818787 5367.000000
957.741943 6004.000000
959.663940 6702.000000
961.584656 7256.000000
963.504211 6480.000000
965.422607 5319.000000
967.339966 6400.000000
969.255859 6421.000000
971.170654 6100.000000
973.084229 5920.000000
974.996643 6399.000000
976.907837 6417.000000
978.817871 5479.000000
980.726624 6232.000000
982.634338 6144.000000
984.540833 6350.000000
986.446106 5723.000000
988.350281 6782.000000
990.253235 6156.000000
992.154968 6756.000000
994.055542 6636.000000
995.954956 6555.000000
997.853149 5304.000000
999.750183 6637.000000
1001.645996 6552.000000
1003.540649 7676.000000
1005.434204 5602.000000
1007.326477 7213.000000
1009.217834 6079.000000
1011.107849 5361.000000
1012.996643 6629.000000
1014.884277 6420.000000
1016.770752 6899.000000
1018.656067 6754.000000
1020.540222 5955.000000
1022.423157 5867.000000
1024.305054 6188.000000
1026.185669 5195.000000
1028.065186 5832.000000
1029.943726 6115.000000
1031.820923 5386.000000
1033.696777 6156.000000
1035.571655 5938.000000
1037.445557 6633.000000
1039.317993 7007.000000
1041.189453 6681.000000
1043.059570 5469.000000
1044.928711 5552.000000
1046.796631 5775.000000
1048.663452 6962.000000
1050.529175 6671.000000
1052.393677 6478.000000
1054.257080 6496.000000
1056.119141 6475.000000
1057.980225 5908.000000
1059.840210 6534.000000
1061.698853 6684.000000
1063.556396 5764.000000
1065.412842 6743.000000
1067.268188 5972.000000
1069.122314 5760.000000
1070.975586 6264.000000
1072.827393 6308.000000
1074.678223 6139.000000
1076.527832 6052.000000
1078.376221 5781.000000
1080.223755 7972.000000
1082.069946 5585.000000
1083.914917 6235.000000
1085.759033 5400.000000
1087.601807 5487.000000
1089.443359 6533.000000
1091.284180 5491.000000
1093.123413 5803.000000
1094.961914 6016.000000
1096.799072 5995.000000
1098.635010 6810.000000
1100.469971 6519.000000
1102.303711 5415.000000
1104.136475 5705.000000
1105.967896 6118.000000
1107.798462 7264.000000
1109.627686 6526.000000
1111.455933 6426.000000
1113.282959 7203.000000
1115.109009 5437.000000
1116.933838 6261.000000
1118.757568 7148.000000
1120.580078 6069.000000
1122.401489 5866.000000
1124.222046 5922.000000
1126.041138 6498.000000
1127.859375 7068.000000
1129.676270 6854.000000
1131.492310 6693.000000
1133.307129 6468.000000
1135.120850 5620.000000
1136.933472 5777.000000
1138.744873 5696.000000
1140.555298 6083.000000
1142.364624 6717.000000
1144.172607 6977.000000
1145.979858 5867.000000
1147.785645 5909.000000
1149.590576 5383.000000
1151.394409 5382.000000
1153.197021 6106.000000
1154.998779 6058.000000
1156.799072 6051.000000
1158.598389 6110.000000
1160.396729 5852.000000
1162.193726 5421.000000
1163.989990 5937.000000
1165.784912 6110.000000
1167.578735 6324.000000
1169.371704 7664.000000
1171.163330 5751.000000
1172.953979 6471.000000
1174.743652 6029.000000
1176.531860 5845.000000
1178.319214 7512.000000
1180.105469 6874.000000
1181.890625 5719.000000
1183.674683 5939.000000
1185.457642 7670.000000
1187.239624 5809.000000
1189.020386 5881.000000
1190.800171 6378.000000
1192.578857 6947.000000
1194.356567 6697.000000
1196.133057 7179.000000
1197.908447 6546.000000
1199.682739 6516.000000
1201.455933 6655.000000
1203.228271 6543.000000
1204.999268 6735.000000
1206.769409 5713.000000
1208.538330 6145.000000
1210.306152 6290.000000
1212.073120 5822.000000
1213.838745 5902.000000
1215.603394 7002.000000
1217.366943 6494.000000
1219.129395 5908.000000
1220.890991 6740.000000
1222.651367 5893.000000
1224.410645 6233.000000
1226.169067 6048.000000
1227.926270 7121.000000
1229.682373 6476.000000
1231.437378 5510.000000
1233.191528 6031.000000
1234.944336 5797.000000
1236.696167 6006.000000
1238.447144 5981.000000
1240.196777 4925.000000
1241.945557 7019.000000
1243.692993 6446.000000
1245.439697 6589.000000
1247.185181 6483.000000
1248.929810 6362.000000
1250.673096 6731.000000
1252.415405 6637.000000
1254.156616 5351.000000
1255.896973 5066.000000
1257.636230 5820.000000
1259.374268 6602.000000
1261.111450 7087.000000
1262.847412 6071.000000
1264.582397 6437.000000
1266.316406 7317.000000
1268.049438 5905.000000
1269.781250 6150.000000
1271.512085 6411.000000
1273.241699 7238.000000
1274.970459 5907.000000
1276.698120 5703.000000
1278.424683 5592.000000
1280.150391 5538.000000
1281.874756 6437.000000
1283.598267 5230.000000
1285.320801 6926.000000
1287.042358 6600.000000
1288.762695 6216.000000
1290.482056 6634.000000
1292.200317 7261.000000
1293.917603 6464.000000
1295.633911 5776.000000
1297.348999 6417.000000
1299.063110 6129.000000
1300.776245 5751.000000
1302.488525 6424.000000
1304.199585 8289.000000
1305.909668 5263.000000
1307.618652 6326.000000
1309.326416 6675.000000
1311.033569 6965.000000
1312.739258 5791.000000
1314.444214 6911.000000
1316.148193 6156.000000
1317.850952 5935.000000
1319.552734 6547.000000
1321.253662 6003.000000
1322.953247 18454.000000
1324.651978 30905.000000
1326.349976 5602.000000
1328.046631 6463.000000
1329.742188 7086.000000
1331.436890 6865.000000
1333.130371 5710.000000
1334.822998 5360.000000
1336.514771 7466.000000
1338.205200 6305.000000
1339.894897 6574.000000
1341.583496 6016.000000
1343.270996 7633.000000
1344.957520 5645.000000
1346.642944 6790.000000
1348.327393 5973.000000
1350.010986 7204.000000
1351.693359 6358.000000
1353.374756 6011.000000
1355.055298 6468.000000
1356.734619 6718.000000
1358.413330 5924.000000
1360.090698 6640.000000
1361.766968 5742.000000
1363.442261 5596.000000
1365.116821 6561.000000
1366.790161 6428.000000
1368.462524 6773.000000
1370.133911 5121.000000
1371.804321 6769.000000
1373.473633 6211.000000
1375.141968 5640.000000
1376.809448 5994.000000
1378.475830 6446.000000
1380.141235 6130.000000
1381.805664 5799.000000
1383.468872 5881.000000
1385.131470 5684.000000
1386.792725 6337.000000
1388.453125 6596.000000
1390.112427 6350.000000
1391.770752 6478.000000
1393.428345 6841.000000
1395.084717 6422.000000
1396.740234 7021.000000
1398.394531 6360.000000
1400.047974 5841.000000
1401.700317 6098.000000
1403.351929 6445.000000
1405.002319 7158.000000
1406.651611 6260.000000
1408.300171 7530.000000
1409.947632 7844.000000
1411.594116 6174.000000
1413.239746 6244.000000
1414.884399 6008.000000
1416.527832 7053.000000
1418.170410 7077.000000
1419.811890 6913.000000
1421.452515 6524.000000
1423.092163 6477.000000
1424.730713 5979.000000
1426.368408 6587.000000
1428.005005 6287.000000
1429.640625 6016.000000
1431.275513 6370.000000
1432.909302 5838.000000
1434.541992 6114.000000
1436.173706 5659.000000
1437.804565 6072.000000
1439.434326 6033.000000
1441.062988 7721.000000
1442.691040 6049.000000
1444.317993 6247.000000
1445.943726 6148.000000
1447.568848 6130.000000
1449.192871 6458.000000
1450.815918 6043.000000
1452.437988 6031.000000
1454.058960 7281.000000
1455.678955 6244.000000
1457.298218 6913.000000
1458.916138 5655.000000
1460.533447 16382.000000
1462.149780 5506.000000
1463.764893 7185.000000
1465.379150 6362.000000
1466.992554 5198.000000
1468.604858 5541.000000
1470.216309 6229.000000
1471.826904 6383.000000
1473.436279 5880.000000
1475.044678 5948.000000
1476.652222 6099.000000
1478.258789 6619.000000
1479.864624 5286.000000
1481.469238 6273.000000
1483.072998 5517.000000
1484.675537 6890.000000
1486.277466 5566.000000
1487.878174 5452.000000
1489.478149 5595.000000
1491.077026 6230.000000
1492.675049 6488.000000
1494.271973 6661.000000
1495.868042 6265.000000
1497.463135 6022.000000
1499.057251 5517.000000
1500.650635 6532.000000
1502.242920 5551.000000
1503.833984 6175.000000
1505.424561 6701.000000
1507.013794 6422.000000
1508.602417 6221.000000
1510.189941 6443.000000
1511.776367 6802.000000
1513.362061 6126.000000
1514.946655 6664.000000
1516.530396 6426.000000
1518.113037 6122.000000
1519.694946 6605.000000
1521.275757 6652.000000
1522.855835 6056.000000
1524.434692 6224.000000
1526.012695 6401.000000
1527.589966 6235.000000
1529.166016 5684.000000
1530.741333 5984.000000
1532.315552 6312.000000
1533.889038 5478.000000
1535.461304 5970.000000
1537.032837 6369.000000
1538.603394 6452.000000
1540.173096 6345.000000
1541.741577 5461.000000
1543.309326 6592.000000
1544.876221 5551.000000
1546.441895 6792.000000
1548.006836 5990.000000
1549.570679 5023.000000
1551.133911 7541.000000
1552.695801 6303.000000
1554.257080 5972.000000
1555.817261 5736.000000
1557.376709 5746.000000
1558.935059 5858.000000
1560.492676 6251.000000
1562.049194 7057.000000
1563.604492 5845.000000
1565.159180 6385.000000
1566.713135 5657.000000
1568.266113 6334.000000
1569.817749 5682.000000
1571.368652 5858.000000
1572.918823 6243.000000
1574.468018 6367.000000
1576.015869 5768.000000
1577.563232 5496.000000
1579.109619 5737.000000
1580.655151 5054.000000
1582.199707 6679.000000
1583.743042 6393.000000
1585.285767 6593.000000
1586.827637 6434.000000
1588.368408 6685.000000
1589.908203 5835.000000
1591.447266 6722.000000
1592.985229 5974.000000
1594.522705 6148.000000
1596.058838 5947.000000
1597.593872 6691.000000
1599.128418 6272.000000
1600.661987 5993.000000
1602.194702 5993.000000
1603.725830 6282.000000
1605.256714 6255.000000
1606.786743 5800.000000
1608.315552 6143.000000
1609.843262 6150.000000
1611.370361 5992.000000
1612.896729 5863.000000
1614.422119 6197.000000
1615.946655 5795.000000
1617.469849 5789.000000
1618.992310 5664.000000
1620.514038 6603.000000
1622.034912 6959.000000
1623.554321 15546.000000
1625.073242 6230.000000
1626.591431 6101.000000
1628.108765 5934.000000
1629.625000 6407.000000
1631.139893 7044.000000
1632.654297 6753.000000
1634.167969 5751.000000
1635.680542 6764.000000
1637.191895 5970.000000
1638.702881 6465.000000
1640.212769 6342.000000
1641.721802 6183.000000
1643.229492 5681.000000
1644.736816 6089.000000
1646.243286 7099.000000
1647.748779 6216.000000
1649.253418 6878.000000
1650.756592 6083.000000
1652.259155 6630.000000
1653.761353 6374.000000
1655.262207 6673.000000
1656.761963 7549.000000
1658.260864 5986.000000
1659.759399 6449.000000
1661.256714 6236.000000
1662.753296 5963.000000
1664.248291 6519.000000
1665.743042 6313.000000
1667.236938 5203.000000
1668.729858 5660.000000
1670.221436 20755.000000
1671.712524 6539.000000
1673.203003 6159.000000
1674.692383 5974.000000
1676.180298 6969.000000
1677.667969 6894.000000
1679.154663 6090.000000
1680.640503 5415.000000
1682.125488 6104.000000
1683.609009 6190.000000
1685.092285 6320.000000
1686.574707 5909.000000
1688.056030 6182.000000
1689.535889 6125.000000
1691.015503 5576.000000
1692.494385 6532.000000
1693.972290 6011.000000
1695.449219 6057.000000
1696.924927 5770.000000
1698.400269 6004.000000
1699.874390 6325.000000
1701.347900 5518.000000
1702.819946 5582.000000
1704.291748 6825.000000
1705.762573 6369.000000
1707.232544 7078.000000
1708.701172 5129.000000
1710.169312 5829.000000
1711.636719 6303.000000
1713.103027 5555.000000
1714.568726 5776.000000
1716.032715 6234.000000
1717.496582 5955.000000
1718.959595 6931.000000
1720.421631 6359.000000
1721.882446 6612.000000
1723.342651 5433.000000
1724.802124 6350.000000
1726.260742 6142.000000
1727.718384 6006.000000
1729.174683 6249.000000
1730.630737 6018.000000
1732.085815 6468.000000
1733.539917 5996.000000
1734.992798 6901.000000
1736.445435 5926.000000
1737.896973 6889.000000
1739.347778 5964.000000
1740.797607 6568.000000
1742.246094 5943.000000
1743.694214 7565.000000
1745.141479 6574.000000
1746.588013 6621.000000
1748.032959 6693.000000
1749.477661 6154.000000
1750.921509 5978.000000
1752.364502 5476.000000
1753.806030 6546.000000
1755.247314 6346.000000
1756.687744 19548.000000
1758.127197 6213.000000
1759.565674 5276.000000
1761.003174 6065.000000
1762.440186 7484.000000
1763.876221 5801.000000
1765.311401 7215.000000
1766.745117 6161.000000
1768.178711 6434.000000
1769.611328 6676.000000
1771.043091 5819.000000
1772.473999 5695.000000
1773.903687 6382.000000
1775.332642 6140.000000
1776.761108 6260.000000
1778.188599 6694.000000
1779.614746 6234.000000
1781.040649 5641.000000
1782.465454 6900.000000
1783.889648 5564.000000
1785.312378 6620.000000
1786.734619 6589.000000
1788.156128 6867.000000
1789.576904 5929.000000
1790.996704 5980.000000
1792.415161 6140.000000
1793.833130 6863.000000
1795.250488 5523.000000
1796.666992 6134.000000
1798.082031 6480.000000
1799.496704 5909.000000
1800.910767 6526.000000
1802.323608 6010.000000
1803.735840 7000.000000
1805.146729 7185.000000
1806.557129 7834.000000
1807.966797 6468.000000
1809.375488 5920.000000
1810.783081 5389.000000
1812.190186 6471.000000
1813.596436 6417.000000
1815.001709 6744.000000
1816.405884 5901.000000
1817.809692 5954.000000
1819.212524 6227.000000
1820.614502 6018.000000
1822.015869 5876.000000
1823.415771 6359.000000
1824.815063 6484.000000
1826.213867 6599.000000
1827.611816 7448.000000
1829.008423 5736.000000
1830.404419 6751.000000
1831.799683 5941.000000
1833.194336 8179.000000
1834.588013 6025.000000
1835.980347 6868.000000
1837.372192 6354.000000
1838.763428 5890.000000
1840.153687 7094.000000
1841.542725 6039.000000
1842.931396 6017.000000
1844.319092 5941.000000
1845.706055 5813.000000
1847.091675 6925.000000
1848.477051 5791.000000
1849.861572 6386.000000
1851.245361 6319.000000
1852.628052 6426.000000
1854.009521 5370.000000
1855.390503 6506.000000
1856.770996 6365.000000
1858.150513 5746.000000
1859.528564 5909.000000
1860.906494 6245.000000
1862.283447 7761.000000
1863.659668 6078.000000
1865.035034 6085.000000
1866.408936 5639.000000
1867.782715 5702.000000
1869.155640 6219.000000
1870.527466 5960.000000
1871.898315 6943.000000
1873.268799 5442.000000
1874.638184 6041.000000
1876.007080 6131.000000
1877.374390 7192.000000
1878.741577 6111.000000
1880.107788 6041.000000
1881.473267 6710.000000
1882.838013 7495.000000
1884.201172 6776.000000
1885.564209 6918.000000
1886.926392 6334.000000
1888.287720 6477.000000
1889.647705 5615.000000
1891.007324 5824.000000
1892.366333 6124.000000
1893.724365 6637.000000
1895.081543 7266.000000
1896.437500 5902.000000
1897.793213 7624.000000
1899.147949 5868.000000
1900.501831 5538.000000
1901.854614 5885.000000
1903.206909 5900.000000
1904.558472 5941.000000
1905.909180 6877.000000
1907.258667 6537.000000
1908.607666 6619.000000
1909.955811 5853.000000
1911.303345 6078.000000
1912.650146 6343.000000
1913.995361 6819.000000
1915.340332 6055.000000
1916.684570 5475.000000
1918.027954 6496.000000
1919.369995 6026.000000
1920.711792 6762.000000
1922.052734 6966.000000
1923.392944 6094.000000
1924.732178 6257.000000
1926.070435 6285.000000
1927.408081 6492.000000
1928.744995 7044.000000
1930.081055 6700.000000
1931.415894 5535.000000
1932.750366 6755.000000
1934.084106 7269.000000
1935.416992 6253.000000
1936.748413 5768.000000
1938.079956 6339.000000
1939.410156 6615.000000
1940.739868 5794.000000
1942.068726 6103.000000
1943.396362 5841.000000
1944.723511 4963.000000
1946.049927 5847.000000
1947.375610 6469.000000
1948.699951 5723.000000
1950.024048 6651.000000
1951.347290 6322.000000
1952.669800 6470.000000
1953.991211 5794.000000
1955.311646 7463.000000
1956.631470 5955.000000
1957.950928 5624.000000
1959.269409 6849.000000
1960.586548 5924.000000
1961.903320 5863.000000
1963.219360 6578.000000
1964.534668 6552.000000
1965.848511 6311.000000
1967.162109 5700.000000
1968.474976 6282.000000
1969.786987 5968.000000
1971.098389 6064.000000
1972.408447 6334.000000
1973.718018 5857.000000
1975.026855 6232.000000
1976.335083 6584.000000
1977.641968 6101.000000
1978.948242 7196.000000
1980.254150 5542.000000
1981.558838 6365.000000
1982.863037 5944.000000
1984.166016 5735.000000
1985.468628 7616.000000
1986.770264 6153.000000
1988.071289 6727.000000
1989.370728 6076.000000
1990.670288 6642.000000
1991.968750 5301.000000
1993.266724 6079.000000
1994.563110 6110.000000
1995.859497 5772.000000
1997.154907 5564.000000
1998.449585 6526.000000
1999.743408 5687.000000
2001.036011 6529.000000
2002.328125 5773.000000
2003.619751 7136.000000
2004.910645 6484.000000
2006.199951 6279.000000
2007.489014 6835.000000
2008.777344 5951.000000
2010.064941 6025.000000
2011.351685 6628.000000
2012.637329 5610.000000
2013.922607 6343.000000
2015.206909 6031.000000
2016.490601 5562.000000
2017.772949 6084.000000
2019.054932 6485.000000
2020.336426 6770.000000
2021.616943 5879.000000
2022.896729 6124.000000
2024.175415 6792.000000
2025.453369 5847.000000
2026.730835 5905.000000
2028.007690 6247.000000
2029.282837 5744.000000
2030.558105 6628.000000
2031.832397 6063.000000
2033.105713 5954.000000
2034.378174 5990.000000
2035.650269 6132.000000
2036.921265 6925.000000
2038.192017 6574.000000
2039.461426 6036.000000
2040.729736 6729.000000
2041.998047 6572.000000
2043.265381 5903.000000
2044.531982 5988.000000
2045.797363 5632.000000
2047.062134 5943.000000
2048.326660 5429.000000
2049.590088 5843.000000
2050.853027 6393.000000
2052.114014 6176.000000
2053.375488 6183.000000
2054.635742 5862.000000
2055.895264 6407.000000
2057.154053 6307.000000
2058.411865 6788.000000
2059.669189 6155.000000
2060.925781 6020.000000
2062.180908 6519.000000
2063.436035 5679.000000
2064.690186 5577.000000
2065.943604 5618.000000
2067.196289 6824.000000
2068.447754 6335.000000
2069.698975 6379.000000
2070.949463 5631.000000
2072.199219 5425.000000
2073.447510 6520.000000
2074.695801 6547.000000
2075.943115 7446.000000
2077.189697 5583.000000
2078.435547 6047.000000
2079.680176 7012.000000
2080.924316 7563.000000
2082.167969 5445.000000
2083.410645 6079.000000
2084.652100 6927.000000
2085.893311 6008.000000
2087.134033 6419.000000
2088.373779 6771.000000
2089.612305 7095.000000
2090.850342 6207.000000
2092.087646 5760.000000
2093.324707 6659.000000
2094.560303 6067.000000
2095.795166 6174.000000
2097.029785 6034.000000
2098.263428 5632.000000
2099.496094 6118.000000
2100.728027 6882.000000
2101.959473 6448.000000
2103.189941 6748.000000
2104.419678 6033.000000
2105.649170 5944.000000
2106.876709 6017.000000
2108.104492 5941.000000
2109.331543 6380.000000
2110.557617 5566.000000
2111.782227 6373.000000
2113.007080 6954.000000
2114.230713 7070.000000
2115.453857 6205.000000
2116.675781 7521.000000
2117.897461 6006.000000
2119.118164 6885.000000
2120.338135 6001.000000
2121.557617 6186.000000
2122.775635 6534.000000
2123.993652 7013.000000
2125.210693 5718.000000
2126.427246 5727.000000
2127.642090 6580.000000
2128.857178 6361.000000
2130.071289 6958.000000
2131.284668 5653.000000
2132.497314 6122.000000
2133.708496 5845.000000
2134.919922 6743.000000
2136.130127 6613.000000
2137.339844 5967.000000
2138.548096 6181.000000
2139.756348 5650.000000
2140.963867 5934.000000
2142.170166 7699.000000
2143.375732 5867.000000
2144.581055 5671.000000
2145.785400 5385.000000
2146.989014 6297.000000
2148.192139 6202.000000
2149.393799 6479.000000
2150.595215 5351.000000
2151.795898 6255.000000
2152.995850 6094.000000
2154.194580 5949.000000
2155.393066 6978.000000
2156.591064 6174.000000
2157.788086 6030.000000
2158.984375 5232.000000
2160.179443 5259.000000
2161.374268 6156.000000
2162.568359 5597.000000
2163.761475 6049.000000
2164.953613 6964.000000
2166.145508 5887.000000
2167.336670 6285.000000
2168.526855 6310.000000
2169.716309 6510.000000
2170.905273 6768.000000
2172.093262 6018.000000
2173.281006 5766.000000
2174.467285 5948.000000
2175.652832 6524.000000
2176.838135 6104.000000
2178.022949 5853.000000
2179.206543 6396.000000
2180.389404 7500.000000
2181.571289 6309.000000
2182.752930 5869.000000
2183.934082 6530.000000
2185.114014 5744.000000
2186.292969 5488.000000
2187.471436 6387.000000
2188.649658 6875.000000
2189.826660 7188.000000
2191.002686 6736.000000
2192.178467 6137.000000
2193.353760 5590.000000
2194.527588 6667.000000
2195.700928 6157.000000
2196.874023 6200.000000
2198.045898 6598.000000
2199.217285 7076.000000
2200.388184 6279.000000
2201.557373 6927.000000
2202.726563 7609.000000
2203.895264 6272.000000
2205.062988 5944.000000
2206.229736 5638.000000
2207.395752 7114.000000
2208.561279 6615.000000
2209.726563 6001.000000
2210.890381 6704.000000
2212.053711 5473.000000
2213.215820 6164.000000
2214.378174 6199.000000
2215.539307 6674.000000
2216.699463 6716.000000
2217.859131 6347.000000
2219.018555 6565.000000
2220.176758 6463.000000
2221.333984 6289.000000
2222.490967 6788.000000
2223.647217 6555.000000
2224.802734 6807.000000
2225.957520 6291.000000
2227.111328 6454.000000
2228.264160 6044.000000
2229.417480 6899.000000
2230.568848 6166.000000
2231.719971 6242.000000
2232.870361 6472.000000
2234.020264 7649.000000
2235.169189 6383.000000
2236.317627 5209.000000
2237.464600 6765.000000
2238.611816 7053.000000
2239.757813 6082.000000
2240.903564 7215.000000
2242.047607 7306.000000
2243.191895 6762.000000
2244.335205 6206.000000
2245.477783 6001.000000
2246.619385 5734.000000
2247.760742 5848.000000
2248.901123 6397.000000
2250.040771 6428.000000
2251.179932 5835.000000
2252.317871 5833.000000
2253.455811 6236.000000
2254.592773 5327.000000
2255.729004 6336.000000
2256.864258 6079.000000
2257.998779 7227.000000
2259.133057 6425.000000
2260.266846 5386.000000
2261.399170 6152.000000
2262.531006 6771.000000
2263.662354 6262.000000
2264.792725 6434.000000
2265.922852 8177.000000
2267.051758 6664.000000
2268.180176 6023.000000
2269.308105 5569.000000
2270.435059 6085.000000
2271.561279 5930.000000
2272.686523 6748.000000
2273.811768 6519.000000
2274.936279 6423.000000
2276.059570 6011.000000
2277.182129 6349.000000
2278.304199 5936.000000
2279.425781 7371.000000
2280.546631 6371.000000
2281.666260 6455.000000
2282.785400 7151.000000
2283.904297 7692.000000
2285.022461 7179.000000
2286.139648 5915.000000
2287.255859 6458.000000
2288.371826 7006.000000
2289.487061 6900.000000
2290.601563 7406.000000
2291.714844 5839.000000
2292.828125 6357.000000
2293.940674 5968.000000
2295.052490 5392.000000
2296.163574 6785.000000
2297.273438 6446.000000
2298.382813 6158.000000
2299.491943 6692.000000
2300.600098 6309.000000
2301.707275 6850.000000
2302.814209 5892.000000
2303.920410 6213.000000
2305.026123 6592.000000
2306.130371 6639.000000
2307.234375 5525.000000
2308.337891 5732.000000
2309.440918 6579.000000
2310.542725 7425.000000
2311.643799 7311.000000
2312.744385 6631.000000
2313.844482 5465.000000
2314.943848 6374.000000
2316.041748 6598.000000
2317.140137 7014.000000
2318.237061 8279.000000
2319.333740 6918.000000
2320.429932 5772.000000
2321.524414 6864.000000
2322.618896 7405.000000
2323.712646 5870.000000
2324.806152 6077.000000
2325.897949 6424.000000
2326.989746 6909.000000
2328.080811 6111.000000
2329.171143 6249.000000
2330.260498 6898.000000
2331.349854 6041.000000
2332.437988 6302.000000
2333.525635 6830.000000
2334.613037 6463.000000
2335.698730 6677.000000
2336.784180 7658.000000
2337.869385 6325.000000
2338.953613 6757.000000
2340.036865 5894.000000
2341.119873 6427.000000
2342.201904 7364.000000
2343.283691 6055.000000
2344.364746 7386.000000
2345.444580 6620.000000
2346.523926 5662.000000
2347.602783 6829.000000
2348.681152 6531.000000
2349.758057 6272.000000
2350.834717 6984.000000
2351.911133 6105.000000
2352.986572 6367.000000
2354.061035 5910.000000
2355.135254 6281.000000
2356.208740 6757.000000
2357.281738 6131.000000
2358.353516 7047.000000
2359.425049 6236.000000
2360.495605 6810.000000
2361.565918 7559.000000
2362.635254 7482.000000
2363.703613 6791.000000
2364.771729 6733.000000
2365.839111 7100.000000
2366.906006 7154.000000
2367.972168 6089.000000
2369.037109 6899.000000
2370.102051 6954.000000
2371.166260 6332.000000
2372.229736 6948.000000
2373.291992 5827.000000
2374.354248 6346.000000
2375.415527 6360.000000
2376.476563 5940.000000
2377.536377 6269.000000
2378.595459 7918.000000
2379.654541 6500.000000
2380.712646 7604.000000
2381.770020 6960.000000
2382.826416 7958.000000
2383.882568 7816.000000
2384.938232 6184.000000
2385.993164 7045.000000
2387.046631 6761.000000
2388.100342 6564.000000
2389.153076 6328.000000
2390.205322 6681.000000
2391.256836 6106.000000
2392.307373 6647.000000
2393.357666 6504.000000
2394.406982 6316.000000
2395.456299 6163.000000
2396.504150 6905.000000
2397.551514 7051.000000
2398.598633 6324.000000
2399.644775 6717.000000
2400.690186 6238.000000
2401.734863 6763.000000
2402.779541 7706.000000
2403.822754 7480.000000
2404.865967 6574.000000
2405.907715 5725.000000
2406.949707 6663.000000
2407.990967 7109.000000
2409.031250 6056.000000
2410.070801 6372.000000
2411.109375 6362.000000
2412.148193 5958.000000
2413.185791 6494.000000
2414.223145 6913.000000
2415.259277 7357.000000
2416.295166 6136.000000
2417.330322 6280.000000
2418.364990 6589.000000
2419.398193 7259.000000
2420.431641 6443.000000
2421.464111 6649.000000
2422.496338 6853.000000
2423.527100 7075.000000
2424.557861 6358.000000
2425.588135 6895.000000
2426.617188 6870.000000
2427.646240 6614.000000
2428.673584 7462.000000
2429.701416 6709.000000
2430.728027 7319.000000
2431.754395 6940.000000
2432.779297 7733.000000
2433.804443 6597.000000
2434.828613 7115.000000
2435.852539 6742.000000
2436.875244 5792.000000
2437.897217 6370.000000
2438.918945 6627.000000
2439.939941 6642.000000
2440.960449 5960.000000
2441.979736 6544.000000
2442.999023 6605.000000
2444.017334 8494.000000
2445.035400 6280.000000
2446.052002 6473.000000
2447.068604 6532.000000
2448.084473 5986.000000
2449.100342 6993.000000
2450.114746 6881.000000
2451.128418 5570.000000
2452.141602 7304.000000
2453.154541 6044.000000
2454.166748 7231.000000
2455.177979 6678.000000
2456.188965 7664.000000
2457.199219 6336.000000
2458.208984 7592.000000
2459.217773 5890.000000
2460.225830 5936.000000
2461.233887 6281.000000
2462.240723 7413.000000
2463.247314 5361.000000
2464.252686 7393.000000
2465.257813 6940.000000
2466.262695 5846.000000
2467.266357 6586.000000
2468.269775 6382.000000
2469.272217 7535.000000
2470.274414 7305.000000
2471.276123 6872.000000
2472.276855 6584.000000
2473.276611 6824.000000
2474.276367 6738.000000
2475.275146 5694.000000
2476.273438 6601.000000
2477.270752 7049.000000
2478.267822 6089.000000
2479.264893 6981.000000
2480.260498 5772.000000
2481.256104 7142.000000
2482.250000 6682.000000
2483.243896 8111.000000
2484.237305 6859.000000
2485.230225 6817.000000
2486.222168 7501.000000
2487.213379 7221.000000
2488.204346 6723.000000
2489.194824 5831.000000
2490.184326 6614.000000
2491.173096 6542.000000
2492.161865 5622.000000
2493.149658 6815.000000
2494.136230 6538.000000
2495.122803 8108.000000
2496.108887 6792.000000
2497.094238 7129.000000
2498.078613 8023.000000
2499.062744 6057.000000
2500.046875 6852.000000
2501.029541 5833.000000
2502.011719 6967.000000
2502.993408 6914.000000
2503.974365 7263.000000
2504.954834 6540.000000
2505.935059 5715.000000
2506.913818 6378.000000
2507.892334 7600.000000
2508.870361 6763.000000
2509.847900 7112.000000
2510.824463 6042.000000
2511.800781 5905.000000
2512.776367 6392.000000
2513.751465 6298.000000
2514.726074 6424.000000
2515.699463 7649.000000
2516.672607 6779.000000
2517.645508 6892.000000
2518.617432 6220.000000
2519.588623 6924.000000
2520.559326 6895.000000
2521.529785 7822.000000
2522.499512 8116.000000
2523.468262 6133.000000
2524.436279 6125.000000
2525.404297 7734.000000
2526.371338 6237.000000
2527.338135 5584.000000
2528.303711 7226.000000
2529.269287 7046.000000
2530.234131 7688.000000
2531.198486 6311.000000
2532.161621 6373.000000
2533.125000 5844.000000
2534.087402 6000.000000
2535.049561 6672.000000
2536.010498 6354.000000
2536.970703 6127.000000
2537.931152 6081.000000
2538.890625 6689.000000
2539.849365 6793.000000
2540.807129 6681.000000
2541.765137 6214.000000
2542.722412 6742.000000
2543.678711 6082.000000
2544.634766 7082.000000
2545.589600 6175.000000
2546.544678 7761.000000
2547.499023 7040.000000
2548.452637 6885.000000
2549.405273 7208.000000
2550.357666 6714.000000
2551.309570 7006.000000
2552.260742 6445.000000
2553.211182 7799.000000
2554.161133 7297.000000
2555.110840 7341.000000
2556.059814 6677.000000
2557.008301 6226.000000
2557.955566 7126.000000
2558.902832 6310.000000
2559.849365 6567.000000
2560.795410 6762.000000
2561.740479 7552.000000
2562.685303 6701.000000
2563.629639 7160.000000
2564.573486 6826.000000
2565.516846 6640.000000
2566.458740 6613.000000
2567.400879 6515.000000
2568.342285 6141.000000
2569.282959 7169.000000
2570.222900 7325.000000
2571.162842 5626.000000
2572.101807 6195.000000
2573.040527 7546.000000
2573.978271 7251.000000
2574.915771 5582.000000
2575.852539 6920.000000
2576.788574 6811.000000
2577.724121 7512.000000
2578.658936 6330.000000
2579.593750 5977.000000
2580.527588 7093.000000
2581.460938 7071.000000
2582.393555 5880.000000
2583.325928 6897.000000
2584.257568 5478.000000
2585.188721 7023.000000
2586.119385 7047.000000
2587.048828 6853.000000
2587.978271 7190.000000
2588.907227 6428.000000
2589.835938 7443.000000
2590.762939 7310.000000
2591.690186 5914.000000
2592.616943 6797.000000
2593.542969 6276.000000
2594.468750 5623.000000
2595.393311 7637.000000
2596.317627 7597.000000
2597.241455 5367.000000
2598.164795 7308.000000
2599.087158 6238.000000
2600.009277 6859.000000
2600.930908 8335.000000
2601.851807 6407.000000
2602.771973 5757.000000
2603.691895 6313.000000
2604.611328 6371.000000
2605.530518 6450.000000
2606.448730 5811.000000
2607.365723 5982.000000
2608.282959 7270.000000
2609.199951 5815.000000
2610.115967 7568.000000
2611.030762 6651.000000
2611.946045 6664.000000
2612.860596 6556.000000
2613.774170 6562.000000
2614.687744 6137.000000
2615.600098 7622.000000
2616.512451 7077.000000
2617.423828 6765.000000
2618.334961 5768.000000
2619.245361 7187.000000
2620.155518 6633.000000
2621.064941 6111.000000
2621.973877 6614.000000
2622.881836 6261.000000
2623.790039 6915.000000
2624.697266 6626.000000
2625.604004 7039.000000
2626.510010 6093.000000
2627.415771 6614.000000
2628.320801 6554.000000
2629.225586 7809.000000
2630.129639 6503.000000
2631.032715 6391.000000
2631.935791 6453.000000
2632.837891 5608.000000
2633.739990 6687.000000
2634.641846 6906.000000
2635.541992 6715.000000
2636.442383 6386.000000
2637.342041 6384.000000
2638.241455 5982.000000
2639.139404 6884.000000
2640.037842 6762.000000
2640.935791 6361.000000
2641.833008 6148.000000
2642.729004 6168.000000
2643.625000 6733.000000
2644.520752 6053.000000
2645.415771 6426.000000
2646.310547 6649.000000
2647.203857 7284.000000
2648.097168 6254.000000
2648.990234 6827.000000
2649.883057 6429.000000
2650.774170 7519.000000
2651.665527 6405.000000
2652.556396 7573.000000
2653.446533 7307.000000
2654.336426 6587.000000
2655.225098 7326.000000
2656.114014 6667.000000
2657.002441 6570.000000
2657.889893 7370.000000
2658.776367 6510.000000
2659.663330 7113.000000
2660.549561 6831.000000
2661.435303 6869.000000
2662.319824 6480.000000
2663.204346 6385.000000
2664.088623 6202.000000
2664.972168 7039.000000
2665.855225 7755.000000
2666.737549 7284.000000
2667.619385 6178.000000
2668.500488 6665.000000
2669.381836 6027.000000
2670.261719 6555.000000
2671.141846 7409.000000
2672.021240 7137.000000
2672.900635 6331.000000
2673.779297 6163.000000
2674.656250 6435.000000
2675.533936 6771.000000
2676.410889 6479.000000
2677.287109 8190.000000
2678.162842 7143.000000
2679.037842 6322.000000
2679.913086 7723.000000
2680.787354 6950.000000
2681.661133 7304.000000
2682.534180 7039.000000
2683.406982 6172.000000
2684.279541 6039.000000
2685.151367 6949.000000
2686.022461 6549.000000
2686.893311 6839.000000
2687.763672 7113.000000
2688.633789 6630.000000
2689.502197 6298.000000
2690.371338 7403.000000
2691.239746 7050.000000
2692.107910 6738.000000
2692.975342 6873.000000
2693.841553 5884.000000
2694.708252 7126.000000
2695.573975 7433.000000
2696.439697 7184.000000
2697.303955 7982.000000
2698.168945 6645.000000
2699.032471 7273.000000
2699.896240 5866.000000
2700.758545 7468.000000
2701.621338 6837.000000
2702.483154 5851.000000
2703.344482 6931.000000
2704.205811 6673.000000
2705.065918 7468.000000
2705.926025 7287.000000
2706.785645 6535.000000
2707.645020 6834.000000
2708.502686 7167.000000
2709.360596 6905.000000
2710.218994 7283.000000
2711.076172 6682.000000
2711.932617 6025.000000
2712.788574 6830.000000
2713.644531 6163.000000
2714.499756 6943.000000
2715.354248 6141.000000
2716.208252 6770.000000
2717.062256 7285.000000
2717.915283 6254.000000
2718.768555 6551.000000
2719.620117 7707.000000
2720.472168 6772.000000
2721.323975 6282.000000
2722.174561 6556.000000
2723.025146 6426.000000
2723.875244 7122.000000
2724.724609 7016.000000
2725.573975 6924.000000
2726.422119 6689.000000
2727.269775 6576.000000
2728.117920 7020.000000
2728.964844 6860.000000
2729.812256 5576.000000
2730.658203 7526.000000
2731.503418 7008.000000
2732.349121 6445.000000
2733.193848 6960.000000
2734.038574 7361.000000
2734.882080 6889.000000
2735.725830 7772.000000
2736.568848 7119.000000
2737.411377 6036.000000
2738.252930 6210.000000
2739.094971 6790.000000
2739.936035 6936.000000
2740.776855 5798.000000
2741.617432 5889.000000
2742.456787 7717.000000
2743.296143 6869.000000
2744.135498 6872.000000
2744.973633 6852.000000
2745.811279 7890.000000
2746.648926 6387.000000
2747.486084 7142.000000
2748.322998 6181.000000
2749.159424 5992.000000
2749.994629 6617.000000
2750.830078 6290.000000
2751.665039 6309.000000
2752.499268 6266.000000
2753.333252 6948.000000
2754.166748 6770.000000
2755.000244 7988.000000
2755.832764 6810.000000
2756.664795 7285.000000
2757.496338 6792.000000
2758.327881 7097.000000
2759.158447 7160.000000
2759.989258 7241.000000
2760.818848 7266.000000
2761.648438 6665.000000
2762.477783 7299.000000
2763.306396 6792.000000
2764.134521 6711.000000
2764.962158 6820.000000
2765.789795 6615.000000
2766.616943 7950.000000
2767.443359 5748.000000
2768.269287 7446.000000
2769.094727 6864.000000
2769.919922 7759.000000
2770.745117 7068.000000
2771.569092 6737.000000
2772.393066 6509.000000
2773.217041 7637.000000
2774.039795 6626.000000
2774.862793 6964.000000
2775.684570 6954.000000
2776.506348 6951.000000
2777.328125 6534.000000
2778.148926 7945.000000
2778.968994 6541.000000
2779.789307 6969.000000
2780.609131 7351.000000
2781.428955 6444.000000
2782.246826 6003.000000
2783.065918 8055.000000
2783.883789 6507.000000
2784.701416 6779.000000
2785.518555 7068.000000
2786.335205 7187.000000
2787.151611 7246.000000
2787.967529 6255.000000
2788.783203 5914.000000
2789.597900 6341.000000
2790.413086 7027.000000
2791.227539 7181.000000
2792.041504 6563.000000
2792.855225 7409.000000
2793.667725 8775.000000
2794.480469 7002.000000
2795.292725 7378.000000
2796.104492 7202.000000
2796.915527 7418.000000
2797.727295 6527.000000
2798.537842 7320.000000
2799.348389 7024.000000
2800.157471 7373.000000
2800.967285 8164.000000
2801.776367 7807.000000
2802.585205 6649.000000
2803.393555 7252.000000
2804.200928 6143.000000
2805.008789 6509.000000
2805.815918 6815.000000
2806.622803 6987.000000
2807.428467 7088.000000
2808.234619 6671.000000
2809.040039 6454.000000
2809.845459 7330.000000
2810.650146 6219.000000
2811.453857 7648.000000
2812.258057 7466.000000
2813.061768 6377.000000
2813.865234 6108.000000
2814.667236 6539.000000
2815.469971 7348.000000
2816.271973 7717.000000
2817.073730 6186.000000
2817.875000 6548.000000
2818.675781 7238.000000
2819.476074 6525.000000
2820.276611 6658.000000
2821.076172 8009.000000
2821.875244 7181.000000
2822.674316 6440.000000
2823.473145 6914.000000
2824.271484 6377.000000
2825.068848 7082.000000
2825.866455 7070.000000
2826.663330 6717.000000
2827.460449 7377.000000
2828.256836 7914.000000
2829.052490 7168.000000
2829.848145 7368.000000
2830.643555 7546.000000
2831.438477 7423.000000
2832.232666 6657.000000
2833.026855 6832.000000
2833.820801 5604.000000
2834.614258 6885.000000
2835.406982 7119.000000
2836.199463 8118.000000
2836.991943 7616.000000
2837.784180 7468.000000
2838.575928 6467.000000
2839.366699 6830.000000
2840.157471 8865.000000
2840.948486 7533.000000
2841.738525 6212.000000
2842.528076 7634.000000
2843.317871 7192.000000
2844.106689 7354.000000
2844.895508 7783.000000
2845.684326 7701.000000
2846.472168 7600.000000
2847.259521 7241.000000
2848.047119 7552.000000
2848.834229 7319.000000
2849.620605 6606.000000
2850.406982 7417.000000
2851.193115 7187.000000
2851.978760 7556.000000
2852.763428 7166.000000
2853.548584 6972.000000
2854.333496 7450.000000
2855.117676 7110.000000
2855.901855 6933.000000
2856.684814 8257.000000
2857.468018 6773.000000
2858.250977 6753.000000
2859.033447 7808.000000
2859.815674 6263.000000
2860.597412 6679.000000
2861.378906 7627.000000
2862.160645 7430.000000
2862.941650 7588.000000
2863.721924 6614.000000
2864.501953 6754.000000
2865.281982 8154.000000
2866.061768 7489.000000
2866.840576 8096.000000
2867.619629 7705.000000
2868.398193 6785.000000
2869.176514 7017.000000
2869.954346 7239.000000
2870.731934 6909.000000
2871.509277 7514.000000
2872.286377 6974.000000
2873.062988 6418.000000
2873.839111 7475.000000
2874.615234 7155.000000
2875.390869 8280.000000
2876.166260 7205.000000
2876.941162 6649.000000
2877.715820 8074.000000
2878.490479 6646.000000
2879.264893 7865.000000
2880.038574 6822.000000
2880.811523 7170.000000
2881.585205 6792.000000
2882.357910 7593.000000
2883.130615 7879.000000
2883.902588 8177.000000
2884.674316 6196.000000
2885.446533 6821.000000
2886.217529 6930.000000
2886.988037 6110.000000
2887.759033 8307.000000
2888.530029 7396.000000
2889.300293 7966.000000
2890.069580 7637.000000
2890.839111 6949.000000
2891.608643 7211.000000
2892.377686 7380.000000
2893.146240 7885.000000
2893.914795 7635.000000
2894.682373 7031.000000
2895.450439 6559.000000
2896.218018 7385.000000
2896.985596 8370.000000
2897.751953 7354.000000
2898.519287 6531.000000
2899.285400 7231.000000
2900.051758 6939.000000
2900.816650 8328.000000
2901.582031 6997.000000
2902.347900 6467.000000
2903.112305 7774.000000
2903.876709 7766.000000
2904.641357 8393.000000
2905.405029 6587.000000
2906.169434 8419.000000
2906.933105 6653.000000
2907.696045 8408.000000
2908.458740 6542.000000
2909.221924 9119.000000
2909.984619 6930.000000
2910.746094 6814.000000
2911.508057 6814.000000
