scanname Analyse101
timestamp 2017-02-10 22:33:55
ccdbias 953.862793
ccdgain 3.473401
sigmaread 8.960639
laserwavenum -0.503731
wavenumcorrection 0.019233
scancount 1
totalexposurems 10000
singleexposurems 10000
measurementstate Unknown
scanmode Manual
snr 12.499827 0.582952 0.271059
replacelist 1
672 31409.000000 31191.000000
peaks 8
401.209198 0.036890 0.000000 0.496103 0.000055
457.660034 0.031643 0.000000 0.112445 0.000011
809.932190 0.030890 0.000000 0.661866 0.000146
841.891968 0.027684 0.000000 0.378119 0.000077
975.290527 0.020259 0.000000 0.128886 0.000041
1153.302002 0.022002 0.000000 0.299645 0.000062
1327.535034 0.031189 0.000000 0.658399 0.000125
1459.500977 0.030976 0.000000 0.305575 0.000112
finalresult GLS_Multiple 88
A11883	Polypropylene (Isotactic)	5.656684e-001
A13500	Poly(propylene-co-ethylene)	5.600507e-001
A0115	Polypropylene	5.505805e-001
A13180	Polypropylene (lot B)	5.406338e-001
A1531	Ethyl formate	2.318916e-001
A9546	4-Methoxy-alpha-methylbenzyl alcohol	2.291636e-001
A2703	Acetaldehyde dimethyl acetal	2.280278e-001
A1676	Trifluoroacetic acid	2.236436e-001
A10674	Dibutyl succinate	2.171099e-001
A9321	Methyl 2-hydroxyisobutyrate	2.119346e-001
A15973	Silver azide	2.108360e-001
A0400	Potassium permanganate	2.092305e-001
A3222	Potassium nitrite	2.091061e-001
A9092	p-Tolyl ether	2.075861e-001
A6290	Bis(2,2,2-trifluoroethyl) phosphite	2.051406e-001
A11885	Poly(methyl methacrylate-co-butyl methacrylate)	2.027528e-001
A4881	2-(2-Chloroethoxy)tetrahydro-2H-pyran	2.024540e-001
A2313	Barium peroxide	2.017555e-001
A1270	Methyl DL-lactate	2.013912e-001
A1584	Pentane	2.009284e-001
A2098	Diethylene glycol dibutyl ether	1.983715e-001
A0369	2,4,6-Tribromophenol	1.961090e-001
A4543	1,4-Butanediol divinyl ether	1.943384e-001
A13820	(-)-Methyl L-lactate	1.941578e-001
A1697	Ethyl vinyl ether	1.938942e-001
A11482	Methyl 5-methoxysalicylate	1.934178e-001
A13507	Poly(methyl methacrylate-co-ethyl acrylate)	1.930985e-001
A0408	Chromium(VI) oxide	1.929350e-001
A11872	Poly(methyl methacrylate)	1.920459e-001
A2727	Acrolein diethyl acetal	1.919532e-001
A14792	N-Guanylurea sulfate salt hydrate	1.916702e-001
A5377	4-Methyl-2-nitroanisole	1.910502e-001
A12669	Oxamide	1.907257e-001
A8920	Perrhenic acid solution	1.889866e-001
A10745	Neomycin sulfate salt	1.887795e-001
A0098	Roundup (weed and grass killer)	1.880774e-001
A8248	5-Hydroxy-2-nitrobenzaldehyde	1.879812e-001
A2721	Formaldehyde diethyl acetal	1.879447e-001
A14069	(R)-(-)-1,2-Propanediol	1.878291e-001
A1928	Ammonium sulfate	1.870524e-001
A0524	Propionic acid	1.866650e-001
A2210	Calcium peroxide hydrate	1.862944e-001
A10296	Tri(ethylene glycol) divinyl ether	1.830798e-001
A0518	Propylene glycol	1.827681e-001
A10529	1-Formylpiperazine	1.811315e-001
A2863	Streptomycin sulfate salt	1.807076e-001
A2017	Isopropylamine	1.792199e-001
A0761	N,N,N',N'-Tetrakis(2-Hydroxypropyl)ethylenediamine	1.769556e-001
A11487	1,3-Dichloro-1,1,3,3-tetramethyldisiloxane	1.768185e-001
A5382	3-Methoxypropionic acid	1.766869e-001
A4565	1-Bromo-2,6-dichlorobenzene	1.756901e-001
A12725	Cerium(III) fluoride	1.756626e-001
A3574	Sodium hexanitrocobaltate(III)	1.755350e-001
A12448	Tribromofluoromethane	1.751936e-001
A8848	Palladium(II) acetylacetonate	1.751387e-001
A3625	1-Dimethylamino-2-propanol	1.748391e-001
A2141	Dichlorodiethylsilane	1.741527e-001
A14724	Ammonium metatungstate hydrate	1.738027e-001
A1268	Dichloromethylvinylsilane	1.735067e-001
A0629	Cyanuric chloride	1.734078e-001
A2413	Sodium selenate	1.733967e-001
A8580	Sodium permanganate solution	1.730364e-001
A1836	Carbon tetrachloride	1.730038e-001
A6278	6-Methylnicotinamide	1.729944e-001
A2160	Lead(II) sulfate	1.724752e-001
A10581	Piperidine	1.716120e-001
A12140	5-(Difluoromethoxy)-2-mercapto-1H-benzimidazole	1.715228e-001
A10118	N-Ethylmethylamine	1.714154e-001
A1644	Ethyl isobutyrate	1.713036e-001
A2926	Arsenic (III) Chloride	1.709527e-001
A0019	Sodium sulfide	1.707587e-001
A8610	5-Methyl-2-pyrrolidinone	1.698974e-001
A6025	2-Nitrothiophene	1.697343e-001
A13181	Polyethersulfone	1.693722e-001
A0290	Dichlorodimethylsilane	1.690578e-001
A6700	4'-Methoxypropiophenone	1.684640e-001
A0419	Sodium chlorite	1.682353e-001
A1748	3,4-Dihydro-2H-pyran	1.682289e-001
A14340	Titanium(IV) fluoride	1.682046e-001
A5042	2,4,6-Trichloropyrimidine	1.679739e-001
A7024	Hydrazine monohydrobromide	1.678429e-001
A12421	Chromium(III) acetylacetonate	1.678283e-001
A2423	Hydroxyurea	1.675604e-001
A7885	beta-Carotene	1.657844e-001
A0401	Antimony(III) oxide powder	1.653735e-001
A3251	Methyltrichlorosilane	1.638600e-001
A2322	Silver sulfate	1.633198e-001
A6746	4,6-Dichloro-2-(methylthio)pyrimidine	1.629242e-001
spectrum 2048
-97.097725 44941.000000
-94.470856 44941.000000
-91.845863 45686.000000
-89.222763 45632.000000
-86.601532 46501.000000
-83.982201 46224.000000
-81.364731 46491.000000
-78.749138 46212.000000
-76.135422 46597.000000
-73.523582 46998.000000
-70.913605 46804.000000
-68.305511 46994.000000
-65.699265 47132.000000
-63.094894 46973.000000
-60.492386 46936.000000
-57.891731 47456.000000
-55.292938 46880.000000
-52.696003 46152.000000
-50.100922 46601.000000
-47.507694 46556.000000
-44.916317 46788.000000
-42.326786 46324.000000
-39.739098 47115.000000
-37.153259 46906.000000
-34.569263 46521.000000
-31.987104 47159.000000
-29.406792 46555.000000
-26.828306 47177.000000
-24.251663 46757.000000
-21.676846 46622.000000
-19.103868 46319.000000
-16.532711 46334.000000
-13.963387 46002.000000
-11.395888 44910.000000
-8.830209 46388.000000
-6.266355 46082.000000
-3.704314 46428.000000
-1.144099 46480.000000
1.414310 46031.000000
3.970896 45020.000000
6.525679 44844.000000
9.078644 44931.000000
11.629808 43284.000000
14.179160 42453.000000
16.726715 41079.000000
19.272459 40256.000000
21.816410 38693.000000
24.358557 35520.000000
26.898907 32490.000000
29.437471 29694.000000
31.974239 25183.000000
34.509205 17069.000000
37.042393 10465.000000
39.573799 7444.000000
42.103413 6907.000000
44.631229 6906.000000
47.157288 6082.000000
49.681557 5325.000000
52.204056 4672.000000
54.724758 4378.000000
57.243706 4615.000000
59.760880 5476.000000
62.276276 7130.000000
64.789894 8640.000000
67.301758 7724.000000
69.811874 5778.000000
72.320198 3779.000000
74.826767 2856.000000
77.331589 2333.000000
79.834656 2032.000000
82.335945 1792.000000
84.835495 1686.000000
87.333290 1700.000000
89.829353 1782.000000
92.323639 1984.000000
94.816185 2331.000000
97.307014 2449.000000
99.796074 2077.000000
102.283386 1709.000000
104.768974 1384.000000
107.252823 1291.000000
109.734924 1129.000000
112.215302 931.000000
114.693954 1019.000000
117.170883 919.000000
119.646057 898.000000
122.119522 877.000000
124.591255 899.000000
127.061279 890.000000
129.529556 907.000000
131.996155 963.000000
134.460999 871.000000
136.924149 969.000000
139.385559 1024.000000
141.845276 991.000000
144.303268 1163.000000
146.759567 1286.000000
149.214157 1475.000000
151.667023 1535.000000
154.118210 1766.000000
156.567703 2006.000000
159.015472 2148.000000
161.461533 2427.000000
163.905914 2641.000000
166.348618 2984.000000
168.789627 3104.000000
171.228928 3340.000000
173.666519 3307.000000
176.102478 3403.000000
178.536697 3391.000000
180.969238 3235.000000
183.400131 3236.000000
185.829300 3118.000000
188.256821 3095.000000
190.682663 3101.000000
193.106827 3091.000000
195.529327 3020.000000
197.950134 2992.000000
200.369278 2965.000000
202.786758 3027.000000
205.202545 2987.000000
207.616684 3131.000000
210.029190 3256.000000
212.440018 3370.000000
214.849167 3453.000000
217.256683 3574.000000
219.662491 3646.000000
222.066711 3828.000000
224.469223 3913.000000
226.870117 3958.000000
229.269363 4036.000000
231.666946 4053.000000
234.062866 3901.000000
236.457169 3913.000000
238.849808 3864.000000
241.240829 3832.000000
243.630188 3631.000000
246.017929 3646.000000
248.404022 3529.000000
250.788483 3556.000000
253.171295 3469.000000
255.552536 3465.000000
257.932068 3260.000000
260.310028 3326.000000
262.686310 3240.000000
265.061035 3209.000000
267.434113 3035.000000
269.805542 3064.000000
272.175323 2945.000000
274.543549 2948.000000
276.910126 2878.000000
279.275116 2879.000000
281.638489 2828.000000
284.000214 2755.000000
286.360352 2697.000000
288.718872 2656.000000
291.075806 2618.000000
293.431122 2592.000000
295.784851 2523.000000
298.136932 2530.000000
300.487457 2504.000000
302.836395 2356.000000
305.183685 2404.000000
307.529449 2315.000000
309.873535 2416.000000
312.216095 2323.000000
314.557037 2328.000000
316.896362 2312.000000
319.234131 2295.000000
321.570343 2384.000000
323.904907 2365.000000
326.237915 2176.000000
328.569366 2232.000000
330.899231 2246.000000
333.227509 2120.000000
335.554169 2202.000000
337.879333 2183.000000
340.202881 2136.000000
342.524872 2107.000000
344.845306 2108.000000
347.164124 2068.000000
349.481384 2073.000000
351.797119 2116.000000
354.111267 2099.000000
356.423828 2041.000000
358.734833 1956.000000
361.044312 2007.000000
363.352264 2075.000000
365.658600 2079.000000
367.963348 2049.000000
370.266632 2132.000000
372.568298 2053.000000
374.868469 2013.000000
377.167084 2111.000000
379.464142 2085.000000
381.759644 2084.000000
384.053619 2039.000000
386.346008 2055.000000
388.636902 2042.000000
390.926270 2089.000000
393.214050 2123.000000
395.500305 2243.000000
397.785065 2419.000000
400.068207 2420.000000
402.349915 2433.000000
404.630096 2283.000000
406.908691 2233.000000
409.185760 2183.000000
411.461304 2056.000000
413.735321 2054.000000
416.007904 2119.000000
418.278870 2095.000000
420.548340 2059.000000
422.816315 1984.000000
425.082733 2024.000000
427.347656 2075.000000
429.611115 1981.000000
431.872986 2039.000000
434.133392 1996.000000
436.392242 1968.000000
438.649628 2011.000000
440.905518 1971.000000
443.159912 1927.000000
445.412781 1855.000000
447.664093 1940.000000
449.914001 1922.000000
452.162323 1922.000000
454.409210 1985.000000
456.654633 1938.000000
458.898499 1929.000000
461.140869 1912.000000
463.381744 1857.000000
465.621216 1886.000000
467.859100 1900.000000
470.095551 1913.000000
472.330475 1853.000000
474.563934 1657.000000
476.795959 1668.000000
479.026459 1613.000000
481.255463 1751.000000
483.483002 1769.000000
485.709045 1762.000000
487.933655 1760.000000
490.156799 1825.000000
492.378479 1770.000000
494.598602 1771.000000
496.817322 1712.000000
499.034546 1751.000000
501.250397 1722.000000
503.464630 1788.000000
505.677551 1611.000000
507.888885 1756.000000
510.098785 1653.000000
512.307251 1775.000000
514.514343 1761.000000
516.719849 1715.000000
518.923950 1676.000000
521.126526 1823.000000
523.327698 1709.000000
525.527527 1755.000000
527.725830 1694.000000
529.922607 1748.000000
532.118042 1721.000000
534.311951 1707.000000
536.504517 1655.000000
538.695557 1636.000000
540.885193 1727.000000
543.073425 1531.000000
545.260132 1645.000000
547.445374 1575.000000
549.629333 1512.000000
551.811707 1539.000000
553.992737 1562.000000
556.172241 1618.000000
558.350464 1523.000000
560.527161 1495.000000
562.702454 1482.000000
564.876343 1496.000000
567.048767 1536.000000
569.219788 1481.000000
571.389343 1481.000000
573.557617 1528.000000
575.724365 1500.000000
577.889648 1484.000000
580.053528 1497.000000
582.216125 1462.000000
584.377197 1572.000000
586.536865 1528.000000
588.695190 1519.000000
590.851990 1539.000000
593.007446 1496.000000
595.161499 1444.000000
597.314209 1448.000000
599.465393 1469.000000
601.615234 1435.000000
603.763733 1424.000000
605.910645 1484.000000
608.056335 1451.000000
610.200623 1458.000000
612.343445 1481.000000
614.484802 1468.000000
616.624939 1468.000000
618.763550 1427.000000
620.900879 1404.000000
623.036743 1441.000000
625.171204 1440.000000
627.304199 1404.000000
629.436035 1415.000000
631.566406 1464.000000
633.695374 1415.000000
635.822876 1443.000000
637.949097 1416.000000
640.073792 1335.000000
642.197266 1352.000000
644.319397 1385.000000
646.440063 1275.000000
648.559387 1392.000000
650.677307 1337.000000
652.793884 1288.000000
654.909058 1315.000000
657.022888 1357.000000
659.135254 1268.000000
661.246399 1326.000000
663.356140 1369.000000
665.464417 1393.000000
667.571533 1338.000000
669.677185 1293.000000
671.781372 1368.000000
673.884338 1306.000000
675.985901 1354.000000
678.086121 1360.000000
680.184937 1322.000000
682.282410 1355.000000
684.378601 1444.000000
686.473328 1361.000000
688.566833 1320.000000
690.658997 1380.000000
692.749634 1294.000000
694.839050 1340.000000
696.927185 1417.000000
699.013855 1357.000000
701.099304 1332.000000
703.183228 1348.000000
705.265930 1311.000000
707.347351 1355.000000
709.427307 1297.000000
711.506042 1303.000000
713.583313 1207.000000
715.659302 1242.000000
717.734009 1202.000000
719.807434 1351.000000
721.879333 1265.000000
723.950073 1186.000000
726.019470 1207.000000
728.087463 1317.000000
730.154114 1226.000000
732.219543 1261.000000
734.283630 1188.000000
736.346375 1226.000000
738.407776 1202.000000
740.467896 1168.000000
742.526611 1226.000000
744.584106 1196.000000
746.640320 1208.000000
748.695129 1243.000000
750.748657 1247.000000
752.800781 1244.000000
754.851685 1191.000000
756.901367 1244.000000
758.949585 1213.000000
760.996582 1210.000000
763.042297 1179.000000
765.086609 1210.000000
767.129639 1236.000000
769.171448 1089.000000
771.211914 1217.000000
773.250977 1219.000000
775.288879 1201.000000
777.325439 1176.000000
779.360779 1178.000000
781.394775 1153.000000
783.427368 1271.000000
785.458801 1310.000000
787.488831 1103.000000
789.517578 1171.000000
791.545166 1274.000000
793.571411 1221.000000
795.596252 1221.000000
797.619995 1254.000000
799.642334 1218.000000
801.663452 1264.000000
803.683228 1426.000000
805.701721 1517.000000
807.718994 1644.000000
809.734863 1679.000000
811.749573 1755.000000
813.762939 1549.000000
815.775085 1397.000000
817.786011 1301.000000
819.795593 1266.000000
821.803955 1222.000000
823.810913 1218.000000
825.816650 1185.000000
827.821167 1182.000000
829.824402 1172.000000
831.826355 1228.000000
833.827026 1237.000000
835.826477 1266.000000
837.824585 1263.000000
839.821594 1384.000000
841.817200 1532.000000
843.811646 1434.000000
845.804749 1375.000000
847.796631 1218.000000
849.787170 1168.000000
851.776428 1125.000000
853.764648 1216.000000
855.751465 1145.000000
857.737061 1031.000000
859.721375 1099.000000
861.704590 1022.000000
863.686401 1156.000000
865.666992 1054.000000
867.646301 1019.000000
869.624451 1026.000000
871.601257 1052.000000
873.576782 1069.000000
875.551270 1047.000000
877.524292 970.000000
879.496277 1169.000000
881.466919 1111.000000
883.436401 1061.000000
885.404541 1037.000000
887.371521 1076.000000
889.337158 1139.000000
891.301636 999.000000
893.264893 1090.000000
895.226929 998.000000
897.187683 1101.000000
899.147217 1102.000000
901.105469 1073.000000
903.062622 1069.000000
905.018616 999.000000
906.973206 1042.000000
908.926575 1008.000000
910.878784 1013.000000
912.829773 958.000000
914.779480 1002.000000
916.728027 936.000000
918.675354 892.000000
920.621399 906.000000
922.566162 859.000000
924.509888 945.000000
926.452454 896.000000
928.393738 836.000000
930.333679 880.000000
932.272522 887.000000
934.210083 915.000000
936.146423 904.000000
938.081604 856.000000
940.015503 960.000000
941.948303 950.000000
943.879883 938.000000
945.810303 913.000000
947.739502 948.000000
949.667358 821.000000
951.594177 876.000000
953.519714 825.000000
955.443970 843.000000
957.367126 876.000000
959.289124 798.000000
961.209839 827.000000
963.129395 858.000000
965.047791 858.000000
966.965149 845.000000
968.881042 912.000000
970.795837 965.000000
972.709412 984.000000
974.621826 1096.000000
976.533020 999.000000
978.443054 1032.000000
980.351807 861.000000
982.259521 812.000000
984.166016 892.000000
986.071289 805.000000
987.975464 788.000000
989.878418 822.000000
991.780151 857.000000
993.680725 913.000000
995.580139 802.000000
997.478333 928.000000
999.375366 949.000000
1001.271179 847.000000
1003.165833 811.000000
1005.059387 823.000000
1006.951660 763.000000
1008.843018 802.000000
1010.733032 721.000000
1012.621826 705.000000
1014.509460 817.000000
1016.395935 761.000000
1018.281250 776.000000
1020.165405 737.000000
1022.048340 747.000000
1023.930237 759.000000
1025.810791 791.000000
1027.690308 788.000000
1029.568848 747.000000
1031.446045 823.000000
1033.321899 819.000000
1035.196777 807.000000
1037.070679 911.000000
1038.943115 902.000000
1040.814575 802.000000
1042.684692 805.000000
1044.553833 774.000000
1046.421753 771.000000
1048.288574 688.000000
1050.154297 749.000000
1052.018799 754.000000
1053.882202 753.000000
1055.744263 841.000000
1057.605347 693.000000
1059.465332 710.000000
1061.323975 732.000000
1063.181519 698.000000
1065.037964 794.000000
1066.893311 713.000000
1068.747437 755.000000
1070.600708 715.000000
1072.452515 640.000000
1074.303345 789.000000
1076.152954 854.000000
1078.001343 745.000000
1079.848877 674.000000
1081.695068 715.000000
1083.540039 678.000000
1085.384155 640.000000
1087.226929 737.000000
1089.068481 735.000000
1090.909302 638.000000
1092.748535 660.000000
1094.587036 749.000000
1096.424194 743.000000
1098.260132 662.000000
1100.095093 724.000000
1101.928833 632.000000
1103.761597 755.000000
1105.593018 690.000000
1107.423584 764.000000
1109.252808 691.000000
1111.081055 648.000000
1112.908081 679.000000
1114.734131 620.000000
1116.558960 631.000000
1118.382690 605.000000
1120.205200 657.000000
1122.026611 639.000000
1123.847168 640.000000
1125.666260 707.000000
1127.484497 746.000000
1129.301392 638.000000
1131.117432 723.000000
1132.932251 601.000000
1134.745972 717.000000
1136.558594 585.000000
1138.369995 747.000000
1140.180420 686.000000
1141.989746 674.000000
1143.797729 669.000000
1145.604980 838.000000
1147.410767 874.000000
1149.215698 1032.000000
1151.019531 912.000000
1152.822144 1002.000000
1154.623901 1005.000000
1156.424194 916.000000
1158.223511 925.000000
1160.021851 869.000000
1161.818848 907.000000
1163.615112 882.000000
1165.410034 852.000000
1167.203857 886.000000
1168.996826 830.000000
1170.788452 783.000000
1172.579102 740.000000
1174.368774 700.000000
1176.156982 720.000000
1177.944336 721.000000
1179.730591 903.000000
1181.515747 565.000000
1183.299805 692.000000
1185.082764 707.000000
1186.864746 699.000000
1188.645508 691.000000
1190.425293 663.000000
1192.203979 623.000000
1193.981689 625.000000
1195.758179 603.000000
1197.533569 669.000000
1199.307861 666.000000
1201.081055 719.000000
1202.853394 738.000000
1204.624390 709.000000
1206.394531 734.000000
1208.163452 632.000000
1209.931274 713.000000
1211.698242 640.000000
1213.463867 698.000000
1215.228516 768.000000
1216.992065 756.000000
1218.754517 814.000000
1220.516113 832.000000
1222.276489 805.000000
1224.035767 753.000000
1225.794189 771.000000
1227.551392 571.000000
1229.307495 752.000000
1231.062500 734.000000
1232.816650 758.000000
1234.569458 673.000000
1236.321289 679.000000
1238.072266 673.000000
1239.821899 692.000000
1241.570679 788.000000
1243.318115 793.000000
1245.064819 689.000000
1246.810303 738.000000
1248.554932 708.000000
1250.298218 745.000000
1252.040527 742.000000
1253.781738 685.000000
1255.522095 645.000000
1257.261353 664.000000
1258.999390 799.000000
1260.736572 681.000000
1262.472534 682.000000
1264.207520 629.000000
1265.941528 748.000000
1267.674561 649.000000
1269.406372 794.000000
1271.137207 815.000000
1272.866821 787.000000
1274.595581 728.000000
1276.323242 763.000000
1278.049805 824.000000
1279.775513 617.000000
1281.499878 766.000000
1283.223389 724.000000
1284.945923 835.000000
1286.667480 795.000000
1288.387817 805.000000
1290.107178 745.000000
1291.825439 735.000000
1293.542725 806.000000
1295.259033 775.000000
1296.974121 882.000000
1298.688232 837.000000
1300.401367 825.000000
1302.113647 765.000000
1303.824707 810.000000
1305.534790 869.000000
1307.243774 774.000000
1308.951538 750.000000
1310.658691 690.000000
1312.364380 784.000000
1314.069336 815.000000
1315.773315 783.000000
1317.476074 876.000000
1319.177856 880.000000
1320.878784 857.000000
1322.578369 1297.000000
1324.277100 1163.000000
1325.975098 1029.000000
1327.671753 1092.000000
1329.367310 1061.000000
1331.062012 1158.000000
1332.755493 1051.000000
1334.448120 934.000000
1336.139893 776.000000
1337.830322 906.000000
1339.520020 904.000000
1341.208618 785.000000
1342.896118 913.000000
1344.582642 901.000000
1346.268066 833.000000
1347.952515 812.000000
1349.636108 849.000000
1351.318481 869.000000
1352.999878 814.000000
1354.680420 931.000000
1356.359741 820.000000
1358.038452 1071.000000
1359.715820 967.000000
1361.392090 952.000000
1363.067383 974.000000
1364.741943 1016.000000
1366.415283 914.000000
1368.087646 971.000000
1369.759033 828.000000
1371.429443 869.000000
1373.098755 927.000000
1374.767090 867.000000
1376.434570 879.000000
1378.100952 871.000000
1379.766357 859.000000
1381.430786 787.000000
1383.093994 758.000000
1384.756592 870.000000
1386.417847 810.000000
1388.078247 691.000000
1389.737549 774.000000
1391.395874 747.000000
1393.053467 732.000000
1394.709839 784.000000
1396.365356 674.000000
1398.019653 680.000000
1399.673096 773.000000
1401.325439 727.000000
1402.977051 780.000000
1404.627441 795.000000
1406.276733 761.000000
1407.925293 650.000000
1409.572754 726.000000
1411.219238 753.000000
1412.864868 659.000000
1414.509521 663.000000
1416.152954 716.000000
1417.795532 688.000000
1419.437012 806.000000
1421.077637 677.000000
1422.717285 735.000000
1424.355835 660.000000
1425.993530 727.000000
1427.630127 693.000000
1429.265747 721.000000
1430.900635 697.000000
1432.534424 756.000000
1434.167114 775.000000
1435.798828 863.000000
1437.429688 782.000000
1439.059448 771.000000
1440.688110 748.000000
1442.316162 753.000000
1443.943115 717.000000
1445.568848 757.000000
1447.193970 758.000000
1448.817993 811.000000
1450.441040 881.000000
1452.063110 873.000000
1453.684082 770.000000
1455.304077 1080.000000
1456.923340 1067.000000
1458.541260 1094.000000
1460.158569 986.000000
1461.774902 1052.000000
1463.390015 923.000000
1465.004272 914.000000
1466.617676 841.000000
1468.229980 816.000000
1469.841431 745.000000
1471.452026 730.000000
1473.061401 756.000000
1474.669800 742.000000
1476.277344 727.000000
1477.883911 870.000000
1479.489746 745.000000
1481.094360 621.000000
1482.698120 683.000000
1484.300659 798.000000
1485.902588 644.000000
1487.503296 643.000000
1489.103271 659.000000
1490.702148 613.000000
1492.300171 580.000000
1493.897095 707.000000
1495.493164 651.000000
1497.088257 613.000000
1498.682373 711.000000
1500.275757 625.000000
1501.868042 699.000000
1503.459106 594.000000
1505.049683 601.000000
1506.638916 678.000000
1508.227539 578.000000
1509.815063 558.000000
1511.401489 668.000000
1512.987183 614.000000
1514.571777 664.000000
1516.155518 613.000000
1517.738159 728.000000
1519.320068 635.000000
1520.900879 648.000000
1522.480957 647.000000
1524.059814 595.000000
1525.637817 612.000000
1527.215088 618.000000
1528.791138 616.000000
1530.366455 633.000000
1531.940674 618.000000
1533.514160 611.000000
1535.086426 620.000000
1536.657959 651.000000
1538.228516 690.000000
1539.798218 607.000000
1541.366699 586.000000
1542.934448 596.000000
1544.501343 622.000000
1546.067017 696.000000
1547.631958 630.000000
1549.195801 672.000000
1550.759033 604.000000
1552.320923 668.000000
1553.882202 684.000000
1555.442383 737.000000
1557.001831 556.000000
1558.560181 647.000000
1560.117798 649.000000
1561.674316 675.000000
1563.229614 582.000000
1564.784302 617.000000
1566.338257 675.000000
1567.891235 662.000000
1569.442871 674.000000
1570.993774 601.000000
1572.543945 647.000000
1574.093140 698.000000
1575.640991 612.000000
1577.188354 671.000000
1578.734741 729.000000
1580.280273 662.000000
1581.824829 615.000000
1583.368164 603.000000
1584.910889 630.000000
1586.452759 673.000000
1587.993530 657.000000
1589.533325 606.000000
1591.072388 633.000000
1592.610352 609.000000
1594.147827 689.000000
1595.683960 649.000000
1597.218994 720.000000
1598.753540 662.000000
1600.287109 614.000000
1601.819824 746.000000
1603.350952 693.000000
1604.881836 673.000000
1606.411865 680.000000
1607.940674 605.000000
1609.468384 664.000000
1610.995483 693.000000
1612.521851 767.000000
1614.047241 700.000000
1615.571777 754.000000
1617.094971 700.000000
1618.617432 678.000000
1620.139160 685.000000
1621.660034 741.000000
1623.179443 712.000000
1624.698364 720.000000
1626.216553 656.000000
1627.733887 730.000000
1629.250122 769.000000
1630.765015 657.000000
1632.279419 717.000000
1633.793091 656.000000
1635.305664 679.000000
1636.817017 669.000000
1638.328003 702.000000
1639.837891 665.000000
1641.346924 672.000000
1642.854614 691.000000
1644.361938 671.000000
1645.868408 733.000000
1647.373901 735.000000
1648.878540 752.000000
1650.381714 654.000000
1651.884277 645.000000
1653.386475 666.000000
1654.887329 666.000000
1656.387085 641.000000
1657.885986 649.000000
1659.384521 669.000000
1660.881836 633.000000
1662.378418 589.000000
1663.873413 681.000000
1665.368164 629.000000
1666.862061 670.000000
1668.354980 538.000000
1669.846558 802.000000
1671.337646 638.000000
1672.828125 547.000000
1674.317505 601.000000
1675.805420 584.000000
1677.293091 644.000000
1678.779785 521.000000
1680.265625 581.000000
1681.750610 561.000000
1683.234131 548.000000
1684.717407 612.000000
1686.199829 655.000000
1687.681152 482.000000
1689.161011 559.000000
1690.640625 535.000000
1692.119507 488.000000
1693.597412 574.000000
1695.074341 564.000000
1696.550049 459.000000
1698.025391 511.000000
1699.499512 539.000000
1700.973022 480.000000
1702.445068 520.000000
1703.916870 563.000000
1705.387695 514.000000
1706.857666 474.000000
1708.326294 423.000000
1709.794434 517.000000
1711.261841 471.000000
1712.728149 433.000000
1714.193848 491.000000
1715.657837 370.000000
1717.121704 474.000000
1718.584717 418.000000
1720.046753 458.000000
1721.507568 494.000000
1722.967773 509.000000
1724.427246 448.000000
1725.885864 449.000000
1727.343506 460.000000
1728.799805 432.000000
1730.255859 567.000000
1731.710938 420.000000
1733.165039 461.000000
1734.617920 440.000000
1736.070557 415.000000
1737.522095 479.000000
1738.972900 436.000000
1740.422729 414.000000
1741.871216 465.000000
1743.319336 474.000000
1744.766602 455.000000
1746.213135 336.000000
1747.658081 383.000000
1749.102783 350.000000
1750.546631 455.000000
1751.989624 473.000000
1753.431152 380.000000
1754.872437 401.000000
1756.312866 339.000000
1757.752319 374.000000
1759.190796 450.000000
1760.628296 387.000000
1762.065308 433.000000
1763.501343 354.000000
1764.936523 381.000000
1766.370239 340.000000
1767.803833 310.000000
1769.236450 430.000000
1770.668213 332.000000
1772.099121 345.000000
1773.528809 359.000000
1774.957764 348.000000
1776.386230 293.000000
1777.813721 348.000000
1779.239868 318.000000
1780.665771 402.000000
1782.090576 360.000000
1783.514771 299.000000
1784.937500 372.000000
1786.359741 309.000000
1787.781250 260.000000
1789.202026 296.000000
1790.621826 274.000000
1792.040283 317.000000
1793.458252 350.000000
1794.875610 384.000000
1796.292114 384.000000
1797.707153 267.000000
1799.121826 202.000000
1800.535889 319.000000
1801.948730 265.000000
1803.360962 308.000000
1804.771851 335.000000
1806.182251 279.000000
1807.591919 293.000000
1809.000610 290.000000
1810.408203 315.000000
1811.815308 302.000000
1813.221558 286.000000
1814.626831 347.000000
1816.031006 284.000000
1817.434814 298.000000
1818.837646 280.000000
1820.239624 232.000000
1821.640991 305.000000
1823.040894 268.000000
1824.440186 368.000000
1825.838989 245.000000
1827.236938 339.000000
1828.633545 234.000000
1830.029541 277.000000
1831.424805 337.000000
1832.819458 253.000000
1834.213135 299.000000
1835.605469 268.000000
1836.997314 274.000000
1838.388550 307.000000
1839.778809 265.000000
1841.167847 255.000000
1842.556519 300.000000
1843.944214 365.000000
1845.331177 334.000000
1846.716797 278.000000
1848.102173 287.000000
1849.486694 311.000000
1850.870483 330.000000
1852.253174 287.000000
1853.634644 303.000000
1855.015625 258.000000
1856.396118 346.000000
1857.775635 261.000000
1859.153687 306.000000
1860.531616 231.000000
1861.908569 324.000000
1863.284790 292.000000
1864.660156 282.000000
1866.034058 287.000000
1867.407837 257.000000
1868.780762 257.000000
1870.152588 329.000000
1871.523438 293.000000
1872.893921 250.000000
1874.263306 246.000000
1875.632202 194.000000
1876.999512 270.000000
1878.366699 217.000000
1879.732910 208.000000
1881.098389 192.000000
1882.463135 244.000000
1883.826294 177.000000
1885.189331 342.000000
1886.551514 281.000000
1887.912842 208.000000
1889.272827 212.000000
1890.632446 199.000000
1891.991455 299.000000
1893.349487 202.000000
1894.706665 284.000000
1896.062622 221.000000
1897.418335 274.000000
1898.773071 258.000000
1900.126953 220.000000
1901.479736 255.000000
1902.832031 243.000000
1904.183594 263.000000
1905.534302 252.000000
1906.883789 169.000000
1908.232788 279.000000
1909.580933 230.000000
1910.928467 277.000000
1912.275269 300.000000
1913.620483 162.000000
1914.965454 275.000000
1916.309692 312.000000
1917.653076 251.000000
1918.995117 237.000000
1920.336914 221.000000
1921.677856 181.000000
1923.018066 177.000000
1924.357300 250.000000
1925.695557 278.000000
1927.033203 191.000000
1928.370117 194.000000
1929.706177 163.000000
1931.041016 225.000000
1932.375488 188.000000
1933.709229 249.000000
1935.042114 252.000000
1936.373535 211.000000
1937.705078 182.000000
1939.035278 152.000000
1940.364990 294.000000
1941.693848 189.000000
1943.021484 142.000000
1944.348633 259.000000
1945.675049 231.000000
1947.000732 368.000000
1948.325073 170.000000
1949.649170 211.000000
1950.972412 297.000000
1952.294922 185.000000
1953.616333 172.000000
1954.936768 188.000000
1956.256592 298.000000
1957.576050 222.000000
1958.894531 254.000000
1960.211670 171.000000
1961.528442 156.000000
1962.844482 169.000000
1964.159790 248.000000
1965.473633 208.000000
1966.787231 222.000000
1968.100098 104.000000
1969.412109 233.000000
1970.723511 188.000000
1972.033569 132.000000
1973.343140 283.000000
1974.651978 235.000000
1975.960205 178.000000
1977.267090 252.000000
1978.573364 312.000000
1979.879272 218.000000
1981.183960 210.000000
1982.488159 135.000000
1983.791138 199.000000
1985.093750 217.000000
1986.395386 217.000000
1987.696411 171.000000
1988.995850 161.000000
1990.295410 213.000000
1991.593872 201.000000
1992.891846 214.000000
1994.188232 171.000000
1995.484619 270.000000
1996.780029 222.000000
1998.074707 161.000000
1999.368530 240.000000
2000.661133 178.000000
2001.953247 216.000000
2003.244873 232.000000
2004.535767 122.000000
2005.825073 215.000000
2007.114136 285.000000
2008.402466 240.000000
2009.690063 223.000000
2010.976807 125.000000
2012.262451 222.000000
2013.547729 203.000000
2014.832031 252.000000
2016.115723 161.000000
2017.398071 218.000000
2018.680054 287.000000
2019.961548 166.000000
2021.242065 219.000000
2022.521851 142.000000
2023.800537 195.000000
2025.078491 201.000000
2026.355957 193.000000
2027.632813 135.000000
2028.907959 289.000000
2030.183228 214.000000
2031.457520 91.000000
2032.730835 253.000000
2034.003296 158.000000
2035.275391 253.000000
2036.546387 229.000000
2037.817139 143.000000
2039.086548 242.000000
2040.354858 309.000000
2041.623169 130.000000
2042.890503 185.000000
2044.157104 155.000000
2045.422485 91.000000
2046.687256 -21.000000
2047.951782 204.000000
2049.215088 233.000000
2050.478027 214.000000
2051.739014 122.000000
2053.000488 154.000000
2054.260742 196.000000
2055.520264 215.000000
2056.779053 71.000000
2058.036865 163.000000
2059.294189 160.000000
2060.550781 200.000000
2061.805908 187.000000
2063.061035 227.000000
2064.315186 159.000000
2065.568604 171.000000
2066.821289 292.000000
2068.072754 146.000000
2069.323975 174.000000
2070.574463 182.000000
2071.824219 215.000000
2073.072510 208.000000
2074.320801 159.000000
2075.568115 140.000000
2076.814697 215.000000
2078.060547 182.000000
2079.305176 224.000000
2080.549316 202.000000
2081.792969 100.000000
2083.035645 182.000000
2084.277100 232.000000
2085.518311 172.000000
2086.759033 229.000000
2087.998779 235.000000
2089.237305 261.000000
2090.475342 197.000000
2091.712646 201.000000
2092.949707 114.000000
2094.185303 190.000000
2095.420166 110.000000
2096.654785 117.000000
2097.888428 126.000000
2099.121094 80.000000
2100.353027 229.000000
2101.584473 164.000000
2102.814941 99.000000
2104.044678 185.000000
2105.274170 105.000000
2106.501709 231.000000
2107.729492 188.000000
2108.956543 285.000000
2110.182617 173.000000
2111.407227 118.000000
2112.632080 97.000000
2113.855713 127.000000
2115.078857 218.000000
2116.300781 191.000000
2117.522461 208.000000
2118.743164 207.000000
2119.963135 130.000000
2121.182617 187.000000
2122.400635 138.000000
2123.618652 224.000000
2124.835693 193.000000
2126.052246 208.000000
2127.267090 145.000000
2128.482178 153.000000
2129.696289 128.000000
2130.909668 162.000000
2132.122314 63.000000
2133.333496 259.000000
2134.544922 133.000000
2135.755127 52.000000
2136.964844 100.000000
2138.173096 211.000000
2139.381348 187.000000
2140.588867 213.000000
2141.795166 -41.000000
2143.000732 172.000000
2144.206055 214.000000
2145.410400 131.000000
2146.614014 177.000000
2147.817139 194.000000
2149.018799 240.000000
2150.220215 179.000000
2151.420898 143.000000
2152.620850 134.000000
2153.819580 3.000000
2155.018066 192.000000
2156.216064 150.000000
2157.413086 142.000000
2158.609375 115.000000
2159.804443 174.000000
2160.999268 140.000000
2162.193359 140.000000
2163.386475 81.000000
2164.578613 203.000000
2165.770508 172.000000
2166.961670 165.000000
2168.151855 244.000000
2169.341309 145.000000
2170.530273 194.000000
2171.718262 115.000000
2172.906006 71.000000
2174.092285 236.000000
2175.277832 194.000000
2176.463135 200.000000
2177.647949 218.000000
2178.831543 126.000000
2180.014404 125.000000
2181.196289 129.000000
2182.377930 140.000000
2183.559082 188.000000
2184.739014 131.000000
2185.917969 182.000000
2187.096436 166.000000
2188.274658 224.000000
2189.451660 204.000000
2190.627686 94.000000
2191.803467 124.000000
2192.978760 135.000000
2194.152588 145.000000
2195.325928 76.000000
2196.499023 164.000000
2197.670898 201.000000
2198.842285 135.000000
2200.013184 146.000000
2201.182373 120.000000
2202.351563 120.000000
2203.520264 186.000000
2204.687988 106.000000
2205.854736 192.000000
2207.020752 104.000000
2208.186279 196.000000
2209.351563 119.000000
2210.515381 163.000000
2211.678711 120.000000
2212.840820 109.000000
2214.003174 168.000000
2215.164307 90.000000
2216.324463 185.000000
2217.484131 64.000000
2218.643555 114.000000
2219.801758 155.000000
2220.958984 144.000000
2222.115967 121.000000
2223.272217 140.000000
2224.427734 128.000000
2225.582520 119.000000
2226.736328 3.000000
2227.889160 173.000000
2229.042480 197.000000
2230.193848 173.000000
2231.344971 149.000000
2232.495361 189.000000
2233.645264 159.000000
2234.794189 123.000000
2235.942627 127.000000
2237.089600 -379.000000
2238.236816 50.000000
2239.382813 166.000000
2240.528564 149.000000
2241.672607 181.000000
2242.816895 174.000000
2243.960205 77.000000
2245.102783 132.000000
2246.244385 110.000000
2247.385742 -1.000000
2248.526123 127.000000
2249.665771 78.000000
2250.804932 104.000000
2251.942871 101.000000
2253.080811 138.000000
2254.217773 181.000000
2255.354004 -4.000000
2256.489258 35.000000
2257.623779 74.000000
2258.758057 71.000000
2259.891846 82.000000
2261.024170 37.000000
2262.156006 102.000000
2263.287354 69.000000
2264.417725 54.000000
2265.547852 93.000000
2266.676758 193.000000
2267.805176 44.000000
2268.933105 50.000000
2270.060059 8.000000
2271.186279 142.000000
2272.311523 121.000000
2273.436768 80.000000
2274.561279 116.000000
2275.684570 -8.000000
2276.807129 63.000000
2277.929199 62.000000
2279.050781 60.000000
2280.171631 148.000000
2281.291260 140.000000
2282.410400 73.000000
2283.529297 76.000000
2284.647461 127.000000
2285.764648 133.000000
2286.880859 111.000000
2287.996826 57.000000
2289.112061 120.000000
2290.226563 83.000000
2291.339844 114.000000
2292.453125 122.000000
2293.565674 90.000000
2294.677490 45.000000
2295.788574 122.000000
2296.898438 104.000000
2298.007813 141.000000
2299.116943 132.000000
2300.225098 -1.000000
2301.332275 49.000000
2302.439209 12.000000
2303.545410 109.000000
2304.651123 76.000000
2305.755371 162.000000
2306.859375 105.000000
2307.962891 92.000000
2309.065918 58.000000
2310.167725 48.000000
2311.268799 68.000000
2312.369385 149.000000
2313.469482 109.000000
2314.568848 95.000000
2315.666748 84.000000
2316.765137 93.000000
2317.862061 -30.000000
2318.958740 -22.000000
2320.054932 103.000000
2321.149414 100.000000
2322.243896 69.000000
2323.337646 95.000000
2324.431152 156.000000
2325.522949 82.000000
2326.614746 109.000000
2327.705811 183.000000
2328.796143 193.000000
2329.885498 117.000000
2330.974854 196.000000
2332.062988 199.000000
2333.150635 191.000000
2334.238037 167.000000
2335.323730 163.000000
2336.409180 49.000000
2337.494385 79.000000
2338.578613 55.000000
2339.661865 38.000000
2340.744873 98.000000
2341.826904 -38.000000
2342.908691 58.000000
2343.989746 7.000000
2345.069580 28.000000
2346.148926 64.000000
2347.227783 84.000000
2348.306152 60.000000
2349.383057 77.000000
2350.459717 -17.000000
2351.536133 64.000000
2352.611572 9.000000
2353.686035 196.000000
2354.760254 161.000000
2355.833740 82.000000
2356.906738 115.000000
2357.978516 75.000000
2359.050049 71.000000
2360.120605 70.000000
2361.190918 20.000000
2362.260254 -6.000000
2363.328613 93.000000
2364.396729 31.000000
2365.464111 83.000000
2366.531006 37.000000
2367.597168 45.000000
2368.662109 -21.000000
2369.727051 89.000000
2370.791260 142.000000
2371.854736 139.000000
2372.916992 77.000000
2373.979248 62.000000
2375.040527 -7.000000
2376.101563 76.000000
2377.161377 25.000000
2378.220459 87.000000
2379.279541 53.000000
2380.337646 51.000000
2381.395020 108.000000
2382.451416 85.000000
2383.507568 114.000000
2384.563232 105.000000
2385.618164 14.000000
2386.671631 32.000000
2387.725342 189.000000
2388.778076 20.000000
2389.830322 57.000000
2390.881836 124.000000
2391.932373 -51.000000
2392.982666 -6.000000
2394.031982 -13.000000
2395.081299 142.000000
2396.129150 81.000000
2397.176514 93.000000
2398.223633 69.000000
2399.269775 -22.000000
2400.315186 43.000000
2401.359863 -26.000000
2402.404541 66.000000
2403.447754 142.000000
2404.490967 47.000000
2405.532715 121.000000
2406.574707 141.000000
2407.615967 -7.000000
2408.656250 40.000000
2409.695801 97.000000
2410.734375 82.000000
2411.773193 90.000000
2412.810791 81.000000
2413.848145 85.000000
2414.884277 154.000000
2415.920166 28.000000
2416.955322 31.000000
2417.989990 109.000000
2419.023193 82.000000
2420.056641 24.000000
2421.089111 19.000000
2422.121338 -15.000000
2423.152100 85.000000
2424.182861 80.000000
2425.213135 69.000000
2426.242188 46.000000
2427.271240 -22.000000
2428.298584 25.000000
2429.326416 136.000000
2430.353027 121.000000
2431.379395 44.000000
2432.404297 5.000000
2433.429443 38.000000
2434.453613 -4.000000
2435.477539 -10.000000
2436.500244 80.000000
2437.522217 -46.000000
2438.543945 89.000000
2439.564941 29.000000
2440.585449 92.000000
2441.604736 49.000000
2442.624023 -4.000000
2443.642334 67.000000
2444.660400 49.000000
2445.677002 32.000000
2446.693604 90.000000
2447.709473 76.000000
2448.725342 55.000000
2449.739746 170.000000
2450.753418 41.000000
2451.766602 9.000000
2452.779541 -8.000000
2453.791748 -50.000000
2454.802979 105.000000
2455.813965 109.000000
2456.824219 50.000000
2457.833984 72.000000
2458.842773 -59.000000
2459.850830 46.000000
2460.858887 -18.000000
2461.865723 -59.000000
2462.872314 32.000000
2463.877686 37.000000
2464.882813 76.000000
2465.887695 48.000000
2466.891357 54.000000
2467.894775 116.000000
2468.897217 51.000000
2469.899414 61.000000
2470.901123 84.000000
2471.901855 39.000000
2472.901611 41.000000
2473.901367 11.000000
2474.900146 -43.000000
2475.898438 -4.000000
2476.895752 22.000000
2477.892822 33.000000
2478.889893 30.000000
2479.885498 91.000000
2480.881104 40.000000
2481.875000 48.000000
2482.868896 75.000000
2483.862305 -15.000000
2484.855225 122.000000
2485.847168 43.000000
2486.838379 -4.000000
2487.829346 22.000000
2488.819824 -106.000000
2489.809326 48.000000
2490.798096 58.000000
2491.786865 28.000000
2492.774658 -20.000000
2493.761230 -3.000000
2494.747803 87.000000
2495.733887 16.000000
2496.719238 12.000000
2497.703613 64.000000
2498.687744 33.000000
2499.671875 59.000000
2500.654541 48.000000
2501.636719 15.000000
2502.618408 72.000000
2503.599365 -10.000000
2504.579834 26.000000
2505.560059 60.000000
2506.538818 102.000000
2507.517334 55.000000
2508.495361 87.000000
2509.472900 12.000000
2510.449463 12.000000
2511.425781 99.000000
2512.401367 -14.000000
2513.376465 2.000000
2514.351074 23.000000
2515.324463 -12.000000
2516.297607 -22.000000
2517.270508 77.000000
2518.242432 95.000000
2519.213623 71.000000
2520.184326 3.000000
2521.154785 -35.000000
2522.124512 1.000000
2523.093262 30.000000
2524.061279 22.000000
2525.029297 11.000000
2525.996338 61.000000
2526.963135 -22.000000
2527.928711 25.000000
2528.894287 9.000000
2529.859131 142.000000
2530.823486 55.000000
2531.786621 100.000000
2532.750000 37.000000
2533.712402 -99.000000
2534.674561 -60.000000
2535.635498 90.000000
2536.595703 -47.000000
2537.556152 78.000000
2538.515625 65.000000
2539.474365 -41.000000
2540.432129 64.000000
2541.390137 -42.000000
2542.347412 60.000000
2543.303711 51.000000
2544.259766 43.000000
2545.214600 -15.000000
2546.169678 -44.000000
2547.124023 29.000000
2548.077637 231.000000
2549.030273 29.000000
2549.982666 -6.000000
2550.934570 39.000000
2551.885742 -14.000000
2552.836182 -3.000000
2553.786133 -43.000000
2554.735840 39.000000
2555.684814 51.000000
2556.633301 68.000000
2557.580566 14.000000
2558.527832 49.000000
2559.474365 -118.000000
2560.420410 35.000000
2561.365479 29.000000
2562.310303 43.000000
2563.254639 -70.000000
2564.198486 25.000000
2565.141846 23.000000
2566.083740 26.000000
2567.025879 -38.000000
2567.967285 8.000000
2568.907959 149.000000
2569.847900 18.000000
2570.787842 41.000000
2571.726807 24.000000
2572.665527 1.000000
2573.603271 85.000000
2574.540771 -15.000000
2575.477539 9.000000
2576.413574 100.000000
2577.349121 22.000000
2578.283936 58.000000
2579.218750 27.000000
2580.152588 106.000000
2581.085938 -12.000000
2582.018555 52.000000
2582.950928 -92.000000
2583.882568 11.000000
2584.813721 11.000000
2585.744385 17.000000
2586.673828 -5.000000
2587.603271 56.000000
2588.532227 2.000000
2589.460938 111.000000
2590.387939 78.000000
2591.315186 -2.000000
2592.241943 8.000000
2593.167969 16.000000
2594.093750 23.000000
2595.018311 16.000000
2595.942627 -7.000000
2596.866455 64.000000
2597.789795 -63.000000
2598.712158 42.000000
2599.634277 64.000000
2600.555908 17.000000
2601.476807 -20.000000
2602.396973 57.000000
2603.316895 25.000000
2604.236328 16.000000
2605.155518 -9.000000
2606.073730 -1.000000
2606.990723 25.000000
2607.907959 -18.000000
2608.824951 -32.000000
2609.740967 -2.000000
2610.655762 -22.000000
2611.571045 -26.000000
2612.485596 37.000000
2613.399170 8.000000
2614.312744 116.000000
2615.225098 15.000000
2616.137451 -80.000000
2617.048828 -43.000000
2617.959961 55.000000
2618.870361 19.000000
2619.780518 11.000000
2620.689941 -52.000000
2621.598877 -33.000000
2622.506836 73.000000
2623.415039 -9.000000
2624.322266 -23.000000
2625.229004 52.000000
2626.135010 -30.000000
2627.040771 -45.000000
2627.945801 -9.000000
2628.850586 53.000000
2629.754639 -44.000000
2630.657715 67.000000
2631.560791 -25.000000
2632.462891 22.000000
2633.364990 25.000000
2634.266846 59.000000
2635.166992 117.000000
2636.067383 99.000000
2636.967041 45.000000
2637.866455 -6.000000
2638.764404 5.000000
2639.662842 178.000000
2640.560791 -23.000000
2641.458008 -94.000000
2642.354004 111.000000
2643.250000 35.000000
2644.145752 53.000000
2645.040771 -42.000000
2645.935547 -4.000000
2646.828857 18.000000
2647.722168 -42.000000
2648.615234 18.000000
2649.508057 23.000000
2650.399170 -39.000000
2651.290527 -13.000000
2652.181396 -15.000000
2653.071533 40.000000
2653.961426 106.000000
2654.850098 9.000000
2655.739014 -9.000000
2656.627441 -25.000000
2657.514893 -28.000000
2658.401367 96.000000
2659.288330 -46.000000
2660.174561 -26.000000
2661.060303 21.000000
2661.944824 24.000000
2662.829346 31.000000
2663.713623 -17.000000
2664.597168 25.000000
2665.480225 -46.000000
2666.362549 16.000000
2667.244385 -33.000000
2668.125488 -6.000000
2669.006836 -34.000000
2669.886719 57.000000
2670.766846 64.000000
2671.646240 37.000000
2672.525635 28.000000
2673.404297 5.000000
2674.281250 -38.000000
2675.158936 64.000000
2676.035889 41.000000
2676.912109 -87.000000
2677.787842 -3.000000
2678.662842 8.000000
2679.538086 85.000000
2680.412354 41.000000
2681.286133 98.000000
2682.159180 11.000000
2683.031982 -28.000000
2683.904541 58.000000
2684.776367 -6.000000
2685.647461 23.000000
2686.518311 -25.000000
2687.388672 0.000000
2688.258789 21.000000
2689.127197 8.000000
2689.996338 -10.000000
2690.864746 -41.000000
2691.732910 77.000000
2692.600342 -26.000000
2693.466553 -16.000000
2694.333252 49.000000
2695.198975 7.000000
2696.064697 2.000000
2696.928955 15.000000
2697.793945 32.000000
2698.657471 59.000000
2699.521240 -26.000000
2700.383545 -40.000000
2701.246338 34.000000
2702.108154 -17.000000
2702.969482 -34.000000
2703.830811 -27.000000
2704.690918 -85.000000
2705.551025 8.000000
2706.410645 25.000000
2707.270020 -16.000000
2708.127686 33.000000
2708.985596 9.000000
2709.843994 -103.000000
2710.701172 -95.000000
2711.557617 113.000000
2712.413574 26.000000
2713.269531 26.000000
2714.124756 -41.000000
2714.979248 114.000000
2715.833252 129.000000
2716.687256 -12.000000
2717.540283 52.000000
2718.393555 -26.000000
2719.245117 12.000000
2720.097168 57.000000
2720.948975 -76.000000
2721.799561 16.000000
2722.650146 -73.000000
2723.500244 -57.000000
2724.349609 -6.000000
2725.198975 -16.000000
2726.047119 -56.000000
2726.894775 34.000000
2727.742920 7.000000
2728.589844 -12.000000
2729.437256 -23.000000
2730.283203 68.000000
2731.128418 -87.000000
2731.974121 10.000000
2732.818848 -57.000000
2733.663574 -9.000000
2734.507080 32.000000
2735.350830 -34.000000
2736.193848 111.000000
2737.036377 -27.000000
2737.877930 66.000000
2738.719971 61.000000
2739.561035 -65.000000
2740.401855 34.000000
2741.242432 78.000000
2742.081787 63.000000
2742.921143 -30.000000
2743.760498 -97.000000
2744.598633 -12.000000
2745.436279 76.000000
2746.273926 25.000000
2747.111084 -36.000000
2747.947998 6.000000
2748.784424 28.000000
2749.619629 20.000000
2750.455078 -9.000000
2751.290039 0.000000
2752.124268 53.000000
2752.958252 23.000000
2753.791748 7.000000
2754.625244 -114.000000
2755.457764 27.000000
2756.289795 11.000000
2757.121338 -11.000000
2757.952881 82.000000
2758.783447 -25.000000
2759.614258 74.000000
2760.443848 -39.000000
2761.273438 105.000000
2762.102783 20.000000
2762.931396 98.000000
2763.759521 57.000000
2764.587158 -69.000000
2765.414795 -110.000000
2766.241943 -37.000000
2767.068359 -40.000000
2767.894287 -50.000000
2768.719727 21.000000
2769.544922 8.000000
2770.370117 -34.000000
2771.194092 80.000000
2772.018066 52.000000
2772.842041 99.000000
2773.664795 -7.000000
2774.487793 -221.000000
2775.309570 105.000000
2776.131348 44.000000
2776.953125 -106.000000
2777.773926 22.000000
2778.593994 26.000000
2779.414307 15.000000
2780.234131 32.000000
2781.053955 33.000000
2781.871826 12.000000
2782.690918 68.000000
2783.508789 3.000000
2784.326416 35.000000
2785.143555 -21.000000
2785.960205 -59.000000
2786.776611 52.000000
2787.592529 29.000000
2788.408203 -13.000000
2789.222900 21.000000
2790.038086 -59.000000
2790.852539 -19.000000
2791.666504 7.000000
2792.480225 17.000000
2793.292725 114.000000
2794.105469 22.000000
2794.917725 6.000000
2795.729492 -65.000000
2796.540527 54.000000
2797.352295 28.000000
2798.162842 -21.000000
2798.973389 -12.000000
2799.782471 -7.000000
2800.592285 -33.000000
2801.401367 33.000000
2802.210205 67.000000
2803.018555 -37.000000
2803.825928 98.000000
2804.633789 110.000000
2805.440918 -10.000000
2806.247803 -1.000000
2807.053467 -46.000000
2807.859619 -19.000000
2808.665039 -24.000000
2809.470459 -35.000000
2810.275146 -2.000000
2811.078857 -55.000000
2811.883057 -10.000000
2812.686768 25.000000
2813.490234 11.000000
2814.292236 -56.000000
2815.094971 31.000000
2815.896973 -88.000000
2816.698730 -66.000000
2817.500000 49.000000
2818.300781 -81.000000
2819.101074 -22.000000
2819.901611 -4.000000
2820.701172 -44.000000
2821.500244 5.000000
2822.299316 51.000000
2823.098145 11.000000
2823.896484 107.000000
2824.693848 -5.000000
2825.491455 -1.000000
2826.288330 -18.000000
2827.085449 -33.000000
2827.881836 138.000000
2828.677490 -66.000000
2829.473145 6.000000
2830.268555 -24.000000
2831.063477 9.000000
2831.857666 -44.000000
2832.651855 55.000000
2833.445801 8.000000
2834.239258 20.000000
2835.031982 -6.000000
2835.824463 -36.000000
2836.616943 -42.000000
2837.409180 13.000000
2838.200928 85.000000
2838.991699 36.000000
2839.782471 69.000000
2840.573486 -43.000000
2841.363525 -47.000000
2842.153076 86.000000
2842.942871 16.000000
2843.731689 54.000000
2844.520508 53.000000
2845.309326 17.000000
2846.097168 -12.000000
2846.884521 -28.000000
2847.672119 -33.000000
2848.459229 42.000000
2849.245605 2.000000
2850.031982 -7.000000
2850.818115 -33.000000
2851.603760 -46.000000
2852.388428 -128.000000
2853.173584 5.000000
2853.958496 38.000000
2854.742676 86.000000
2855.526855 -37.000000
2856.309814 -60.000000
2857.093018 3.000000
2857.875977 88.000000
2858.658447 -72.000000
2859.440674 14.000000
2860.222412 3.000000
2861.003906 -31.000000
2861.785645 20.000000
2862.566650 113.000000
2863.346924 127.000000
2864.126953 -11.000000
2864.906982 42.000000
2865.686768 21.000000
2866.465576 3.000000
2867.244629 79.000000
2868.023193 7.000000
2868.801514 91.000000
2869.579346 -18.000000
2870.356934 38.000000
2871.134277 -77.000000
2871.911377 90.000000
2872.687988 17.000000
2873.464111 131.000000
2874.240234 8.000000
2875.015869 74.000000
2875.791260 -17.000000
2876.566162 113.000000
2877.340820 82.000000
2878.115479 31.000000
2878.889893 115.000000
2879.663574 43.000000
2880.436523 46.000000
2881.210205 55.000000
2881.982910 18.000000
2882.755615 81.000000
2883.527588 74.000000
2884.299316 136.000000
2885.071533 110.000000
2885.842529 -23.000000
2886.613037 33.000000
2887.384033 27.000000
2888.155029 -4.000000
2888.925293 -41.000000
2889.694580 3.000000
2890.464111 97.000000
2891.233643 67.000000
2892.002686 56.000000
2892.771240 -42.000000
2893.539795 89.000000
2894.307373 110.000000
2895.075439 49.000000
2895.843018 132.000000
2896.610596 28.000000
2897.376953 34.000000
2898.144287 55.000000
2898.910400 35.000000
2899.676758 -56.000000
2900.441650 64.000000
2901.207031 17.000000
2901.972900 41.000000
2902.737305 2.000000
2903.501709 -1.000000
2904.266357 73.000000
2905.030029 71.000000
2905.794434 74.000000
2906.558105 -40.000000
2907.321045 69.000000
2908.083740 -35.000000
2908.846924 165.000000
2909.609619 32.000000
2910.371094 72.000000
2911.133057 72.000000
spectrumdark 2048
-97.097725 6243.000000
-94.470856 6243.000000
-91.845863 6042.000000
-89.222763 6434.000000
-86.601532 5793.000000
-83.982201 6262.000000
-81.364731 6142.000000
-78.749138 6501.000000
-76.135422 6228.000000
-73.523582 5882.000000
-70.913605 6117.000000
-68.305511 5964.000000
-65.699265 5919.000000
-63.094894 6045.000000
-60.492386 6112.000000
-57.891731 5594.000000
-55.292938 6229.000000
-52.696003 6907.000000
-50.100922 6475.000000
-47.507694 6505.000000
-44.916317 6249.000000
-42.326786 6735.000000
-39.739098 5875.000000
-37.153259 6103.000000
-34.569263 6450.000000
-31.987104 5783.000000
-29.406792 6403.000000
-26.828306 5747.000000
-24.251663 6138.000000
-21.676846 6261.000000
-19.103868 6502.000000
-16.532711 6503.000000
-13.963387 6751.000000
-11.395888 7805.000000
-8.830209 6258.000000
-6.266355 6461.000000
-3.704314 6002.000000
-1.144099 5822.000000
1.414310 6155.000000
3.970896 6933.000000
6.525679 6659.000000
9.078644 5981.000000
11.629808 6777.000000
14.179160 6471.000000
16.726715 6527.000000
19.272459 6015.000000
21.816410 5743.000000
24.358557 6687.000000
26.898907 6747.000000
29.437471 6826.000000
31.974239 6175.000000
34.509205 5807.000000
37.042393 7238.000000
39.573799 6310.000000
42.103413 7081.000000
44.631229 6571.000000
47.157288 7818.000000
49.681557 5669.000000
52.204056 6229.000000
54.724758 6747.000000
57.243706 6323.000000
59.760880 6444.000000
62.276276 6610.000000
64.789894 5567.000000
67.301758 5770.000000
69.811874 6474.000000
72.320198 6537.000000
74.826767 5960.000000
77.331589 6326.000000
79.834656 6457.000000
82.335945 6288.000000
84.835495 6174.000000
87.333290 6309.000000
89.829353 5768.000000
92.323639 7263.000000
94.816185 5801.000000
97.307014 6924.000000
99.796074 7182.000000
102.283386 6300.000000
104.768974 6162.000000
107.252823 6326.000000
109.734924 5765.000000
112.215302 6604.000000
114.693954 6228.000000
117.170883 6465.000000
119.646057 7228.000000
122.119522 6819.000000
124.591255 5900.000000
127.061279 6700.000000
129.529556 6258.000000
131.996155 6261.000000
134.460999 5714.000000
136.924149 6261.000000
139.385559 7260.000000
141.845276 6860.000000
144.303268 6394.000000
146.759567 5993.000000
149.214157 5778.000000
151.667023 6837.000000
154.118210 6313.000000
156.567703 6524.000000
159.015472 6078.000000
161.461533 6604.000000
163.905914 8711.000000
166.348618 6415.000000
168.789627 6805.000000
171.228928 6161.000000
173.666519 7208.000000
176.102478 6550.000000
178.536697 6883.000000
180.969238 7179.000000
183.400131 6674.000000
185.829300 6776.000000
188.256821 6708.000000
190.682663 6295.000000
193.106827 6690.000000
195.529327 7165.000000
197.950134 7361.000000
200.369278 6513.000000
202.786758 6030.000000
205.202545 7628.000000
207.616684 7023.000000
210.029190 6367.000000
212.440018 6098.000000
214.849167 6265.000000
217.256683 7424.000000
219.662491 6211.000000
222.066711 6534.000000
224.469223 6684.000000
226.870117 6907.000000
229.269363 6448.000000
231.666946 6778.000000
234.062866 7304.000000
236.457169 6501.000000
238.849808 5842.000000
241.240829 6780.000000
243.630188 6584.000000
246.017929 6341.000000
248.404022 7011.000000
250.788483 6068.000000
253.171295 7844.000000
255.552536 6601.000000
257.932068 6686.000000
260.310028 6506.000000
262.686310 7536.000000
265.061035 7493.000000
267.434113 7850.000000
269.805542 6188.000000
272.175323 6452.000000
274.543549 5852.000000
276.910126 6331.000000
279.275116 6732.000000
281.638489 6021.000000
284.000214 6240.000000
286.360352 7084.000000
288.718872 5978.000000
291.075806 6561.000000
293.431122 6339.000000
295.784851 5976.000000
298.136932 5984.000000
300.487457 6348.000000
302.836395 6379.000000
305.183685 6830.000000
307.529449 6424.000000
309.873535 6488.000000
312.216095 7369.000000
314.557037 7534.000000
316.896362 7193.000000
319.234131 6964.000000
321.570343 8097.000000
323.904907 6231.000000
326.237915 6493.000000
328.569366 6002.000000
330.899231 6588.000000
333.227509 6390.000000
335.554169 7198.000000
337.879333 6355.000000
340.202881 6220.000000
342.524872 5969.000000
344.845306 7500.000000
347.164124 7745.000000
349.481384 6019.000000
351.797119 5792.000000
354.111267 6970.000000
356.423828 6276.000000
358.734833 6387.000000
361.044312 7062.000000
363.352264 6361.000000
365.658600 5668.000000
367.963348 6405.000000
370.266632 6383.000000
372.568298 6233.000000
374.868469 6355.000000
377.167084 6300.000000
379.464142 5727.000000
381.759644 6063.000000
384.053619 5910.000000
386.346008 5258.000000
388.636902 5604.000000
390.926270 6231.000000
393.214050 6291.000000
395.500305 6492.000000
397.785065 6976.000000
400.068207 6069.000000
402.349915 6451.000000
404.630096 6162.000000
406.908691 7185.000000
409.185760 6440.000000
411.461304 6735.000000
413.735321 6530.000000
416.007904 6400.000000
418.278870 6290.000000
420.548340 6548.000000
422.816315 7151.000000
425.082733 7208.000000
427.347656 6268.000000
429.611115 6205.000000
431.872986 6452.000000
434.133392 5971.000000
436.392242 6557.000000
438.649628 6120.000000
440.905518 5626.000000
443.159912 5792.000000
445.412781 5491.000000
447.664093 6898.000000
449.914001 6076.000000
452.162323 6260.000000
454.409210 5629.000000
456.654633 6458.000000
458.898499 6504.000000
461.140869 6768.000000
463.381744 5660.000000
465.621216 6687.000000
467.859100 5444.000000
470.095551 5857.000000
472.330475 6040.000000
474.563934 7357.000000
476.795959 6730.000000
479.026459 5696.000000
481.255463 6462.000000
483.483002 6305.000000
485.709045 5950.000000
487.933655 6565.000000
490.156799 5841.000000
492.378479 6352.000000
494.598602 6662.000000
496.817322 5700.000000
499.034546 6243.000000
501.250397 5562.000000
503.464630 6125.000000
505.677551 6468.000000
507.888885 6445.000000
510.098785 6887.000000
512.307251 6465.000000
514.514343 6570.000000
516.719849 6432.000000
518.923950 6602.000000
521.126526 6154.000000
523.327698 6595.000000
525.527527 6676.000000
527.725830 6977.000000
529.922607 5345.000000
532.118042 5833.000000
534.311951 5586.000000
536.504517 7520.000000
538.695557 6663.000000
540.885193 5931.000000
543.073425 6950.000000
545.260132 7117.000000
547.445374 6808.000000
549.629333 6283.000000
551.811707 6406.000000
553.992737 6140.000000
556.172241 5978.000000
558.350464 5892.000000
560.527161 6023.000000
562.702454 6412.000000
564.876343 6464.000000
567.048767 5909.000000
569.219788 6037.000000
571.389343 6339.000000
573.557617 5260.000000
575.724365 6432.000000
577.889648 6279.000000
580.053528 6139.000000
582.216125 5770.000000
584.377197 5993.000000
586.536865 5589.000000
588.695190 5771.000000
590.851990 6050.000000
593.007446 6553.000000
595.161499 5711.000000
597.314209 6155.000000
599.465393 7251.000000
601.615234 6820.000000
603.763733 6679.000000
605.910645 6054.000000
608.056335 6531.000000
610.200623 6394.000000
612.343445 7005.000000
614.484802 6175.000000
616.624939 6441.000000
618.763550 7554.000000
620.900879 5725.000000
623.036743 6615.000000
625.171204 6842.000000
627.304199 7162.000000
629.436035 6704.000000
631.566406 6574.000000
633.695374 6790.000000
635.822876 6441.000000
637.949097 6104.000000
640.073792 7364.000000
642.197266 6337.000000
644.319397 6801.000000
646.440063 6934.000000
648.559387 6553.000000
650.677307 5697.000000
652.793884 5702.000000
654.909058 6466.000000
657.022888 6429.000000
659.135254 5823.000000
661.246399 6150.000000
663.356140 5384.000000
665.464417 5933.000000
667.571533 6254.000000
669.677185 6806.000000
671.781372 5668.000000
673.884338 5740.000000
675.985901 6934.000000
678.086121 5313.000000
680.184937 6761.000000
682.282410 6241.000000
684.378601 6900.000000
686.473328 6176.000000
688.566833 7035.000000
690.658997 6587.000000
692.749634 7903.000000
694.839050 6621.000000
696.927185 6437.000000
699.013855 5998.000000
701.099304 6679.000000
703.183228 5143.000000
705.265930 5911.000000
707.347351 5918.000000
709.427307 7581.000000
711.506042 6279.000000
713.583313 5579.000000
715.659302 6574.000000
717.734009 6073.000000
719.807434 6842.000000
721.879333 6311.000000
723.950073 7438.000000
726.019470 5845.000000
728.087463 6394.000000
730.154114 6376.000000
732.219543 7035.000000
734.283630 5820.000000
736.346375 6127.000000
738.407776 6456.000000
740.467896 6612.000000
742.526611 6051.000000
744.584106 6648.000000
746.640320 6466.000000
748.695129 6733.000000
750.748657 6329.000000
752.800781 7450.000000
754.851685 5789.000000
756.901367 6669.000000
758.949585 6335.000000
760.996582 6119.000000
763.042297 6989.000000
765.086609 5303.000000
767.129639 5754.000000
769.171448 14979.000000
771.211914 6902.000000
773.250977 6322.000000
775.288879 6066.000000
777.325439 5928.000000
779.360779 5371.000000
781.394775 5797.000000
783.427368 6848.000000
785.458801 5456.000000
787.488831 12117.000000
789.517578 6067.000000
791.545166 6227.000000
793.571411 6357.000000
795.596252 5820.000000
797.619995 5618.000000
799.642334 6391.000000
801.663452 5946.000000
803.683228 6627.000000
805.701721 4881.000000
807.718994 6712.000000
809.734863 6863.000000
811.749573 5629.000000
813.762939 6398.000000
815.775085 6279.000000
817.786011 6032.000000
819.795593 6626.000000
821.803955 5290.000000
823.810913 5689.000000
825.816650 6015.000000
827.821167 5713.000000
829.824402 5637.000000
831.826355 6453.000000
833.827026 5970.000000
835.826477 5942.000000
837.824585 6407.000000
839.821594 6990.000000
841.817200 6202.000000
843.811646 6037.000000
845.804749 6165.000000
847.796631 6843.000000
849.787170 5581.000000
851.776428 6808.000000
853.764648 5923.000000
855.751465 5751.000000
857.737061 6411.000000
859.721375 7267.000000
861.704590 6329.000000
863.686401 6346.000000
865.666992 5823.000000
867.646301 7770.000000
869.624451 7091.000000
871.601257 6242.000000
873.576782 5924.000000
875.551270 6159.000000
877.524292 6040.000000
879.496277 5366.000000
881.466919 6361.000000
883.436401 6121.000000
885.404541 5651.000000
887.371521 5249.000000
889.337158 6056.000000
891.301636 5834.000000
893.264893 5939.000000
895.226929 6466.000000
897.187683 5774.000000
899.147217 6413.000000
901.105469 6625.000000
903.062622 6326.000000
905.018616 6001.000000
906.973206 6809.000000
908.926575 6446.000000
910.878784 6383.000000
912.829773 6420.000000
914.779480 7034.000000
916.728027 6342.000000
918.675354 6200.000000
920.621399 6087.000000
922.566162 6081.000000
924.509888 6220.000000
926.452454 5920.000000
928.393738 5620.000000
930.333679 6482.000000
932.272522 5646.000000
934.210083 5492.000000
936.146423 5936.000000
938.081604 5841.000000
940.015503 6045.000000
941.948303 5848.000000
943.879883 6760.000000
945.810303 5192.000000
947.739502 6350.000000
949.667358 6990.000000
951.594177 6569.000000
953.519714 5944.000000
955.443970 5396.000000
957.367126 5980.000000
959.289124 6756.000000
961.209839 7291.000000
963.129395 6441.000000
965.047791 5333.000000
966.965149 6428.000000
968.881042 6401.000000
970.795837 6107.000000
972.709412 5999.000000
974.621826 6350.000000
976.533020 6488.000000
978.443054 5450.000000
980.351807 6191.000000
982.259521 6123.000000
984.166016 6321.000000
986.071289 5741.000000
987.975464 6809.000000
989.878418 6182.000000
991.780151 6798.000000
993.680725 6590.000000
995.580139 6595.000000
997.478333 5279.000000
999.375366 6488.000000
1001.271179 6564.000000
1003.165833 7692.000000
1005.059387 5583.000000
1006.951660 7123.000000
1008.843018 6064.000000
1010.733032 5385.000000
1012.621826 6581.000000
1014.509460 6311.000000
1016.395935 6867.000000
1018.281250 6769.000000
1020.165405 5927.000000
1022.048340 5854.000000
1023.930237 6218.000000
1025.810791 5186.000000
1027.690308 5846.000000
1029.568848 6106.000000
1031.446045 5424.000000
1033.321899 6200.000000
1035.196777 5876.000000
1037.070679 6593.000000
1038.943115 6973.000000
1040.814575 6729.000000
1042.684692 5521.000000
1044.553833 5513.000000
1046.421753 5822.000000
1048.288574 7038.000000
1050.154297 6758.000000
1052.018799 6450.000000
1053.882202 6434.000000
1055.744263 6409.000000
1057.605347 5912.000000
1059.465332 6504.000000
1061.323975 6625.000000
1063.181519 5800.000000
1065.037964 6662.000000
1066.893311 5933.000000
1068.747437 5777.000000
1070.600708 6243.000000
1072.452515 6436.000000
1074.303345 6064.000000
1076.152954 6110.000000
1078.001343 5735.000000
1079.848877 7967.000000
1081.695068 5585.000000
1083.540039 6241.000000
1085.384155 5441.000000
1087.226929 5491.000000
1089.068481 6491.000000
1090.909302 5487.000000
1092.748535 5794.000000
1094.587036 6006.000000
1096.424194 6002.000000
1098.260132 6771.000000
1100.095093 6611.000000
1101.928833 5476.000000
1103.761597 5508.000000
1105.593018 6116.000000
1107.423584 7178.000000
1109.252808 6571.000000
1111.081055 6425.000000
1112.908081 7120.000000
1114.734131 5453.000000
1116.558960 6341.000000
1118.382690 7151.000000
1120.205200 6078.000000
1122.026611 5848.000000
1123.847168 5867.000000
1125.666260 6538.000000
1127.484497 7046.000000
1129.301392 6861.000000
1131.117432 6612.000000
1132.932251 6470.000000
1134.745972 5605.000000
1136.558594 5836.000000
1138.369995 5643.000000
1140.180420 6152.000000
1141.989746 6769.000000
1143.797729 6987.000000
1145.604980 5904.000000
1147.410767 5906.000000
1149.215698 5380.000000
1151.019531 5447.000000
1152.822144 6147.000000
1154.623901 6092.000000
1156.424194 6077.000000
1158.223511 6080.000000
1160.021851 5894.000000
1161.818848 5459.000000
1163.615112 5904.000000
1165.410034 6051.000000
1167.203857 6312.000000
1168.996826 7736.000000
1170.788452 5730.000000
1172.579102 6553.000000
1174.368774 6070.000000
1176.156982 5869.000000
1177.944336 7464.000000
1179.730591 6660.000000
1181.515747 5826.000000
1183.299805 5960.000000
1185.082764 7591.000000
1186.864746 5852.000000
1188.645508 5908.000000
1190.425293 6340.000000
1192.203979 6965.000000
1193.981689 6679.000000
1195.758179 7204.000000
1197.533569 6549.000000
1199.307861 6512.000000
1201.081055 6614.000000
1202.853394 6562.000000
1204.624390 6697.000000
1206.394531 5646.000000
1208.163452 6153.000000
1209.931274 6305.000000
1211.698242 5805.000000
1213.463867 5874.000000
1215.228516 6960.000000
1216.992065 6563.000000
1218.754517 5955.000000
1220.516113 6630.000000
1222.276489 5892.000000
1224.035767 6260.000000
1225.794189 6039.000000
1227.551392 7167.000000
1229.307495 6432.000000
1231.062500 5496.000000
1232.816650 5920.000000
1234.569458 5795.000000
1236.321289 6022.000000
1238.072266 5956.000000
1239.821899 4940.000000
1241.570679 6932.000000
1243.318115 6399.000000
1245.064819 6589.000000
1246.810303 6453.000000
1248.554932 6425.000000
1250.298218 6712.000000
1252.040527 6631.000000
1253.781738 5423.000000
1255.522095 5094.000000
1257.261353 5810.000000
1258.999390 6532.000000
1260.736572 7098.000000
1262.472534 6114.000000
1264.207520 6469.000000
1265.941528 7213.000000
1267.674561 6029.000000
1269.406372 6165.000000
1271.137207 6333.000000
1272.866821 7210.000000
1274.595581 5914.000000
1276.323242 5638.000000
1278.049805 5526.000000
1279.775513 5583.000000
1281.499878 6469.000000
1283.223389 5229.000000
1284.945923 6852.000000
1286.667480 6569.000000
1288.387817 6055.000000
1290.107178 6674.000000
1291.825439 7267.000000
1293.542725 6424.000000
1295.259033 5786.000000
1296.974121 6347.000000
1298.688232 6157.000000
1300.401367 5739.000000
1302.113647 6456.000000
1303.824707 8288.000000
1305.534790 5542.000000
1307.243774 6294.000000
1308.951538 6662.000000
1310.658691 7048.000000
1312.364380 5804.000000
1314.069336 6840.000000
1315.773315 6153.000000
1317.476074 5957.000000
1319.177856 6585.000000
1320.878784 6068.000000
1322.578369 9685.000000
1324.277100 7631.500000
1325.975098 5578.000000
1327.671753 6486.000000
1329.367310 7109.000000
1331.062012 6742.000000
1332.755493 5747.000000
1334.448120 5437.000000
1336.139893 7205.000000
1337.830322 6246.000000
1339.520020 6501.000000
1341.208618 6167.000000
1342.896118 7550.000000
1344.582642 5590.000000
1346.268066 6760.000000
1347.952515 5959.000000
1349.636108 7171.000000
1351.318481 6353.000000
1352.999878 5976.000000
1354.680420 6480.000000
1356.359741 6758.000000
1358.038452 5754.000000
1359.715820 6466.000000
1361.392090 5764.000000
1363.067383 5597.000000
1364.741943 6532.000000
1366.415283 6444.000000
1368.087646 6744.000000
1369.759033 5165.000000
1371.429443 6730.000000
1373.098755 6121.000000
1374.767090 5693.000000
1376.434570 5932.000000
1378.100952 6339.000000
1379.766357 6036.000000
1381.430786 5806.000000
1383.093994 5959.000000
1384.756592 5633.000000
1386.417847 6391.000000
1388.078247 6632.000000
1389.737549 6433.000000
1391.395874 6515.000000
1393.053467 6862.000000
1394.709839 6458.000000
1396.365356 7028.000000
1398.019653 6351.000000
1399.673096 5851.000000
1401.325439 6113.000000
1402.977051 6420.000000
1404.627441 7129.000000
1406.276733 6254.000000
1407.925293 7495.000000
1409.572754 7878.000000
1411.219238 6148.000000
1412.864868 6238.000000
1414.509521 5996.000000
1416.152954 7026.000000
1417.795532 7093.000000
1419.437012 6776.000000
1421.077637 6441.000000
1422.717285 6444.000000
1424.355835 6028.000000
1425.993530 6575.000000
1427.630127 6348.000000
1429.265747 5943.000000
1430.900635 6389.000000
1432.534424 5836.000000
1434.167114 6098.000000
1435.798828 5612.000000
1437.429688 6135.000000
1439.059448 6078.000000
1440.688110 7724.000000
1442.316162 5997.000000
1443.943115 6249.000000
1445.568848 6170.000000
1447.193970 6156.000000
1448.817993 6489.000000
1450.441040 5979.000000
1452.063110 6035.000000
1453.684082 7340.000000
1455.304077 6240.000000
1456.923340 6778.000000
1458.541260 5662.000000
1460.158569 19071.000000
1461.774902 5528.000000
1463.390015 7273.000000
1465.004272 6208.000000
1466.617676 5232.000000
1468.229980 5606.000000
1469.841431 6312.000000
1471.452026 6390.000000
1473.061401 6005.000000
1474.669800 5969.000000
1476.277344 6173.000000
1477.883911 6657.000000
1479.489746 5284.000000
1481.094360 6278.000000
1482.698120 5487.000000
1484.300659 6578.000000
1485.902588 5535.000000
1487.503296 5544.000000
1489.103271 5616.000000
1490.702148 6295.000000
1492.300171 6468.000000
1493.897095 6639.000000
1495.493164 6368.000000
1497.088257 6013.000000
1498.682373 5454.000000
1500.275757 6588.000000
1501.868042 5526.000000
1503.459106 6012.000000
1505.049683 6743.000000
1506.638916 6437.000000
1508.227539 6189.000000
1509.815063 6524.000000
1511.401489 6872.000000
1512.987183 6195.000000
1514.571777 6642.000000
1516.155518 6206.000000
1517.738159 6161.000000
1519.320068 6561.000000
1520.900879 6655.000000
1522.480957 6025.000000
1524.059814 6188.000000
1525.637817 6343.000000
1527.215088 6282.000000
1528.791138 5679.000000
1530.366455 5887.000000
1531.940674 6313.000000
1533.514160 5495.000000
1535.086426 5968.000000
1536.657959 6395.000000
1538.228516 6374.000000
1539.798218 6319.000000
1541.366699 5434.000000
1542.934448 6549.000000
1544.501343 5639.000000
1546.067017 6744.000000
1547.631958 5903.000000
1549.195801 5012.000000
1550.759033 7463.000000
1552.320923 6271.000000
1553.882202 5949.000000
1555.442383 5646.000000
1557.001831 5777.000000
1558.560181 5895.000000
1560.117798 6246.000000
1561.674316 6999.000000
1563.229614 5880.000000
1564.784302 6370.000000
1566.338257 5570.000000
1567.891235 6244.000000
1569.442871 5618.000000
1570.993774 5880.000000
1572.543945 6172.000000
1574.093140 6317.000000
1575.640991 5820.000000
1577.188354 5465.000000
1578.734741 5641.000000
1580.280273 5061.000000
1581.824829 6647.000000
1583.368164 6397.000000
1584.910889 6602.000000
1586.452759 6347.000000
1587.993530 6694.000000
1589.533325 5822.000000
1591.072388 6723.000000
1592.610352 5932.000000
1594.147827 6111.000000
1595.683960 5849.000000
1597.218994 6672.000000
1598.753540 6226.000000
1600.287109 5997.000000
1601.819824 6015.000000
1603.350952 6263.000000
1604.881836 6248.000000
1606.411865 5788.000000
1607.940674 6182.000000
1609.468384 6151.000000
1610.995483 5951.000000
1612.521851 5780.000000
1614.047241 6240.000000
1615.571777 5785.000000
1617.094971 5794.000000
1618.617432 5658.000000
1620.139160 6545.000000
1621.660034 6892.000000
1623.179443 15547.000000
1624.698364 6093.000000
1626.216553 6129.000000
1627.733887 5898.000000
1629.250122 6337.000000
1630.765015 7086.000000
1632.279419 6662.000000
1633.793091 5771.000000
1635.305664 6821.000000
1636.817017 5999.000000
1638.328003 6429.000000
1639.837891 6277.000000
1641.346924 6195.000000
1642.854614 5626.000000
1644.361938 6078.000000
1645.868408 7110.000000
1647.373901 6250.000000
1648.878540 6778.000000
1650.381714 6141.000000
1651.884277 6589.000000
1653.386475 6348.000000
1654.887329 6632.000000
1656.387085 7520.000000
1657.885986 5922.000000
1659.384521 6471.000000
1660.881836 6236.000000
1662.378418 5920.000000
1663.873413 6445.000000
1665.368164 6337.000000
1666.862061 5166.000000
1668.354980 5620.000000
1669.846558 20816.000000
1671.337646 6422.000000
1672.828125 6122.000000
1674.317505 5920.000000
1675.805420 6944.000000
1677.293091 6832.000000
1678.779785 6004.000000
1680.265625 5353.000000
1681.750610 6109.000000
1683.234131 6165.000000
1684.717407 6192.000000
1686.199829 5760.000000
1687.681152 6279.000000
1689.161011 6146.000000
1690.640625 5563.000000
1692.119507 6604.000000
1693.597412 5969.000000
1695.074341 6078.000000
1696.550049 5792.000000
1698.025391 6018.000000
1699.499512 6289.000000
1700.973022 5514.000000
1702.445068 5540.000000
1703.916870 6824.000000
1705.387695 6393.000000
1706.857666 7047.000000
1708.326294 5169.000000
1709.794434 5804.000000
1711.261841 6448.000000
1712.728149 5498.000000
1714.193848 5747.000000
1715.657837 6259.000000
1717.121704 5932.000000
1718.584717 6957.000000
1720.046753 6317.000000
1721.507568 6575.000000
1722.967773 5474.000000
1724.427246 5657.000000
1725.885864 6142.000000
1727.343506 5990.000000
1728.799805 6250.000000
1730.255859 5956.000000
1731.710938 6471.000000
1733.165039 5957.000000
1734.617920 6897.000000
1736.070557 5961.000000
1737.522095 6824.000000
1738.972900 5922.000000
1740.422729 6538.000000
1741.871216 5890.000000
1743.319336 7302.000000
1744.766602 6572.000000
1746.213135 6681.000000
1747.658081 6669.000000
1749.102783 6149.000000
1750.546631 5817.000000
1751.989624 5529.000000
1753.431152 6566.000000
1754.872437 6295.000000
1756.312866 19379.000000
1757.752319 6282.000000
1759.190796 5194.000000
1760.628296 6025.000000
1762.065308 7491.000000
1763.501343 5847.000000
1764.936523 7108.000000
1766.370239 6176.000000
1767.803833 6427.000000
1769.236450 6638.000000
1770.668213 5802.000000
1772.099121 5705.000000
1773.528809 6337.000000
1774.957764 6131.000000
1776.386230 6248.000000
1777.813721 6692.000000
1779.239868 6250.000000
1780.665771 5559.000000
1782.090576 6862.000000
1783.514771 5572.000000
1784.937500 6581.000000
1786.359741 6572.000000
1787.781250 6926.000000
1789.202026 5944.000000
1790.621826 5984.000000
1792.040283 6126.000000
1793.458252 6753.000000
1794.875610 5465.000000
1796.292114 6072.000000
1797.707153 6561.000000
1799.121826 5885.000000
1800.535889 6579.000000
1801.948730 5958.000000
1803.360962 7005.000000
1804.771851 7126.000000
1806.182251 7791.000000
1807.591919 6479.000000
1809.000610 5912.000000
1810.408203 5383.000000
1811.815308 6356.000000
1813.221558 6399.000000
1814.626831 6694.000000
1816.031006 5944.000000
1817.434814 5914.000000
1818.837646 6277.000000
1820.239624 6066.000000
1821.640991 5877.000000
1823.040894 6376.000000
1824.440186 6341.000000
1825.838989 6538.000000
1827.236938 7437.000000
1828.633545 5747.000000
1830.029541 6720.000000
1831.424805 5858.000000
1832.819458 8133.000000
1834.213135 6006.000000
1835.605469 6822.000000
1836.997314 6392.000000
1838.388550 5864.000000
1839.778809 7103.000000
1841.167847 6040.000000
1842.556519 6076.000000
1843.944214 5928.000000
1845.331177 5776.000000
1846.716797 6891.000000
1848.102173 5816.000000
1849.486694 6333.000000
1850.870483 6272.000000
1852.253174 6397.000000
1853.634644 5395.000000
1855.015625 6573.000000
1856.396118 6255.000000
1857.775635 5684.000000
1859.153687 5979.000000
1860.531616 6282.000000
1861.908569 7834.000000
1863.284790 6079.000000
1864.660156 6077.000000
1866.034058 5651.000000
1867.407837 5693.000000
1868.780762 6148.000000
1870.152588 5882.000000
1871.523438 6858.000000
1872.893921 5451.000000
1874.263306 6070.000000
1875.632202 6081.000000
1876.999512 7140.000000
1878.366699 6089.000000
1879.732910 6030.000000
1881.098389 6828.000000
1882.463135 7458.000000
1883.826294 6848.000000
1885.189331 6863.000000
1886.551514 6284.000000
1887.912842 6452.000000
1889.272827 5653.000000
1890.632446 5840.000000
1891.991455 6091.000000
1893.349487 6649.000000
1894.706665 7265.000000
1896.062622 5906.000000
1897.418335 7609.000000
1898.773071 5835.000000
1900.126953 5554.000000
1901.479736 5883.000000
1902.832031 5968.000000
1904.183594 5955.000000
1905.534302 6854.000000
1906.883789 6568.000000
1908.232788 6618.000000
1909.580933 5752.000000
1910.928467 6143.000000
1912.275269 6280.000000
1913.620483 6817.000000
1914.965454 6056.000000
1916.309692 5409.000000
1917.653076 6502.000000
1918.995117 5980.000000
1920.336914 6686.000000
1921.677856 6985.000000
1923.018066 6186.000000
1924.357300 6297.000000
1925.695557 6217.000000
1927.033203 6536.000000
1928.370117 7035.000000
1929.706177 6764.000000
1931.041016 5558.000000
1932.375488 6731.000000
1933.709229 7293.000000
1935.042114 6246.000000
1936.373535 5740.000000
1937.705078 6357.000000
1939.035278 6607.000000
1940.364990 5775.000000
1941.693848 6100.000000
1943.021484 5864.000000
1944.348633 4999.000000
1945.675049 5843.000000
1947.000732 6418.000000
1948.325073 5812.000000
1949.649170 6689.000000
1950.972412 6247.000000
1952.294922 6451.000000
1953.616333 5820.000000
1954.936768 7377.000000
1956.256592 5974.000000
1957.576050 5542.000000
1958.894531 6787.000000
1960.211670 5933.000000
1961.528442 5882.000000
1962.844482 6576.000000
1964.159790 6556.000000
1965.473633 6274.000000
1966.787231 5622.000000
1968.100098 6289.000000
1969.412109 5961.000000
1970.723511 6084.000000
1972.033569 6325.000000
1973.343140 5797.000000
1974.651978 6179.000000
1975.960205 6582.000000
1977.267090 6101.000000
1978.573364 7171.000000
1979.879272 5539.000000
1981.183960 6386.000000
1982.488159 5973.000000
1983.791138 5687.000000
1985.093750 7530.000000
1986.395386 6102.000000
1987.696411 6825.000000
1988.995850 6071.000000
1990.295410 6591.000000
1991.593872 5289.000000
1992.891846 6089.000000
1994.188232 6130.000000
1995.484619 5750.000000
1996.780029 5570.000000
1998.074707 6531.000000
1999.368530 5671.000000
2000.661133 6496.000000
2001.953247 5685.000000
2003.244873 7116.000000
2004.535767 6442.000000
2005.825073 6267.000000
2007.114136 6756.000000
2008.402466 5951.000000
2009.690063 6013.000000
2010.976807 6664.000000
2012.262451 5607.000000
2013.547729 6352.000000
2014.832031 5958.000000
2016.115723 5647.000000
2017.398071 6009.000000
2018.680054 6427.000000
2019.961548 6781.000000
2021.242065 5897.000000
2022.521851 6103.000000
2023.800537 6731.000000
2025.078491 5843.000000
2026.355957 5918.000000
2027.632813 6294.000000
2028.907959 5714.000000
2030.183228 6562.000000
2031.457520 6078.000000
2032.730835 5873.000000
2034.003296 5980.000000
2035.275391 6057.000000
2036.546387 6928.000000
2037.817139 6584.000000
2039.086548 5954.000000
2040.354858 6776.000000
2041.623169 6666.000000
2042.890503 5941.000000
2044.157104 6016.000000
2045.422485 5661.000000
2046.687256 5676.000000
2047.951782 5388.000000
2049.215088 5807.000000
2050.478027 6368.000000
2051.739014 6142.000000
2053.000488 6117.000000
2054.260742 5864.000000
2055.520264 6402.000000
2056.779053 6277.000000
2058.036865 6949.000000
2059.294189 6223.000000
2060.550781 5980.000000
2061.805908 6524.000000
2063.061035 5626.000000
2064.315186 5590.000000
2065.568604 5631.000000
2066.821289 6816.000000
2068.072754 6253.000000
2069.323975 6268.000000
2070.574463 5641.000000
2071.824219 5414.000000
2073.072510 6133.000000
2074.320801 6431.000000
2075.568115 7533.000000
2076.814697 5619.000000
2078.060547 6032.000000
2079.305176 6962.000000
2080.549316 7575.000000
2081.792969 5571.000000
2083.035645 6079.000000
2084.277100 6905.000000
2085.518311 5928.000000
2086.759033 6354.000000
2087.998779 6715.000000
2089.237305 6966.000000
2090.475342 6186.000000
2091.712646 5784.000000
2092.949707 6653.000000
2094.185303 6079.000000
2095.420166 6269.000000
2096.654785 6069.000000
2097.888428 5660.000000
2099.121094 6111.000000
2100.353027 6794.000000
2101.584473 6394.000000
2102.814941 6794.000000
2104.044678 5976.000000
2105.274170 6010.000000
2106.501709 5948.000000
2107.729492 5988.000000
2108.956543 6193.000000
2110.182617 5461.000000
2111.407227 6456.000000
2112.632080 6997.000000
2113.855713 7049.000000
2115.078857 6198.000000
2116.300781 7522.000000
2117.522461 5936.000000
2118.743164 6806.000000
2119.963135 6019.000000
2121.182617 6133.000000
2122.400635 6609.000000
2123.618652 6977.000000
2124.835693 5741.000000
2126.052246 5775.000000
2127.267090 6571.000000
2128.482178 6350.000000
2129.696289 6743.000000
2130.909668 5694.000000
2132.122314 6143.000000
2133.333496 5798.000000
2134.544922 6501.000000
2135.755127 6794.000000
2136.964844 5941.000000
2138.173096 6110.000000
2139.381348 5648.000000
2140.588867 5859.000000
2141.795166 7649.000000
2143.000732 5878.000000
2144.206055 5633.000000
2145.410400 5540.000000
2146.614014 6287.000000
2147.817139 6202.000000
2149.018799 6481.000000
2150.220215 5303.000000
2151.420898 6284.000000
2152.620850 6071.000000
2153.819580 6069.000000
2155.018066 6974.000000
2156.216064 6147.000000
2157.413086 6065.000000
2158.609375 5175.000000
2159.804443 5291.000000
2160.999268 6156.000000
2162.193359 5607.000000
2163.386475 6054.000000
2164.578613 6882.000000
2165.770508 5870.000000
2166.961670 6332.000000
2168.151855 6247.000000
2169.341309 6497.000000
2170.530273 6700.000000
2171.718262 6029.000000
2172.906006 5760.000000
2174.092285 5886.000000
2175.277832 6550.000000
2176.463135 5976.000000
2177.647949 5819.000000
2178.831543 6308.000000
2180.014404 7504.000000
2181.196289 6328.000000
2182.377930 5984.000000
2183.559082 6534.000000
2184.739014 5725.000000
2185.917969 5524.000000
2187.096436 6308.000000
2188.274658 6817.000000
2189.451660 7176.000000
2190.627686 6691.000000
2191.803467 6105.000000
2192.978760 5601.000000
2194.152588 6670.000000
2195.325928 6156.000000
2196.499023 6130.000000
2197.670898 6334.000000
2198.842285 7086.000000
2200.013184 6309.000000
2201.182373 6936.000000
2202.351563 7557.000000
2203.520264 6304.000000
2204.687988 5853.000000
2205.854736 5630.000000
2207.020752 7072.000000
2208.186279 6666.000000
2209.351563 5985.000000
2210.515381 6691.000000
2211.678711 5481.000000
2212.840820 6200.000000
2214.003174 6133.000000
2215.164307 6706.000000
2216.324463 6623.000000
2217.484131 6335.000000
2218.643555 6577.000000
2219.801758 6343.000000
2220.958984 6261.000000
2222.115967 6735.000000
2223.272217 6562.000000
2224.427734 6766.000000
2225.582520 6250.000000
2226.736328 6483.000000
2227.889160 6139.000000
2229.042480 6816.000000
2230.193848 6172.000000
2231.344971 6201.000000
2232.495361 6463.000000
2233.645264 7618.000000
2234.794189 6292.000000
2235.942627 5156.000000
2237.089600 6843.000000
2238.236816 7238.000000
2239.382813 6040.000000
2240.528564 7201.000000
2241.672607 7261.000000
2242.816895 6710.000000
2243.960205 6176.000000
2245.102783 6033.000000
2246.244385 5762.000000
2247.385742 5850.000000
2248.526123 6401.000000
2249.665771 6420.000000
2250.804932 5842.000000
2251.942871 5872.000000
2253.080811 6145.000000
2254.217773 5299.000000
2255.354004 6376.000000
2256.489258 6169.000000
2257.623779 7216.000000
2258.758057 6339.000000
2259.891846 5447.000000
2261.024170 6132.000000
2262.156006 6798.000000
2263.287354 6300.000000
2264.417725 6531.000000
2265.547852 8054.000000
2266.676758 6633.000000
2267.805176 6088.000000
2268.933105 5612.000000
2270.060059 6159.000000
2271.186279 5933.000000
2272.311523 6707.000000
2273.436768 6477.000000
2274.561279 6412.000000
2275.684570 6006.000000
2276.807129 6363.000000
2277.929199 5967.000000
2279.050781 7399.000000
2280.171631 6388.000000
2281.291260 6445.000000
2282.410400 7091.000000
2283.529297 7603.000000
2284.647461 7187.000000
2285.764648 5888.000000
2286.880859 6459.000000
2287.996826 6995.000000
2289.112061 6875.000000
2290.226563 7346.000000
2291.339844 5744.000000
2292.453125 6311.000000
2293.565674 6015.000000
2294.677490 5442.000000
2295.788574 6752.000000
2296.898438 6432.000000
2298.007813 6138.000000
2299.116943 6662.000000
2300.225098 6360.000000
2301.332275 6808.000000
2302.439209 5933.000000
2303.545410 6237.000000
2304.651123 6596.000000
2305.755371 6529.000000
2306.859375 5449.000000
2307.962891 5767.000000
2309.065918 6579.000000
2310.167725 7441.000000
2311.268799 7327.000000
2312.369385 6511.000000
2313.469482 5486.000000
2314.568848 6363.000000
2315.666748 6591.000000
2316.765137 7010.000000
2317.862061 8250.000000
2318.958740 6920.000000
2320.054932 5826.000000
2321.149414 6858.000000
2322.243896 7577.000000
2323.337646 5821.000000
2324.431152 6021.000000
2325.522949 6432.000000
2326.614746 6932.000000
2327.705811 6074.000000
2328.796143 6255.000000
2329.885498 6846.000000
2330.974854 6016.000000
2332.062988 6300.000000
2333.150635 6868.000000
2334.238037 6446.000000
2335.323730 6648.000000
2336.409180 7768.000000
2337.494385 6284.000000
2338.578613 6760.000000
2339.661865 5864.000000
2340.744873 6449.000000
2341.826904 7108.000000
2342.908691 6024.000000
2343.989746 7432.000000
2345.069580 6641.000000
2346.148926 5691.000000
2347.227783 6757.000000
2348.306152 6540.000000
2349.383057 6341.000000
2350.459717 7007.000000
2351.536133 6050.000000
2352.611572 6494.000000
2353.686035 5872.000000
2354.760254 6295.000000
2355.833740 6746.000000
2356.906738 6221.000000
2357.978516 7052.000000
2359.050049 6281.000000
2360.120605 6794.000000
2361.190918 7529.000000
2362.260254 7554.000000
2363.328613 6805.000000
2364.396729 6746.000000
2365.464111 7077.000000
2366.531006 7158.000000
2367.597168 6068.000000
2368.662109 6926.000000
2369.727051 6949.000000
2370.791260 6319.000000
2371.854736 6912.000000
2372.916992 5757.000000
2373.979248 6325.000000
2375.040527 6363.000000
2376.101563 5927.000000
2377.161377 6277.000000
2378.220459 7866.000000
2379.279541 6470.000000
2380.337646 7638.000000
2381.395020 6886.000000
2382.451416 8015.000000
2383.507568 7816.000000
2384.563232 6241.000000
2385.618164 7073.000000
2386.671631 6781.000000
2387.725342 6503.000000
2388.778076 6328.000000
2389.830322 6767.000000
2390.881836 6106.000000
2391.932373 6698.000000
2392.982666 6554.000000
2394.031982 6241.000000
2395.081299 6119.000000
2396.129150 6852.000000
2397.176514 6969.000000
2398.223633 6264.000000
2399.269775 6654.000000
2400.315186 6167.000000
2401.359863 6816.000000
2402.404541 7726.000000
2403.447754 7421.000000
2404.490967 6597.000000
2405.532715 5699.000000
2406.574707 6628.000000
2407.615967 7156.000000
2408.656250 6103.000000
2409.695801 6399.000000
2410.734375 6310.000000
2411.773193 6061.000000
2412.810791 6493.000000
2413.848145 6798.000000
2414.884277 7202.000000
2415.920166 6225.000000
2416.955322 6307.000000
2417.989990 6595.000000
2419.023193 7176.000000
2420.056641 6477.000000
2421.089111 6751.000000
2422.121338 6847.000000
2423.152100 7075.000000
2424.182861 6360.000000
2425.213135 6826.000000
2426.242188 6891.000000
2427.271240 6651.000000
2428.298584 7411.000000
2429.326416 6629.000000
2430.353027 7185.000000
2431.379395 6887.000000
2432.404297 7814.000000
2433.429443 6614.000000
2434.453613 7103.000000
2435.477539 6730.000000
2436.500244 5823.000000
2437.522217 6409.000000
2438.543945 6632.000000
2439.564941 6726.000000
2440.585449 6036.000000
2441.604736 6502.000000
2442.624023 6586.000000
2443.642334 8444.000000
2444.660400 6257.000000
2445.677002 6476.000000
2446.693604 6532.000000
2447.709473 6005.000000
2448.725342 6996.000000
2449.739746 6759.000000
2450.753418 5576.000000
2451.766602 7260.000000
2452.779541 6063.000000
2453.791748 7252.000000
2454.802979 6590.000000
2455.813965 7649.000000
2456.824219 6372.000000
2457.833984 7563.000000
2458.842773 5960.000000
2459.850830 5964.000000
2460.858887 6382.000000
2461.865723 7404.000000
2462.872314 5458.000000
2463.877686 7389.000000
2464.882813 6921.000000
2465.887695 5885.000000
2466.891357 6532.000000
2467.894775 6360.000000
2468.897217 7606.000000
2469.899414 7258.000000
2470.901123 6851.000000
2471.901855 6613.000000
2472.901611 6848.000000
2473.901367 6772.000000
2474.900146 5713.000000
2475.898438 6659.000000
2476.895752 7015.000000
2477.892822 6105.000000
2478.889893 6824.000000
2479.885498 5766.000000
2480.881104 7091.000000
2481.875000 6687.000000
2482.868896 8110.000000
2483.862305 6900.000000
2484.855225 6628.000000
2485.847168 7439.000000
2486.838379 7267.000000
2487.829346 6729.000000
2488.819824 5861.000000
2489.809326 6545.000000
2490.798096 6491.000000
2491.786865 5622.000000
2492.774658 6838.000000
2493.761230 6538.000000
2494.747803 8039.000000
2495.733887 6782.000000
2496.719238 7116.000000
2497.703613 8360.000000
2498.687744 6053.000000
2499.671875 6870.000000
2500.654541 5764.000000
2501.636719 7005.000000
2502.618408 6820.000000
2503.599365 7271.000000
2504.579834 6560.000000
2505.560059 5728.000000
2506.538818 6275.000000
2507.517334 7541.000000
2508.495361 6703.000000
2509.472900 7092.000000
2510.449463 6085.000000
2511.425781 5911.000000
2512.401367 6462.000000
2513.376465 6215.000000
2514.351074 6473.000000
2515.324463 7502.000000
2516.297607 6826.000000
2517.270508 6832.000000
2518.242432 6063.000000
2519.213623 6758.000000
2520.184326 6965.000000
2521.154785 7812.000000
2522.124512 8021.000000
2523.093262 6095.000000
2524.061279 6153.000000
2525.029297 7770.000000
2525.996338 6333.000000
2526.963135 5546.000000
2527.928711 7278.000000
2528.894287 7030.000000
2529.859131 7685.000000
2530.823486 6298.000000
2531.786621 6300.000000
2532.750000 5893.000000
2533.712402 6041.000000
2534.674561 6718.000000
2535.635498 6341.000000
2536.595703 6160.000000
2537.556152 6110.000000
2538.515625 6771.000000
2539.474365 6841.000000
2540.432129 6703.000000
2541.390137 6244.000000
2542.347412 6765.000000
2543.303711 6086.000000
2544.259766 7086.000000
2545.214600 6238.000000
2546.169678 7752.000000
2547.124023 7034.000000
2548.077637 6764.000000
2549.030273 7197.000000
2549.982666 6704.000000
2550.934570 6977.000000
2551.885742 6444.000000
2552.836182 7665.000000
2553.786133 7331.000000
2554.735840 7373.000000
2555.684814 6638.000000
2556.633301 6257.000000
2557.580566 7079.000000
2558.527832 6323.000000
2559.474365 6639.000000
2560.420410 6760.000000
2561.365479 7382.000000
2562.310303 6679.000000
2563.254639 7174.000000
2564.198486 6858.000000
2565.141846 6624.000000
2566.083740 6588.000000
2567.025879 6603.000000
2567.967285 6241.000000
2568.907959 7017.000000
2569.847900 7288.000000
2570.787842 5720.000000
2571.726807 6166.000000
2572.665527 7522.000000
2573.603271 7179.000000
2574.540771 5464.000000
2575.477539 7029.000000
2576.413574 6765.000000
2577.349121 7488.000000
2578.283936 6259.000000
2579.218750 5972.000000
2580.152588 6958.000000
2581.085938 7035.000000
2582.018555 5880.000000
2582.950928 6998.000000
2583.882568 5428.000000
2584.813721 7049.000000
2585.744385 6978.000000
2586.673828 6893.000000
2587.603271 7324.000000
2588.532227 6505.000000
2589.460938 7458.000000
2590.387939 7288.000000
2591.315186 5887.000000
2592.241943 6796.000000
2593.167969 6275.000000
2594.093750 5640.000000
2595.018311 7641.000000
2595.942627 7642.000000
2596.866455 5360.000000
2597.789795 7318.000000
2598.712158 6256.000000
2599.634277 6874.000000
2600.555908 8313.000000
2601.476807 6404.000000
2602.396973 5765.000000
2603.316895 6336.000000
2604.236328 6388.000000
2605.155518 6458.000000
2606.073730 5825.000000
2606.990723 6015.000000
2607.907959 7292.000000
2608.824951 5904.000000
2609.740967 7521.000000
2610.655762 6651.000000
2611.571045 6634.000000
2612.485596 6568.000000
2613.399170 6512.000000
2614.312744 6066.000000
2615.225098 7607.000000
2616.137451 7024.000000
2617.048828 6809.000000
2617.959961 5697.000000
2618.870361 7189.000000
2619.780518 6678.000000
2620.689941 6168.000000
2621.598877 6642.000000
2622.506836 6251.000000
2623.415039 6822.000000
2624.322266 6689.000000
2625.229004 7037.000000
2626.135010 6017.000000
2627.040771 6662.000000
2627.945801 6516.000000
2628.850586 7807.000000
2629.754639 6482.000000
2630.657715 6387.000000
2631.560791 6460.000000
2632.462891 5584.000000
2633.364990 6763.000000
2634.266846 6941.000000
2635.166992 6671.000000
2636.067383 6392.000000
2636.967041 6384.000000
2637.866455 6023.000000
2638.764404 6871.000000
2639.662842 6574.000000
2640.560791 6377.000000
2641.458008 6169.000000
2642.354004 6115.000000
2643.250000 6806.000000
2644.145752 6096.000000
2645.040771 6451.000000
2645.935547 6651.000000
2646.828857 7062.000000
2647.722168 6341.000000
2648.615234 6777.000000
2649.508057 6423.000000
2650.399170 7450.000000
2651.290527 6413.000000
2652.181396 7594.000000
2653.071533 7286.000000
2653.961426 6522.000000
2654.850098 7261.000000
2655.739014 6654.000000
2656.627441 6628.000000
2657.514893 7297.000000
2658.401367 6437.000000
2659.288330 7143.000000
2660.174561 6845.000000
2661.060303 6801.000000
2661.944824 6506.000000
2662.829346 6387.000000
2663.713623 6191.000000
2664.597168 7026.000000
2665.480225 7834.000000
2666.362549 7268.000000
2667.244385 6214.000000
2668.125488 6586.000000
2669.006836 6081.000000
2669.886719 6536.000000
2670.766846 7336.000000
2671.646240 7177.000000
2672.525635 6161.000000
2673.404297 6174.000000
2674.281250 6404.000000
2675.158936 6728.000000
2676.035889 6343.000000
2676.912109 8138.000000
2677.787842 7141.000000
2678.662842 6248.000000
2679.538086 7708.000000
2680.412354 6979.000000
2681.286133 7280.000000
2682.159180 7014.000000
2683.031982 6213.000000
2683.904541 6109.000000
2684.776367 6914.000000
2685.647461 6497.000000
2686.518311 6864.000000
2687.388672 7099.000000
2688.258789 6710.000000
2689.127197 6337.000000
2689.996338 7374.000000
2690.864746 7120.000000
2691.732910 6650.000000
2692.600342 6921.000000
2693.466553 5918.000000
2694.333252 7136.000000
2695.198975 7360.000000
2696.064697 7161.000000
2696.928955 7935.000000
2697.793945 6588.000000
2698.657471 7204.000000
2699.521240 5865.000000
2700.383545 7503.000000
2701.246338 6803.000000
2702.108154 5905.000000
2702.969482 6896.000000
2703.830811 6766.000000
2704.690918 7475.000000
2705.551025 7310.000000
2706.410645 6551.000000
2707.270020 6861.000000
2708.127686 7113.000000
2708.985596 6899.000000
2709.843994 7400.000000
2710.701172 6759.000000
2711.557617 5918.000000
2712.413574 6879.000000
2713.269531 6102.000000
2714.124756 6948.000000
2714.979248 6058.000000
2715.833252 6745.000000
2716.687256 7299.000000
2717.540283 6240.000000
2718.393555 6485.000000
2719.245117 7688.000000
2720.097168 6767.000000
2720.948975 6319.000000
2721.799561 6460.000000
2722.650146 6487.000000
2723.500244 7117.000000
2724.349609 7031.000000
2725.198975 7038.000000
2726.047119 6701.000000
2726.894775 6606.000000
2727.742920 7054.000000
2728.589844 6887.000000
2729.437256 5620.000000
2730.283203 7438.000000
2731.128418 7032.000000
2731.974121 6436.000000
2732.818848 7015.000000
2733.663574 7312.000000
2734.507080 6877.000000
2735.350830 7804.000000
2736.193848 7077.000000
2737.036377 6083.000000
2737.877930 6224.000000
2738.719971 6766.000000
2739.561035 6913.000000
2740.401855 5815.000000
2741.242432 5878.000000
2742.081787 7721.000000
2742.921143 6864.000000
2743.760498 6962.000000
2744.598633 6823.000000
2745.436279 7760.000000
2746.273926 6339.000000
2747.111084 7149.000000
2747.947998 6213.000000
2748.784424 5998.000000
2749.619629 6697.000000
2750.455078 6294.000000
2751.290039 6363.000000
2752.124268 6246.000000
2752.958252 6885.000000
2753.791748 6811.000000
2754.625244 8053.000000
2755.457764 6783.000000
2756.289795 7228.000000
2757.121338 6827.000000
2757.952881 7091.000000
2758.783447 7195.000000
2759.614258 7186.000000
2760.443848 7249.000000
2761.273438 6575.000000
2762.102783 7243.000000
2762.931396 6767.000000
2763.759521 6788.000000
2764.587158 6906.000000
2765.414795 6755.000000
2766.241943 7903.000000
2767.068359 5834.000000
2767.894287 7517.000000
2768.719727 6893.000000
2769.544922 7807.000000
2770.370117 7071.000000
2771.194092 6756.000000
2772.018066 6543.000000
2772.842041 7586.000000
2773.664795 6406.000000
2774.487793 7011.000000
2775.309570 6840.000000
2776.131348 6930.000000
2776.953125 6580.000000
2777.773926 7916.000000
2778.593994 6522.000000
2779.414307 6960.000000
2780.234131 7245.000000
2781.053955 6392.000000
2781.871826 6000.000000
2782.690918 8009.000000
2783.508789 6516.000000
2784.326416 6687.000000
2785.143555 7156.000000
2785.960205 7256.000000
2786.776611 7187.000000
2787.592529 6317.000000
2788.408203 6066.000000
2789.222900 6429.000000
2790.038086 7017.000000
2790.852539 7202.000000
2791.666504 6590.000000
2792.480225 7385.000000
2793.292725 8719.000000
2794.105469 6935.000000
2794.917725 7417.000000
2795.729492 7248.000000
2796.540527 7370.000000
2797.352295 6498.000000
2798.162842 7223.000000
2798.973389 7059.000000
2799.782471 7365.000000
2800.592285 8209.000000
2801.401367 7808.000000
2802.210205 6602.000000
2803.018555 7199.000000
2803.825928 6127.000000
2804.633789 6430.000000
2805.440918 6992.000000
2806.247803 6824.000000
2807.053467 7218.000000
2807.859619 6666.000000
2808.665039 6521.000000
2809.470459 7336.000000
2810.275146 6180.000000
2811.078857 7628.000000
2811.883057 7481.000000
2812.686768 6362.000000
2813.490234 6112.000000
2814.292236 6337.000000
2815.094971 7344.000000
2815.896973 7847.000000
2816.698730 6184.000000
2817.500000 6525.000000
2818.300781 7319.000000
2819.101074 6540.000000
2819.901611 6663.000000
2820.701172 8013.000000
2821.500244 7167.000000
2822.299316 6486.000000
2823.098145 6961.000000
2823.896484 6335.000000
2824.693848 7063.000000
2825.491455 7062.000000
2826.288330 6724.000000
2827.085449 7390.000000
2827.881836 8007.000000
2828.677490 7058.000000
2829.473145 7349.000000
2830.268555 7592.000000
2831.063477 7469.000000
2831.857666 6723.000000
2832.651855 6805.000000
2833.445801 5646.000000
2834.239258 6877.000000
2835.031982 7170.000000
2835.824463 8238.000000
2836.616943 7706.000000
2837.409180 7488.000000
2838.200928 6430.000000
2838.991699 6817.000000
2839.782471 8832.000000
2840.573486 7480.000000
2841.363525 6289.000000
2842.153076 7613.000000
2842.942871 7182.000000
2843.731689 7341.000000
2844.520508 7825.000000
2845.309326 7695.000000
2846.097168 7530.000000
2846.884521 7224.000000
2847.672119 7487.000000
2848.459229 7319.000000
2849.245605 6686.000000
2850.031982 7448.000000
2850.818115 7241.000000
2851.603760 7510.000000
2852.388428 7250.000000
2853.173584 6916.000000
2853.958496 7480.000000
2854.742676 7099.000000
2855.526855 6925.000000
2856.309814 8289.000000
2857.093018 6800.000000
2857.875977 6768.000000
2858.658447 7799.000000
2859.440674 6271.000000
2860.222412 6643.000000
2861.003906 7617.000000
2861.785645 7545.000000
2862.566650 7618.000000
2863.346924 6547.000000
2864.126953 6819.000000
2864.906982 8182.000000
2865.686768 7466.000000
2866.465576 8080.000000
2867.244629 7662.000000
2868.023193 6758.000000
2868.801514 6961.000000
2869.579346 7261.000000
2870.356934 6992.000000
2871.134277 7560.000000
2871.911377 6952.000000
2872.687988 6475.000000
2873.464111 7435.000000
2874.240234 7168.000000
2875.015869 8265.000000
2875.791260 7177.000000
2876.566162 6599.000000
2877.340820 8030.000000
2878.115479 6589.000000
2878.889893 7747.000000
2879.663574 6762.000000
2880.436523 7175.000000
2881.210205 6709.000000
2881.982910 7579.000000
2882.755615 7819.000000
2883.527588 8185.000000
2884.299316 6186.000000
2885.071533 6746.000000
2885.842529 6942.000000
2886.613037 6151.000000
2887.384033 8295.000000
2888.155029 7384.000000
2888.925293 8025.000000
2889.694580 7636.000000
2890.464111 6939.000000
2891.233643 7218.000000
2892.002686 7328.000000
2892.771240 7943.000000
2893.539795 7653.000000
2894.307373 6966.000000
2895.075439 6585.000000
2895.843018 7441.000000
2896.610596 8355.000000
2897.376953 7395.000000
2898.144287 6493.000000
2898.910400 7262.000000
2899.676758 7023.000000
2900.441650 8319.000000
2901.207031 7022.000000
2901.972900 6479.000000
2902.737305 7705.000000
2903.501709 7751.000000
2904.266357 8374.000000
2905.030029 6576.000000
2905.794434 8495.000000
2906.558105 6730.000000
2907.321045 8387.000000
2908.083740 6545.000000
2908.846924 8973.000000
2909.609619 6979.000000
2910.371094 6832.000000
2911.133057 6832.000000
