scanname Analyse110
timestamp 2017-02-10 22:54:06
ccdbias 953.751465
ccdgain 3.473401
sigmaread 8.960639
laserwavenum -0.557508
wavenumcorrection -0.034544
scancount 1
totalexposurems 10000
singleexposurems 10000
measurementstate Unknown
scanmode Manual
snr 210.128265 5.486349 4.840762
replacelist 3
374 39718.000000 14880.000000
672 36080.000000 31132.000000
948 16831.000000 19338.000000
peaks 31
278.154449 0.620077 0.000000 1.383074 0.000170
287.407166 0.619326 0.000000 0.610166 0.000036
298.407715 0.620173 0.000000 0.343617 0.000027
334.590546 0.629077 0.000000 0.572378 0.000110
342.140198 0.627266 0.000000 0.420290 0.000023
349.076996 0.630041 0.000000 0.460769 0.000019
387.183472 0.641288 0.000000 1.673168 0.000317
456.848846 0.622631 0.000000 0.451477 0.000020
494.669098 0.629050 0.000000 0.342925 0.000045
532.852661 0.621503 0.000000 0.791207 0.000149
558.695496 0.632643 0.000000 0.764976 0.000151
571.583679 0.638637 0.000000 0.530217 0.000042
578.148743 0.640769 0.000000 0.642789 0.000047
585.286316 0.640539 0.000000 0.812059 0.000108
675.366150 0.626914 0.000000 1.250922 0.000223
715.993958 0.618843 0.000000 4.025796 0.000785
736.334839 0.603497 0.000000 0.555377 0.000037
743.345520 0.602873 0.000000 0.233755 0.000019
766.924927 0.624507 0.000000 3.235965 0.000703
803.771606 0.592242 0.000000 2.709235 0.000119
827.789124 0.582596 0.000000 0.540676 0.000071
851.287720 0.582793 0.000000 0.421980 0.000148
874.993896 0.586601 0.000000 1.108966 0.000375
939.200867 0.564618 0.000000 0.544944 0.000080
955.086792 0.567932 0.000000 3.140255 0.000795
1022.510071 0.539037 0.000000 0.122675 0.000037
1046.426270 0.537427 0.000000 0.928509 0.000252
1322.437134 0.586143 0.000000 16.456312 0.004993
1450.600098 0.453636 0.000000 0.898309 0.000264
1658.835571 0.395111 0.000000 1.565456 0.000358
2330.534912 0.190314 0.000000 0.113015 0.000143
finalresult GLS_NoMatch 0
spectrum 2048
-97.043945 45104.000000
-94.417076 45104.000000
-91.792084 45786.000000
-89.168983 45784.000000
-86.547752 46681.000000
-83.928421 46389.000000
-81.310951 46671.000000
-78.695358 46352.000000
-76.081642 46764.000000
-73.469803 47214.000000
-70.859825 46954.000000
-68.251732 47142.000000
-65.645485 47203.000000
-63.041119 47112.000000
-60.438610 47021.000000
-57.837955 47568.000000
-55.239162 46876.000000
-52.642227 46330.000000
-50.047146 46652.000000
-47.453918 46630.000000
-44.862541 46849.000000
-42.273010 46448.000000
-39.685322 47191.000000
-37.099483 47031.000000
-34.515488 46668.000000
-31.933327 47335.000000
-29.353014 46705.000000
-26.774529 47378.000000
-24.197886 46887.000000
-21.623068 46744.000000
-19.050091 46421.000000
-16.478933 46546.000000
-13.909610 46088.000000
-11.342112 45151.000000
-8.776432 46576.000000
-6.212578 46270.000000
-3.650538 46651.000000
-1.090322 46655.000000
1.468086 46158.000000
4.024673 45332.000000
6.579455 45319.000000
9.132421 45386.000000
11.683585 43826.000000
14.232937 43315.000000
16.780493 42136.000000
19.326237 41719.000000
21.870188 40457.000000
24.412334 38093.000000
26.952684 36178.000000
29.491249 32867.000000
32.028015 29858.000000
34.562981 24441.000000
37.096169 15047.000000
39.627575 8177.000000
42.157188 7193.000000
44.685005 7368.000000
47.211063 6709.000000
49.735332 5711.000000
52.257832 4685.000000
54.778534 4385.000000
57.297482 4631.000000
59.814655 5414.000000
62.330051 6874.000000
64.843674 7933.000000
67.355537 8638.000000
69.865654 6377.000000
72.373978 3751.000000
74.880547 3176.000000
77.385368 2686.000000
79.888435 2045.000000
82.389725 1953.000000
84.889275 1875.000000
87.387070 1780.000000
89.883133 1913.000000
92.377419 2198.000000
94.869965 2482.000000
97.360794 2446.000000
99.849854 2339.000000
102.337166 1835.000000
104.822754 1397.000000
107.306602 1425.000000
109.788704 1256.000000
112.269081 1230.000000
114.747734 1098.000000
117.224663 1099.000000
119.699837 1109.000000
122.173302 1192.000000
124.645035 1161.000000
127.115059 1224.000000
129.583328 1282.000000
132.049927 1554.000000
134.514771 1587.000000
136.977921 1914.000000
139.439331 2236.000000
141.899048 2688.000000
144.357040 3305.000000
146.813339 3993.000000
149.267929 5076.000000
151.720795 6308.000000
154.171982 7461.000000
156.621475 9162.000000
159.069244 10898.000000
161.515305 12668.000000
163.959686 14287.000000
166.402390 16217.000000
168.843399 17395.000000
171.282700 18805.000000
173.720291 19363.000000
176.156250 19927.000000
178.590469 20106.000000
181.023010 20274.000000
183.453903 20657.000000
185.883072 20719.000000
188.310593 20870.000000
190.736435 21143.000000
193.160599 21703.000000
195.583099 23129.000000
198.003906 24603.000000
200.423050 26753.000000
202.840530 28795.000000
205.256317 29346.000000
207.670456 32306.000000
210.082962 34929.000000
212.493790 36178.000000
214.902939 37117.000000
217.310455 36705.000000
219.716263 38572.000000
222.120483 38715.000000
224.522995 39020.000000
226.923889 39139.000000
229.323135 39898.000000
231.720718 39727.000000
234.116638 39494.000000
236.510941 40363.000000
238.903580 40977.000000
241.294601 40064.000000
243.683960 40478.000000
246.071701 40704.000000
248.457794 40170.000000
250.842255 41025.000000
253.225067 39301.000000
255.606308 40537.000000
257.985840 40388.000000
260.363800 40684.000000
262.740082 39550.000000
265.114807 39662.000000
267.487885 39150.000000
269.859314 40803.000000
272.229095 40488.000000
274.597321 40877.000000
276.963898 40576.000000
279.328888 40124.000000
281.692261 40882.000000
284.053986 40624.000000
286.414124 39755.000000
288.772644 40800.000000
291.129578 40327.000000
293.484894 40375.000000
295.838623 40769.000000
298.190704 40734.000000
300.541229 40373.000000
302.890167 40339.000000
305.237457 39882.000000
307.583221 40269.000000
309.927307 40148.000000
312.269867 39269.000000
314.610809 38998.000000
316.950134 39288.000000
319.287903 39385.000000
321.624115 38248.000000
323.958679 39954.000000
326.291687 39641.000000
328.623138 40153.000000
330.953003 39430.000000
333.281281 39784.000000
335.607941 38967.000000
337.933105 39774.000000
340.256653 39902.000000
342.578644 40131.000000
344.899078 38641.000000
347.217896 38398.000000
349.535156 40044.000000
351.850891 40144.000000
354.165039 39085.000000
356.477600 39778.000000
358.788605 39691.000000
361.098083 39100.000000
363.406036 39720.000000
365.712372 40406.000000
368.017120 39708.000000
370.320404 39771.000000
372.622070 39936.000000
374.922241 39872.000000
377.220856 39940.000000
379.517914 40288.000000
381.813416 40146.000000
384.107391 40535.000000
386.399780 41197.000000
388.690674 40884.000000
390.980042 40427.000000
393.267822 40396.000000
395.554077 40126.000000
397.838837 39641.000000
400.121979 40485.000000
402.403687 40033.000000
404.683868 40213.000000
406.962463 39061.000000
409.239532 39815.000000
411.515076 39390.000000
413.789093 39543.000000
416.061676 39570.000000
418.332642 39550.000000
420.602112 39433.000000
422.870087 38540.000000
425.136505 38334.000000
427.401428 39168.000000
429.664886 39136.000000
431.926758 38730.000000
434.187164 39148.000000
436.446014 38492.000000
438.703400 38940.000000
440.959290 39259.000000
443.213684 39013.000000
445.466553 39372.000000
447.717865 37848.000000
449.967773 38715.000000
452.216095 38410.000000
454.462982 38993.000000
456.708405 38112.000000
458.952271 38189.000000
461.194641 37730.000000
463.435516 38951.000000
465.674988 37770.000000
467.912872 39132.000000
470.149323 38634.000000
472.384247 38412.000000
474.617706 37126.000000
476.849731 37857.000000
479.080231 38724.000000
481.309235 37976.000000
483.536774 38179.000000
485.762817 38488.000000
487.987427 37926.000000
490.210571 38635.000000
492.432251 38008.000000
494.652374 37834.000000
496.871094 38852.000000
499.088318 38137.000000
501.304169 38906.000000
503.518402 38352.000000
505.731323 38036.000000
507.942657 38040.000000
510.152557 37553.000000
512.361023 37892.000000
514.568115 37705.000000
516.773621 37853.000000
518.977722 37535.000000
521.180298 37903.000000
523.381470 37409.000000
525.581299 37235.000000
527.779602 36909.000000
529.976379 38455.000000
532.171814 37858.000000
534.365723 38101.000000
536.558289 36023.000000
538.749329 36897.000000
540.938965 37413.000000
543.127197 36421.000000
545.313904 36102.000000
547.499146 36289.000000
549.683105 36665.000000
551.865479 36214.000000
554.046509 36450.000000
556.226013 36553.000000
558.404236 36530.000000
560.580933 36470.000000
562.756226 36089.000000
564.930115 36071.000000
567.102539 36590.000000
569.273560 36408.000000
571.443115 36272.000000
573.611389 37257.000000
575.778137 36195.000000
577.943420 36415.000000
580.107300 36628.000000
582.269897 37056.000000
584.430969 36894.000000
586.590637 37298.000000
588.748962 37119.000000
590.905762 36835.000000
593.061218 36405.000000
595.215271 37324.000000
597.367981 36904.000000
599.519165 35911.000000
601.669006 36403.000000
603.817505 36383.000000
605.964417 36989.000000
608.110107 36503.000000
610.254395 36518.000000
612.397217 35999.000000
614.538574 36773.000000
616.678711 36351.000000
618.817322 35190.000000
620.954651 36919.000000
623.090515 35903.000000
625.224976 35558.000000
627.357971 35138.000000
629.489807 35552.000000
631.620178 35421.000000
633.749146 35090.000000
635.876648 35180.000000
638.002869 35341.000000
640.127563 34060.000000
642.251038 34845.000000
644.373169 34252.000000
646.493835 34117.000000
648.613159 34143.000000
650.731079 34836.000000
652.847656 34854.000000
654.962830 34056.000000
657.076660 33955.000000
659.189026 34427.000000
661.300171 34171.000000
663.409912 34869.000000
665.518188 34408.000000
667.625305 34294.000000
669.730957 33846.000000
671.835144 34910.000000
673.938110 35013.000000
676.039673 33933.000000
678.139893 35708.000000
680.238708 34455.000000
682.336182 35085.000000
684.432373 34343.000000
686.527100 35111.000000
688.620605 34343.000000
690.712769 34774.000000
692.803406 33391.000000
694.892822 34654.000000
696.980957 34510.000000
699.067627 34814.000000
701.153076 33953.000000
703.237000 35298.000000
705.319702 34404.000000
707.401123 34229.000000
709.481079 32391.000000
711.559814 33355.000000
713.637085 33860.000000
715.713074 33104.000000
717.787781 33647.000000
719.861206 32850.000000
721.933105 33630.000000
724.003845 32367.000000
726.073242 33537.000000
728.141235 32765.000000
730.207886 32717.000000
732.273315 31976.000000
734.337402 33010.000000
736.400146 32602.000000
738.461548 32413.000000
740.521667 32087.000000
742.580383 32576.000000
744.637878 31952.000000
746.694092 32097.000000
748.748901 31810.000000
750.802429 32078.000000
752.854553 30968.000000
754.905457 32460.000000
756.955139 31470.000000
759.003357 31937.000000
761.050354 32071.000000
763.096069 31503.000000
765.140381 33259.000000
767.183411 33305.000000
769.225220 32660.000000
771.265686 32015.000000
773.304749 31729.000000
775.342651 31995.000000
777.379211 32194.000000
779.414551 32868.000000
781.448547 32842.000000
783.481140 32086.000000
785.512573 33638.000000
787.542603 27492.000000
789.571350 32897.000000
791.598938 32167.000000
793.625183 32152.000000
795.650024 32591.000000
797.673767 32912.000000
799.696106 32198.000000
801.717224 32639.000000
803.737000 31856.000000
805.755493 33402.000000
807.772766 31675.000000
809.788635 31515.000000
811.803345 32331.000000
813.816711 31332.000000
815.828857 31308.000000
817.839783 31206.000000
819.849365 30534.000000
821.857727 31399.000000
823.864685 30883.000000
825.870422 30587.000000
827.874939 30737.000000
829.878174 30707.000000
831.880127 29825.000000
833.880798 30325.000000
835.880249 30383.000000
837.878357 29861.000000
839.875366 29258.000000
841.870972 29794.000000
843.865417 29889.000000
845.858521 29619.000000
847.850403 28854.000000
849.840942 29969.000000
851.830200 28624.000000
853.818420 29386.000000
855.805237 29785.000000
857.790833 29099.000000
859.775146 28311.000000
861.758362 29320.000000
863.740173 29115.000000
865.720764 29751.000000
867.700073 28050.000000
869.678223 28671.000000
871.655029 29352.000000
873.630554 29747.000000
875.605042 29622.000000
877.578064 29869.000000
879.550049 30474.000000
881.520691 29573.000000
883.490173 29842.000000
885.458313 30243.000000
887.425293 30530.000000
889.390930 29644.000000
891.355408 29955.000000
893.318665 29833.000000
895.280701 29327.000000
897.241455 29881.000000
899.200989 29264.000000
901.159241 28983.000000
903.116394 29265.000000
905.072388 29505.000000
907.026978 28646.000000
908.980347 28880.000000
910.932556 28687.000000
912.883545 28467.000000
914.833252 27577.000000
916.781799 27979.000000
918.729126 27856.000000
920.675171 27713.000000
922.619934 27482.000000
924.563660 26978.000000
926.506226 26994.000000
928.447510 27016.000000
930.387451 26097.000000
932.326294 26652.000000
934.263855 26795.000000
936.200195 26493.000000
938.135376 26612.000000
940.069275 26450.000000
942.002075 26796.000000
943.933655 25975.000000
945.864075 27517.000000
947.793274 26552.000000
949.721130 26176.000000
951.647949 26496.000000
953.573486 27013.000000
955.497742 27646.000000
957.420898 27312.000000
959.342896 26888.000000
961.263611 26363.000000
963.183167 26991.000000
965.101563 28053.000000
967.018921 27063.000000
968.934814 27092.000000
970.849609 27265.000000
972.763184 27339.000000
974.675598 27046.000000
976.586792 26913.000000
978.496826 27704.000000
980.405579 27114.000000
982.313293 27178.000000
984.219788 26875.000000
986.125061 27482.000000
988.029236 26396.000000
989.932190 26915.000000
991.833923 26273.000000
993.734497 26675.000000
995.633911 26111.000000
997.532104 27141.000000
999.429138 25747.000000
1001.324951 25782.000000
1003.219604 24401.000000
1005.113159 25917.000000
1007.005432 24334.000000
1008.896790 24922.000000
1010.786804 25312.000000
1012.675598 24537.000000
1014.563232 24785.000000
1016.449707 24324.000000
1018.335022 24328.000000
1020.219177 24472.000000
1022.102112 24474.000000
1023.984009 24265.000000
1025.864624 24824.000000
1027.744141 24432.000000
1029.622681 24315.000000
1031.499878 24707.000000
1033.375732 24222.000000
1035.250610 24609.000000
1037.124512 24404.000000
1038.996948 24043.000000
1040.868408 24018.000000
1042.738525 24503.000000
1044.607666 24594.000000
1046.475586 24905.000000
1048.342407 24329.000000
1050.208130 24643.000000
1052.072632 24810.000000
1053.936035 24749.000000
1055.798096 24773.000000
1057.659180 25094.000000
1059.519165 24782.000000
1061.377808 24620.000000
1063.235352 25342.000000
1065.091797 24602.000000
1066.947144 25036.000000
1068.801270 25272.000000
1070.654541 24809.000000
1072.506348 24840.000000
1074.357178 24928.000000
1076.206787 24832.000000
1078.055176 25253.000000
1079.902710 23530.000000
1081.748901 24839.000000
1083.593872 24253.000000
1085.437988 24677.000000
1087.280762 24757.000000
1089.122314 24012.000000
1090.963135 24367.000000
1092.802368 23962.000000
1094.640869 24043.000000
1096.478027 24002.000000
1098.313965 23480.000000
1100.148926 23022.000000
1101.982666 22953.000000
1103.815430 22918.000000
1105.646851 22992.000000
1107.477417 22749.000000
1109.306641 22508.000000
1111.134888 22186.000000
1112.961914 21819.000000
1114.787964 22112.000000
1116.612793 22159.000000
1118.436523 21821.000000
1120.259033 22160.000000
1122.080444 21937.000000
1123.901001 21960.000000
1125.720093 22022.000000
1127.538330 21958.000000
1129.355225 22093.000000
1131.171265 22199.000000
1132.986084 22227.000000
1134.799805 22503.000000
1136.612427 22508.000000
1138.423828 22743.000000
1140.234253 22974.000000
1142.043579 22730.000000
1143.851563 22623.000000
1145.658813 23024.000000
1147.464600 22913.000000
1149.269531 22897.000000
1151.073364 22984.000000
1152.875977 22862.000000
1154.677734 22761.000000
1156.478027 22762.000000
1158.277344 22727.000000
1160.075684 22721.000000
1161.872681 22717.000000
1163.668945 22390.000000
1165.463867 22425.000000
1167.257690 22314.000000
1169.050659 21638.000000
1170.842285 21803.000000
1172.632935 21456.000000
1174.422607 21303.000000
1176.210815 21596.000000
1177.998169 21337.000000
1179.784424 21254.000000
1181.569580 21444.000000
1183.353638 21550.000000
1185.136597 21080.000000
1186.918579 21334.000000
1188.699341 21381.000000
1190.479126 21296.000000
1192.257813 20957.000000
1194.035522 21052.000000
1195.812012 20764.000000
1197.587402 20509.000000
1199.361694 20361.000000
1201.134888 20062.000000
1202.907227 20004.000000
1204.678223 19888.000000
1206.448364 20161.000000
1208.217285 19758.000000
1209.985107 19729.000000
1211.752075 19869.000000
1213.517700 19840.000000
1215.282349 19678.000000
1217.045898 19679.000000
1218.808350 19681.000000
1220.569946 19590.000000
1222.330322 19512.000000
1224.089600 19437.000000
1225.848022 19442.000000
1227.605225 19462.000000
1229.361328 19681.000000
1231.116333 19856.000000
1232.870483 19853.000000
1234.623291 19879.000000
1236.375122 20135.000000
1238.126099 20077.000000
1239.875732 20393.000000
1241.624512 20182.000000
1243.371948 20290.000000
1245.118652 20301.000000
1246.864136 20334.000000
1248.608765 20138.000000
1250.352051 20092.000000
1252.094360 20016.000000
1253.835571 19865.000000
1255.575928 19841.000000
1257.315186 19296.000000
1259.053223 18627.000000
1260.790405 18712.000000
1262.526367 18683.000000
1264.261353 19097.000000
1265.995361 19248.000000
1267.728394 19582.000000
1269.460205 19707.000000
1271.191040 19802.000000
1272.920654 19667.000000
1274.649414 19969.000000
1276.377075 19901.000000
1278.103638 19886.000000
1279.829346 19792.000000
1281.553711 19718.000000
1283.277222 19665.000000
1284.999756 19390.000000
1286.721313 19544.000000
1288.441650 19500.000000
1290.161011 19384.000000
1291.879272 19254.000000
1293.596558 19336.000000
1295.312866 19420.000000
1297.027954 19425.000000
1298.742065 19477.000000
1300.455200 19232.000000
1302.167480 18884.000000
1303.878540 18475.000000
1305.588623 18621.000000
1307.297607 18447.000000
1309.005371 18355.000000
1310.712524 18203.000000
1312.418213 18346.000000
1314.123169 18047.000000
1315.827148 18346.000000
1317.529907 18697.000000
1319.231689 19438.000000
1320.932617 23588.000000
1322.632202 23415.000000
1324.330933 20522.000000
1326.028931 17629.000000
1327.725586 17431.000000
1329.421143 17332.000000
1331.115845 17285.000000
1332.809326 17283.000000
1334.501953 17262.000000
1336.193726 17113.000000
1337.884155 16967.000000
1339.573853 16967.000000
1341.262451 17118.000000
1342.949951 16953.000000
1344.636475 16945.000000
1346.321899 16835.000000
1348.006348 16998.000000
1349.689941 16864.000000
1351.372314 16954.000000
1353.053711 17163.000000
1354.734253 17438.000000
1356.413574 17559.000000
1358.092285 17587.000000
1359.769653 17751.000000
1361.445923 17857.000000
1363.121216 17835.000000
1364.795776 17878.000000
1366.469116 17779.000000
1368.141479 17774.000000
1369.812866 17923.000000
1371.483276 17789.000000
1373.152588 17527.000000
1374.820923 17670.000000
1376.488403 17611.000000
1378.154785 17578.000000
1379.820190 17451.000000
1381.484619 17466.000000
1383.147827 17112.000000
1384.810425 17218.000000
1386.471680 17001.000000
1388.132080 16941.000000
1389.791382 16672.000000
1391.449707 16783.000000
1393.107300 16689.000000
1394.763672 16721.000000
1396.419189 16781.000000
1398.073486 16756.000000
1399.726929 16930.000000
1401.379272 16898.000000
1403.030884 16895.000000
1404.681274 16693.000000
1406.330566 16392.000000
1407.979126 16072.000000
1409.626587 15691.000000
1411.273071 15717.000000
1412.918701 15601.000000
1414.563354 15528.000000
1416.206787 15565.000000
1417.849365 15406.000000
1419.490845 15394.000000
1421.131470 15374.000000
1422.771118 15308.000000
1424.409668 15178.000000
1426.047363 15104.000000
1427.683960 15039.000000
1429.319580 15073.000000
1430.954468 14924.000000
1432.588257 15056.000000
1434.220947 15148.000000
1435.852661 14871.000000
1437.483521 14793.000000
1439.113281 14984.000000
1440.741943 14857.000000
1442.369995 14883.000000
1443.996948 14953.000000
1445.622681 14890.000000
1447.247803 14997.000000
1448.871826 14909.000000
1450.494873 15139.000000
1452.116943 15094.000000
1453.737915 15176.000000
1455.357910 15099.000000
1456.977173 15285.000000
1458.595093 16414.000000
1460.212402 13157.000000
1461.828735 14915.000000
1463.443848 14790.000000
1465.058105 14773.000000
1466.671509 15147.000000
1468.283813 15135.000000
1469.895264 15246.000000
1471.505859 14981.000000
1473.115234 15175.000000
1474.723633 15158.000000
1476.331177 15218.000000
1477.937744 15044.000000
1479.543579 15294.000000
1481.148193 14983.000000
1482.751953 14933.000000
1484.354492 14655.000000
1485.956421 14215.000000
1487.557129 14084.000000
1489.157104 13950.000000
1490.755981 13814.000000
1492.354004 14086.000000
1493.950928 13822.000000
1495.546997 14375.000000
1497.142090 14933.000000
1498.736206 14684.000000
1500.329590 14792.000000
1501.921875 14596.000000
1503.512939 14446.000000
1505.103516 14423.000000
1506.692749 14317.000000
1508.281372 14251.000000
1509.868896 14231.000000
1511.455322 14088.000000
1513.041016 14014.000000
1514.625610 14115.000000
1516.209351 13902.000000
1517.791992 13830.000000
1519.373901 13813.000000
1520.954712 13961.000000
1522.534790 13663.000000
1524.113647 13512.000000
1525.691650 13260.000000
1527.268921 13323.000000
1528.844971 13262.000000
1530.420288 13146.000000
1531.994507 13219.000000
1533.567993 13172.000000
1535.140259 13301.000000
1536.711792 13092.000000
1538.282349 13132.000000
1539.852051 13087.000000
1541.420532 13176.000000
1542.988281 12934.000000
1544.555176 12900.000000
1546.120850 12869.000000
1547.685791 13033.000000
1549.249634 12735.000000
1550.812866 12745.000000
1552.374756 12745.000000
1553.936035 12926.000000
1555.496216 12679.000000
1557.055664 12787.000000
1558.614014 12661.000000
1560.171631 12758.000000
1561.728149 12592.000000
1563.283447 12487.000000
1564.838135 12582.000000
1566.392090 12531.000000
1567.945068 12575.000000
1569.496704 12452.000000
1571.047607 12570.000000
1572.597778 12697.000000
1574.146973 12543.000000
1575.694824 12690.000000
1577.242188 12531.000000
1578.788574 12724.000000
1580.334106 12706.000000
1581.878662 12657.000000
1583.421997 12568.000000
1584.964722 12635.000000
1586.506592 12632.000000
1588.047363 12403.000000
1589.587158 12586.000000
1591.126221 12541.000000
1592.664185 12547.000000
1594.201660 12337.000000
1595.737793 12486.000000
1597.272827 12476.000000
1598.807373 12211.000000
1600.340942 12106.000000
1601.873657 12253.000000
1603.404785 12447.000000
1604.935669 12365.000000
1606.465698 12354.000000
1607.994507 12101.000000
1609.522217 12217.000000
1611.049316 12231.000000
1612.575684 12358.000000
1614.101074 12267.000000
1615.625610 12146.000000
1617.148804 12030.000000
1618.671265 12185.000000
1620.192993 12265.000000
1621.713867 12278.000000
1623.233276 11428.000000
1624.752197 11901.000000
1626.270386 12001.000000
1627.787720 11794.000000
1629.303955 11968.000000
1630.818848 11672.000000
1632.333252 11905.000000
1633.846924 11730.000000
1635.359497 11652.000000
1636.870850 11588.000000
1638.381836 11544.000000
1639.891724 11581.000000
1641.400757 11509.000000
1642.908447 11553.000000
1644.415771 11415.000000
1645.922241 11324.000000
1647.427734 11358.000000
1648.932373 11242.000000
1650.435547 11350.000000
1651.938110 11127.000000
1653.440308 11040.000000
1654.941162 10960.000000
1656.440918 10892.000000
1657.939819 10941.000000
1659.438354 10930.000000
1660.935669 10808.000000
1662.432251 10824.000000
1663.927246 10675.000000
1665.421997 10654.000000
1666.915894 10644.000000
1668.408813 11433.000000
1669.900391 8017.000000
1671.391479 10342.000000
1672.881958 10305.000000
1674.371338 10247.000000
1675.859253 10362.000000
1677.346924 10326.000000
1678.833618 10444.000000
1680.319458 10467.000000
1681.804443 10395.000000
1683.287964 10104.000000
1684.771240 9987.000000
1686.253662 10095.000000
1687.734985 10134.000000
1689.214844 10018.000000
1690.694458 10011.000000
1692.173340 10074.000000
1693.651245 10102.000000
1695.128174 10128.000000
1696.603882 10064.000000
1698.079224 9902.000000
1699.553345 9988.000000
1701.026855 10009.000000
1702.498901 9944.000000
1703.970703 9948.000000
1705.441528 10020.000000
1706.911499 10035.000000
1708.380127 10022.000000
1709.848267 10133.000000
1711.315674 10136.000000
1712.781982 9988.000000
1714.247681 9973.000000
1715.711670 10028.000000
1717.175537 10045.000000
1718.638550 10092.000000
1720.100586 9976.000000
1721.561401 10022.000000
1723.021606 10109.000000
1724.481079 10046.000000
1725.939697 10044.000000
1727.397339 9884.000000
1728.853638 9944.000000
1730.309692 10002.000000
1731.764771 9824.000000
1733.218872 9864.000000
1734.671753 9888.000000
1736.124390 9836.000000
1737.575928 9875.000000
1739.026733 9812.000000
1740.476563 9672.000000
1741.925049 9691.000000
1743.373169 9535.000000
1744.820435 9718.000000
1746.266968 9640.000000
1747.711914 9423.000000
1749.156616 9518.000000
1750.600464 9439.000000
1752.043457 9445.000000
1753.484985 9519.000000
1754.926270 9481.000000
1756.366699 9331.000000
1757.806152 9181.000000
1759.244629 9418.000000
1760.682129 9321.000000
1762.119141 8967.000000
1763.555176 9014.000000
1764.990356 9101.000000
1766.424072 9175.000000
1767.857666 9298.000000
1769.290283 9139.000000
1770.722046 9361.000000
1772.152954 9262.000000
1773.582642 9094.000000
1775.011597 8973.000000
1776.440063 8694.000000
1777.867554 8475.000000
1779.293701 7964.000000
1780.719604 8544.000000
1782.144409 8617.000000
1783.568604 8553.000000
1784.991333 8606.000000
1786.413574 8516.000000
1787.835083 8480.000000
1789.255859 8509.000000
1790.675659 8399.000000
1792.094116 8417.000000
1793.512085 8264.000000
1794.929443 8439.000000
1796.345947 8426.000000
1797.760986 8259.000000
1799.175659 8289.000000
1800.589722 8225.000000
1802.002563 8286.000000
1803.414795 8199.000000
1804.825684 8210.000000
1806.236084 8053.000000
1807.645752 8087.000000
1809.054443 8176.000000
1810.462036 8138.000000
1811.869141 8203.000000
1813.275391 8161.000000
1814.680664 8198.000000
1816.084839 8231.000000
1817.488647 8256.000000
1818.891479 8287.000000
1820.293457 8261.000000
1821.694824 8144.000000
1823.094727 8187.000000
1824.494019 8248.000000
1825.892822 8161.000000
1827.290771 8078.000000
1828.687378 8204.000000
1830.083374 8066.000000
1831.478638 8108.000000
1832.873291 8067.000000
1834.266968 8015.000000
1835.659302 8135.000000
1837.051147 7951.000000
1838.442383 8056.000000
1839.832642 8041.000000
1841.221680 7930.000000
1842.610352 7927.000000
1843.998047 7891.000000
1845.385010 8004.000000
1846.770630 7914.000000
1848.156006 7912.000000
1849.540527 7826.000000
1850.924316 7743.000000
1852.307007 7788.000000
1853.688477 7803.000000
1855.069458 7576.000000
1856.449951 7684.000000
1857.829468 7654.000000
1859.207520 7568.000000
1860.585449 7585.000000
1861.962402 7436.000000
1863.338623 7560.000000
1864.713989 7263.000000
1866.087891 7396.000000
1867.461670 7441.000000
1868.834595 7328.000000
1870.206421 7283.000000
1871.577271 7186.000000
1872.947754 7168.000000
1874.317139 7162.000000
1875.686035 7208.000000
1877.053345 7151.000000
1878.420532 7097.000000
1879.786743 7108.000000
1881.152222 6983.000000
1882.516968 7063.000000
1883.880127 6986.000000
1885.243164 6914.000000
1886.605347 7037.000000
1887.966675 7009.000000
1889.326660 6846.000000
1890.686279 6797.000000
1892.045288 6813.000000
1893.403320 6778.000000
1894.760498 6682.000000
1896.116455 6871.000000
1897.472168 6802.000000
1898.826904 6839.000000
1900.180786 6823.000000
1901.533569 6771.000000
1902.885864 6859.000000
1904.237427 6996.000000
1905.588135 6817.000000
1906.937622 6819.000000
1908.286621 6922.000000
1909.634766 6725.000000
1910.982300 6724.000000
1912.329102 6695.000000
1913.674316 6771.000000
1915.019287 6763.000000
1916.363525 6834.000000
1917.706909 6781.000000
1919.048950 6815.000000
1920.390747 6709.000000
1921.731689 6718.000000
1923.071899 6693.000000
1924.411133 6802.000000
1925.749390 6701.000000
1927.087036 6789.000000
1928.423950 6680.000000
1929.760010 6826.000000
1931.094849 6715.000000
1932.429321 6535.000000
1933.763062 6541.000000
1935.095947 6608.000000
1936.427368 6544.000000
1937.758911 6489.000000
1939.089111 6445.000000
1940.418823 6483.000000
1941.747681 6667.000000
1943.075317 6644.000000
1944.402466 6459.000000
1945.728882 6478.000000
1947.054565 6415.000000
1948.378906 6510.000000
1949.703003 6464.000000
1951.026245 6442.000000
1952.348755 6335.000000
1953.670166 6421.000000
1954.990601 6340.000000
1956.310425 6380.000000
1957.629883 6325.000000
1958.948364 6355.000000
1960.265503 6143.000000
1961.582275 6173.000000
1962.898315 6121.000000
1964.213623 6130.000000
1965.527466 6230.000000
1966.841064 6110.000000
1968.153931 6034.000000
1969.465942 6054.000000
1970.777344 6021.000000
1972.087402 5965.000000
1973.396973 5973.000000
1974.705811 5928.000000
1976.014038 5985.000000
1977.320923 5870.000000
1978.627197 5734.000000
1979.933105 5902.000000
1981.237793 5944.000000
1982.541992 5806.000000
1983.844971 5732.000000
1985.147583 5713.000000
1986.449219 5811.000000
1987.750244 5612.000000
1989.049683 5491.000000
1990.349243 5612.000000
1991.647705 5465.000000
1992.945679 5518.000000
1994.242065 5531.000000
1995.538452 5518.000000
1996.833862 5428.000000
1998.128540 5345.000000
1999.422363 5436.000000
2000.714966 5418.000000
2002.007080 5351.000000
2003.298706 5281.000000
2004.589600 5321.000000
2005.878906 5344.000000
2007.167969 5291.000000
2008.456299 5382.000000
2009.743896 5266.000000
2011.030640 5281.000000
2012.316284 5180.000000
2013.601563 5282.000000
2014.885864 5151.000000
2016.169556 5200.000000
2017.451904 5007.000000
2018.733887 5156.000000
2020.015381 5160.000000
2021.295898 5202.000000
2022.575684 5072.000000
2023.854370 5037.000000
2025.132324 5116.000000
2026.409790 5093.000000
2027.686646 5181.000000
2028.961792 5192.000000
2030.237061 5282.000000
2031.511353 5277.000000
2032.784668 5158.000000
2034.057129 5163.000000
2035.329224 5240.000000
2036.600220 5121.000000
2037.870972 5217.000000
2039.140381 5187.000000
2040.408691 5081.000000
2041.677002 5113.000000
2042.944336 5186.000000
2044.210938 5115.000000
2045.476318 5159.000000
2046.741089 5025.000000
2048.005615 5129.000000
2049.268799 5096.000000
2050.531738 5065.000000
2051.792725 5053.000000
2053.054199 4958.000000
2054.314453 4799.000000
2055.573975 4844.000000
2056.832764 4982.000000
2058.090576 4830.000000
2059.347900 4989.000000
2060.604492 4906.000000
2061.859619 4896.000000
2063.114746 4896.000000
2064.368896 4804.000000
2065.622314 4729.000000
2066.875000 4764.000000
2068.126465 4829.000000
2069.377686 4760.000000
2070.628174 4839.000000
2071.877930 4874.000000
2073.126221 5085.000000
2074.374512 4733.000000
2075.621826 4619.000000
2076.868408 4582.000000
2078.114258 4672.000000
2079.358887 4654.000000
2080.603027 4614.000000
2081.846680 4537.000000
2083.089355 4471.000000
2084.330811 4424.000000
2085.572021 4516.000000
2086.812744 4435.000000
2088.052490 4446.000000
2089.291016 4494.000000
2090.529053 4332.000000
2091.766357 4436.000000
2093.003418 4418.000000
2094.239014 4396.000000
2095.473877 4360.000000
2096.708496 4399.000000
2097.942139 4404.000000
2099.174805 4407.000000
2100.406738 4383.000000
2101.638184 4309.000000
2102.868652 4303.000000
2104.098389 4232.000000
2105.327881 4250.000000
2106.555420 4218.000000
2107.783203 4222.000000
2109.010254 4182.000000
2110.236328 4148.000000
2111.460938 4128.000000
2112.685791 4093.000000
2113.909424 4093.000000
2115.132568 4124.000000
2116.354492 4047.000000
2117.576172 4160.000000
2118.796875 4134.000000
2120.016846 4195.000000
2121.236328 4176.000000
2122.454346 4238.000000
2123.672363 4089.000000
2124.889404 4184.000000
2126.105957 4150.000000
2127.320801 4152.000000
2128.535889 4224.000000
2129.750000 4093.000000
2130.963379 4117.000000
2132.176025 3949.000000
2133.387207 3980.000000
2134.598633 4063.000000
2135.808838 4097.000000
2137.018555 4050.000000
2138.226807 4059.000000
2139.435059 4109.000000
2140.642578 4002.000000
2141.848877 4141.000000
2143.054443 4056.000000
2144.259766 3933.000000
2145.464111 3997.000000
2146.667725 3963.000000
2147.870850 4007.000000
2149.072510 3983.000000
2150.273926 3954.000000
2151.474609 3983.000000
2152.674561 3871.000000
2153.873291 3889.000000
2155.071777 3937.000000
2156.269775 3845.000000
2157.466797 3903.000000
2158.663086 3817.000000
2159.858154 3810.000000
2161.052979 3790.000000
2162.247070 3690.000000
2163.440186 3714.000000
2164.632324 3741.000000
2165.824219 3709.000000
2167.015381 3576.000000
2168.205566 3612.000000
2169.395020 3576.000000
2170.583984 3598.000000
2171.771973 3523.000000
2172.959717 3500.000000
2174.145996 3529.000000
2175.331543 3396.000000
2176.516846 3411.000000
2177.701660 3378.000000
2178.885254 3417.000000
2180.068115 3387.000000
2181.250000 3325.000000
2182.431641 3350.000000
2183.612793 3392.000000
2184.792725 3418.000000
2185.971680 3451.000000
2187.150146 3321.000000
2188.328369 3309.000000
2189.505371 3383.000000
2190.681396 3375.000000
2191.857178 3409.000000
2193.032471 3265.000000
2194.206299 3282.000000
2195.379639 3310.000000
2196.552734 3269.000000
2197.724609 3402.000000
2198.895996 3378.000000
2200.066895 3329.000000
2201.236084 3359.000000
2202.405273 3414.000000
2203.573975 3284.000000
2204.741699 3289.000000
2205.908447 3359.000000
2207.074463 3338.000000
2208.239990 3304.000000
2209.405273 3368.000000
2210.569092 3283.000000
2211.732422 3314.000000
2212.894531 3268.000000
2214.056885 3247.000000
2215.218018 3269.000000
2216.378174 3247.000000
2217.537842 3232.000000
2218.697266 3236.000000
2219.855469 3146.000000
2221.012695 3147.000000
2222.169678 3175.000000
2223.325928 3156.000000
2224.481445 3139.000000
2225.636230 3100.000000
2226.790039 3078.000000
2227.942871 3063.000000
2229.096191 3099.000000
2230.247559 3025.000000
2231.398682 3087.000000
2232.549072 3151.000000
2233.698975 3026.000000
2234.847900 2990.000000
2235.996338 2981.000000
2237.143311 3062.000000
2238.290527 3038.000000
2239.436523 2964.000000
2240.582275 2916.000000
2241.726318 2826.000000
2242.870605 2833.000000
2244.013916 2755.000000
2245.156494 2833.000000
2246.298096 2851.000000
2247.439453 2797.000000
2248.579834 2833.000000
2249.719482 2754.000000
2250.858643 2766.000000
2251.996582 2723.000000
2253.134521 2623.000000
2254.271484 2762.000000
2255.407715 2729.000000
2256.542969 2704.000000
2257.677490 2575.000000
2258.811768 2614.000000
2259.945557 2699.000000
2261.077881 2730.000000
2262.209717 2760.000000
2263.341064 2607.000000
2264.471436 2489.000000
2265.601563 2622.000000
2266.730469 2575.000000
2267.858887 2551.000000
2268.986816 2566.000000
2270.113770 2533.000000
2271.239990 2492.000000
2272.365234 2533.000000
2273.490479 2534.000000
2274.614990 2597.000000
2275.738281 2634.000000
2276.860840 2497.000000
2277.982910 2569.000000
2279.104492 2544.000000
2280.225342 2490.000000
2281.344971 2544.000000
2282.464111 2478.000000
2283.583008 2283.000000
2284.701172 2388.000000
2285.818359 2401.000000
2286.934570 2391.000000
2288.050537 2377.000000
2289.165771 2477.000000
2290.280273 2543.000000
2291.393555 2362.000000
2292.506836 2478.000000
2293.619385 2471.000000
2294.731201 2433.000000
2295.842285 2455.000000
2296.952148 2417.000000
2298.061523 2492.000000
2299.170654 2429.000000
2300.278809 2430.000000
2301.385986 2522.000000
2302.492920 2502.000000
2303.599121 2432.000000
2304.704834 2385.000000
2305.809082 2545.000000
2306.913086 2424.000000
2308.016602 2427.000000
2309.119629 2343.000000
2310.221436 2414.000000
2311.322510 2382.000000
2312.423096 2405.000000
2313.523193 2377.000000
2314.622559 2363.000000
2315.720459 2332.000000
2316.818848 2332.000000
2317.915771 2282.000000
2319.012451 2262.000000
2320.108643 2250.000000
2321.203125 2231.000000
2322.297607 2287.000000
2323.391357 2199.000000
2324.484863 2236.000000
2325.576660 2235.000000
2326.668457 2334.000000
2327.759521 2282.000000
2328.849854 2335.000000
2329.939209 2408.000000
2331.028564 2318.000000
2332.116699 2420.000000
2333.204346 2387.000000
2334.291748 2162.000000
2335.377441 2161.000000
2336.462891 2212.000000
2337.548096 2228.000000
2338.632324 2145.000000
2339.715576 2169.000000
2340.798584 2065.000000
2341.880615 2176.000000
2342.962402 2229.000000
2344.043457 2093.000000
2345.123291 2122.000000
2346.202637 2019.000000
2347.281494 2041.000000
2348.359863 2029.000000
2349.436768 1986.000000
2350.513428 2052.000000
2351.589844 1991.000000
2352.665283 1975.000000
2353.739746 2046.000000
2354.813965 2021.000000
2355.887451 1932.000000
2356.960449 1994.000000
2358.032227 2011.000000
2359.103760 2052.000000
2360.174316 1961.000000
2361.244629 1823.000000
2362.313965 1911.000000
2363.382324 1885.000000
2364.450439 1923.000000
2365.517822 1942.000000
2366.584717 2026.000000
2367.650879 1914.000000
2368.715820 1766.000000
2369.780762 1869.000000
2370.844971 1827.000000
2371.908447 1684.000000
2372.970703 1780.000000
2374.032959 1828.000000
2375.094238 1855.000000
2376.155273 1810.000000
2377.215088 1932.000000
2378.274170 1888.000000
2379.333252 1797.000000
2380.391357 1758.000000
2381.448730 1873.000000
2382.505127 1945.000000
2383.561279 1888.000000
2384.616943 1822.000000
2385.671875 1891.000000
2386.725342 1707.000000
2387.779053 1785.000000
2388.831787 1736.000000
2389.884033 1740.000000
2390.935547 1850.000000
2391.986084 1838.000000
2393.036377 1774.000000
2394.085693 1784.000000
2395.135010 1804.000000
2396.182861 1839.000000
2397.230225 1683.000000
2398.277344 1752.000000
2399.323486 1849.000000
2400.368896 1825.000000
2401.413574 1735.000000
2402.458252 1803.000000
2403.501465 1793.000000
2404.544678 1695.000000
2405.586426 1726.000000
2406.628418 1729.000000
2407.669678 1770.000000
2408.709961 1827.000000
2409.749512 1787.000000
2410.788086 1916.000000
2411.826904 1798.000000
2412.864502 1776.000000
2413.901855 1725.000000
2414.937988 1686.000000
2415.973877 1724.000000
2417.009033 1695.000000
2418.043701 1708.000000
2419.076904 1806.000000
2420.110352 1659.000000
2421.142822 1708.000000
2422.175049 1791.000000
2423.205811 1664.000000
2424.236572 1744.000000
2425.266846 1710.000000
2426.295898 1705.000000
2427.324951 1679.000000
2428.352295 1629.000000
2429.380127 1664.000000
2430.406738 1636.000000
2431.433105 1663.000000
2432.458008 1573.000000
2433.483154 1666.000000
2434.507324 1656.000000
2435.531250 1668.000000
2436.553955 1602.000000
2437.575928 1586.000000
2438.597656 1548.000000
2439.618652 1623.000000
2440.639160 1524.000000
2441.658447 1540.000000
2442.677734 1560.000000
2443.696045 1472.000000
2444.714111 1446.000000
2445.730713 1495.000000
2446.747314 1448.000000
2447.763184 1607.000000
2448.779053 1419.000000
2449.793457 1464.000000
2450.807129 1433.000000
2451.820313 1468.000000
2452.833252 1553.000000
2453.845459 1430.000000
2454.856689 1448.000000
2455.867676 1389.000000
2456.877930 1495.000000
2457.887695 1407.000000
2458.896484 1471.000000
2459.904541 1423.000000
2460.912598 1509.000000
2461.919434 1409.000000
2462.926025 1423.000000
2463.931396 1411.000000
2464.936523 1438.000000
2465.941406 1415.000000
2466.945068 1307.000000
2467.948486 1442.000000
2468.950928 1337.000000
2469.953125 1379.000000
2470.954834 1437.000000
2471.955566 1347.000000
2472.955322 1392.000000
2473.955078 1418.000000
2474.953857 1413.000000
2475.952148 1265.000000
2476.949463 1342.000000
2477.946533 1304.000000
2478.943604 1469.000000
2479.939209 1362.000000
2480.934814 1409.000000
2481.928711 1304.000000
2482.922607 1321.000000
2483.916016 1366.000000
2484.908936 1369.000000
2485.900879 1246.000000
2486.892090 1311.000000
2487.883057 1370.000000
2488.873535 1339.000000
2489.863037 1353.000000
2490.851807 1325.000000
2491.840576 1338.000000
2492.828369 1379.000000
2493.814941 1350.000000
2494.801514 1451.000000
2495.787598 1422.000000
2496.772949 1355.000000
2497.757324 1291.000000
2498.741455 1344.000000
2499.725586 1310.000000
2500.708252 1308.000000
2501.690430 1294.000000
2502.672119 1314.000000
2503.653076 1291.000000
2504.633545 1436.000000
2505.613770 1331.000000
2506.592529 1313.000000
2507.571045 1407.000000
2508.549072 1333.000000
2509.526611 1332.000000
2510.503174 1319.000000
2511.479492 1434.000000
2512.455078 1134.000000
2513.430176 1354.000000
2514.404785 1267.000000
2515.378174 1179.000000
2516.351318 1280.000000
2517.324219 1212.000000
2518.296143 1159.000000
2519.267334 1263.000000
2520.238037 1234.000000
2521.208496 1236.000000
2522.178223 1136.000000
2523.146973 1214.000000
2524.114990 1178.000000
2525.083008 1272.000000
2526.050049 1172.000000
2527.016846 1244.000000
2527.982422 1261.000000
2528.947998 1228.000000
2529.912842 1259.000000
2530.877197 1232.000000
2531.840332 1211.000000
2532.803711 1186.000000
2533.766113 1184.000000
2534.728271 1170.000000
2535.689209 1248.000000
2536.649414 1158.000000
2537.609863 1164.000000
2538.569336 1147.000000
2539.528076 1081.000000
2540.485840 1136.000000
2541.443848 1147.000000
2542.401123 1160.000000
2543.357422 1123.000000
2544.313477 1085.000000
2545.268311 1124.000000
2546.223389 1263.000000
2547.177734 1063.000000
2548.131348 1130.000000
2549.083984 1153.000000
2550.036377 1077.000000
2550.988281 1050.000000
2551.939453 974.000000
2552.889893 1033.000000
2553.839844 1147.000000
2554.789551 1070.000000
2555.738525 1092.000000
2556.687012 1077.000000
2557.634277 1118.000000
2558.581543 1034.000000
2559.528076 1065.000000
2560.474121 1008.000000
2561.419189 974.000000
2562.364014 912.000000
2563.308350 1119.000000
2564.252197 1078.000000
2565.195557 1073.000000
2566.137451 1005.000000
2567.079590 1077.000000
2568.020996 994.000000
2568.961670 943.000000
2569.901611 1002.000000
2570.841553 1007.000000
2571.780518 967.000000
2572.719238 931.000000
2573.656982 1062.000000
2574.594482 1059.000000
2575.531250 1035.000000
2576.467285 1023.000000
2577.402832 1078.000000
2578.337646 943.000000
2579.272461 941.000000
2580.206299 1105.000000
2581.139648 1019.000000
2582.072266 1051.000000
2583.004639 1018.000000
2583.936279 1069.000000
2584.867432 945.000000
2585.798096 1030.000000
2586.727539 938.000000
2587.656982 1075.000000
2588.585938 1003.000000
2589.514648 967.000000
2590.441650 1048.000000
2591.368896 1007.000000
2592.295654 1046.000000
2593.221680 942.000000
2594.147461 1046.000000
2595.072021 903.000000
2595.996338 995.000000
2596.920166 1000.000000
2597.843506 932.000000
2598.765869 972.000000
2599.687988 929.000000
2600.609619 950.000000
2601.530518 1043.000000
2602.450684 988.000000
2603.370605 893.000000
2604.290039 1074.000000
2605.209229 1051.000000
2606.127441 857.000000
2607.044434 965.000000
2607.961670 1002.000000
2608.878662 835.000000
2609.794678 919.000000
2610.709473 905.000000
2611.624756 986.000000
2612.539307 920.000000
2613.452881 847.000000
2614.366455 871.000000
2615.278809 954.000000
2616.191162 971.000000
2617.102539 859.000000
2618.013672 991.000000
2618.924072 814.000000
2619.834229 865.000000
2620.743652 883.000000
2621.652588 882.000000
2622.560547 874.000000
2623.468750 919.000000
2624.375977 891.000000
2625.282715 918.000000
2626.188721 852.000000
2627.094482 863.000000
2627.999512 1019.000000
2628.904297 851.000000
2629.808350 832.000000
2630.711426 913.000000
2631.614502 790.000000
2632.516602 841.000000
2633.418701 870.000000
2634.320557 836.000000
2635.220703 841.000000
2636.121094 795.000000
2637.020752 795.000000
2637.920166 789.000000
2638.818115 812.000000
2639.716553 714.000000
2640.614502 942.000000
2641.511719 830.000000
2642.407715 729.000000
2643.303711 857.000000
2644.199463 808.000000
2645.094482 785.000000
2645.989258 780.000000
2646.882568 779.000000
2647.775879 761.000000
2648.668945 832.000000
2649.561768 714.000000
2650.452881 852.000000
2651.344238 755.000000
2652.235107 774.000000
2653.125244 767.000000
2654.015137 811.000000
2654.903809 763.000000
2655.792725 779.000000
2656.681152 811.000000
2657.568604 618.000000
2658.455078 770.000000
2659.342041 674.000000
2660.228271 739.000000
2661.114014 730.000000
2661.998535 748.000000
2662.883057 765.000000
2663.767334 720.000000
2664.650879 761.000000
2665.533936 712.000000
2666.416260 768.000000
2667.298096 846.000000
2668.179199 680.000000
2669.060547 743.000000
2669.940430 773.000000
2670.820557 780.000000
2671.699951 711.000000
2672.579346 731.000000
2673.458008 737.000000
2674.334961 729.000000
2675.212646 820.000000
2676.089600 726.000000
2676.965820 694.000000
2677.841553 715.000000
2678.716553 693.000000
2679.591797 836.000000
2680.466064 775.000000
2681.339844 661.000000
2682.212891 715.000000
2683.085693 759.000000
2683.958252 809.000000
2684.830078 710.000000
2685.701172 675.000000
2686.572021 742.000000
2687.442383 738.000000
2688.312500 651.000000
2689.180908 716.000000
2690.050049 738.000000
2690.918457 644.000000
2691.786621 621.000000
2692.654053 698.000000
2693.520264 663.000000
2694.386963 660.000000
2695.252686 667.000000
2696.118408 698.000000
2696.982666 720.000000
2697.847656 649.000000
2698.711182 776.000000
2699.574951 681.000000
2700.437256 696.000000
2701.300049 712.000000
2702.161865 710.000000
2703.023193 657.000000
2703.884521 583.000000
2704.744629 637.000000
2705.604736 672.000000
2706.464355 625.000000
2707.323730 662.000000
2708.181396 678.000000
2709.039307 747.000000
2709.897705 573.000000
2710.754883 670.000000
2711.611328 587.000000
2712.467285 629.000000
2713.323242 745.000000
2714.178467 633.000000
2715.032959 500.000000
2715.886963 643.000000
2716.740967 594.000000
2717.593994 658.000000
2718.447266 649.000000
2719.298828 511.000000
2720.150879 598.000000
2721.002686 560.000000
2721.853271 571.000000
2722.703857 734.000000
2723.553955 502.000000
2724.403320 600.000000
2725.252686 567.000000
2726.100830 563.000000
2726.948486 568.000000
2727.796631 692.000000
2728.643555 613.000000
2729.490967 642.000000
2730.336914 529.000000
2731.182129 528.000000
2732.027832 580.000000
2732.872559 598.000000
2733.717285 601.000000
2734.560791 615.000000
2735.404541 539.000000
2736.247559 623.000000
2737.090088 588.000000
2737.931641 557.000000
2738.773682 579.000000
2739.614746 597.000000
2740.455566 666.000000
2741.296143 587.000000
2742.135498 525.000000
2742.974854 541.000000
2743.814209 555.000000
2744.652344 563.000000
2745.489990 603.000000
2746.327637 662.000000
2747.164795 582.000000
2748.001709 537.000000
2748.838135 550.000000
2749.673340 565.000000
2750.508789 523.000000
2751.343750 551.000000
2752.177979 497.000000
2753.011963 593.000000
2753.845459 473.000000
2754.678955 450.000000
2755.511475 454.000000
2756.343506 530.000000
2757.175049 583.000000
2758.006592 538.000000
2758.837158 579.000000
2759.667969 396.000000
2760.497559 547.000000
2761.327148 537.000000
2762.156494 611.000000
2762.985107 554.000000
2763.813232 668.000000
2764.640869 566.000000
2765.468506 637.000000
2766.295654 519.000000
2767.122070 592.000000
2767.947998 521.000000
2768.773438 560.000000
2769.598633 482.000000
2770.423828 494.000000
2771.247803 445.000000
2772.071777 541.000000
2772.895752 521.000000
2773.718506 472.000000
2774.541504 504.000000
2775.363281 393.000000
2776.185059 514.000000
2777.006836 446.000000
2777.827637 396.000000
2778.647705 520.000000
2779.468018 537.000000
2780.287842 496.000000
2781.107666 439.000000
2781.925537 452.000000
2782.744629 557.000000
2783.562500 421.000000
2784.380127 572.000000
2785.197266 457.000000
2786.013916 544.000000
2786.830322 571.000000
2787.646240 473.000000
2788.461914 461.000000
2789.276611 521.000000
2790.091797 523.000000
2790.906250 497.000000
2791.720215 518.000000
2792.533936 414.000000
2793.346436 374.000000
2794.159180 478.000000
2794.971436 382.000000
2795.783203 357.000000
2796.594238 412.000000
2797.406006 472.000000
2798.216553 447.000000
2799.027100 428.000000
2799.836182 529.000000
2800.645996 349.000000
2801.455078 445.000000
2802.263916 445.000000
2803.072266 420.000000
2803.879639 442.000000
2804.687500 453.000000
2805.494629 541.000000
2806.301514 394.000000
2807.107178 644.000000
2807.913330 380.000000
2808.718750 397.000000
2809.524170 423.000000
2810.328857 443.000000
2811.132568 376.000000
2811.936768 435.000000
2812.740479 405.000000
2813.543945 474.000000
2814.345947 415.000000
2815.148682 423.000000
2815.950684 393.000000
2816.752441 393.000000
2817.553711 467.000000
2818.354492 334.000000
2819.154785 403.000000
2819.955322 306.000000
2820.754883 395.000000
2821.553955 430.000000
2822.353027 503.000000
2823.151855 431.000000
2823.950195 420.000000
2824.747559 530.000000
2825.545166 436.000000
2826.342041 410.000000
2827.139160 494.000000
2827.935547 412.000000
2828.731201 431.000000
2829.526855 319.000000
2830.322266 341.000000
2831.117188 451.000000
2831.911377 488.000000
2832.705566 474.000000
2833.499512 443.000000
2834.292969 395.000000
2835.085693 379.000000
2835.878174 404.000000
2836.670654 388.000000
2837.462891 374.000000
2838.254639 398.000000
2839.045410 341.000000
2839.836182 372.000000
2840.627197 395.000000
2841.417236 391.000000
2842.206787 301.000000
2842.996582 390.000000
2843.785400 385.000000
2844.574219 439.000000
2845.363037 410.000000
2846.150879 319.000000
2846.938232 299.000000
2847.725830 342.000000
2848.512939 366.000000
2849.299316 304.000000
2850.085693 373.000000
2850.871826 455.000000
2851.657471 424.000000
2852.442139 445.000000
2853.227295 308.000000
2854.012207 375.000000
2854.796387 402.000000
2855.580566 388.000000
2856.363525 301.000000
2857.146729 340.000000
2857.929688 370.000000
2858.712158 368.000000
2859.494385 392.000000
2860.276123 281.000000
2861.057617 323.000000
2861.839355 261.000000
2862.620361 249.000000
2863.400635 416.000000
2864.180664 322.000000
2864.960693 379.000000
2865.740479 349.000000
2866.519287 305.000000
2867.298340 339.000000
2868.076904 421.000000
2868.855225 417.000000
2869.633057 350.000000
2870.410645 390.000000
2871.187988 385.000000
2871.965088 351.000000
2872.741699 314.000000
2873.517822 340.000000
2874.293945 425.000000
2875.069580 346.000000
2875.844971 351.000000
2876.619873 375.000000
2877.394531 396.000000
2878.169189 435.000000
2878.943604 447.000000
2879.717285 395.000000
2880.490234 382.000000
2881.263916 316.000000
2882.036621 306.000000
2882.809326 286.000000
2883.581299 306.000000
2884.353027 329.000000
2885.125244 319.000000
2885.896240 317.000000
2886.666748 272.000000
2887.437744 336.000000
2888.208740 322.000000
2888.979004 326.000000
2889.748291 374.000000
2890.517822 297.000000
2891.287354 247.000000
2892.056396 356.000000
2892.824951 343.000000
2893.593506 200.000000
2894.361084 362.000000
2895.129150 370.000000
2895.896729 281.000000
2896.664307 346.000000
2897.430664 271.000000
2898.197998 288.000000
2898.964111 379.000000
2899.730469 307.000000
2900.495361 280.000000
2901.260742 97.000000
2902.026611 333.000000
2902.791016 274.000000
2903.555420 218.000000
2904.320068 348.000000
2905.083740 409.000000
2905.848145 298.000000
2906.611816 212.000000
2907.374756 325.000000
2908.137451 304.000000
2908.900635 378.000000
2909.663330 380.000000
2910.424805 257.000000
2911.186768 257.000000
spectrumdark 2048
-97.043945 6216.000000
-94.417076 6216.000000
-91.792084 6077.000000
-89.168983 6405.000000
-86.547752 5774.000000
-83.928421 6268.000000
-81.310951 6093.000000
-78.695358 6502.000000
-76.081642 6202.000000
-73.469803 5848.000000
-70.859825 6125.000000
-68.251732 5958.000000
-65.645485 5921.000000
-63.041119 6048.000000
-60.438610 6148.000000
-57.837955 5603.000000
-55.239162 6325.000000
-52.642227 6878.000000
-50.047146 6497.000000
-47.453918 6532.000000
-44.862541 6326.000000
-42.273010 6702.000000
-39.685322 5933.000000
-37.099483 6095.000000
-34.515488 6452.000000
-31.933327 5768.000000
-29.353014 6360.000000
-26.774529 5674.000000
-24.197886 6150.000000
-21.623068 6293.000000
-19.050091 6549.000000
-16.478933 6444.000000
-13.909610 6840.000000
-11.342112 7764.000000
-8.776432 6295.000000
-6.212578 6490.000000
-3.650538 6025.000000
-1.090322 5885.000000
1.468086 6245.000000
4.024673 6906.000000
6.579455 6621.000000
9.132421 5995.000000
11.683585 6839.000000
14.232937 6491.000000
16.780493 6632.000000
19.326237 6054.000000
21.870188 5778.000000
24.412334 6674.000000
26.952684 6786.000000
29.491249 6857.000000
32.028015 6169.000000
34.562981 5773.000000
37.096169 7248.000000
39.627575 6296.000000
42.157188 7139.000000
44.685005 6566.000000
47.211063 7811.000000
49.735332 5648.000000
52.257832 6209.000000
54.778534 6759.000000
57.297482 6221.000000
59.814655 6399.000000
62.330051 6641.000000
64.843674 5627.000000
67.355537 5702.000000
69.865654 6531.000000
72.373978 6555.000000
74.880547 5918.000000
77.385368 6339.000000
79.888435 6452.000000
82.389725 6283.000000
84.889275 6114.000000
87.387070 6417.000000
89.883133 5722.000000
92.377419 7212.000000
94.869965 5831.000000
97.360794 6924.000000
99.849854 7223.000000
102.337166 6444.000000
104.822754 6228.000000
107.306602 6382.000000
109.788704 5808.000000
112.269081 6527.000000
114.747734 6272.000000
117.224663 6476.000000
119.699837 7245.000000
122.173302 6808.000000
124.645035 5942.000000
127.115059 6761.000000
129.583328 6321.000000
132.049927 6254.000000
134.514771 5709.000000
136.977921 6192.000000
139.439331 7234.000000
141.899048 6850.000000
144.357040 6384.000000
146.813339 6031.000000
149.267929 5768.000000
151.720795 6809.000000
154.171982 6420.000000
156.621475 6572.000000
159.069244 6114.000000
161.515305 6592.000000
163.959686 8687.000000
166.402390 6393.000000
168.843399 6741.000000
171.282700 6180.000000
173.720291 7161.000000
176.156250 6606.000000
178.590469 6859.000000
181.023010 7195.000000
183.453903 6669.000000
185.883072 6830.000000
188.310593 6689.000000
190.736435 6303.000000
193.160599 6675.000000
195.583099 7183.000000
198.003906 7332.000000
200.423050 6498.000000
202.840530 6014.000000
205.256317 7575.000000
207.670456 6998.000000
210.082962 6365.000000
212.493790 6105.000000
214.902939 6261.000000
217.310455 7426.000000
219.716263 6148.000000
222.120483 6502.000000
224.522995 6726.000000
226.923889 6950.000000
229.323135 6508.000000
231.720718 6833.000000
234.116638 7256.000000
236.510941 6477.000000
238.903580 5869.000000
241.294601 6860.000000
243.683960 6567.000000
246.071701 6384.000000
248.457794 6962.000000
250.842255 6123.000000
253.225067 7892.000000
255.606308 6654.000000
257.985840 6716.000000
260.363800 6457.000000
262.740082 7591.000000
265.114807 7464.000000
267.487885 7892.000000
269.859314 6213.000000
272.229095 6390.000000
274.597321 5998.000000
276.963898 6292.000000
279.328888 6765.000000
281.692261 6011.000000
284.053986 6261.000000
286.414124 7148.000000
288.772644 6044.000000
291.129578 6487.000000
293.484894 6395.000000
295.838623 6010.000000
298.190704 6001.000000
300.541229 6364.000000
302.890167 6370.000000
305.237457 6810.000000
307.583221 6393.000000
309.927307 6486.000000
312.269867 7337.000000
314.610809 7592.000000
316.950134 7201.000000
319.287903 6991.000000
321.624115 8028.000000
323.958679 6282.000000
326.291687 6452.000000
328.623138 5966.000000
330.953003 6699.000000
333.281281 6377.000000
335.607941 7201.000000
337.933105 6373.000000
340.256653 6241.000000
342.578644 5967.000000
344.899078 7462.000000
347.217896 7754.000000
349.535156 6019.000000
351.850891 5846.000000
354.165039 6959.000000
356.477600 6313.000000
358.788605 6389.000000
361.098083 7002.000000
363.406036 6380.000000
365.712372 5695.000000
368.017120 6427.000000
370.320404 6410.000000
372.622070 6280.000000
374.922241 6349.000000
377.220856 6314.000000
379.517914 5999.000000
381.813416 6188.000000
384.107391 5849.000000
386.399780 5242.000000
388.690674 5584.000000
390.980042 6191.000000
393.267822 6260.000000
395.554077 6526.000000
397.838837 6973.000000
400.121979 6096.000000
402.403687 6427.000000
404.683868 6184.000000
406.962463 7272.000000
409.239532 6454.000000
411.515076 6712.000000
413.789093 6474.000000
416.061676 6372.000000
418.332642 6321.000000
420.602112 6369.000000
422.870087 7156.000000
425.136505 7237.000000
427.401428 6284.000000
429.664886 6203.000000
431.926758 6467.000000
434.187164 6005.000000
436.446014 6599.000000
438.703400 6088.000000
440.959290 5635.000000
443.213684 5818.000000
445.466553 5435.000000
447.717865 6919.000000
449.967773 6025.000000
452.216095 6234.000000
454.462982 5633.000000
456.708405 6482.000000
458.952271 6446.000000
461.194641 6842.000000
463.435516 5633.000000
465.674988 6735.000000
467.912872 5389.000000
470.149323 5868.000000
472.384247 6080.000000
474.617706 7375.000000
476.849731 6650.000000
479.080231 5691.000000
481.309235 6421.000000
483.536774 6265.000000
485.762817 5975.000000
487.987427 6557.000000
490.210571 5843.000000
492.432251 6447.000000
494.652374 6670.000000
496.871094 5683.000000
499.088318 6338.000000
501.304169 5602.000000
503.518402 6123.000000
505.731323 6428.000000
507.942657 6415.000000
510.152557 6889.000000
512.361023 6505.000000
514.568115 6590.000000
516.773621 6388.000000
518.977722 6599.000000
521.180298 6174.000000
523.381470 6594.000000
525.581299 6684.000000
527.779602 6949.000000
529.976379 5306.000000
532.171814 5817.000000
534.365723 5565.000000
536.558289 7564.000000
538.749329 6683.000000
540.938965 6029.000000
543.127197 6906.000000
545.313904 7139.000000
547.499146 6797.000000
549.683105 6235.000000
551.865479 6467.000000
554.046509 6172.000000
556.226013 5974.000000
558.404236 5947.000000
560.580933 6027.000000
562.756226 6366.000000
564.930115 6413.000000
567.102539 5881.000000
569.273560 6079.000000
571.443115 6274.000000
573.611389 5309.000000
575.778137 6426.000000
577.943420 6335.000000
580.107300 6162.000000
582.269897 5760.000000
584.430969 5962.000000
586.590637 5632.000000
588.748962 5834.000000
590.905762 6165.000000
593.061218 6652.000000
595.215271 5744.000000
597.367981 6196.000000
599.519165 7204.000000
601.669006 6718.000000
603.817505 6664.000000
605.964417 6000.000000
608.110107 6497.000000
610.254395 6457.000000
612.397217 6964.000000
614.538574 6125.000000
616.678711 6436.000000
618.817322 7550.000000
620.954651 5679.000000
623.090515 6592.000000
625.224976 6891.000000
627.357971 7177.000000
629.489807 6601.000000
631.620178 6583.000000
633.749146 6776.000000
635.876648 6526.000000
638.002869 6174.000000
640.127563 7359.000000
642.251038 6415.000000
644.373169 6820.000000
646.493835 6836.000000
648.613159 6596.000000
650.731079 5699.000000
652.847656 5675.000000
654.962830 6449.000000
657.076660 6488.000000
659.189026 5900.000000
661.300171 6111.000000
663.409912 5430.000000
665.518188 6043.000000
667.625305 6269.000000
669.730957 6761.000000
671.835144 5634.000000
673.938110 5701.000000
676.039673 7002.000000
678.139893 5314.000000
680.238708 6715.000000
682.336182 6220.000000
684.432373 6962.000000
686.527100 6208.000000
688.620605 6949.000000
690.712769 6539.000000
692.803406 7936.000000
694.892822 6589.000000
696.980957 6464.000000
699.067627 6027.000000
701.153076 6706.000000
703.237000 5100.000000
705.319702 5895.000000
707.401123 5956.000000
709.481079 7631.000000
711.559814 6220.000000
713.637085 5540.000000
715.713074 6546.000000
717.787781 6076.000000
719.861206 6970.000000
721.933105 6260.000000
724.003845 7361.000000
726.073242 5768.000000
728.141235 6457.000000
730.207886 6376.000000
732.273315 7016.000000
734.337402 5774.000000
736.400146 6181.000000
738.461548 6407.000000
740.521667 6600.000000
742.580383 6049.000000
744.637878 6632.000000
746.694092 6418.000000
748.748901 6658.000000
750.802429 6340.000000
752.854553 7463.000000
754.905457 5777.000000
756.955139 6728.000000
759.003357 6328.000000
761.050354 6213.000000
763.096069 7003.000000
765.140381 5371.000000
767.183411 5804.000000
769.225220 6397.000000
771.265686 6990.000000
773.304749 6363.000000
775.342651 6130.000000
777.379211 5993.000000
779.414551 5445.000000
781.448547 5773.000000
783.481140 6902.000000
785.512573 5520.000000
787.542603 12031.000000
789.571350 6050.000000
791.598938 6295.000000
793.625183 6285.000000
795.650024 5829.000000
797.673767 5530.000000
799.696106 6352.000000
801.717224 5890.000000
803.737000 6678.000000
805.755493 4938.000000
807.772766 6721.000000
809.788635 6805.000000
811.803345 5700.000000
813.816711 6461.000000
815.828857 6261.000000
817.839783 6083.000000
819.849365 6538.000000
821.857727 5344.000000
823.864685 5687.000000
825.870422 6007.000000
827.874939 5746.000000
829.878174 5693.000000
831.880127 6537.000000
833.880798 5995.000000
835.880249 5914.000000
837.878357 6381.000000
839.875366 6974.000000
841.870972 6254.000000
843.865417 5963.000000
845.858521 6136.000000
847.850403 6835.000000
849.840942 5556.000000
851.830200 6825.000000
853.818420 6006.000000
855.805237 5629.000000
857.790833 6415.000000
859.775146 7324.000000
861.758362 6282.000000
863.740173 6409.000000
865.720764 5810.000000
867.700073 7690.000000
869.678223 7088.000000
871.655029 6249.000000
873.630554 5866.000000
875.605042 6132.000000
877.578064 6008.000000
879.550049 5380.000000
881.520691 6362.000000
883.490173 6092.000000
885.458313 5557.000000
887.425293 5236.000000
889.390930 6129.000000
891.355408 5840.000000
893.318665 5936.000000
895.280701 6450.000000
897.241455 5824.000000
899.200989 6403.000000
901.159241 6740.000000
903.116394 6325.000000
905.072388 5985.000000
907.026978 6844.000000
908.980347 6458.000000
910.932556 6420.000000
912.883545 6382.000000
914.833252 7067.000000
916.781799 6361.000000
918.729126 6177.000000
920.675171 6097.000000
922.619934 6060.000000
924.563660 6286.000000
926.506226 5950.000000
928.447510 5639.000000
930.387451 6499.000000
932.326294 5745.000000
934.263855 5485.000000
936.200195 5920.000000
938.135376 5843.000000
940.069275 6078.000000
942.002075 5855.000000
943.933655 6810.000000
945.864075 5217.000000
947.793274 6375.000000
949.721130 6981.000000
951.647949 6603.000000
953.573486 5977.000000
955.497742 5410.000000
957.420898 6014.000000
959.342896 6702.000000
961.263611 7279.000000
963.183167 6502.000000
965.101563 5280.000000
967.018921 6389.000000
968.934814 6428.000000
970.849609 6155.000000
972.763184 6028.000000
974.675598 6385.000000
976.586792 6475.000000
978.496826 5568.000000
980.405579 6183.000000
982.313293 6137.000000
984.219788 6379.000000
986.125061 5727.000000
988.029236 6812.000000
989.932190 6255.000000
991.833923 6806.000000
993.734497 6298.000000
995.633911 6611.000000
997.532104 5232.000000
999.429138 6654.000000
1001.324951 6485.000000
1003.219604 7721.000000
1005.113159 5495.000000
1007.005432 7168.000000
1008.896790 6081.000000
1010.786804 5382.000000
1012.675598 6643.000000
1014.563232 6311.000000
1016.449707 6909.000000
1018.335022 6695.000000
1020.219177 6020.000000
1022.102112 5919.000000
1023.984009 6199.000000
1025.864624 5135.000000
1027.744141 5891.000000
1029.622681 6109.000000
1031.499878 5379.000000
1033.375732 6219.000000
1035.250610 5886.000000
1037.124512 6535.000000
1038.996948 7034.000000
1040.868408 6711.000000
1042.738525 5527.000000
1044.607666 5545.000000
1046.475586 5850.000000
1048.342407 7037.000000
1050.208130 6699.000000
1052.072632 6454.000000
1053.936035 6506.000000
1055.798096 6473.000000
1057.659180 5899.000000
1059.519165 6458.000000
1061.377808 6581.000000
1063.235352 5705.000000
1065.091797 6718.000000
1066.947144 6022.000000
1068.801270 5777.000000
1070.654541 6302.000000
1072.506348 6306.000000
1074.357178 6129.000000
1076.206787 6196.000000
1078.055176 5798.000000
1079.902710 7981.000000
1081.748901 5601.000000
1083.593872 6210.000000
1085.437988 5372.000000
1087.280762 5505.000000
1089.122314 6598.000000
1090.963135 5478.000000
1092.802368 5780.000000
1094.640869 6032.000000
1096.478027 6066.000000
1098.313965 6773.000000
1100.148926 6621.000000
1101.982666 5416.000000
1103.815430 5485.000000
1105.646851 6136.000000
1107.477417 7234.000000
1109.306641 6567.000000
1111.134888 6425.000000
1112.961914 7135.000000
1114.787964 5437.000000
1116.612793 6308.000000
1118.436523 7094.000000
1120.259033 6107.000000
1122.080444 5891.000000
1123.901001 5951.000000
1125.720093 6625.000000
1127.538330 7073.000000
1129.355225 6886.000000
1131.171265 6634.000000
1132.986084 6471.000000
1134.799805 5591.000000
1136.612427 5747.000000
1138.423828 5680.000000
1140.234253 6076.000000
1142.043579 6718.000000
1143.851563 6994.000000
1145.658813 5898.000000
1147.464600 5973.000000
1149.269531 5384.000000
1151.073364 5425.000000
1152.875977 6092.000000
1154.677734 6148.000000
1156.478027 6083.000000
1158.277344 6148.000000
1160.075684 5838.000000
1161.872681 5476.000000
1163.668945 5921.000000
1165.463867 6066.000000
1167.257690 6312.000000
1169.050659 7685.000000
1170.842285 5664.000000
1172.632935 6522.000000
1174.422607 6004.000000
1176.210815 5881.000000
1177.998169 7454.000000
1179.784424 6880.000000
1181.569580 5773.000000
1183.353638 5925.000000
1185.136597 7627.000000
1186.918579 5852.000000
1188.699341 5892.000000
1190.479126 6282.000000
1192.257813 6938.000000
1194.035522 6619.000000
1195.812012 7132.000000
1197.587402 6489.000000
1199.361694 6504.000000
1201.134888 6728.000000
1202.907227 6582.000000
1204.678223 6677.000000
1206.448364 5671.000000
1208.217285 6156.000000
1209.985107 6304.000000
1211.752075 5772.000000
1213.517700 5950.000000
1215.282349 6939.000000
1217.045898 6553.000000
1218.808350 5949.000000
1220.569946 6725.000000
1222.330322 5880.000000
1224.089600 6290.000000
1225.848022 6087.000000
1227.605225 7118.000000
1229.361328 6402.000000
1231.116333 5544.000000
1232.870483 6001.000000
1234.623291 5875.000000
1236.375122 5957.000000
1238.126099 5945.000000
1239.875732 4904.000000
1241.624512 7011.000000
1243.371948 6554.000000
1245.118652 6575.000000
1246.864136 6462.000000
1248.608765 6428.000000
1250.352051 6727.000000
1252.094360 6693.000000
1253.835571 5431.000000
1255.575928 5064.000000
1257.315186 5824.000000
1259.053223 6567.000000
1260.790405 7010.000000
1262.526367 6146.000000
1264.261353 6409.000000
1265.995361 7209.000000
1267.728394 5959.000000
1269.460205 6177.000000
1271.191040 6420.000000
1272.920654 7230.000000
1274.649414 5902.000000
1276.377075 5682.000000
1278.103638 5594.000000
1279.829346 5584.000000
1281.553711 6476.000000
1283.277222 5301.000000
1284.999756 6940.000000
1286.721313 6573.000000
1288.441650 6177.000000
1290.161011 6693.000000
1291.879272 7238.000000
1293.596558 6429.000000
1295.312866 5739.000000
1297.027954 6362.000000
1298.742065 6190.000000
1300.455200 5824.000000
1302.167480 6426.000000
1303.878540 8279.000000
1305.588623 5613.000000
1307.297607 6296.000000
1309.005371 6645.000000
1310.712524 7025.000000
1312.418213 5758.000000
1314.123169 6918.000000
1315.827148 6220.000000
1317.529907 5983.000000
1319.231689 6571.000000
1320.932617 6089.000000
1322.632202 9596.000000
1324.330933 7579.500000
1326.028931 5563.000000
1327.725586 6455.000000
1329.421143 7186.000000
1331.115845 6793.000000
1332.809326 5725.000000
1334.501953 5327.000000
1336.193726 7195.000000
1337.884155 6261.000000
1339.573853 6642.000000
1341.262451 6082.000000
1342.949951 7542.000000
1344.636475 5627.000000
1346.321899 6770.000000
1348.006348 5900.000000
1349.689941 7212.000000
1351.372314 6412.000000
1353.053711 5958.000000
1354.734253 6541.000000
1356.413574 6625.000000
1358.092285 5857.000000
1359.769653 6513.000000
1361.445923 5781.000000
1363.121216 5615.000000
1364.795776 6534.000000
1366.469116 6498.000000
1368.141479 6715.000000
1369.812866 5182.000000
1371.483276 6731.000000
1373.152588 6189.000000
1374.820923 5676.000000
1376.488403 5983.000000
1378.154785 6437.000000
1379.820190 6058.000000
1381.484619 5830.000000
1383.147827 5940.000000
1384.810425 5679.000000
1386.471680 6342.000000
1388.132080 6529.000000
1389.791382 6472.000000
1391.449707 6425.000000
1393.107300 6882.000000
1394.763672 6433.000000
1396.419189 6983.000000
1398.073486 6360.000000
1399.726929 5827.000000
1401.379272 6113.000000
1403.030884 6430.000000
1404.681274 7203.000000
1406.330566 6232.000000
1407.979126 7419.000000
1409.626587 7867.000000
1411.273071 6141.000000
1412.918701 6271.000000
1414.563354 5969.000000
1416.206787 7010.000000
1417.849365 7087.000000
1419.490845 6919.000000
1421.131470 6487.000000
1422.771118 6406.000000
1424.409668 6032.000000
1426.047363 6691.000000
1427.683960 6375.000000
1429.319580 5982.000000
1430.954468 6408.000000
1432.588257 5885.000000
1434.220947 6115.000000
1435.852661 5642.000000
1437.483521 6157.000000
1439.113281 6036.000000
1440.741943 7790.000000
1442.369995 5935.000000
1443.996948 6069.000000
1445.622681 6138.000000
1447.247803 6124.000000
1448.871826 6569.000000
1450.494873 6042.000000
1452.116943 6010.000000
1453.737915 7301.000000
1455.357910 6296.000000
1456.977173 6819.000000
1458.595093 5669.000000
1460.212402 16924.000000
1461.828735 5571.000000
1463.443848 7244.000000
1465.058105 6315.000000
1466.671509 5203.000000
1468.283813 5592.000000
1469.895264 6202.000000
1471.505859 6328.000000
1473.115234 5978.000000
1474.723633 6014.000000
1476.331177 6157.000000
1477.937744 6828.000000
1479.543579 5305.000000
1481.148193 6288.000000
1482.751953 5492.000000
1484.354492 6715.000000
1485.956421 5533.000000
1487.557129 5535.000000
1489.157104 5669.000000
1490.755981 6284.000000
1492.354004 6450.000000
1493.950928 6683.000000
1495.546997 6291.000000
1497.142090 5986.000000
1498.736206 5513.000000
1500.329590 6548.000000
1501.921875 5486.000000
1503.512939 6046.000000
1505.103516 6772.000000
1506.692749 6454.000000
1508.281372 6105.000000
1509.868896 6477.000000
1511.455322 6841.000000
1513.041016 6136.000000
1514.625610 6544.000000
1516.209351 6191.000000
1517.791992 6251.000000
1519.373901 6626.000000
1520.954712 6612.000000
1522.534790 6096.000000
1524.113647 6182.000000
1525.691650 6410.000000
1527.268921 6320.000000
1528.844971 5664.000000
1530.420288 5925.000000
1531.994507 6405.000000
1533.567993 5452.000000
1535.140259 5901.000000
1536.711792 6376.000000
1538.282349 6410.000000
1539.852051 6306.000000
1541.420532 5429.000000
1542.988281 6587.000000
1544.555176 5661.000000
1546.120850 6768.000000
1547.685791 5937.000000
1549.249634 5111.000000
1550.812866 7422.000000
1552.374756 6266.000000
1553.936035 5928.000000
1555.496216 5738.000000
1557.055664 5726.000000
1558.614014 5849.000000
1560.171631 6173.000000
1561.728149 7037.000000
1563.283447 5888.000000
1564.838135 6320.000000
1566.392090 5650.000000
1567.945068 6095.000000
1569.496704 5698.000000
1571.047607 5896.000000
1572.597778 6188.000000
1574.146973 6308.000000
1575.694824 5743.000000
1577.242188 5481.000000
1578.788574 5697.000000
1580.334106 5101.000000
1581.878662 6637.000000
1583.421997 6431.000000
1584.964722 6630.000000
1586.506592 6399.000000
1588.047363 6727.000000
1589.587158 5839.000000
1591.126221 6710.000000
1592.664185 5904.000000
1594.201660 6102.000000
1595.737793 5879.000000
1597.272827 6638.000000
1598.807373 6200.000000
1600.340942 6017.000000
1601.873657 5869.000000
1603.404785 6287.000000
1604.935669 6400.000000
1606.465698 5733.000000
1607.994507 6166.000000
1609.522217 6163.000000
1611.049316 6042.000000
1612.575684 5769.000000
1614.101074 6239.000000
1615.625610 5816.000000
1617.148804 5823.000000
1618.671265 5577.000000
1620.192993 6522.000000
1621.713867 7015.000000
1623.233276 15540.000000
1624.752197 6130.000000
1626.270386 6067.000000
1627.787720 5972.000000
1629.303955 6351.000000
1630.818848 7064.000000
1632.333252 6689.000000
1633.846924 5747.000000
1635.359497 6837.000000
1636.870850 5950.000000
1638.381836 6417.000000
1639.891724 6291.000000
1641.400757 6226.000000
1642.908447 5622.000000
1644.415771 6077.000000
1645.922241 7107.000000
1647.427734 6234.000000
1648.932373 6800.000000
1650.435547 6073.000000
1651.938110 6586.000000
1653.440308 6335.000000
1654.941162 6653.000000
1656.440918 7504.000000
1657.939819 5950.000000
1659.438354 6497.000000
1660.935669 6227.000000
1662.432251 5907.000000
1663.927246 6497.000000
1665.421997 6312.000000
1666.915894 5199.000000
1668.408813 5654.000000
1669.900391 21210.000000
1671.391479 6483.000000
1672.881958 6164.000000
1674.371338 5931.000000
1675.859253 6945.000000
1677.346924 6876.000000
1678.833618 6030.000000
1680.319458 5348.000000
1681.804443 6034.000000
1683.287964 6210.000000
1684.771240 6181.000000
1686.253662 5869.000000
1687.734985 6236.000000
1689.214844 6168.000000
1690.694458 5557.000000
1692.173340 6526.000000
1693.651245 5991.000000
1695.128174 6116.000000
1696.603882 5752.000000
1698.079224 6027.000000
1699.553345 6212.000000
1701.026855 5462.000000
1702.498901 5592.000000
1703.970703 6876.000000
1705.441528 6399.000000
1706.911499 7093.000000
1708.380127 5192.000000
1709.848267 5820.000000
1711.315674 6341.000000
1712.781982 5478.000000
1714.247681 5759.000000
1715.711670 6252.000000
1717.175537 5969.000000
1718.638550 6926.000000
1720.100586 6317.000000
1721.561401 6603.000000
1723.021606 5440.000000
1724.481079 5622.000000
1725.939697 6168.000000
1727.397339 5954.000000
1728.853638 6235.000000
1730.309692 6052.000000
1731.764771 6473.000000
1733.218872 6020.000000
1734.671753 6848.000000
1736.124390 5946.000000
1737.575928 6809.000000
1739.026733 5923.000000
1740.476563 6593.000000
1741.925049 5941.000000
1743.373169 7313.000000
1744.820435 6462.000000
1746.266968 6642.000000
1747.711914 6687.000000
1749.156616 6155.000000
1750.600464 5886.000000
1752.043457 5504.000000
1753.484985 6517.000000
1754.926270 6331.000000
1756.366699 6328.000000
1757.806152 6325.000000
1759.244629 5252.000000
1760.682129 6003.000000
1762.119141 7570.000000
1763.555176 5905.000000
1764.990356 7103.000000
1766.424072 6133.000000
1767.857666 6403.000000
1769.290283 6652.000000
1770.722046 5830.000000
1772.152954 5706.000000
1773.582642 6318.000000
1775.011597 6190.000000
1776.440063 6284.000000
1777.867554 6640.000000
1779.293701 6244.000000
1780.719604 5593.000000
1782.144409 6861.000000
1783.568604 5556.000000
1784.991333 6621.000000
1786.413574 6504.000000
1787.835083 6899.000000
1789.255859 5879.000000
1790.675659 6152.000000
1792.094116 6178.000000
1793.512085 6825.000000
1794.929443 5467.000000
1796.345947 5986.000000
1797.760986 6536.000000
1799.175659 5805.000000
1800.589722 6534.000000
1802.002563 5958.000000
1803.414795 7029.000000
1804.825684 7065.000000
1806.236084 7747.000000
1807.645752 6492.000000
1809.054443 5976.000000
1810.462036 5462.000000
1811.869141 6427.000000
1813.275391 6371.000000
1814.680664 6653.000000
1816.084839 5949.000000
1817.488647 6013.000000
1818.891479 6170.000000
1820.293457 5967.000000
1821.694824 5882.000000
1823.094727 6390.000000
1824.494019 6419.000000
1825.892822 6597.000000
1827.290771 7419.000000
1828.687378 5721.000000
1830.083374 6741.000000
1831.478638 5850.000000
1832.873291 8106.000000
1834.266968 6015.000000
1835.659302 6759.000000
1837.051147 6419.000000
1838.442383 5857.000000
1839.832642 7069.000000
1841.221680 6031.000000
1842.610352 6070.000000
1843.998047 5994.000000
1845.385010 5802.000000
1846.770630 6890.000000
1848.156006 5842.000000
1849.540527 6404.000000
1850.924316 6300.000000
1852.307007 6340.000000
1853.688477 5349.000000
1855.069458 6512.000000
1856.449951 6313.000000
1857.829468 5684.000000
1859.207520 5984.000000
1860.585449 6239.000000
1861.962402 7856.000000
1863.338623 6038.000000
1864.713989 6093.000000
1866.087891 5709.000000
1867.461670 5739.000000
1868.834595 6189.000000
1870.206421 5921.000000
1871.577271 6871.000000
1872.947754 5459.000000
1874.317139 6055.000000
1875.686035 6095.000000
1877.053345 7102.000000
1878.420532 6014.000000
1879.786743 5982.000000
1881.152222 6731.000000
1882.516968 7455.000000
1883.880127 6761.000000
1885.243164 6892.000000
1886.605347 6300.000000
1887.966675 6427.000000
1889.326660 5647.000000
1890.686279 5798.000000
1892.045288 6172.000000
1893.403320 6620.000000
1894.760498 7266.000000
1896.116455 5919.000000
1897.472168 7585.000000
1898.826904 5836.000000
1900.180786 5533.000000
1901.533569 5949.000000
1902.885864 5954.000000
1904.237427 5903.000000
1905.588135 6837.000000
1906.937622 6534.000000
1908.286621 6603.000000
1909.634766 5793.000000
1910.982300 6147.000000
1912.329102 6278.000000
1913.674316 6772.000000
1915.019287 6127.000000
1916.363525 5430.000000
1917.706909 6522.000000
1919.048950 5928.000000
1920.390747 6649.000000
1921.731689 6970.000000
1923.071899 6204.000000
1924.411133 6304.000000
1925.749390 6253.000000
1927.087036 6451.000000
1928.423950 6997.000000
1929.760010 6721.000000
1931.094849 5601.000000
1932.429321 6762.000000
1933.763062 7275.000000
1935.095947 6239.000000
1936.427368 5707.000000
1937.758911 6295.000000
1939.089111 6645.000000
1940.418823 5814.000000
1941.747681 6063.000000
1943.075317 5727.000000
1944.402466 5038.000000
1945.728882 5854.000000
1947.054565 6524.000000
1948.378906 5798.000000
1949.703003 6627.000000
1951.026245 6309.000000
1952.348755 6449.000000
1953.670166 5757.000000
1954.990601 7404.000000
1956.310425 5986.000000
1957.629883 5530.000000
1958.948364 6778.000000
1960.265503 5962.000000
1961.582275 5788.000000
1962.898315 6568.000000
1964.213623 6584.000000
1965.527466 6257.000000
1966.841064 5692.000000
1968.153931 6236.000000
1969.465942 6021.000000
1970.777344 6056.000000
1972.087402 6294.000000
1973.396973 5860.000000
1974.705811 6152.000000
1976.014038 6510.000000
1977.320923 6065.000000
1978.627197 7289.000000
1979.933105 5505.000000
1981.237793 6396.000000
1982.541992 5881.000000
1983.844971 5727.000000
1985.147583 7570.000000
1986.449219 6067.000000
1987.750244 6712.000000
1989.049683 6051.000000
1990.349243 6618.000000
1991.647705 5293.000000
1992.945679 6030.000000
1994.242065 6081.000000
1995.538452 5778.000000
1996.833862 5645.000000
1998.128540 6527.000000
1999.422363 5729.000000
2000.714966 6506.000000
2002.007080 5689.000000
2003.298706 7150.000000
2004.589600 6451.000000
2005.878906 6250.000000
2007.167969 6813.000000
2008.456299 5930.000000
2009.743896 5992.000000
2011.030640 6799.000000
2012.316284 5648.000000
2013.601563 6327.000000
2014.885864 6033.000000
2016.169556 5600.000000
2017.451904 6062.000000
2018.733887 6449.000000
2020.015381 6839.000000
2021.295898 5874.000000
2022.575684 6092.000000
2023.854370 6765.000000
2025.132324 5819.000000
2026.409790 5894.000000
2027.686646 6196.000000
2028.961792 5785.000000
2030.237061 6526.000000
2031.511353 6006.000000
2032.784668 5892.000000
2034.057129 5932.000000
2035.329224 6127.000000
2036.600220 6996.000000
2037.870972 6561.000000
2039.140381 5989.000000
2040.408691 6725.000000
2041.677002 6638.000000
2042.944336 5921.000000
2044.210938 5998.000000
2045.476318 5626.000000
2046.741089 5907.000000
2048.005615 5417.000000
2049.268799 5839.000000
2050.531738 6385.000000
2051.792725 6193.000000
2053.054199 6066.000000
2054.314453 5974.000000
2055.573975 6427.000000
2056.832764 6242.000000
2058.090576 6847.000000
2059.347900 6124.000000
2060.604492 6000.000000
2061.859619 6434.000000
2063.114746 5617.000000
2064.368896 5619.000000
2065.622314 5653.000000
2066.875000 6829.000000
2068.126465 6236.000000
2069.377686 6263.000000
2070.628174 5615.000000
2071.877930 5342.000000
2073.126221 6114.000000
2074.374512 6501.000000
2075.621826 7455.000000
2076.868408 5603.000000
2078.114258 6025.000000
2079.358887 6957.000000
2080.603027 7551.000000
2081.846680 5551.000000
2083.089355 6051.000000
2084.330811 6986.000000
2085.572021 6002.000000
2086.812744 6355.000000
2088.052490 6787.000000
2089.291016 7062.000000
2090.529053 6168.000000
2091.766357 5760.000000
2093.003418 6587.000000
2094.239014 6110.000000
2095.473877 6192.000000
2096.708496 6065.000000
2097.942139 5612.000000
2099.174805 6075.000000
2100.406738 6837.000000
2101.638184 6412.000000
2102.868652 6806.000000
2104.098389 6052.000000
2105.327881 5990.000000
2106.555420 6042.000000
2107.783203 5992.000000
2109.010254 6292.000000
2110.236328 5476.000000
2111.460938 6400.000000
2112.685791 6912.000000
2113.909424 7028.000000
2115.132568 6221.000000
2116.354492 7601.000000
2117.576172 5960.000000
2118.796875 6797.000000
2120.016846 6004.000000
2121.236328 6163.000000
2122.454346 6538.000000
2123.672363 7032.000000
2124.889404 5778.000000
2126.105957 5737.000000
2127.320801 6538.000000
2128.535889 6321.000000
2129.750000 6785.000000
2130.963379 5660.000000
2132.176025 6118.000000
2133.387207 5856.000000
2134.598633 6563.000000
2135.808838 6707.000000
2137.018555 5925.000000
2138.226807 6144.000000
2139.435059 5636.000000
2140.642578 5882.000000
2141.848877 7427.000000
2143.054443 5879.000000
2144.259766 5669.000000
2145.464111 5541.000000
2146.667725 6297.000000
2147.870850 6210.000000
2149.072510 6547.000000
2150.273926 5278.000000
2151.474609 6218.000000
2152.674561 6066.000000
2153.873291 6017.000000
2155.071777 6911.000000
2156.269775 6264.000000
2157.466797 5948.000000
2158.663086 5145.000000
2159.858154 5286.000000
2161.052979 6127.000000
2162.247070 5560.000000
2163.440186 6005.000000
2164.632324 6871.000000
2165.824219 5904.000000
2167.015381 6323.000000
2168.205566 6276.000000
2169.395020 6463.000000
2170.583984 6786.000000
2171.771973 5960.000000
2172.959717 5731.000000
2174.145996 5956.000000
2175.331543 6546.000000
2176.516846 6037.000000
2177.701660 5873.000000
2178.885254 6374.000000
2180.068115 7496.000000
2181.250000 6336.000000
2182.431641 6091.000000
2183.612793 6546.000000
2184.792725 5680.000000
2185.971680 5552.000000
2187.150146 6333.000000
2188.328369 6870.000000
2189.505371 7161.000000
2190.681396 6577.000000
2191.857178 6057.000000
2193.032471 5627.000000
2194.206299 6753.000000
2195.379639 6146.000000
2196.552734 6227.000000
2197.724609 6334.000000
2198.895996 7078.000000
2200.066895 6298.000000
2201.236084 6845.000000
2202.405273 7530.000000
2203.573975 6297.000000
2204.741699 5908.000000
2205.908447 5664.000000
2207.074463 7127.000000
2208.239990 6673.000000
2209.405273 5951.000000
2210.569092 6704.000000
2211.732422 5449.000000
2212.894531 6162.000000
2214.056885 6151.000000
2215.218018 6678.000000
2216.378174 6676.000000
2217.537842 6274.000000
2218.697266 6596.000000
2219.855469 6350.000000
2221.012695 6332.000000
2222.169678 6812.000000
2223.325928 6576.000000
2224.481445 6745.000000
2225.636230 6304.000000
2226.790039 6385.000000
2227.942871 6060.000000
2229.096191 6869.000000
2230.247559 6207.000000
2231.398682 6209.000000
2232.549072 6475.000000
2233.698975 7652.000000
2234.847900 6294.000000
2235.996338 5207.000000
2237.143311 6742.000000
2238.290527 7038.000000
2239.436523 6072.000000
2240.582275 7256.000000
2241.726318 7319.000000
2242.870605 6748.000000
2244.013916 6201.000000
2245.156494 6024.000000
2246.298096 5741.000000
2247.439453 5830.000000
2248.579834 6345.000000
2249.719482 6386.000000
2250.858643 5833.000000
2251.996582 5874.000000
2253.134521 6232.000000
2254.271484 5290.000000
2255.407715 6348.000000
2256.542969 6167.000000
2257.677490 7332.000000
2258.811768 6384.000000
2259.945557 5393.000000
2261.077881 6148.000000
2262.209717 6695.000000
2263.341064 6232.000000
2264.471436 6504.000000
2265.601563 8046.000000
2266.730469 6657.000000
2267.858887 6039.000000
2268.986816 5569.000000
2270.113770 6085.000000
2271.239990 5952.000000
2272.365234 6699.000000
2273.490479 6510.000000
2274.614990 6374.000000
2275.738281 5870.000000
2276.860840 6356.000000
2277.982910 5939.000000
2279.104492 7288.000000
2280.225342 6425.000000
2281.344971 6420.000000
2282.464111 7105.000000
2283.583008 7702.000000
2284.701172 7188.000000
2285.818359 5886.000000
2286.934570 6457.000000
2288.050537 6962.000000
2289.165771 6821.000000
2290.280273 7329.000000
2291.393555 5817.000000
2292.506836 6338.000000
2293.619385 6016.000000
2294.731201 5411.000000
2295.842285 6742.000000
2296.952148 6430.000000
2298.061523 6165.000000
2299.170654 6689.000000
2300.278809 6314.000000
2301.385986 6740.000000
2302.492920 5880.000000
2303.599121 6275.000000
2304.704834 6599.000000
2305.809082 6496.000000
2306.913086 5424.000000
2308.016602 5745.000000
2309.119629 6571.000000
2310.221436 7394.000000
2311.322510 7396.000000
2312.423096 6600.000000
2313.523193 5527.000000
2314.622559 6378.000000
2315.720459 6581.000000
2316.818848 7025.000000
2317.915771 8220.000000
2319.012451 6871.000000
2320.108643 5788.000000
2321.203125 6871.000000
2322.297607 7599.000000
2323.391357 5905.000000
2324.484863 6070.000000
2325.576660 6429.000000
2326.668457 6903.000000
2327.759521 6083.000000
2328.849854 6270.000000
2329.939209 6888.000000
2331.028564 6043.000000
2332.116699 6266.000000
2333.204346 6819.000000
2334.291748 6572.000000
2335.377441 6772.000000
2336.462891 7751.000000
2337.548096 6269.000000
2338.632324 6735.000000
2339.715576 5916.000000
2340.798584 6429.000000
2341.880615 7074.000000
2342.962402 5954.000000
2344.043457 7379.000000
2345.123291 6621.000000
2346.202637 5750.000000
2347.281494 6772.000000
2348.359863 6549.000000
2349.436768 6350.000000
2350.513428 6962.000000
2351.589844 6080.000000
2352.665283 6488.000000
2353.739746 5886.000000
2354.813965 6328.000000
2355.887451 6753.000000
2356.960449 6217.000000
2358.032227 6984.000000
2359.103760 6264.000000
2360.174316 6761.000000
2361.244629 7519.000000
2362.313965 7531.000000
2363.382324 6809.000000
2364.450439 6773.000000
2365.517822 7035.000000
2366.584717 7098.000000
2367.650879 6087.000000
2368.715820 6898.000000
2369.780762 6995.000000
2370.844971 6363.000000
2371.908447 7000.000000
2372.970703 5778.000000
2374.032959 6388.000000
2375.094238 6338.000000
2376.155273 5947.000000
2377.215088 6301.000000
2378.274170 7881.000000
2379.333252 6500.000000
2380.391357 7564.000000
2381.448730 6838.000000
2382.505127 7974.000000
2383.561279 7738.000000
2384.616943 6249.000000
2385.671875 6997.000000
2386.725342 6736.000000
2387.779053 6565.000000
2388.831787 6301.000000
2389.884033 6818.000000
2390.935547 6091.000000
2391.986084 6609.000000
2393.036377 6527.000000
2394.085693 6207.000000
2395.135010 6252.000000
2396.182861 6851.000000
2397.230225 7051.000000
2398.277344 6319.000000
2399.323486 6638.000000
2400.368896 6124.000000
2401.413574 6746.000000
2402.458252 7650.000000
2403.501465 7426.000000
2404.544678 6624.000000
2405.586426 5773.000000
2406.628418 6673.000000
2407.669678 7077.000000
2408.709961 6120.000000
2409.749512 6396.000000
2410.788086 6287.000000
2411.826904 5910.000000
2412.864502 6499.000000
2413.901855 6865.000000
2414.937988 7372.000000
2415.973877 6194.000000
2417.009033 6277.000000
2418.043701 6594.000000
2419.076904 7190.000000
2420.110352 6481.000000
2421.142822 6689.000000
2422.175049 6750.000000
2423.205811 7065.000000
2424.236572 6413.000000
2425.266846 6807.000000
2426.295898 6838.000000
2427.324951 6676.000000
2428.352295 6934.000000
2429.380127 6651.000000
2430.406738 7283.000000
2431.433105 6912.000000
2432.458008 7725.000000
2433.483154 6565.000000
2434.507324 7091.000000
2435.531250 6670.000000
2436.553955 5817.000000
2437.575928 6286.000000
2438.597656 6666.000000
2439.618652 6623.000000
2440.639160 6021.000000
2441.658447 6559.000000
2442.677734 6577.000000
2443.696045 8440.000000
2444.714111 6294.000000
2445.730713 6495.000000
2446.747314 6594.000000
2447.763184 5931.000000
2448.779053 7017.000000
2449.793457 6876.000000
2450.807129 5551.000000
2451.820313 7260.000000
2452.833252 5899.000000
2453.845459 7230.000000
2454.856689 6704.000000
2455.867676 7691.000000
2456.877930 6305.000000
2457.887695 7614.000000
2458.896484 5865.000000
2459.904541 5953.000000
2460.912598 6299.000000
2461.919434 7347.000000
2462.926025 5416.000000
2463.931396 7350.000000
2464.936523 6919.000000
2465.941406 5858.000000
2466.945068 6582.000000
2467.948486 6349.000000
2468.950928 7625.000000
2469.953125 7343.000000
2470.954834 6901.000000
2471.955566 6608.000000
2472.955322 6835.000000
2473.955078 6719.000000
2474.953857 5647.000000
2475.952148 6631.000000
2476.949463 7068.000000
2477.946533 6131.000000
2478.943604 6818.000000
2479.939209 5843.000000
2480.934814 7083.000000
2481.928711 6744.000000
2482.922607 8070.000000
2483.916016 6853.000000
2484.908936 6674.000000
2485.900879 7546.000000
2486.892090 7273.000000
2487.883057 6693.000000
2488.873535 5851.000000
2489.863037 6621.000000
2490.851807 6500.000000
2491.840576 5654.000000
2492.828369 6807.000000
2493.814941 6566.000000
2494.801514 7990.000000
2495.787598 6649.000000
2496.772949 7049.000000
2497.757324 8362.000000
2498.741455 6017.000000
2499.725586 6893.000000
2500.708252 5782.000000
2501.690430 7014.000000
2502.672119 6853.000000
2503.653076 7243.000000
2504.633545 6442.000000
2505.613770 5765.000000
2506.592529 6320.000000
2507.571045 7543.000000
2508.549072 6727.000000
2509.526611 7025.000000
2510.503174 6058.000000
2511.479492 5869.000000
2512.455078 6491.000000
2513.430176 6226.000000
2514.404785 6435.000000
2515.378174 7556.000000
2516.351318 6739.000000
2517.324219 6839.000000
2518.296143 6133.000000
2519.267334 6846.000000
2520.238037 6917.000000
2521.208496 7743.000000
2522.178223 8059.000000
2523.146973 6111.000000
2524.114990 6173.000000
2525.083008 7758.000000
2526.050049 6310.000000
2527.016846 5499.000000
2527.982422 7258.000000
2528.947998 6959.000000
2529.912842 7649.000000
2530.877197 6353.000000
2531.840332 6351.000000
2532.803711 5865.000000
2533.766113 5959.000000
2534.728271 6678.000000
2535.689209 6315.000000
2536.649414 6147.000000
2537.609863 6163.000000
2538.569336 6715.000000
2539.528076 6884.000000
2540.485840 6683.000000
2541.443848 6235.000000
2542.401123 6778.000000
2543.357422 6106.000000
2544.313477 7065.000000
2545.268311 6182.000000
2546.223389 7658.000000
2547.177734 7005.000000
2548.131348 6832.000000
2549.083984 7171.000000
2550.036377 6716.000000
2550.988281 6948.000000
2551.939453 6446.000000
2552.889893 7616.000000
2553.839844 7246.000000
2554.789551 7384.000000
2555.738525 6592.000000
2556.687012 6304.000000
2557.634277 7072.000000
2558.581543 6253.000000
2559.528076 6504.000000
2560.474121 6740.000000
2561.419189 7369.000000
2562.364014 6788.000000
2563.308350 7167.000000
2564.252197 6865.000000
2565.195557 6616.000000
2566.137451 6582.000000
2567.079590 6532.000000
2568.020996 6170.000000
2568.961670 7235.000000
2569.901611 7261.000000
2570.841553 5712.000000
2571.780518 6152.000000
2572.719238 7561.000000
2573.656982 7179.000000
2574.594482 5467.000000
2575.531250 6964.000000
2576.467285 6768.000000
2577.402832 7490.000000
2578.337646 6339.000000
2579.272461 5927.000000
2580.206299 7029.000000
2581.139648 7180.000000
2582.072266 5861.000000
2583.004639 6910.000000
2583.936279 5391.000000
2584.867432 7095.000000
2585.798096 6969.000000
2586.727539 6895.000000
2587.656982 7209.000000
2588.585938 6410.000000
2589.514648 7358.000000
2590.441650 7286.000000
2591.368896 5867.000000
2592.295654 6754.000000
2593.221680 6296.000000
2594.147461 5612.000000
2595.072021 7661.000000
2595.996338 7586.000000
2596.920166 5348.000000
2597.843506 7293.000000
2598.765869 6293.000000
2599.687988 6895.000000
2600.609619 8288.000000
2601.530518 6373.000000
2602.450684 5947.000000
2603.370605 6366.000000
2604.290039 6370.000000
2605.209229 6345.000000
2606.127441 5823.000000
2607.044434 5938.000000
2607.961670 7217.000000
2608.878662 5965.000000
2609.794678 7630.000000
2610.709473 6675.000000
2611.624756 6616.000000
2612.539307 6559.000000
2613.452881 6570.000000
2614.366455 6128.000000
2615.278809 7550.000000
2616.191162 7025.000000
2617.102539 6803.000000
2618.013672 5640.000000
2618.924072 7272.000000
2619.834229 6692.000000
2620.743652 6158.000000
2621.652588 6586.000000
2622.560547 6244.000000
2623.468750 6805.000000
2624.375977 6648.000000
2625.282715 7040.000000
2626.188721 6072.000000
2627.094482 6633.000000
2627.999512 6350.000000
2628.904297 7896.000000
2629.808350 6460.000000
2630.711426 6360.000000
2631.614502 6434.000000
2632.516602 5653.000000
2633.418701 6728.000000
2634.320557 7025.000000
2635.220703 6737.000000
2636.121094 6409.000000
2637.020752 6454.000000
2637.920166 6032.000000
2638.818115 6871.000000
2639.716553 6734.000000
2640.614502 6259.000000
2641.511719 6096.000000
2642.407715 6217.000000
2643.303711 6722.000000
2644.199463 6149.000000
2645.094482 6478.000000
2645.989258 6644.000000
2646.882568 7066.000000
2647.775879 6329.000000
2648.668945 6783.000000
2649.561768 6500.000000
2650.452881 7416.000000
2651.344238 6400.000000
2652.235107 7611.000000
2653.125244 7331.000000
2654.015137 6561.000000
2654.903809 7289.000000
2655.792725 6632.000000
2656.681152 6571.000000
2657.568604 7407.000000
2658.455078 6454.000000
2659.342041 7130.000000
2660.228271 6800.000000
2661.114014 6798.000000
2661.998535 6491.000000
2662.883057 6404.000000
2663.767334 6185.000000
2664.650879 7061.000000
2665.533936 7825.000000
2666.416260 7263.000000
2667.298096 6140.000000
2668.179199 6654.000000
2669.060547 6106.000000
2669.940430 6566.000000
2670.820557 7334.000000
2671.699951 7241.000000
2672.579346 6217.000000
2673.458008 6157.000000
2674.334961 6457.000000
2675.212646 6661.000000
2676.089600 6379.000000
2676.965820 8087.000000
2677.841553 7190.000000
2678.716553 6299.000000
2679.591797 7683.000000
2680.466064 6959.000000
2681.339844 7346.000000
2682.212891 7004.000000
2683.085693 6198.000000
2683.958252 6094.000000
2684.830078 6943.000000
2685.701172 6532.000000
2686.572021 6872.000000
2687.442383 7125.000000
2688.312500 6768.000000
2689.180908 6299.000000
2690.050049 7376.000000
2690.918457 7081.000000
2691.786621 6766.000000
2692.654053 6913.000000
2693.520264 5911.000000
2694.386963 7200.000000
2695.252686 7399.000000
2696.118408 7145.000000
2696.982666 7910.000000
2697.847656 6599.000000
2698.711182 7177.000000
2699.574951 5827.000000
2700.437256 7391.000000
2701.300049 6761.000000
2702.161865 5887.000000
2703.023193 6898.000000
2703.884521 6762.000000
2704.744629 7430.000000
2705.604736 7243.000000
2706.464355 6630.000000
2707.323730 6869.000000
2708.181396 7152.000000
2709.039307 6780.000000
2709.897705 7310.000000
2710.754883 6720.000000
2711.611328 5995.000000
2712.467285 6912.000000
2713.323242 5993.000000
2714.178467 6949.000000
2715.032959 6160.000000
2715.886963 6802.000000
2716.740967 7297.000000
2717.593994 6246.000000
2718.447266 6459.000000
2719.298828 7769.000000
2720.150879 6776.000000
2721.002686 6331.000000
2721.853271 6461.000000
2722.703857 6462.000000
2723.553955 7187.000000
2724.403320 7048.000000
2725.252686 6991.000000
2726.100830 6678.000000
2726.948486 6588.000000
2727.796631 6946.000000
2728.643555 6876.000000
2729.490967 5511.000000
2730.336914 7477.000000
2731.182129 6981.000000
2732.027832 6444.000000
2732.872559 6977.000000
2733.717285 7394.000000
2734.560791 6898.000000
2735.404541 7815.000000
2736.247559 7109.000000
2737.090088 6103.000000
2737.931641 6281.000000
2738.773682 6832.000000
2739.614746 6919.000000
2740.455566 5767.000000
2741.296143 5935.000000
2742.135498 7771.000000
2742.974854 6825.000000
2743.814209 6914.000000
2744.652344 6819.000000
2745.489990 7742.000000
2746.327637 6282.000000
2747.164795 7110.000000
2748.001709 6241.000000
2748.838135 6031.000000
2749.673340 6669.000000
2750.508789 6365.000000
2751.343750 6401.000000
2752.177979 6351.000000
2753.011963 6870.000000
2753.845459 6887.000000
2754.678955 8050.000000
2755.511475 6815.000000
2756.343506 7287.000000
2757.175049 6824.000000
2758.006592 7123.000000
2758.837158 7289.000000
2759.667969 7327.000000
2760.497559 7223.000000
2761.327148 6681.000000
2762.156494 7243.000000
2762.985107 6843.000000
2763.813232 6675.000000
2764.640869 6990.000000
2765.468506 6591.000000
2766.295654 7934.000000
2767.122070 5779.000000
2767.947998 7534.000000
2768.773438 6832.000000
2769.598633 7775.000000
2770.423828 7096.000000
2771.247803 6798.000000
2772.071777 6453.000000
2772.895752 7684.000000
2773.718506 6403.000000
2774.541504 6977.000000
2775.363281 6945.000000
2776.185059 6955.000000
2777.006836 6517.000000
2777.827637 8026.000000
2778.647705 6503.000000
2779.468018 6967.000000
2780.287842 7282.000000
2781.107666 6483.000000
2781.925537 6005.000000
2782.744629 8062.000000
2783.562500 6507.000000
2784.380127 6729.000000
2785.197266 7223.000000
2786.013916 7287.000000
2786.830322 7136.000000
2787.646240 6303.000000
2788.461914 6006.000000
2789.276611 6387.000000
2790.091797 6919.000000
2790.906250 7169.000000
2791.720215 6594.000000
2792.533936 7437.000000
2793.346436 8846.000000
2794.159180 6958.000000
2794.971436 7491.000000
2795.783203 7264.000000
2796.594238 7382.000000
2797.406006 6557.000000
2798.216553 7253.000000
2799.027100 7062.000000
2799.836182 7365.000000
2800.645996 8236.000000
2801.455078 7846.000000
2802.263916 6655.000000
2803.072266 7149.000000
2803.879639 6166.000000
2804.687500 6465.000000
2805.494629 6905.000000
2806.301514 6862.000000
2807.107178 7054.000000
2807.913330 6645.000000
2808.718750 6487.000000
2809.524170 7298.000000
2810.328857 6225.000000
2811.132568 7661.000000
2811.936768 7547.000000
2812.740479 6347.000000
2813.543945 6088.000000
2814.345947 6290.000000
2815.148682 7327.000000
2815.950684 7763.000000
2816.752441 6187.000000
2817.553711 6541.000000
2818.354492 7337.000000
2819.154785 6526.000000
2819.955322 6803.000000
2820.754883 8018.000000
2821.553955 7151.000000
2822.353027 6423.000000
2823.151855 6952.000000
2823.950195 6326.000000
2824.747559 7021.000000
2825.545166 7386.000000
2826.342041 6711.000000
2827.139160 7312.000000
2827.935547 8024.000000
2828.731201 6951.000000
2829.526855 7465.000000
2830.322266 7582.000000
2831.117188 7453.000000
2831.911377 6641.000000
2832.705566 6814.000000
2833.499512 5746.000000
2834.292969 6864.000000
2835.085693 7178.000000
2835.878174 8130.000000
2836.670654 7732.000000
2837.462891 7512.000000
2838.254639 6460.000000
2839.045410 6805.000000
2839.836182 8832.000000
2840.627197 7437.000000
2841.417236 6297.000000
2842.206787 7696.000000
2842.996582 7178.000000
2843.785400 7376.000000
2844.574219 7774.000000
2845.363037 7683.000000
2846.150879 7548.000000
2846.938232 7277.000000
2847.725830 7552.000000
2848.512939 7364.000000
2849.299316 6699.000000
2850.085693 7473.000000
2850.871826 7170.000000
2851.657471 7509.000000
2852.442139 7124.000000
2853.227295 6943.000000
2854.012207 7478.000000
2854.796387 7105.000000
2855.580566 6898.000000
2856.363525 8249.000000
2857.146729 6906.000000
2857.929688 6749.000000
2858.712158 7707.000000
2859.494385 6237.000000
2860.276123 6695.000000
2861.057617 7633.000000
2861.839355 7554.000000
2862.620361 7686.000000
2863.400635 6562.000000
2864.180664 6731.000000
2864.960693 8198.000000
2865.740479 7473.000000
2866.519287 8145.000000
2867.298340 7661.000000
2868.076904 6718.000000
2868.855225 6985.000000
2869.633057 7207.000000
2870.410645 6947.000000
2871.187988 7471.000000
2871.965088 6956.000000
2872.741699 6527.000000
2873.517822 7554.000000
2874.293945 7178.000000
2875.069580 8290.000000
2875.844971 7216.000000
2876.619873 6599.000000
2877.394531 8000.000000
2878.169189 6532.000000
2878.943604 7789.000000
2879.717285 6740.000000
2880.490234 7150.000000
2881.263916 6760.000000
2882.036621 7641.000000
2882.809326 7811.000000
2883.581299 8240.000000
2884.353027 6252.000000
2885.125244 6765.000000
2885.896240 6962.000000
2886.666748 6198.000000
2887.437744 8264.000000
2888.208740 7348.000000
2888.979004 7982.000000
2889.748291 7648.000000
2890.517822 6968.000000
2891.287354 7269.000000
2892.056396 7380.000000
2892.824951 7877.000000
2893.593506 7976.000000
2894.361084 6957.000000
2895.129150 6570.000000
2895.896729 7412.000000
2896.664307 8366.000000
2897.430664 7401.000000
2898.197998 6526.000000
2898.964111 7197.000000
2899.730469 7008.000000
2900.495361 8321.000000
2901.260742 7175.000000
2902.026611 6424.000000
2902.791016 7694.000000
2903.555420 7800.000000
2904.320068 8406.000000
2905.083740 6599.000000
2905.848145 8477.000000
2906.611816 6737.000000
2907.374756 8344.000000
2908.137451 6552.000000
2908.900635 8934.000000
2909.663330 6955.000000
2910.424805 6870.000000
2911.186768 6870.000000
