scanname Analyse091
timestamp 2017-02-10 22:17:00
ccdbias 953.686035
ccdgain 3.473401
sigmaread 8.960639
laserwavenum -0.293494
wavenumcorrection 0.229470
scancount 1
totalexposurems 10000
singleexposurems 10000
measurementstate Unknown
scanmode Manual
snr 278.205261 8.853310 7.564254
replacelist 5
374 52298.000000 14984.000000
672 44370.000000 30555.000000
673 44068.000000 5620.000000
754 40923.000000 17073.000000
858 35323.000000 15577.000000
peaks 62
278.147919 0.712959 0.000000 1.452677 0.000185
284.662415 0.712952 0.000000 0.869482 0.000064
292.724213 0.714817 0.000000 0.725820 0.000031
301.707733 0.715176 0.000000 0.190214 0.000024
332.057159 0.734571 0.000000 0.806118 0.000138
341.532135 0.735535 0.000000 0.835811 0.000036
349.400909 0.738502 0.000000 0.633999 0.000024
361.028778 0.740051 0.000000 0.227269 0.000015
385.877350 0.742958 0.000000 1.354736 0.000297
417.368774 0.721563 0.000000 0.774235 0.000226
459.350494 0.757497 0.000000 0.258286 0.000041
486.396027 0.769102 0.000000 0.452330 0.000054
490.635071 0.769274 0.000000 0.882497 0.000043
534.328125 0.772987 0.000000 0.654814 0.000147
559.384766 0.811190 0.000000 1.264280 0.000223
574.106140 0.816115 0.000000 0.334758 0.000053
582.646301 0.812043 0.000000 0.654528 0.000105
660.629822 0.841292 0.000000 0.961235 0.000211
666.335144 0.840223 0.000000 0.735331 0.000085
673.122925 0.838236 0.000000 1.391535 0.000268
715.523071 0.855937 0.000000 5.581601 0.001164
724.545898 0.838021 0.000000 1.136701 0.000049
741.443848 0.859419 0.000000 1.064775 0.000115
752.285706 0.864292 0.000000 0.992990 0.000047
764.563843 0.878944 0.000000 1.174490 0.000413
776.998169 0.881565 0.000000 5.955275 0.000947
823.600647 0.880872 0.000000 0.303288 0.000147
832.590698 0.885045 0.000000 1.159545 0.000187
843.332581 0.888182 0.000000 1.038655 0.000052
852.761353 0.911260 0.000000 1.006854 0.000267
868.618042 0.908603 0.000000 0.763208 0.000154
937.307373 0.966921 0.000000 0.639993 0.000382
954.139038 0.948569 0.000000 3.609934 0.001076
1013.329102 0.979295 0.000000 1.841491 0.000718
1020.638489 0.981771 0.000000 0.810689 0.000132
1026.635254 0.992288 0.000000 0.580652 0.000246
1043.941284 0.991455 0.000000 4.039989 0.001304
1103.556152 0.983973 0.000000 2.042429 0.000562
1119.288208 1.016399 0.000000 2.007972 0.000402
1134.393921 0.995131 0.000000 2.158773 0.000896
1149.525635 0.972239 0.000000 2.286177 0.000916
1172.514771 0.972604 0.000000 1.166407 0.000408
1210.776123 0.990234 0.000000 0.554639 0.000193
1219.301147 0.996133 0.000000 1.018390 0.000082
1233.431274 0.994460 0.000000 1.427473 0.000349
1259.823486 1.013388 0.000000 2.009965 0.000992
1280.178833 0.969583 0.000000 0.410001 0.000454
1311.968628 0.985419 0.000000 1.605462 0.000413
1338.760864 1.015400 0.000000 7.615712 0.001198
1349.416138 0.993516 0.000000 1.245510 0.000366
1386.149536 0.964728 0.000000 0.367074 0.000191
1451.407715 1.002499 0.000000 1.329973 0.000435
1458.341064 1.031931 0.000000 5.709485 0.002816
1489.937256 0.966991 0.000000 2.405037 0.001457
1531.726074 0.925150 0.000000 0.679321 0.000464
1578.633057 0.931017 0.000000 1.428878 0.001149
1619.956299 0.939021 0.000000 1.096865 0.000455
1640.411499 0.906460 0.000000 0.555723 0.000092
1662.717285 0.962843 0.000000 11.849124 0.005189
1749.543579 0.889558 0.000000 8.080222 0.003970
2345.562012 0.559028 0.000000 0.082519 0.000165
2545.828125 0.476296 0.000000 0.110466 0.000399
finalresult GLS_NoMatch 0
spectrum 2048
-97.307961 44982.000000
-94.681091 44982.000000
-92.056099 45665.000000
-89.432999 45718.000000
-86.811768 46616.000000
-84.192436 46355.000000
-81.574966 46655.000000
-78.959373 46443.000000
-76.345657 46819.000000
-73.733818 47197.000000
-71.123840 47031.000000
-68.515747 47190.000000
-65.909500 47193.000000
-63.305130 47286.000000
-60.702621 47090.000000
-58.101967 47617.000000
-55.503174 47079.000000
-52.906239 46422.000000
-50.311157 46788.000000
-47.717930 46737.000000
-45.126553 46938.000000
-42.537022 46441.000000
-39.949333 47348.000000
-37.363495 47211.000000
-34.779499 46755.000000
-32.197342 47492.000000
-29.617027 46809.000000
-27.038542 47444.000000
-24.461899 46986.000000
-21.887081 46871.000000
-19.314104 46633.000000
-16.742947 46581.000000
-14.173624 46200.000000
-11.606126 45244.000000
-9.040446 46674.000000
-6.476593 46407.000000
-3.914552 46758.000000
-1.354336 46773.000000
1.204072 46345.000000
3.760659 45292.000000
6.315441 45158.000000
8.868406 45176.000000
11.419571 43674.000000
13.968923 42670.000000
16.516479 41027.000000
19.062223 40192.000000
21.606174 38663.000000
24.148321 34909.000000
26.688671 31593.000000
29.227236 28702.000000
31.764004 23193.000000
34.298969 16038.000000
36.832157 10566.000000
39.363564 7591.000000
41.893177 6983.000000
44.420994 6767.000000
46.947052 6224.000000
49.471321 5483.000000
51.993820 4793.000000
54.514523 4538.000000
57.033470 4518.000000
59.550644 5079.000000
62.066040 6299.000000
64.579659 7285.000000
67.091522 7335.000000
69.601639 5843.000000
72.109962 4055.000000
74.616531 3245.000000
77.121353 2581.000000
79.624420 2162.000000
82.125710 1999.000000
84.625259 2034.000000
87.123055 1909.000000
89.619118 1986.000000
92.113403 2120.000000
94.605949 2410.000000
97.096779 2612.000000
99.585838 2338.000000
102.073151 1935.000000
104.558739 1673.000000
107.042587 1479.000000
109.524689 1489.000000
112.005066 1340.000000
114.483719 1278.000000
116.960648 1415.000000
119.435822 1482.000000
121.909286 1513.000000
124.381020 1584.000000
126.851044 1795.000000
129.319305 1838.000000
131.785904 2151.000000
134.250748 2530.000000
136.713898 2883.000000
139.175308 3590.000000
141.635025 4504.000000
144.093018 5546.000000
146.549316 16516.000000
149.003906 27861.000000
151.456772 33664.000000
153.907959 35972.000000
156.357452 37837.000000
158.805222 40056.000000
161.251282 41342.000000
163.695663 40280.000000
166.138367 43237.000000
168.579376 43305.000000
171.018677 44159.000000
173.456268 43443.000000
175.892227 44307.000000
178.326447 44138.000000
180.758987 44169.000000
183.189880 44878.000000
185.619049 44878.000000
188.046570 45138.000000
190.472412 45664.000000
192.896576 45551.000000
195.319077 45120.000000
197.739883 44959.000000
200.159027 46009.000000
202.576508 46472.000000
204.992294 44955.000000
207.406433 45565.000000
209.818939 46323.000000
212.229767 46665.000000
214.638916 46579.000000
217.046432 45382.000000
219.452240 46641.000000
221.856461 46425.000000
224.258972 46214.000000
226.659866 45994.000000
229.059113 46472.000000
231.456696 46123.000000
233.852615 45695.000000
236.246918 46471.000000
238.639557 47163.000000
241.030579 46156.000000
243.419937 46437.000000
245.807678 46667.000000
248.193771 46054.000000
250.578232 46865.000000
252.961044 45100.000000
255.342285 46382.000000
257.721832 46314.000000
260.099792 46529.000000
262.476074 45458.000000
264.850800 45329.000000
267.223877 45084.000000
269.595306 46767.000000
271.965088 46550.000000
274.333313 47055.000000
276.699890 46649.000000
279.064880 46249.000000
281.428253 46970.000000
283.789978 46613.000000
286.150116 45909.000000
288.508636 46966.000000
290.865570 46426.000000
293.220886 46608.000000
295.574615 46977.000000
297.926697 47001.000000
300.277222 46572.000000
302.626160 46496.000000
304.973450 46068.000000
307.319214 46494.000000
309.663300 46389.000000
312.005859 45504.000000
314.346802 45272.000000
316.686127 45751.000000
319.023895 45939.000000
321.360107 44830.000000
323.694672 46640.000000
326.027679 46455.000000
328.359131 46957.000000
330.688995 46238.000000
333.017273 46476.000000
335.343933 45776.000000
337.669098 46531.000000
339.992645 46690.000000
342.314636 46913.000000
344.635071 45452.000000
346.953888 45096.000000
349.271149 46895.000000
351.586884 47072.000000
353.901031 45957.000000
356.213593 46564.000000
358.524597 46480.000000
360.834076 45929.000000
363.142029 46524.000000
365.448364 47226.000000
367.753113 46552.000000
370.056396 46548.000000
372.358063 46682.000000
374.658234 46603.000000
376.956848 46669.000000
379.253906 46992.000000
381.549408 46865.000000
383.843384 47056.000000
386.135773 47721.000000
388.426666 47315.000000
390.716034 46776.000000
393.003815 46681.000000
395.290070 46448.000000
397.574829 45918.000000
399.857971 46914.000000
402.139679 46488.000000
404.419861 46814.000000
406.698456 45687.000000
408.975525 46508.000000
411.251068 46225.000000
413.525085 46517.000000
415.797668 46584.000000
418.068634 46502.000000
420.338104 46437.000000
422.606079 45798.000000
424.872498 45650.000000
427.137421 46691.000000
429.400879 46620.000000
431.662750 46411.000000
433.923157 46840.000000
436.182007 46244.000000
438.439392 46770.000000
440.695282 47192.000000
442.949677 47141.000000
445.202545 47425.000000
447.453857 45924.000000
449.703766 46800.000000
451.952087 46605.000000
454.198975 47246.000000
456.444397 46458.000000
458.688263 46379.000000
460.930634 46080.000000
463.171509 47223.000000
465.410980 46093.000000
467.648865 47427.000000
469.885315 47142.000000
472.120239 46871.000000
474.353699 45647.000000
476.585724 46195.000000
478.816223 47269.000000
481.045227 46383.000000
483.272766 46574.000000
485.498810 46901.000000
487.723419 46310.000000
489.946564 47034.000000
492.168243 46501.000000
494.388367 46068.000000
496.607086 47250.000000
498.824310 46668.000000
501.040161 47347.000000
503.254395 46690.000000
505.467316 46320.000000
507.678650 46456.000000
509.888550 46020.000000
512.096985 46402.000000
514.304077 46261.000000
516.509583 46408.000000
518.713684 46239.000000
520.916260 46544.000000
523.117432 46307.000000
525.317261 46201.000000
527.515564 45915.000000
529.712341 47522.000000
531.907776 46972.000000
534.101685 47270.000000
536.294250 45315.000000
538.485291 46110.000000
540.674927 46775.000000
542.863159 45839.000000
545.049866 45684.000000
547.235107 45966.000000
549.419067 46533.000000
551.601440 46286.000000
553.782471 46598.000000
555.961975 46704.000000
558.140198 46916.000000
560.316895 46742.000000
562.492188 46336.000000
564.666077 46236.000000
566.838501 46736.000000
569.009521 46609.000000
571.179077 46400.000000
573.347351 47425.000000
575.514099 46269.000000
577.679382 46447.000000
579.843262 46638.000000
582.005859 47028.000000
584.166931 46739.000000
586.326599 47078.000000
588.484924 47002.000000
590.641724 46648.000000
592.797180 46132.000000
594.951233 47023.000000
597.103943 46663.000000
599.255127 45468.000000
601.404968 45929.000000
603.553467 46052.000000
605.700378 46718.000000
607.846069 46199.000000
609.990356 46328.000000
612.133179 45722.000000
614.274536 46545.000000
616.414673 46300.000000
618.553284 45182.000000
620.690613 46939.000000
622.826477 46093.000000
624.960938 45722.000000
627.093933 45508.000000
629.225769 46032.000000
631.356140 46007.000000
633.485107 45854.000000
635.612610 46176.000000
637.738831 46480.000000
639.863525 45244.000000
641.987000 46138.000000
644.109131 45796.000000
646.229797 45768.000000
648.349121 46021.000000
650.467041 46859.000000
652.583618 46916.000000
654.698792 46132.000000
656.812622 46069.000000
658.924988 46798.000000
661.036133 46419.000000
663.145874 47089.000000
665.254150 45948.000000
667.361267 46226.000000
669.466919 45713.000000
671.571106 46850.000000
673.674072 46829.000000
675.775635 45568.000000
677.875854 47216.000000
679.974670 45807.000000
682.072144 46336.000000
684.168335 45617.000000
686.263062 46373.000000
688.356567 45600.000000
690.448730 45913.000000
692.539368 44605.000000
694.628784 45946.000000
696.716919 46089.000000
698.803589 46549.000000
700.889038 45853.000000
702.972961 47314.000000
705.055664 46577.000000
707.137085 46485.000000
709.217041 44835.000000
711.295776 46095.000000
713.373047 46868.000000
715.449036 45858.000000
717.523743 46309.000000
719.597168 45482.000000
721.669067 46103.000000
723.739807 44983.000000
725.809204 46717.000000
727.877197 45959.000000
729.943848 45973.000000
732.009277 45242.000000
734.073364 46583.000000
736.136108 46158.000000
738.197510 45851.000000
740.257629 45741.000000
742.316345 46321.000000
744.373840 45606.000000
746.430054 45813.000000
748.484863 45558.000000
750.538391 45923.000000
752.590515 44806.000000
754.641418 46448.000000
756.691101 45690.000000
758.739319 45961.000000
760.786316 46137.000000
762.832031 45257.000000
764.876343 46883.000000
766.919373 46611.000000
768.961182 46015.000000
771.001648 45419.000000
773.040710 45938.000000
775.078613 46199.000000
777.115173 46266.000000
779.150513 46891.000000
781.184509 46566.000000
783.217102 45372.000000
785.248535 46774.000000
787.278564 40636.000000
789.307312 46291.000000
791.334900 45997.000000
793.361145 45911.000000
795.385986 46461.000000
797.409729 46772.000000
799.432068 45899.000000
801.453186 46374.000000
803.472961 45570.000000
805.491455 47305.000000
807.508728 45484.000000
809.524597 45361.000000
811.539307 46452.000000
813.552673 45765.000000
815.564819 45842.000000
817.575745 46119.000000
819.585327 45513.000000
821.593689 46757.000000
823.600647 46371.000000
825.606384 46020.000000
827.610901 46323.000000
829.614136 46442.000000
831.616089 45574.000000
833.616760 46031.000000
835.616211 46188.000000
837.614319 45718.000000
839.611328 45032.000000
841.606934 45793.000000
843.601379 46165.000000
845.594482 45849.000000
847.586365 45221.000000
849.576904 46456.000000
851.566162 45179.000000
853.554382 46025.000000
855.541199 46271.000000
857.526794 45575.000000
859.511108 44732.000000
861.494324 45767.000000
863.476135 45638.000000
865.456726 46274.000000
867.436035 44402.000000
869.414185 44923.000000
871.390991 45931.000000
873.366516 46107.000000
875.341003 45925.000000
877.314026 46040.000000
879.286011 46703.000000
881.256653 45709.000000
883.226135 45903.000000
885.194275 46443.000000
887.161255 46763.000000
889.126892 45847.000000
891.091370 46154.000000
893.054626 45946.000000
895.016663 45358.000000
896.977417 46095.000000
898.936951 45462.000000
900.895203 45157.000000
902.852356 45472.000000
904.808350 45783.000000
906.762939 44850.000000
908.716309 45224.000000
910.668518 45258.000000
912.619507 45272.000000
914.569214 44510.000000
916.517761 45240.000000
918.465088 45339.000000
920.411133 45335.000000
922.355896 45379.000000
924.299622 45092.000000
926.242188 45383.000000
928.183472 45790.000000
930.123413 44887.000000
932.062256 45578.000000
933.999817 45787.000000
935.936157 45338.000000
937.871338 45451.000000
939.805237 45217.000000
941.738037 45416.000000
943.669617 44569.000000
945.600037 46132.000000
947.529236 44970.000000
949.457092 44330.000000
951.383911 44680.000000
953.309448 45385.000000
955.233704 46056.000000
957.156860 45420.000000
959.078857 44717.000000
960.999573 44120.000000
962.919128 44966.000000
964.837524 46169.000000
966.754883 44981.000000
968.670776 45005.000000
970.585571 45356.000000
972.499146 45395.000000
974.411560 44918.000000
976.322754 44910.000000
978.232788 45906.000000
980.141541 45184.000000
982.049255 45145.000000
983.955750 44872.000000
985.861023 45565.000000
987.765198 44464.000000
989.668152 45008.000000
991.569885 44386.000000
993.470459 44572.000000
995.369873 44522.000000
997.268066 45812.000000
999.165100 44556.000000
1001.060913 44465.000000
1002.955566 43284.000000
1004.849121 45308.000000
1006.741394 43784.000000
1008.632751 44800.000000
1010.522766 45518.000000
1012.411560 44161.000000
1014.299194 44525.000000
1016.185669 43995.000000
1018.070984 44131.000000
1019.955139 44916.000000
1021.838074 44981.000000
1023.719971 44601.000000
1025.600586 45698.000000
1027.480103 45003.000000
1029.358643 44664.000000
1031.235840 45466.000000
1033.111694 44746.000000
1034.986572 45036.000000
1036.860474 44314.000000
1038.732910 43976.000000
1040.604370 44272.000000
1042.474487 45416.000000
1044.343628 45440.000000
1046.211548 45188.000000
1048.078369 43877.000000
1049.944092 44288.000000
1051.808594 44504.000000
1053.671997 44501.000000
1055.534058 44476.000000
1057.395142 45066.000000
1059.255127 44340.000000
1061.113770 44225.000000
1062.971313 45037.000000
1064.827759 44211.000000
1066.683105 44851.000000
1068.537231 45056.000000
1070.390503 44602.000000
1072.242310 44429.000000
1074.093140 44619.000000
1075.942749 44590.000000
1077.791138 44891.000000
1079.638672 42761.000000
1081.484863 45014.000000
1083.329834 44399.000000
1085.173950 45047.000000
1087.016724 44866.000000
1088.858276 43843.000000
1090.699097 44785.000000
1092.538330 44410.000000
1094.376831 44050.000000
1096.213989 43989.000000
1098.049927 43046.000000
1099.884888 43247.000000
1101.718628 44373.000000
1103.551392 44040.000000
1105.382813 43487.000000
1107.213379 42360.000000
1109.042603 43063.000000
1110.870850 43090.000000
1112.697876 42355.000000
1114.523926 44007.000000
1116.348755 43156.000000
1118.172485 42338.000000
1119.994995 43304.000000
1121.816406 43614.000000
1123.636963 43533.000000
1125.456055 42969.000000
1127.274292 42392.000000
1129.091187 42712.000000
1130.907227 42788.000000
1132.722046 42958.000000
1134.535767 43865.000000
1136.348389 43563.000000
1138.159790 43748.000000
1139.970215 43287.000000
1141.779541 42604.000000
1143.587524 42446.000000
1145.394775 43386.000000
1147.200562 43243.000000
1149.005493 43682.000000
1150.809326 43671.000000
1152.611938 42863.000000
1154.413696 42839.000000
1156.213989 42847.000000
1158.013306 42692.000000
1159.811646 42846.000000
1161.608643 43189.000000
1163.404907 42686.000000
1165.199829 42410.000000
1166.993652 42057.000000
1168.786621 40591.000000
1170.578247 42417.000000
1172.368896 41391.000000
1174.158569 41829.000000
1175.946777 41875.000000
1177.734131 40209.000000
1179.520386 40818.000000
1181.305542 41690.000000
1183.089600 41395.000000
1184.872559 39579.000000
1186.654541 41238.000000
1188.435303 41073.000000
1190.215088 40467.000000
1191.993774 39749.000000
1193.771484 39945.000000
1195.547974 39280.000000
1197.323364 39686.000000
1199.097656 39506.000000
1200.870850 39227.000000
1202.643188 39370.000000
1204.414185 39072.000000
1206.184326 40032.000000
1207.953247 39576.000000
1209.721069 39414.000000
1211.488037 39851.000000
1213.253662 39807.000000
1215.018311 38715.000000
1216.781860 39200.000000
1218.544312 39768.000000
1220.305908 38958.000000
1222.066284 39809.000000
1223.825562 39418.000000
1225.583984 39804.000000
1227.341187 38756.000000
1229.097290 39593.000000
1230.852295 40410.000000
1232.606445 39967.000000
1234.359253 40200.000000
1236.111084 40043.000000
1237.862061 40166.000000
1239.611694 41196.000000
1241.360474 39161.000000
1243.107910 39768.000000
1244.854614 39501.000000
1246.600098 39599.000000
1248.344727 39476.000000
1250.088013 39107.000000
1251.830322 39039.000000
1253.571533 40326.000000
1255.311890 40438.000000
1257.051147 39708.000000
1258.789185 38943.000000
1260.526367 38486.000000
1262.262329 39548.000000
1263.997314 39419.000000
1265.731323 38641.000000
1267.464355 39922.000000
1269.196167 39687.000000
1270.927002 39507.000000
1272.656616 38549.000000
1274.385376 39897.000000
1276.113037 39956.000000
1277.839600 40111.000000
1279.565308 40054.000000
1281.289673 39046.000000
1283.013184 40293.000000
1284.735718 38471.000000
1286.457275 38786.000000
1288.177612 39052.000000
1289.896973 38480.000000
1291.615234 37862.000000
1293.332520 38467.000000
1295.048828 39087.000000
1296.763916 38360.000000
1298.478027 38567.000000
1300.191162 38847.000000
1301.903442 38031.000000
1303.614502 36159.000000
1305.324585 39205.000000
1307.033569 37962.000000
1308.741333 37610.000000
1310.448486 37413.000000
1312.154175 38535.000000
1313.859131 37425.000000
1315.563110 38244.000000
1317.265869 38400.000000
1318.967651 37817.000000
1320.668579 38395.000000
1322.368164 35666.000000
1324.066895 37057.000000
1325.764893 24877.000000
1327.461548 35939.000000
1329.157104 35165.000000
1330.851807 35424.000000
1332.545288 36435.000000
1334.237915 36673.000000
1335.929688 35101.000000
1337.620117 36134.000000
1339.309814 35653.000000
1340.998413 36226.000000
1342.685913 34663.000000
1344.372437 36694.000000
1346.057861 35637.000000
1347.742310 36574.000000
1349.425903 35292.000000
1351.108276 36267.000000
1352.789673 36771.000000
1354.470215 36273.000000
1356.149536 36336.000000
1357.828247 37031.000000
1359.505615 36467.000000
1361.181885 37267.000000
1362.857178 37330.000000
1364.531738 36347.000000
1366.205078 36486.000000
1367.877441 36042.000000
1369.548828 37534.000000
1371.219238 35861.000000
1372.888550 36466.000000
1374.556885 36807.000000
1376.224365 36412.000000
1377.890747 35729.000000
1379.556152 36095.000000
1381.220581 36221.000000
1382.883789 36055.000000
1384.546387 36152.000000
1386.207642 35447.000000
1387.868042 35234.000000
1389.527344 35310.000000
1391.185669 35201.000000
1392.843262 34813.000000
1394.499634 35169.000000
1396.155151 34524.000000
1397.809448 35143.000000
1399.462891 35558.000000
1401.115234 35159.000000
1402.766846 34702.000000
1404.417236 33764.000000
1406.066528 34298.000000
1407.715088 32736.000000
1409.362549 31982.000000
1411.009033 33288.000000
1412.654663 33057.000000
1414.299316 33232.000000
1415.942749 32287.000000
1417.585327 32145.000000
1419.226807 32285.000000
1420.867432 32518.000000
1422.507080 32368.000000
1424.145630 32582.000000
1425.783325 31930.000000
1427.419922 32115.000000
1429.055542 32268.000000
1430.690430 31876.000000
1432.324219 32324.000000
1433.956909 32113.000000
1435.588623 32615.000000
1437.219482 32212.000000
1438.849243 32588.000000
1440.477905 31117.000000
1442.105957 32761.000000
1443.732910 32582.000000
1445.358643 32903.000000
1446.983765 33221.000000
1448.607788 33090.000000
1450.230835 33811.000000
1451.852905 34137.000000
1453.473877 33059.000000
1455.093872 34199.000000
1456.713135 33752.000000
1458.331055 35010.000000
1459.948364 34752.000000
1461.564697 34494.000000
1463.179810 31710.000000
1464.794067 32536.000000
1466.407471 33508.000000
1468.019775 33297.000000
1469.631226 32652.000000
1471.241821 32476.000000
1472.851196 32719.000000
1474.459595 32533.000000
1476.067139 32223.000000
1477.673706 31573.000000
1479.279541 32667.000000
1480.884155 31406.000000
1482.487915 31794.000000
1484.090454 30297.000000
1485.692383 31125.000000
1487.293091 31033.000000
1488.893066 31011.000000
1490.491943 30556.000000
1492.089966 30558.000000
1493.686890 30582.000000
1495.282959 31161.000000
1496.878052 31634.000000
1498.472168 32080.000000
1500.065552 30955.000000
1501.657837 31908.000000
1503.248901 31094.000000
1504.839478 30447.000000
1506.428711 30568.000000
1508.017334 30697.000000
1509.604858 30287.000000
1511.191284 29740.000000
1512.776978 30322.000000
1514.361572 29720.000000
1515.945313 30021.000000
1517.527954 29883.000000
1519.109863 29469.000000
1520.690674 29235.000000
1522.270752 29655.000000
1523.849609 29242.000000
1525.427612 28862.000000
1527.004883 28798.000000
1528.580933 29183.000000
1530.156250 28866.000000
1531.730469 28496.000000
1533.303955 29203.000000
1534.876221 28713.000000
1536.447754 28350.000000
1538.018311 28209.000000
1539.588013 28192.000000
1541.156494 28862.000000
1542.724243 27725.000000
1544.291138 28581.000000
1545.856812 27370.000000
1547.421753 28132.000000
1548.985596 28912.000000
1550.548828 26690.000000
1552.110718 27774.000000
1553.671997 27840.000000
1555.232178 28013.000000
1556.791626 28001.000000
1558.349976 27781.000000
1559.907593 27588.000000
1561.464111 26904.000000
1563.019409 27993.000000
1564.574097 27394.000000
1566.128052 28126.000000
1567.681030 27456.000000
1569.232666 28108.000000
1570.783569 27986.000000
1572.333740 27693.000000
1573.882935 27589.000000
1575.430786 28076.000000
1576.978149 28352.000000
1578.524536 28235.000000
1580.070068 29018.000000
1581.614624 27637.000000
1583.157959 28044.000000
1584.700684 27744.000000
1586.242554 27889.000000
1587.783325 27484.000000
1589.323120 28322.000000
1590.862183 27363.000000
1592.400146 28084.000000
1593.937622 27665.000000
1595.473755 27988.000000
1597.008789 27181.000000
1598.543335 27459.000000
1600.076904 27716.000000
1601.609619 27634.000000
1603.140747 27487.000000
1604.671631 27538.000000
1606.201660 27930.000000
1607.730469 27527.000000
1609.258179 27596.000000
1610.785278 27807.000000
1612.311646 28048.000000
1613.837036 27724.000000
1615.361572 28207.000000
1616.884766 28357.000000
1618.407227 28798.000000
1619.928955 28160.000000
1621.449829 28091.000000
1622.969238 28211.000000
1624.488159 28331.000000
1626.006348 27231.000000
1627.523682 27372.000000
1629.039917 26922.000000
1630.554810 26283.000000
1632.069214 26431.000000
1633.582886 27118.000000
1635.095459 26076.000000
1636.606812 26816.000000
1638.117798 26198.000000
1639.627686 26350.000000
1641.136719 26359.000000
1642.644409 26756.000000
1644.151733 26356.000000
1645.658203 25496.000000
1647.163696 26172.000000
1648.668335 25527.000000
1650.171509 26072.000000
1651.674072 25616.000000
1653.176270 25756.000000
1654.677124 25443.000000
1656.176880 24442.000000
1657.675781 25212.000000
1659.174316 24892.000000
1660.671631 24928.000000
1662.168213 25193.000000
1663.663208 25067.000000
1665.157959 25464.000000
1666.651855 27117.000000
1668.144775 27704.000000
1669.636353 14333.000000
1671.127441 24135.000000
1672.617920 23940.000000
1674.107300 24053.000000
1675.595215 23565.000000
1677.082886 23478.000000
1678.569580 23978.000000
1680.055420 24231.000000
1681.540405 23746.000000
1683.023926 23406.000000
1684.507202 23147.000000
1685.989624 23287.000000
1687.470947 23286.000000
1688.950806 23103.000000
1690.430420 23259.000000
1691.909302 22983.000000
1693.387207 23313.000000
1694.864136 22977.000000
1696.339844 23211.000000
1697.815186 23001.000000
1699.289307 22810.000000
1700.762817 23058.000000
1702.234863 23143.000000
1703.706665 22761.000000
1705.177490 23182.000000
1706.647461 22736.000000
1708.116089 23308.000000
1709.584229 23066.000000
1711.051636 23003.000000
1712.517944 23199.000000
1713.983643 23112.000000
1715.447632 23005.000000
1716.911499 23212.000000
1718.374512 22702.000000
1719.836548 22883.000000
1721.297363 22799.000000
1722.757568 23197.000000
1724.217041 23227.000000
1725.675659 22880.000000
1727.133301 22998.000000
1728.589600 22786.000000
1730.045654 22901.000000
1731.500732 22863.000000
1732.954834 22963.000000
1734.407715 22540.000000
1735.860352 22971.000000
1737.311890 22483.000000
1738.762695 22615.000000
1740.212524 22410.000000
1741.661011 22691.000000
1743.109131 21981.000000
1744.556396 22146.000000
1746.002930 21945.000000
1747.447876 21832.000000
1748.892578 21983.000000
1750.336426 21907.000000
1751.779419 22559.000000
1753.220947 23611.000000
1754.662231 25721.000000
1756.102661 14370.000000
1757.542114 21698.000000
1758.980591 21542.000000
1760.418091 21467.000000
1761.855103 20986.000000
1763.291138 21408.000000
1764.726318 21091.000000
1766.160034 21249.000000
1767.593628 21501.000000
1769.026245 21248.000000
1770.458008 21533.000000
1771.888916 21718.000000
1773.318604 21259.000000
1774.747559 20774.000000
1776.176025 20444.000000
1777.603516 19722.000000
1779.029663 19039.000000
1780.455566 20234.000000
1781.880371 20053.000000
1783.304565 20201.000000
1784.727295 19919.000000
1786.149536 20050.000000
1787.571045 19860.000000
1788.991821 19782.000000
1790.411621 19755.000000
1791.830078 19670.000000
1793.248047 19496.000000
1794.665405 19527.000000
1796.081909 19533.000000
1797.496948 19478.000000
1798.911621 19425.000000
1800.325684 19340.000000
1801.738525 19501.000000
1803.150757 19298.000000
1804.561646 19040.000000
1805.972046 19202.000000
1807.381714 19280.000000
1808.790405 19357.000000
1810.197998 19412.000000
1811.605103 19376.000000
1813.011353 19377.000000
1814.416626 19389.000000
1815.820801 19542.000000
1817.224609 19608.000000
1818.627441 19516.000000
1820.029419 19509.000000
1821.430786 19518.000000
1822.830688 19480.000000
1824.229980 19325.000000
1825.628784 19309.000000
1827.026733 19246.000000
1828.423340 19181.000000
1829.819336 19140.000000
1831.214600 19433.000000
1832.609253 19021.000000
1834.002930 19215.000000
1835.395264 19079.000000
1836.787109 19152.000000
1838.178345 19091.000000
1839.568604 19045.000000
1840.957642 19070.000000
1842.346313 19097.000000
1843.734009 19008.000000
1845.120972 19014.000000
1846.506592 18843.000000
1847.891968 18937.000000
1849.276489 18659.000000
1850.660278 18589.000000
1852.042969 18585.000000
1853.424438 18495.000000
1854.805420 17978.000000
1856.185913 18267.000000
1857.565430 18169.000000
1858.943481 18069.000000
1860.321411 18090.000000
1861.698364 17921.000000
1863.074585 17958.000000
1864.449951 17746.000000
1865.823853 17758.000000
1867.197632 17709.000000
1868.570557 17363.000000
1869.942383 17307.000000
1871.313232 17285.000000
1872.683716 17328.000000
1874.053101 17186.000000
1875.421997 17081.000000
1876.789307 17005.000000
1878.156494 17002.000000
1879.522705 17043.000000
1880.888184 16920.000000
1882.252930 16903.000000
1883.616089 16854.000000
1884.979126 16735.000000
1886.341309 16726.000000
1887.702637 16559.000000
1889.062622 16647.000000
1890.422241 16653.000000
1891.781250 16806.000000
1893.139282 16500.000000
1894.496460 16523.000000
1895.852417 16539.000000
1897.208130 16262.000000
1898.562866 16415.000000
1899.916748 16543.000000
1901.269531 16527.000000
1902.621826 16382.000000
1903.973389 16608.000000
1905.324097 16542.000000
1906.673584 16690.000000
1908.022583 16674.000000
1909.370728 16567.000000
1910.718262 16581.000000
1912.065063 16452.000000
1913.410278 16524.000000
1914.755249 16639.000000
1916.099487 16855.000000
1917.442871 16722.000000
1918.784912 16700.000000
1920.126709 16557.000000
1921.467651 16475.000000
1922.807861 16619.000000
1924.147095 16508.000000
1925.485352 16465.000000
1926.822998 16525.000000
1928.159912 16363.000000
1929.495972 16514.000000
1930.830811 16435.000000
1932.165283 16234.000000
1933.499023 16141.000000
1934.831909 16090.000000
1936.163330 16076.000000
1937.494873 15989.000000
1938.825073 15988.000000
1940.154785 16206.000000
1941.483643 15975.000000
1942.811279 16009.000000
1944.138428 16001.000000
1945.464844 15963.000000
1946.790527 15925.000000
1948.114868 15918.000000
1949.438965 15866.000000
1950.762207 15817.000000
1952.084717 15598.000000
1953.406128 15589.000000
1954.726563 15536.000000
1956.046387 15613.000000
1957.365845 15477.000000
1958.684326 15491.000000
1960.001465 15470.000000
1961.318237 15304.000000
1962.634277 15185.000000
1963.949585 15135.000000
1965.263428 15230.000000
1966.577026 15264.000000
1967.889893 15075.000000
1969.201904 15078.000000
1970.513306 15053.000000
1971.823364 14981.000000
1973.132935 14796.000000
1974.441772 14674.000000
1975.750000 14520.000000
1977.056885 14619.000000
1978.363159 14473.000000
1979.669067 14549.000000
1980.973755 14789.000000
1982.277954 14673.000000
1983.580933 14650.000000
1984.883545 14463.000000
1986.185181 14502.000000
1987.486206 14246.000000
1988.785645 14130.000000
1990.085205 14021.000000
1991.383667 14085.000000
1992.681641 14024.000000
1993.978027 13963.000000
1995.274414 13848.000000
1996.569824 13809.000000
1997.864502 13681.000000
1999.158325 13708.000000
2000.450928 13666.000000
2001.743042 13635.000000
2003.034668 13397.000000
2004.325562 13439.000000
2005.614868 13641.000000
2006.903931 13515.000000
2008.192261 13575.000000
2009.479858 13562.000000
2010.766602 13422.000000
2012.052246 13382.000000
2013.337524 13523.000000
2014.621826 13335.000000
2015.905518 13400.000000
2017.187866 13296.000000
2018.469849 13267.000000
2019.751343 13282.000000
2021.031860 13322.000000
2022.311646 13164.000000
2023.590332 13201.000000
2024.868286 13234.000000
2026.145752 13149.000000
2027.422607 13357.000000
2028.697754 13297.000000
2029.973022 13402.000000
2031.247314 13405.000000
2032.520630 13479.000000
2033.793091 13415.000000
2035.065186 13378.000000
2036.336182 13384.000000
2037.606934 13238.000000
2038.876343 13375.000000
2040.144653 13443.000000
2041.412964 13264.000000
2042.680298 13245.000000
2043.946899 13225.000000
2045.212280 13203.000000
2046.477051 13482.000000
2047.741577 13291.000000
2049.004883 13075.000000
2050.267822 13225.000000
2051.528809 13019.000000
2052.790283 12973.000000
2054.050537 12879.000000
2055.310059 12810.000000
2056.568848 12849.000000
2057.826660 12730.000000
2059.083984 12643.000000
2060.340576 12838.000000
2061.595703 12604.000000
2062.850830 12838.000000
2064.104980 12719.000000
2065.358398 12721.000000
2066.611084 12584.000000
2067.862549 12579.000000
2069.113770 12603.000000
2070.364258 12601.000000
2071.614014 12638.000000
2072.862305 12531.000000
2074.110596 12306.000000
2075.357910 12285.000000
2076.604492 12238.000000
2077.850342 12152.000000
2079.094971 12154.000000
2080.339111 12043.000000
2081.582764 12127.000000
2082.825439 12109.000000
2084.066895 12084.000000
2085.308105 11992.000000
2086.548828 12059.000000
2087.788574 11879.000000
2089.027100 11898.000000
2090.265137 11808.000000
2091.502441 11735.000000
2092.739502 11618.000000
2093.975098 11762.000000
2095.209961 11832.000000
2096.444580 11749.000000
2097.678223 11790.000000
2098.910889 11755.000000
2100.142822 11624.000000
2101.374268 11645.000000
2102.604736 11331.000000
2103.834473 11589.000000
2105.063965 11533.000000
2106.291504 11260.000000
2107.519287 11221.000000
2108.746338 11163.000000
2109.972412 11194.000000
2111.197021 11198.000000
2112.421875 11080.000000
2113.645508 11129.000000
2114.868652 11086.000000
2116.090576 11028.000000
2117.312256 11112.000000
2118.532959 11151.000000
2119.752930 11198.000000
2120.972412 11356.000000
2122.190430 11236.000000
2123.408447 11256.000000
2124.625488 11334.000000
2125.842041 11280.000000
2127.056885 11091.000000
2128.271973 11300.000000
2129.486084 11263.000000
2130.699463 11269.000000
2131.912109 10841.000000
2133.123291 11230.000000
2134.334717 11064.000000
2135.544922 11246.000000
2136.754639 10978.000000
2137.962891 11097.000000
2139.171143 11139.000000
2140.378662 10992.000000
2141.584961 10583.000000
2142.790527 10843.000000
2143.995850 10867.000000
2145.200195 10919.000000
2146.403809 10835.000000
2147.606934 10801.000000
2148.808594 10794.000000
2150.010010 11013.000000
2151.210693 10859.000000
2152.410645 10814.000000
2153.609375 10867.000000
2154.807861 10851.000000
2156.005859 10570.000000
2157.202881 10546.000000
2158.399170 10379.000000
2159.594238 10331.000000
2160.789063 10297.000000
2161.983154 10340.000000
2163.176270 10195.000000
2164.368408 10065.000000
2165.560303 10054.000000
2166.751465 10065.000000
2167.941650 9988.000000
2169.131104 9997.000000
2170.320068 9819.000000
2171.508057 9851.000000
2172.695801 9698.000000
2173.882080 9628.000000
2175.067627 9518.000000
2176.252930 9569.000000
2177.437744 9537.000000
2178.621338 9504.000000
2179.804199 9560.000000
2180.986084 9660.000000
2182.167725 9634.000000
2183.348877 9527.000000
2184.528809 9613.000000
2185.707764 9500.000000
2186.886230 9375.000000
2188.064453 9292.000000
2189.241455 9475.000000
2190.417480 9378.000000
2191.593262 9428.000000
2192.768555 9474.000000
2193.942383 9507.000000
2195.115723 9474.000000
2196.288818 9501.000000
2197.460693 9459.000000
2198.632080 9507.000000
2199.802979 9546.000000
2200.972168 9436.000000
2202.141357 9413.000000
2203.310059 9410.000000
2204.477783 9474.000000
2205.644531 9364.000000
2206.810547 9455.000000
2207.976074 9462.000000
2209.141357 9428.000000
2210.305176 9313.000000
2211.468506 9464.000000
2212.630615 9275.000000
2213.792969 9372.000000
2214.954102 9252.000000
2216.114258 9162.000000
2217.273926 9212.000000
2218.433350 9211.000000
2219.591553 9268.000000
2220.748779 9172.000000
2221.905762 9063.000000
2223.062012 9025.000000
2224.217529 8918.000000
2225.372314 9016.000000
2226.526123 8916.000000
2227.678955 8907.000000
2228.832275 8898.000000
2229.983643 8816.000000
2231.134766 8824.000000
2232.285156 8764.000000
2233.435059 8698.000000
2234.583984 8816.000000
2235.732422 8689.000000
2236.879395 8668.000000
2238.026611 8580.000000
2239.172607 8556.000000
2240.318359 8440.000000
2241.462402 8273.000000
2242.606689 8384.000000
2243.750000 8344.000000
2244.892578 8305.000000
2246.034180 8280.000000
2247.175537 8245.000000
2248.315918 8219.000000
2249.455566 8076.000000
2250.594727 8058.000000
2251.732666 8120.000000
2252.870605 7942.000000
2254.007568 8078.000000
2255.143799 8100.000000
2256.279053 8119.000000
2257.413574 7996.000000
2258.547852 8020.000000
2259.681641 8261.000000
2260.813965 8236.000000
2261.945801 8066.000000
2263.077148 7843.000000
2264.207520 7787.000000
2265.337646 7774.000000
2266.466553 7633.000000
2267.594971 7583.000000
2268.722900 7562.000000
2269.849854 7666.000000
2270.976074 7591.000000
2272.101318 7470.000000
2273.226563 7717.000000
2274.351074 7657.000000
2275.474365 7715.000000
2276.596924 7702.000000
2277.718994 7625.000000
2278.840576 7473.000000
2279.961426 7610.000000
2281.081055 7693.000000
2282.200195 7513.000000
2283.319092 7438.000000
2284.437256 7262.000000
2285.554443 7405.000000
2286.670654 7414.000000
2287.786621 7347.000000
2288.901855 7451.000000
2290.016357 7392.000000
2291.129639 7522.000000
2292.242920 7480.000000
2293.355469 7450.000000
2294.467285 7557.000000
2295.578369 7667.000000
2296.688232 7544.000000
2297.797607 7613.000000
2298.906738 7688.000000
2300.014893 7586.000000
2301.122070 7606.000000
2302.229004 7617.000000
2303.335205 7641.000000
2304.440918 7536.000000
2305.545166 7412.000000
2306.649170 7448.000000
2307.752686 7470.000000
2308.855713 7325.000000
2309.957520 7265.000000
2311.058594 7244.000000
2312.159180 7251.000000
2313.259277 7192.000000
2314.358643 7262.000000
2315.456543 7162.000000
2316.554932 6983.000000
2317.651855 7182.000000
2318.748535 7208.000000
2319.844727 7143.000000
2320.939209 7184.000000
2322.033691 7061.000000
2323.127441 6936.000000
2324.220947 6952.000000
2325.312744 6942.000000
2326.404541 7140.000000
2327.495605 6978.000000
2328.585938 7048.000000
2329.675293 7069.000000
2330.764648 6833.000000
2331.852783 6856.000000
2332.940430 7033.000000
2334.027832 6889.000000
2335.113525 6790.000000
2336.198975 6738.000000
2337.284180 6664.000000
2338.368408 6586.000000
2339.451660 6519.000000
2340.534668 6552.000000
2341.616699 6560.000000
2342.698486 6487.000000
2343.779541 6571.000000
2344.859375 6494.000000
2345.938721 6435.000000
2347.017578 6440.000000
2348.095947 6490.000000
2349.172852 6446.000000
2350.249512 6344.000000
2351.325928 6326.000000
2352.401367 6296.000000
2353.475830 6256.000000
2354.550049 6152.000000
2355.623535 6116.000000
2356.696533 6101.000000
2357.768311 5989.000000
2358.839844 6068.000000
2359.910400 6144.000000
2360.980713 5968.000000
2362.050049 6090.000000
2363.118408 6046.000000
2364.186523 6088.000000
2365.253906 6032.000000
2366.320801 5979.000000
2367.386963 5908.000000
2368.451904 5780.000000
2369.516846 5944.000000
2370.581055 5863.000000
2371.644531 5826.000000
2372.706787 5839.000000
2373.769043 5835.000000
2374.830322 5900.000000
2375.891357 5753.000000
2376.951172 5823.000000
2378.010254 5838.000000
2379.069336 5887.000000
2380.127441 5719.000000
2381.184814 5838.000000
2382.241211 5821.000000
2383.297363 5628.000000
2384.353027 5735.000000
2385.407959 5721.000000
2386.461426 5676.000000
2387.515137 5595.000000
2388.567871 5765.000000
2389.620117 5642.000000
2390.671631 5831.000000
2391.722168 5791.000000
2392.772461 5709.000000
2393.821777 5675.000000
2394.871094 5715.000000
2395.918945 5585.000000
2396.966309 5754.000000
2398.013428 5831.000000
2399.059570 5554.000000
2400.104980 5635.000000
2401.149658 5609.000000
2402.194336 5439.000000
2403.237549 5638.000000
2404.280762 5571.000000
2405.322510 5670.000000
2406.364502 5531.000000
2407.405762 5501.000000
2408.446045 5573.000000
2409.485596 5637.000000
2410.524170 5592.000000
2411.562988 5658.000000
2412.600586 5571.000000
2413.637939 5565.000000
2414.674072 5605.000000
2415.709961 5501.000000
2416.745117 5516.000000
2417.779785 5466.000000
2418.812988 5418.000000
2419.846436 5481.000000
2420.878906 5425.000000
2421.911133 5509.000000
2422.941895 5445.000000
2423.972656 5428.000000
2425.002930 5359.000000
2426.031982 5282.000000
2427.061035 5267.000000
2428.088379 5410.000000
2429.116211 5204.000000
2430.142822 5246.000000
2431.169189 5276.000000
2432.194092 5133.000000
2433.219238 5229.000000
2434.243408 5125.000000
2435.267334 5040.000000
2436.290039 5007.000000
2437.312012 5145.000000
2438.333740 5063.000000
2439.354736 5046.000000
2440.375244 5024.000000
2441.394531 4990.000000
2442.413818 4890.000000
2443.432129 4902.000000
2444.450195 4872.000000
2445.466797 4753.000000
2446.483398 4895.000000
2447.499268 4883.000000
2448.515137 4844.000000
2449.529541 4829.000000
2450.543213 4850.000000
2451.556396 4798.000000
2452.569336 4674.000000
2453.581543 4620.000000
2454.592773 4662.000000
2455.603760 4720.000000
2456.614014 4752.000000
2457.623779 4629.000000
2458.632568 4631.000000
2459.640625 4701.000000
2460.648682 4565.000000
2461.655518 4580.000000
2462.662109 4594.000000
2463.667480 4474.000000
2464.672607 4474.000000
2465.677490 4406.000000
2466.681152 4476.000000
2467.684570 4480.000000
2468.687012 4504.000000
2469.689209 4560.000000
2470.690918 4491.000000
2471.691650 4477.000000
2472.691406 4425.000000
2473.691162 4371.000000
2474.689941 4468.000000
2475.688232 4485.000000
2476.685547 4409.000000
2477.682617 4282.000000
2478.679688 4477.000000
2479.675293 4433.000000
2480.670898 4406.000000
2481.664795 4477.000000
2482.658691 4484.000000
2483.652100 4467.000000
2484.645020 4446.000000
2485.636963 4497.000000
2486.628174 4375.000000
2487.619141 4468.000000
2488.609619 4351.000000
2489.599121 4273.000000
2490.587891 4514.000000
2491.576660 4439.000000
2492.564453 4411.000000
2493.551025 4370.000000
2494.537598 4353.000000
2495.523682 4480.000000
2496.509033 4395.000000
2497.493408 4374.000000
2498.477539 4295.000000
2499.461670 4379.000000
2500.444336 4329.000000
2501.426514 4326.000000
2502.408203 4209.000000
2503.389160 4342.000000
2504.369629 4291.000000
2505.349854 4289.000000
2506.328613 4217.000000
2507.307129 4371.000000
2508.285156 4276.000000
2509.262695 4193.000000
2510.239258 4298.000000
2511.215576 4269.000000
2512.191162 4213.000000
2513.166260 4181.000000
2514.140869 4154.000000
2515.114258 4157.000000
2516.087402 4158.000000
2517.060303 3939.000000
2518.032227 4075.000000
2519.003418 4023.000000
2519.974121 4031.000000
2520.944580 4112.000000
2521.914307 3867.000000
2522.883057 3986.000000
2523.851074 3959.000000
2524.819092 3878.000000
2525.786133 3932.000000
2526.752930 3890.000000
2527.718506 3952.000000
2528.684082 3813.000000
2529.648926 3827.000000
2530.613281 3863.000000
2531.576416 3752.000000
2532.539795 3805.000000
2533.502197 3806.000000
2534.464355 3874.000000
2535.425293 3886.000000
2536.385498 3875.000000
2537.345947 3757.000000
2538.305420 3764.000000
2539.264160 3868.000000
2540.221924 3763.000000
2541.179932 3711.000000
2542.137207 3789.000000
2543.093506 3704.000000
2544.049561 3696.000000
2545.004395 3689.000000
2545.959473 3667.000000
2546.913818 3722.000000
2547.867432 3976.000000
2548.820068 3585.000000
2549.772461 3682.000000
2550.724365 3570.000000
2551.675537 3583.000000
2552.625977 3515.000000
2553.575928 3451.000000
2554.525635 3476.000000
2555.474609 3549.000000
2556.423096 3474.000000
2557.370361 3498.000000
2558.317627 3433.000000
2559.264160 3568.000000
2560.210205 3509.000000
2561.155273 3456.000000
2562.100098 3428.000000
2563.044434 3467.000000
2563.988281 3495.000000
2564.931641 3433.000000
2565.873535 3288.000000
2566.815674 3335.000000
2567.757080 3377.000000
2568.697754 3311.000000
2569.637695 3326.000000
2570.577637 3393.000000
2571.516602 3337.000000
2572.455322 3325.000000
2573.393066 3319.000000
2574.330566 3393.000000
2575.267334 3410.000000
2576.203369 3450.000000
2577.138916 3354.000000
2578.073730 3290.000000
2579.008545 3421.000000
2579.942383 3392.000000
2580.875732 3236.000000
2581.808350 3268.000000
2582.740723 3328.000000
2583.672363 3305.000000
2584.603516 3332.000000
2585.534180 3360.000000
2586.463623 3308.000000
2587.393066 3287.000000
2588.322021 3325.000000
2589.250732 3292.000000
2590.177734 3356.000000
2591.104980 3216.000000
2592.031738 3303.000000
2592.957764 3222.000000
2593.883545 3221.000000
2594.808105 3308.000000
2595.732422 3137.000000
2596.656250 3222.000000
2597.579590 3175.000000
2598.501953 3311.000000
2599.424072 3284.000000
2600.345703 3229.000000
2601.266602 3257.000000
2602.186768 3251.000000
2603.106689 3225.000000
2604.026123 3229.000000
2604.945313 3203.000000
2605.863525 3195.000000
2606.780518 3138.000000
2607.697754 3139.000000
2608.614746 3067.000000
2609.530762 3078.000000
2610.445557 3114.000000
2611.360840 3072.000000
2612.275391 3070.000000
2613.188965 2994.000000
2614.102539 3136.000000
2615.014893 3009.000000
2615.927246 2952.000000
2616.838623 3091.000000
2617.749756 2967.000000
2618.660156 2957.000000
2619.570313 2957.000000
2620.479736 2996.000000
2621.388672 2926.000000
2622.296631 2919.000000
2623.204834 2993.000000
2624.112061 3015.000000
2625.018799 2956.000000
2625.924805 2932.000000
2626.830566 2882.000000
2627.735596 3031.000000
2628.640381 2771.000000
2629.544434 2816.000000
2630.447510 2800.000000
2631.350586 2788.000000
2632.252686 2810.000000
2633.154785 2822.000000
2634.056641 2792.000000
2634.956787 2720.000000
2635.857178 2768.000000
2636.756836 2664.000000
2637.656250 2751.000000
2638.554199 2876.000000
2639.452637 2695.000000
2640.350586 2808.000000
2641.247803 2633.000000
2642.143799 2706.000000
2643.039795 2688.000000
2643.935547 2615.000000
2644.830566 2717.000000
2645.725342 2613.000000
2646.618652 2588.000000
2647.511963 2681.000000
2648.405029 2673.000000
2649.297852 2622.000000
2650.188965 2602.000000
2651.080322 2612.000000
2651.971191 2530.000000
2652.861328 2590.000000
2653.751221 2592.000000
2654.639893 2604.000000
2655.528809 2548.000000
2656.417236 2520.000000
2657.304688 2684.000000
2658.191162 2488.000000
2659.078125 2476.000000
2659.964355 2473.000000
2660.850098 2572.000000
2661.734619 2587.000000
2662.619141 2541.000000
2663.503418 2551.000000
2664.386963 2549.000000
2665.270020 2593.000000
2666.152344 2662.000000
2667.034180 2570.000000
2667.915283 2574.000000
2668.796631 2510.000000
2669.676514 2609.000000
2670.556641 2473.000000
2671.436035 2500.000000
2672.315430 2455.000000
2673.194092 2499.000000
2674.071045 2510.000000
2674.948730 2545.000000
2675.825684 2465.000000
2676.701904 2330.000000
2677.577637 2475.000000
2678.452637 2481.000000
2679.327881 2458.000000
2680.202148 2429.000000
2681.075928 2417.000000
2681.948975 2429.000000
2682.821777 2427.000000
2683.694336 2396.000000
2684.566162 2382.000000
2685.437256 2418.000000
2686.308105 2399.000000
2687.178467 2389.000000
2688.048584 2424.000000
2688.916992 2351.000000
2689.786133 2349.000000
2690.654541 2382.000000
2691.522705 2258.000000
2692.390137 2328.000000
2693.256348 2370.000000
2694.123047 2277.000000
2694.988770 2447.000000
2695.854492 2272.000000
2696.718750 2268.000000
2697.583740 2236.000000
2698.447266 2262.000000
2699.311035 2287.000000
2700.173340 2443.000000
2701.036133 2204.000000
2701.897949 2296.000000
2702.759277 2296.000000
2703.620605 2191.000000
2704.480713 2177.000000
2705.340820 2272.000000
2706.200439 2315.000000
2707.059814 2169.000000
2707.917480 2207.000000
2708.775391 2098.000000
2709.633789 2141.000000
2710.490967 2126.000000
2711.347412 2167.000000
2712.203369 2297.000000
2713.059326 2144.000000
2713.914551 2159.000000
2714.769043 2139.000000
2715.623047 2067.000000
2716.477051 2222.000000
2717.330078 2135.000000
2718.183350 2087.000000
2719.034912 1990.000000
2719.886963 2049.000000
2720.738770 2096.000000
2721.589355 2069.000000
2722.439941 2099.000000
2723.290039 2100.000000
2724.139404 2083.000000
2724.988770 2096.000000
2725.836914 1999.000000
2726.684570 2087.000000
2727.532715 2091.000000
2728.379639 2034.000000
2729.227051 2016.000000
2730.072998 1981.000000
2730.918213 2027.000000
2731.763916 2014.000000
2732.608643 2088.000000
2733.453369 2096.000000
2734.296875 1918.000000
2735.140625 2001.000000
2735.983643 2029.000000
2736.826172 2121.000000
2737.667725 2033.000000
2738.509766 1936.000000
2739.350830 1910.000000
2740.191650 2019.000000
2741.032227 1979.000000
2741.871582 1970.000000
2742.710938 2016.000000
2743.550293 2064.000000
2744.388428 1978.000000
2745.226074 2041.000000
2746.063721 1896.000000
2746.900879 2055.000000
2747.737793 1996.000000
2748.574219 2035.000000
2749.409424 1965.000000
2750.244873 1944.000000
2751.079834 2034.000000
2751.914063 1984.000000
2752.748047 1902.000000
2753.581543 1994.000000
2754.415039 1952.000000
2755.247559 1948.000000
2756.079590 1897.000000
2756.911133 1909.000000
2757.742676 1949.000000
2758.573242 1840.000000
2759.404053 1899.000000
2760.233643 1883.000000
2761.063232 2003.000000
2761.892578 1854.000000
2762.721191 1921.000000
2763.549316 1821.000000
2764.376953 1870.000000
2765.204590 1793.000000
2766.031738 1836.000000
2766.858154 1898.000000
2767.684082 1766.000000
2768.509521 1860.000000
2769.334717 1787.000000
2770.159912 1815.000000
2770.983887 1788.000000
2771.807861 1837.000000
2772.631836 1773.000000
2773.454590 1818.000000
2774.277588 1757.000000
2775.099365 1801.000000
2775.921143 1806.000000
2776.742920 1738.000000
2777.563721 1704.000000
2778.383789 1763.000000
2779.204102 1686.000000
2780.023926 1635.000000
2780.843750 1684.000000
2781.661621 1831.000000
2782.480713 1763.000000
2783.298584 1729.000000
2784.116211 1662.000000
2784.933350 1743.000000
2785.750000 1658.000000
2786.566406 1650.000000
2787.382324 1687.000000
2788.197998 1688.000000
2789.012695 1754.000000
2789.827881 1608.000000
2790.642334 1601.000000
2791.456299 1594.000000
2792.270020 1669.000000
2793.082520 1604.000000
2793.895264 1684.000000
2794.707520 1546.000000
2795.519287 1649.000000
2796.330322 1654.000000
2797.142090 1688.000000
2797.952637 1529.000000
2798.763184 1627.000000
2799.572266 1654.000000
2800.382080 1628.000000
2801.191162 1623.000000
2802.000000 1667.000000
2802.808350 1621.000000
2803.615723 1544.000000
2804.423584 1677.000000
2805.230713 1458.000000
2806.037598 1670.000000
2806.843262 1771.000000
2807.649414 1633.000000
2808.454834 1510.000000
2809.260254 1579.000000
2810.064941 1597.000000
2810.868652 1609.000000
2811.672852 1575.000000
2812.476563 1576.000000
2813.280029 1569.000000
2814.082031 1541.000000
2814.884766 1606.000000
2815.686768 1610.000000
2816.488525 1553.000000
2817.289795 1478.000000
2818.090576 1557.000000
2818.890869 1520.000000
2819.691406 1476.000000
2820.490967 1467.000000
2821.290039 1509.000000
2822.089111 1647.000000
2822.887939 1544.000000
2823.686279 1559.000000
2824.483643 1494.000000
2825.281250 1478.000000
2826.078125 1441.000000
2826.875244 1477.000000
2827.671631 1637.000000
2828.467285 1513.000000
2829.262939 1492.000000
2830.058350 1470.000000
2830.853271 1402.000000
2831.647461 1589.000000
2832.441650 1430.000000
2833.235596 1493.000000
2834.029053 1416.000000
2834.821777 1460.000000
2835.614258 1421.000000
2836.406738 1481.000000
2837.198975 1490.000000
2837.990723 1432.000000
2838.781494 1459.000000
2839.572266 1458.000000
2840.363281 1551.000000
2841.153320 1500.000000
2841.942871 1387.000000
2842.732666 1489.000000
2843.521484 1465.000000
2844.310303 1417.000000
2845.099121 1385.000000
2845.886963 1406.000000
2846.674316 1458.000000
2847.461914 1458.000000
2848.249023 1409.000000
2849.035400 1326.000000
2849.821777 1444.000000
2850.607910 1409.000000
2851.393555 1399.000000
2852.178223 1370.000000
2852.963379 1348.000000
2853.748291 1463.000000
2854.532471 1406.000000
2855.316650 1389.000000
2856.099609 1364.000000
2856.882813 1332.000000
2857.665771 1281.000000
2858.448242 1317.000000
2859.230469 1318.000000
2860.012207 1372.000000
2860.793701 1459.000000
2861.575439 1407.000000
2862.356445 1391.000000
2863.136719 1336.000000
2863.916748 1516.000000
2864.696777 1314.000000
2865.476563 1350.000000
2866.255371 1462.000000
2867.034424 1460.000000
2867.812988 1435.000000
2868.591309 1456.000000
2869.369141 1408.000000
2870.146729 1496.000000
2870.924072 1471.000000
2871.701172 1498.000000
2872.477783 1520.000000
2873.253906 1532.000000
2874.030029 1524.000000
2874.805664 1483.000000
2875.581055 1536.000000
2876.355957 1560.000000
2877.130615 1512.000000
2877.905273 1587.000000
2878.679688 1518.000000
2879.453369 1556.000000
2880.226318 1496.000000
2881.000000 1501.000000
2881.772705 1527.000000
2882.545410 1560.000000
2883.317383 1499.000000
2884.089111 1489.000000
2884.861328 1562.000000
2885.632324 1489.000000
2886.402832 1519.000000
2887.173828 1499.000000
2887.944824 1497.000000
2888.715088 1577.000000
2889.484375 1613.000000
2890.253906 1546.000000
2891.023438 1511.000000
2891.792480 1479.000000
2892.561035 1534.000000
2893.329590 1425.000000
2894.097168 1460.000000
2894.865234 1450.000000
2895.632813 1515.000000
2896.400391 1500.000000
2897.166748 1423.000000
2897.934082 1493.000000
2898.700195 1340.000000
2899.466553 1375.000000
2900.231445 1396.000000
2900.996826 1401.000000
2901.762695 1281.000000
2902.527100 1519.000000
2903.291504 1390.000000
2904.056152 1293.000000
2904.819824 1438.000000
2905.584229 1347.000000
2906.347900 1378.000000
2907.110840 1395.000000
2907.873535 1362.000000
2908.636719 1355.000000
2909.399414 1349.000000
2910.160889 1373.000000
2910.922852 1373.000000
spectrumdark 2048
-97.307961 6165.000000
-94.681091 6165.000000
-92.056099 6067.000000
-89.432999 6433.000000
-86.811768 5816.000000
-84.192436 6277.000000
-81.574966 6143.000000
-78.959373 6490.000000
-76.345657 6215.000000
-73.733818 5884.000000
-71.123840 6098.000000
-68.515747 5978.000000
-65.909500 6073.000000
-63.305130 6011.000000
-60.702621 6169.000000
-58.101967 5645.000000
-55.503174 6233.000000
-52.906239 6835.000000
-50.311157 6498.000000
-47.717930 6490.000000
-45.126553 6314.000000
-42.537022 6795.000000
-39.949333 5870.000000
-37.363495 6025.000000
-34.779499 6448.000000
-32.197342 5765.000000
-29.617027 6367.000000
-27.038542 5728.000000
-24.461899 6175.000000
-21.887081 6304.000000
-19.314104 6494.000000
-16.742947 6495.000000
-14.173624 6837.000000
-11.606126 7770.000000
-9.040446 6256.000000
-6.476593 6456.000000
-3.914552 5999.000000
-1.354336 5858.000000
1.204072 6128.000000
3.760659 6953.000000
6.315441 6680.000000
8.868406 6050.000000
11.419571 6717.000000
13.968923 6529.000000
16.516479 6775.000000
19.062223 6080.000000
21.606174 5737.000000
24.148321 6722.000000
26.688671 6774.000000
29.227236 6922.000000
31.764004 6224.000000
34.298969 5842.000000
36.832157 7225.000000
39.363564 6348.000000
41.893177 7137.000000
44.420994 6540.000000
46.947052 7848.000000
49.471321 5687.000000
51.993820 6245.000000
54.514523 6743.000000
57.033470 6340.000000
59.550644 6477.000000
62.066040 6618.000000
64.579659 5615.000000
67.091522 5779.000000
69.601639 6581.000000
72.109962 6618.000000
74.616531 5929.000000
77.121353 6391.000000
79.624420 6438.000000
82.125710 6274.000000
84.625259 6077.000000
87.123055 6339.000000
89.619118 5771.000000
92.113403 7312.000000
94.605949 5888.000000
97.096779 6962.000000
99.585838 7198.000000
102.073151 6359.000000
104.558739 6196.000000
107.042587 6373.000000
109.524689 5744.000000
112.005066 6592.000000
114.483719 6323.000000
116.960648 6476.000000
119.435822 7179.000000
121.909286 6801.000000
124.381020 5857.000000
126.851044 6727.000000
129.319305 6321.000000
131.785904 6359.000000
134.250748 5718.000000
136.713898 6303.000000
139.175308 7151.000000
141.635025 6883.000000
144.093018 6370.000000
146.549316 5985.000000
149.003906 5847.000000
151.456772 6842.000000
153.907959 6382.000000
156.357452 6588.000000
158.805222 6107.000000
161.251282 6639.000000
163.695663 8784.000000
166.138367 6424.000000
168.579376 6805.000000
171.018677 6287.000000
173.456268 7327.000000
175.892227 6641.000000
178.326447 7008.000000
180.758987 7199.000000
183.189880 6631.000000
185.619049 6806.000000
188.046570 6755.000000
190.472412 6405.000000
192.896576 6626.000000
195.319077 7138.000000
197.739883 7393.000000
200.159027 6466.000000
202.576508 6074.000000
204.992294 7636.000000
207.406433 7092.000000
209.818939 6390.000000
212.229767 6101.000000
214.638916 6249.000000
217.046432 7473.000000
219.452240 6233.000000
221.856461 6493.000000
224.258972 6726.000000
226.659866 6986.000000
229.059113 6543.000000
231.456696 6830.000000
233.852615 7302.000000
236.246918 6505.000000
238.639557 5837.000000
241.030579 6874.000000
243.419937 6549.000000
245.807678 6320.000000
248.193771 6950.000000
250.578232 6139.000000
252.961044 7893.000000
255.342285 6603.000000
257.721832 6649.000000
260.099792 6456.000000
262.476074 7558.000000
264.850800 7618.000000
267.223877 7863.000000
269.595306 6227.000000
271.965088 6424.000000
274.333313 5933.000000
276.699890 6337.000000
279.064880 6794.000000
281.428253 6015.000000
283.789978 6368.000000
286.150116 7099.000000
288.508636 6011.000000
290.865570 6529.000000
293.220886 6394.000000
295.574615 5957.000000
297.926697 5967.000000
300.277222 6383.000000
302.626160 6443.000000
304.973450 6884.000000
307.319214 6446.000000
309.663300 6531.000000
312.005859 7438.000000
314.346802 7654.000000
316.686127 7181.000000
319.023895 6937.000000
321.360107 8107.000000
323.694672 6316.000000
326.027679 6445.000000
328.359131 5947.000000
330.688995 6667.000000
333.017273 6447.000000
335.343933 7129.000000
337.669098 6370.000000
339.992645 6271.000000
342.314636 5998.000000
344.635071 7486.000000
346.953888 7823.000000
349.271149 6016.000000
351.586884 5867.000000
353.901031 6985.000000
356.213593 6348.000000
358.524597 6463.000000
360.834076 7017.000000
363.142029 6419.000000
365.448364 5718.000000
367.753113 6401.000000
370.056396 6422.000000
372.358063 6275.000000
374.658234 6411.000000
376.956848 6336.000000
379.253906 6003.000000
381.549408 6100.000000
383.843384 5906.000000
386.135773 5251.000000
388.426666 5628.000000
390.716034 6222.000000
393.003815 6293.000000
395.290070 6501.000000
397.574829 7078.000000
399.857971 6064.000000
402.139679 6496.000000
404.419861 6134.000000
406.698456 7275.000000
408.975525 6480.000000
411.251068 6772.000000
413.525085 6452.000000
415.797668 6352.000000
418.068634 6430.000000
420.338104 6460.000000
422.606079 7145.000000
424.872498 7304.000000
427.137421 6229.000000
429.400879 6265.000000
431.662750 6516.000000
433.923157 6074.000000
436.182007 6633.000000
438.439392 6143.000000
440.695282 5671.000000
442.949677 5785.000000
445.202545 5500.000000
447.453857 6962.000000
449.703766 6087.000000
451.952087 6278.000000
454.198975 5635.000000
456.444397 6428.000000
458.688263 6497.000000
460.930634 6794.000000
463.171509 5644.000000
465.410980 6774.000000
467.648865 5473.000000
469.885315 5743.000000
472.120239 6053.000000
474.353699 7244.000000
476.585724 6684.000000
478.816223 5639.000000
481.045227 6479.000000
483.272766 6330.000000
485.498810 5957.000000
487.723419 6540.000000
489.946564 5863.000000
492.168243 6411.000000
494.388367 6780.000000
496.607086 5639.000000
498.824310 6241.000000
501.040161 5551.000000
503.254395 6178.000000
505.467316 6541.000000
507.678650 6458.000000
509.888550 6846.000000
512.096985 6498.000000
514.304077 6636.000000
516.509583 6471.000000
518.713684 6637.000000
520.916260 6301.000000
523.117432 6553.000000
525.317261 6693.000000
527.515564 6935.000000
529.712341 5330.000000
531.907776 5870.000000
534.101685 5575.000000
536.294250 7530.000000
538.485291 6711.000000
540.674927 6033.000000
542.863159 6933.000000
545.049866 7091.000000
547.235107 6809.000000
549.419067 6226.000000
551.601440 6459.000000
553.782471 6143.000000
555.961975 6042.000000
558.140198 5858.000000
560.316895 6029.000000
562.492188 6351.000000
564.666077 6479.000000
566.838501 5972.000000
569.009521 6116.000000
571.179077 6339.000000
573.347351 5294.000000
575.514099 6474.000000
577.679382 6333.000000
579.843262 6112.000000
582.005859 5738.000000
584.166931 6016.000000
586.326599 5673.000000
588.484924 5778.000000
590.641724 6109.000000
592.797180 6653.000000
594.951233 5736.000000
597.103943 6135.000000
599.255127 7313.000000
601.404968 6830.000000
603.553467 6694.000000
605.700378 6013.000000
607.846069 6522.000000
609.990356 6443.000000
612.133179 7052.000000
614.274536 6184.000000
616.414673 6435.000000
618.553284 7544.000000
620.690613 5767.000000
622.826477 6624.000000
624.960938 6968.000000
627.093933 7154.000000
629.225769 6625.000000
631.356140 6626.000000
633.485107 6793.000000
635.612610 6480.000000
637.738831 6149.000000
639.863525 7371.000000
641.987000 6473.000000
644.109131 6803.000000
646.229797 6837.000000
648.349121 6570.000000
650.467041 5707.000000
652.583618 5675.000000
654.698792 6467.000000
656.812622 6510.000000
658.924988 5813.000000
661.036133 6134.000000
663.145874 5450.000000
665.254150 6602.000000
667.361267 6329.000000
669.466919 6842.000000
671.571106 5689.000000
673.674072 5749.000000
675.775635 7005.000000
677.875854 5374.000000
679.974670 6768.000000
682.072144 6239.000000
684.168335 6951.000000
686.263062 6202.000000
688.356567 6980.000000
690.448730 6665.000000
692.539368 7958.000000
694.628784 6634.000000
696.716919 6489.000000
698.803589 6004.000000
700.889038 6663.000000
702.972961 5213.000000
705.055664 5920.000000
707.137085 5987.000000
709.217041 7648.000000
711.295776 6346.000000
713.373047 5582.000000
715.449036 6613.000000
717.523743 6123.000000
719.597168 6944.000000
721.669067 6348.000000
723.739807 7429.000000
725.809204 5750.000000
727.877197 6466.000000
729.943848 6440.000000
732.009277 7133.000000
734.073364 5786.000000
736.136108 6204.000000
738.197510 6508.000000
740.257629 6621.000000
742.316345 6030.000000
744.373840 6709.000000
746.430054 6480.000000
748.484863 6732.000000
750.538391 6406.000000
752.590515 7504.000000
754.641418 5874.000000
756.691101 6641.000000
758.739319 6360.000000
760.786316 6209.000000
762.832031 7028.000000
764.876343 5405.000000
766.919373 5727.000000
768.961182 6342.500000
771.001648 6958.000000
773.040710 6420.000000
775.078613 6106.000000
777.115173 6039.000000
779.150513 5385.000000
781.184509 5777.000000
783.217102 6949.000000
785.248535 5536.000000
787.278564 11694.000000
789.307312 6022.000000
791.334900 6286.000000
793.361145 6343.000000
795.385986 5848.000000
797.409729 5553.000000
799.432068 6384.000000
801.453186 5901.000000
803.472961 6702.000000
805.491455 4949.000000
807.508728 6767.000000
809.524597 6889.000000
811.539307 5751.000000
813.552673 6400.000000
815.564819 6327.000000
817.575745 6075.000000
819.585327 6611.000000
821.593689 5362.000000
823.600647 5744.000000
825.606384 6098.000000
827.610901 5770.000000
829.614136 5642.000000
831.616089 6492.000000
833.616760 6056.000000
835.616211 5877.000000
837.614319 6341.000000
839.611328 7029.000000
841.606934 6228.000000
843.601379 5893.000000
845.594482 6202.000000
847.586365 6830.000000
849.576904 5586.000000
851.566162 6824.000000
853.554382 5995.000000
855.541199 5760.000000
857.526794 6420.000000
859.511108 7321.000000
861.494324 6316.000000
863.476135 6403.000000
865.456726 5797.000000
867.436035 7692.000000
869.414185 7139.000000
871.390991 6148.000000
873.366516 5991.000000
875.341003 6150.000000
877.314026 6029.000000
879.286011 5414.000000
881.256653 6421.000000
883.226135 6146.000000
885.194275 5580.000000
887.161255 5243.000000
889.126892 6156.000000
891.091370 5831.000000
893.054626 6013.000000
895.016663 6553.000000
896.977417 5818.000000
898.936951 6436.000000
900.895203 6694.000000
902.852356 6374.000000
904.808350 6039.000000
906.762939 6965.000000
908.716309 6560.000000
910.668518 6476.000000
912.619507 6389.000000
914.569214 7158.000000
916.517761 6347.000000
918.465088 6217.000000
920.411133 6157.000000
922.355896 6091.000000
924.299622 6268.000000
926.242188 6011.000000
928.183472 5598.000000
930.123413 6442.000000
932.062256 5734.000000
933.999817 5497.000000
935.936157 5966.000000
937.871338 5885.000000
939.805237 6097.000000
941.738037 5936.000000
943.669617 6783.000000
945.600037 5200.000000
947.529236 6375.000000
949.457092 7054.000000
951.383911 6685.000000
953.309448 6031.000000
955.233704 5376.000000
957.156860 5994.000000
959.078857 6728.000000
960.999573 7302.000000
962.919128 6475.000000
964.837524 5308.000000
966.754883 6460.000000
968.670776 6441.000000
970.585571 6072.000000
972.499146 6007.000000
974.411560 6449.000000
976.322754 6473.000000
978.232788 5478.000000
980.141541 6196.000000
982.049255 6143.000000
983.955750 6443.000000
985.861023 5758.000000
987.765198 6817.000000
989.668152 6216.000000
991.569885 6814.000000
993.470459 6602.000000
995.369873 6624.000000
997.268066 5315.000000
999.165100 6504.000000
1001.060913 6532.000000
1002.955566 7672.000000
1004.849121 5629.000000
1006.741394 7131.000000
1008.632751 6093.000000
1010.522766 5365.000000
1012.411560 6688.000000
1014.299194 6362.000000
1016.185669 6867.000000
1018.070984 6763.000000
1019.955139 5958.000000
1021.838074 5881.000000
1023.719971 6269.000000
1025.600586 5175.000000
1027.480103 5886.000000
1029.358643 6209.000000
1031.235840 5459.000000
1033.111694 6159.000000
1034.986572 5903.000000
1036.860474 6608.000000
1038.732910 7002.000000
1040.604370 6718.000000
1042.474487 5531.000000
1044.343628 5522.000000
1046.211548 5753.000000
1048.078369 7112.000000
1049.944092 6705.000000
1051.808594 6495.000000
1053.671997 6468.000000
1055.534058 6471.000000
1057.395142 5881.000000
1059.255127 6559.000000
1061.113770 6674.000000
1062.971313 5881.000000
1064.827759 6707.000000
1066.683105 5987.000000
1068.537231 5795.000000
1070.390503 6241.000000
1072.242310 6375.000000
1074.093140 6158.000000
1075.942749 6179.000000
1077.791138 5811.000000
1079.638672 7918.000000
1081.484863 5611.000000
1083.329834 6172.000000
1085.173950 5431.000000
1087.016724 5546.000000
1088.858276 6520.000000
1090.699097 5518.000000
1092.538330 5788.000000
1094.376831 6027.000000
1096.213989 6068.000000
1098.049927 6888.000000
1099.884888 6632.000000
1101.718628 5376.000000
1103.551392 5674.000000
1105.382813 6180.000000
1107.213379 7245.000000
1109.042603 6576.000000
1110.870850 6432.000000
1112.697876 7141.000000
1114.523926 5468.000000
1116.348755 6294.000000
1118.172485 7149.000000
1119.994995 6153.000000
1121.816406 5842.000000
1123.636963 5941.000000
1125.456055 6536.000000
1127.274292 7110.000000
1129.091187 6810.000000
1130.907227 6712.000000
1132.722046 6515.000000
1134.535767 5621.000000
1136.348389 5853.000000
1138.159790 5664.000000
1139.970215 6113.000000
1141.779541 6766.000000
1143.587524 6895.000000
1145.394775 5894.000000
1147.200562 5973.000000
1149.005493 5442.000000
1150.809326 5405.000000
1152.611938 6183.000000
1154.413696 6145.000000
1156.213989 6074.000000
1158.013306 6125.000000
1159.811646 5886.000000
1161.608643 5451.000000
1163.404907 5859.000000
1165.199829 6072.000000
1166.993652 6306.000000
1168.786621 7697.000000
1170.578247 5731.000000
1172.368896 6547.000000
1174.158569 6052.000000
1175.946777 5920.000000
1177.734131 7567.000000
1179.520386 6862.000000
1181.305542 5814.000000
1183.089600 5960.000000
1184.872559 7720.000000
1186.654541 5915.000000
1188.435303 5912.000000
1190.215088 6369.000000
1191.993774 6993.000000
1193.771484 6669.000000
1195.547974 7135.000000
1197.323364 6573.000000
1199.097656 6551.000000
1200.870850 6710.000000
1202.643188 6539.000000
1204.414185 6718.000000
1206.184326 5686.000000
1207.953247 6151.000000
1209.721069 6329.000000
1211.488037 5847.000000
1213.253662 5921.000000
1215.018311 7017.000000
1216.781860 6563.000000
1218.544312 5982.000000
1220.305908 6762.000000
1222.066284 5923.000000
1223.825562 6387.000000
1225.583984 6051.000000
1227.341187 7180.000000
1229.097290 6444.000000
1230.852295 5567.000000
1232.606445 6015.000000
1234.359253 5850.000000
1236.111084 6053.000000
1237.862061 6005.000000
1239.611694 4962.000000
1241.360474 7023.000000
1243.107910 6477.000000
1244.854614 6611.000000
1246.600098 6439.000000
1248.344727 6472.000000
1250.088013 6730.000000
1251.830322 6707.000000
1253.571533 5334.000000
1255.311890 5086.000000
1257.051147 5813.000000
1258.789185 6628.000000
1260.526367 7158.000000
1262.262329 6160.000000
1263.997314 6409.000000
1265.731323 7274.000000
1267.464355 6036.000000
1269.196167 6249.000000
1270.927002 6453.000000
1272.656616 7347.000000
1274.385376 5925.000000
1276.113037 5777.000000
1277.839600 5538.000000
1279.565308 5571.000000
1281.289673 6531.000000
1283.013184 5243.000000
1284.735718 6947.000000
1286.457275 6593.000000
1288.177612 6195.000000
1289.896973 6683.000000
1291.615234 7230.000000
1293.332520 6510.000000
1295.048828 5791.000000
1296.763916 6427.000000
1298.478027 6167.000000
1300.191162 5781.000000
1301.903442 6500.000000
1303.614502 8358.000000
1305.324585 5274.000000
1307.033569 6350.000000
1308.741333 6727.000000
1310.448486 6981.000000
1312.154175 5840.000000
1313.859131 6925.000000
1315.563110 6197.000000
1317.265869 6014.000000
1318.967651 6607.000000
1320.668579 6056.000000
1322.368164 8730.000000
1324.066895 7175.000000
1325.764893 18512.500000
1327.461548 6470.000000
1329.157104 7185.000000
1330.851807 6876.000000
1332.545288 5758.000000
1334.237915 5464.000000
1335.929688 7137.000000
1337.620117 6194.000000
1339.309814 6604.000000
1340.998413 6117.000000
1342.685913 7656.000000
1344.372437 5663.000000
1346.057861 6708.000000
1347.742310 5957.000000
1349.425903 7294.000000
1351.108276 6452.000000
1352.789673 6003.000000
1354.470215 6585.000000
1356.149536 6646.000000
1357.828247 5997.000000
1359.505615 6532.000000
1361.181885 5778.000000
1362.857178 5626.000000
1364.531738 6645.000000
1366.205078 6478.000000
1367.877441 6829.000000
1369.548828 5212.000000
1371.219238 6768.000000
1372.888550 6166.000000
1374.556885 5681.000000
1376.224365 5955.000000
1377.890747 6568.000000
1379.556152 6112.000000
1381.220581 5864.000000
1382.883789 5918.000000
1384.546387 5723.000000
1386.207642 6420.000000
1387.868042 6549.000000
1389.527344 6425.000000
1391.185669 6513.000000
1392.843262 6886.000000
1394.499634 6497.000000
1396.155151 7015.000000
1397.809448 6371.000000
1399.462891 5819.000000
1401.115234 6120.000000
1402.766846 6510.000000
1404.417236 7214.000000
1406.066528 6250.000000
1407.715088 7519.000000
1409.362549 7972.000000
1411.009033 6213.000000
1412.654663 6244.000000
1414.299316 6045.000000
1415.942749 7039.000000
1417.585327 7156.000000
1419.226807 6854.000000
1420.867432 6468.000000
1422.507080 6447.000000
1424.145630 6047.000000
1425.783325 6616.000000
1427.419922 6300.000000
1429.055542 6049.000000
1430.690430 6414.000000
1432.324219 5914.000000
1433.956909 6156.000000
1435.588623 5700.000000
1437.219482 6202.000000
1438.849243 6032.000000
1440.477905 7724.000000
1442.105957 6037.000000
1443.732910 6297.000000
1445.358643 6165.000000
1446.983765 6144.000000
1448.607788 6557.000000
1450.230835 6038.000000
1451.852905 6022.000000
1453.473877 7478.000000
1455.093872 6344.000000
1456.713135 6894.000000
1458.331055 5725.000000
1459.948364 5621.000000
1461.564697 5517.000000
1463.179810 7229.000000
1464.794067 6269.000000
1466.407471 5226.000000
1468.019775 5606.000000
1469.631226 6315.000000
1471.241821 6403.000000
1472.851196 5983.000000
1474.459595 6020.000000
1476.067139 6244.000000
1477.673706 6710.000000
1479.279541 5299.000000
1480.884155 6259.000000
1482.487915 5552.000000
1484.090454 6741.000000
1485.692383 5573.000000
1487.293091 5491.000000
1488.893066 5643.000000
1490.491943 6280.000000
1492.089966 6534.000000
1493.686890 6710.000000
1495.282959 6331.000000
1496.878052 6011.000000
1498.472168 5544.000000
1500.065552 6609.000000
1501.657837 5517.000000
1503.248901 6238.000000
1504.839478 6831.000000
1506.428711 6500.000000
1508.017334 6135.000000
1509.604858 6447.000000
1511.191284 6876.000000
1512.776978 6203.000000
1514.361572 6668.000000
1515.945313 6259.000000
1517.527954 6258.000000
1519.109863 6608.000000
1520.690674 6687.000000
1522.270752 6037.000000
1523.849609 6210.000000
1525.427612 6425.000000
1527.004883 6309.000000
1528.580933 5698.000000
1530.156250 5942.000000
1531.730469 6264.000000
1533.303955 5455.000000
1534.876221 5942.000000
1536.447754 6388.000000
1538.018311 6468.000000
1539.588013 6300.000000
1541.156494 5470.000000
1542.724243 6597.000000
1544.291138 5672.000000
1545.856812 6821.000000
1547.421753 5953.000000
1548.985596 5068.000000
1550.548828 7394.000000
1552.110718 6309.000000
1553.671997 6015.000000
1555.232178 5730.000000
1556.791626 5768.000000
1558.349976 6040.000000
1559.907593 6298.000000
1561.464111 7002.000000
1563.019409 5849.000000
1564.574097 6360.000000
1566.128052 5612.000000
1567.681030 6312.000000
1569.232666 5669.000000
1570.783569 5875.000000
1572.333740 6228.000000
1573.882935 6340.000000
1575.430786 5796.000000
1576.978149 5511.000000
1578.524536 5743.000000
1580.070068 5065.000000
1581.614624 6645.000000
1583.157959 6340.000000
1584.700684 6603.000000
1586.242554 6439.000000
1587.783325 6723.000000
1589.323120 5778.000000
1590.862183 6673.000000
1592.400146 5899.000000
1593.937622 6163.000000
1595.473755 5886.000000
1597.008789 6696.000000
1598.543335 6298.000000
1600.076904 5955.000000
1601.609619 6078.000000
1603.140747 6345.000000
1604.671631 6264.000000
1606.201660 5749.000000
1607.730469 6115.000000
1609.258179 6148.000000
1610.785278 6022.000000
1612.311646 5880.000000
1613.837036 6247.000000
1615.361572 5786.000000
1616.884766 5732.000000
1618.407227 5561.000000
1619.928955 6604.000000
1621.449829 6979.000000
1622.969238 6547.500000
1624.488159 6116.000000
1626.006348 6103.000000
1627.523682 5904.000000
1629.039917 6402.000000
1630.554810 7047.000000
1632.069214 6740.000000
1633.582886 5827.000000
1635.095459 6864.000000
1636.606812 5957.000000
1638.117798 6503.000000
1639.627686 6293.000000
1641.136719 6167.000000
1642.644409 5608.000000
1644.151733 6127.000000
1645.658203 7127.000000
1647.163696 6291.000000
1648.668335 6910.000000
1650.171509 6156.000000
1651.674072 6563.000000
1653.176270 6367.000000
1654.677124 6655.000000
1656.176880 7541.000000
1657.675781 6016.000000
1659.174316 6483.000000
1660.671631 6291.000000
1662.168213 5951.000000
1663.663208 6455.000000
1665.157959 6312.000000
1666.651855 5262.000000
1668.144775 5727.000000
1669.636353 20339.000000
1671.127441 6538.000000
1672.617920 6112.000000
1674.107300 5957.000000
1675.595215 6974.000000
1677.082886 6934.000000
1678.569580 6101.000000
1680.055420 5425.000000
1681.540405 6054.000000
1683.023926 6237.000000
1684.507202 6293.000000
1685.989624 5867.000000
1687.470947 6234.000000
1688.950806 6245.000000
1690.430420 5627.000000
1691.909302 6570.000000
1693.387207 5639.000000
1694.864136 6188.000000
1696.339844 5778.000000
1697.815186 6035.000000
1699.289307 6352.000000
1700.762817 5498.000000
1702.234863 5616.000000
1703.706665 6873.000000
1705.177490 6358.000000
1706.647461 7152.000000
1708.116089 5172.000000
1709.584229 5885.000000
1711.051636 6386.000000
1712.517944 5493.000000
1713.983643 5748.000000
1715.447632 6272.000000
1716.911499 5995.000000
1718.374512 6953.000000
1719.836548 6406.000000
1721.297363 6637.000000
1722.757568 5465.000000
1724.217041 5671.000000
1725.675659 6167.000000
1727.133301 6013.000000
1728.589600 6318.000000
1730.045654 6099.000000
1731.500732 6450.000000
1732.954834 6039.000000
1734.407715 6871.000000
1735.860352 5953.000000
1737.311890 6830.000000
1738.762695 6016.000000
1740.212524 6531.000000
1741.661011 5935.000000
1743.109131 7331.000000
1744.556396 6548.000000
1746.002930 6713.000000
1747.447876 6734.000000
1748.892578 6158.000000
1750.336426 5862.000000
1751.779419 5553.000000
1753.220947 6562.000000
1754.662231 6384.000000
1756.102661 19384.000000
1757.542114 6304.000000
1758.980591 5330.000000
1760.418091 6016.000000
1761.855103 7504.000000
1763.291138 5876.000000
1764.726318 7141.000000
1766.160034 6208.000000
1767.593628 6521.000000
1769.026245 6641.000000
1770.458008 5832.000000
1771.888916 5715.000000
1773.318604 6348.000000
1774.747559 6167.000000
1776.176025 6295.000000
1777.603516 6672.000000
1779.029663 6195.000000
1780.455566 5600.000000
1781.880371 6778.000000
1783.304565 5566.000000
1784.727295 6661.000000
1786.149536 6559.000000
1787.571045 6896.000000
1788.991821 5980.000000
1790.411621 5940.000000
1791.830078 6211.000000
1793.248047 6907.000000
1794.665405 5533.000000
1796.081909 6096.000000
1797.496948 6552.000000
1798.911621 5874.000000
1800.325684 6646.000000
1801.738525 6003.000000
1803.150757 7060.000000
1804.561646 7180.000000
1805.972046 7796.000000
1807.381714 6484.000000
1808.790405 5963.000000
1810.197998 5420.000000
1811.605103 6500.000000
1813.011353 6404.000000
1814.416626 6776.000000
1815.820801 6015.000000
1817.224609 5925.000000
1818.627441 6241.000000
1820.029419 6033.000000
1821.430786 5881.000000
1822.830688 6366.000000
1824.229980 6510.000000
1825.628784 6606.000000
1827.026733 7406.000000
1828.423340 5774.000000
1829.819336 6780.000000
1831.214600 5917.000000
1832.609253 8121.000000
1834.002930 5993.000000
1835.395264 6896.000000
1836.787109 6453.000000
1838.178345 5922.000000
1839.568604 7119.000000
1840.957642 6006.000000
1842.346313 6073.000000
1843.734009 6031.000000
1845.120972 5865.000000
1846.506592 6914.000000
1847.891968 5840.000000
1849.276489 6390.000000
1850.660278 6302.000000
1852.042969 6410.000000
1853.424438 5400.000000
1854.805420 6564.000000
1856.185913 6276.000000
1857.565430 5717.000000
1858.943481 6041.000000
1860.321411 6321.000000
1861.698364 7832.000000
1863.074585 6100.000000
1864.449951 6142.000000
1865.823853 5646.000000
1867.197632 5718.000000
1868.570557 6232.000000
1869.942383 6025.000000
1871.313232 6900.000000
1872.683716 5465.000000
1874.053101 6025.000000
1875.421997 6149.000000
1876.789307 7191.000000
1878.156494 6069.000000
1879.522705 6015.000000
1880.888184 6734.000000
1882.252930 7526.000000
1883.616089 6774.000000
1884.979126 6907.000000
1886.341309 6359.000000
1887.702637 6545.000000
1889.062622 5668.000000
1890.422241 5828.000000
1891.781250 6159.000000
1893.139282 6698.000000
1894.496460 7258.000000
1895.852417 5888.000000
1897.208130 7637.000000
1898.562866 5979.000000
1899.916748 5537.000000
1901.269531 5928.000000
1902.621826 5964.000000
1903.973389 5923.000000
1905.324097 6867.000000
1906.673584 6582.000000
1908.022583 6637.000000
1909.370728 5825.000000
1910.718262 6106.000000
1912.065063 6315.000000
1913.410278 6837.000000
1914.755249 6107.000000
1916.099487 5466.000000
1917.442871 6468.000000
1918.784912 5991.000000
1920.126709 6758.000000
1921.467651 7006.000000
1922.807861 6224.000000
1924.147095 6293.000000
1925.485352 6330.000000
1926.822998 6465.000000
1928.159912 7024.000000
1929.495972 6761.000000
1930.830811 5611.000000
1932.165283 6688.000000
1933.499023 7283.000000
1934.831909 6244.000000
1936.163330 5807.000000
1937.494873 6315.000000
1938.825073 6600.000000
1940.154785 5762.000000
1941.483643 6125.000000
1942.811279 5902.000000
1944.138428 5087.000000
1945.464844 5809.000000
1946.790527 6544.000000
1948.114868 5727.000000
1949.438965 6564.000000
1950.762207 6331.000000
1952.084717 6483.000000
1953.406128 5849.000000
1954.726563 7414.000000
1956.046387 6040.000000
1957.365845 5559.000000
1958.684326 6871.000000
1960.001465 5878.000000
1961.318237 5776.000000
1962.634277 6549.000000
1963.949585 6674.000000
1965.263428 6323.000000
1966.577026 5669.000000
1967.889893 6217.000000
1969.201904 6047.000000
1970.513306 6061.000000
1971.823364 6342.000000
1973.132935 5794.000000
1974.441772 6191.000000
1975.750000 6671.000000
1977.056885 6098.000000
1978.363159 7265.000000
1979.669067 5556.000000
1980.973755 6386.000000
1982.277954 5898.000000
1983.580933 5716.000000
1984.883545 7594.000000
1986.185181 6180.000000
1987.486206 6785.000000
1988.785645 6025.000000
1990.085205 6608.000000
1991.383667 5349.000000
1992.681641 6084.000000
1993.978027 6127.000000
1995.274414 5747.000000
1996.569824 5661.000000
1997.864502 6547.000000
1999.158325 5721.000000
2000.450928 6543.000000
2001.743042 5695.000000
2003.034668 7199.000000
2004.325562 6470.000000
2005.614868 6294.000000
2006.903931 6831.000000
2008.192261 5994.000000
2009.479858 6043.000000
2010.766602 6861.000000
2012.052246 5645.000000
2013.337524 6246.000000
2014.621826 5972.000000
2015.905518 5646.000000
2017.187866 6083.000000
2018.469849 6475.000000
2019.751343 6780.000000
2021.031860 5913.000000
2022.311646 6084.000000
2023.590332 6738.000000
2024.868286 5866.000000
2026.145752 5948.000000
2027.422607 6306.000000
2028.697754 5804.000000
2029.973022 6664.000000
2031.247314 6084.000000
2032.520630 5916.000000
2033.793091 5960.000000
2035.065186 6176.000000
2036.336182 6925.000000
2037.606934 6621.000000
2038.876343 6036.000000
2040.144653 6764.000000
2041.412964 6681.000000
2042.680298 5958.000000
2043.946899 6026.000000
2045.212280 5700.000000
2046.477051 5581.000000
2047.741577 5367.000000
2049.004883 5880.000000
2050.267822 6433.000000
2051.528809 6184.000000
2052.790283 6102.000000
2054.050537 5886.000000
2055.310059 6493.000000
2056.568848 6259.000000
2057.826660 6985.000000
2059.083984 6220.000000
2060.340576 5992.000000
2061.595703 6510.000000
2062.850830 5607.000000
2064.104980 5575.000000
2065.358398 5641.000000
2066.611084 6804.000000
2067.862549 6257.000000
2069.113770 6319.000000
2070.364258 5663.000000
2071.614014 5446.000000
2072.862305 6473.000000
2074.110596 6542.000000
2075.357910 7431.000000
2076.604492 5638.000000
2077.850342 6096.000000
2079.094971 7023.000000
2080.339111 7597.000000
2081.582764 5518.000000
2082.825439 6056.000000
2084.066895 6960.000000
2085.308105 5987.000000
2086.548828 6322.000000
2087.788574 6748.000000
2089.027100 7017.000000
2090.265137 6217.000000
2091.502441 5775.000000
2092.739502 6656.000000
2093.975098 6113.000000
2095.209961 6231.000000
2096.444580 6094.000000
2097.678223 5626.000000
2098.910889 6109.000000
2100.142822 6894.000000
2101.374268 6406.000000
2102.604736 6920.000000
2103.834473 6024.000000
2105.063965 5983.000000
2106.291504 6048.000000
2107.519287 5957.000000
2108.746338 6312.000000
2109.972412 5556.000000
2111.197021 6411.000000
2112.421875 6969.000000
2113.645508 7115.000000
2114.868652 6216.000000
2116.090576 7553.000000
2117.312256 6114.000000
2118.532959 6851.000000
2119.752930 6063.000000
2120.972412 6192.000000
2122.190430 6627.000000
2123.408447 7032.000000
2124.625488 5814.000000
2125.842041 5831.000000
2127.056885 6593.000000
2128.271973 6387.000000
2129.486084 6789.000000
2130.699463 5708.000000
2131.912109 6162.000000
2133.123291 5826.000000
2134.334717 6543.000000
2135.544922 6730.000000
2136.754639 6017.000000
2137.962891 6133.000000
2139.171143 5621.000000
2140.378662 5954.000000
2141.584961 7673.000000
2142.790527 5955.000000
2143.995850 5702.000000
2145.200195 5586.000000
2146.403809 6337.000000
2147.606934 6255.000000
2148.808594 6570.000000
2150.010010 5341.000000
2151.210693 6308.000000
2152.410645 6066.000000
2153.609375 6054.000000
2154.807861 6933.000000
2156.005859 6214.000000
2157.202881 6008.000000
2158.399170 5213.000000
2159.594238 5336.000000
2160.789063 6159.000000
2161.983154 5580.000000
2163.176270 6005.000000
2164.368408 6963.000000
2165.560303 6013.000000
2166.751465 6371.000000
2167.941650 6333.000000
2169.131104 6495.000000
2170.320068 6782.000000
2171.508057 6199.000000
2172.695801 5811.000000
2173.882080 5883.000000
2175.067627 6602.000000
2176.252930 6017.000000
2177.437744 5819.000000
2178.621338 6355.000000
2179.804199 7551.000000
2180.986084 6340.000000
2182.167725 5918.000000
2183.348877 6554.000000
2184.528809 5754.000000
2185.707764 5623.000000
2186.886230 6349.000000
2188.064453 6924.000000
2189.241455 7152.000000
2190.417480 6649.000000
2191.593262 6115.000000
2192.768555 5606.000000
2193.942383 6725.000000
2195.115723 6185.000000
2196.288818 6146.000000
2197.460693 6443.000000
2198.632080 7085.000000
2199.802979 6351.000000
2200.972168 6931.000000
2202.141357 7609.000000
2203.310059 6355.000000
2204.477783 5874.000000
2205.644531 5747.000000
2206.810547 7143.000000
2207.976074 6722.000000
2209.141357 5991.000000
2210.305176 6808.000000
2211.468506 5491.000000
2212.630615 6250.000000
2213.792969 6217.000000
2214.954102 6679.000000
2216.114258 6676.000000
2217.273926 6286.000000
2218.433350 6560.000000
2219.591553 6334.000000
2220.748779 6306.000000
2221.905762 6793.000000
2223.062012 6624.000000
2224.217529 6824.000000
2225.372314 6224.000000
2226.526123 6416.000000
2227.678955 6094.000000
2228.832275 6868.000000
2229.983643 6228.000000
2231.134766 6248.000000
2232.285156 6504.000000
2233.435059 7721.000000
2234.583984 6312.000000
2235.732422 5204.000000
2236.879395 6776.000000
2238.026611 7112.000000
2239.172607 6083.000000
2240.318359 7252.000000
2241.462402 7421.000000
2242.606689 6753.000000
2243.750000 6212.000000
2244.892578 5970.000000
2246.034180 5764.000000
2247.175537 5831.000000
2248.315918 6435.000000
2249.455566 6453.000000
2250.594727 5869.000000
2251.732666 5912.000000
2252.870605 6234.000000
2254.007568 5346.000000
2255.143799 6327.000000
2256.279053 6083.000000
2257.413574 7233.000000
2258.547852 6332.000000
2259.681641 5376.000000
2260.813965 6142.000000
2261.945801 6786.000000
2263.077148 6279.000000
2264.207520 6453.000000
2265.337646 8045.000000
2266.466553 6736.000000
2267.594971 6081.000000
2268.722900 5534.000000
2269.849854 6154.000000
2270.976074 5987.000000
2272.101318 6757.000000
2273.226563 6495.000000
2274.351074 6360.000000
2275.474365 5953.000000
2276.596924 6327.000000
2277.718994 6038.000000
2278.840576 7403.000000
2279.961426 6440.000000
2281.081055 6447.000000
2282.200195 7122.000000
2283.319092 7772.000000
2284.437256 7307.000000
2285.554443 5912.000000
2286.670654 6459.000000
2287.786621 7072.000000
2288.901855 6837.000000
2290.016357 7418.000000
2291.129639 5836.000000
2292.242920 6351.000000
2293.355469 6068.000000
2294.467285 5423.000000
2295.578369 6733.000000
2296.688232 6473.000000
2297.797607 6166.000000
2298.906738 6649.000000
2300.014893 6347.000000
2301.122070 6822.000000
2302.229004 5814.000000
2303.335205 6217.000000
2304.440918 6590.000000
2305.545166 6611.000000
2306.649170 5449.000000
2307.752686 5733.000000
2308.855713 6583.000000
2309.957520 7488.000000
2311.058594 7366.000000
2312.159180 6583.000000
2313.259277 5551.000000
2314.358643 6374.000000
2315.456543 6612.000000
2316.554932 7037.000000
2317.651855 8243.000000
2318.748535 6915.000000
2319.844727 5825.000000
2320.939209 6844.000000
2322.033691 7627.000000
2323.127441 5871.000000
2324.220947 6050.000000
2325.312744 6478.000000
2326.404541 6945.000000
2327.495605 6110.000000
2328.585938 6283.000000
2329.675293 6880.000000
2330.764648 6080.000000
2331.852783 6378.000000
2332.940430 6848.000000
2334.027832 6538.000000
2335.113525 6684.000000
2336.198975 7764.000000
2337.284180 6397.000000
2338.368408 6777.000000
2339.451660 5960.000000
2340.534668 6449.000000
2341.616699 7116.000000
2342.698486 5999.000000
2343.779541 7443.000000
2344.859375 6632.000000
2345.938721 5727.000000
2347.017578 6733.000000
2348.095947 6579.000000
2349.172852 6323.000000
2350.249512 7017.000000
2351.325928 6078.000000
2352.401367 6458.000000
2353.475830 5939.000000
2354.550049 6351.000000
2355.623535 6818.000000
2356.696533 6248.000000
2357.768311 7080.000000
2358.839844 6331.000000
2359.910400 6779.000000
2360.980713 7545.000000
2362.050049 7548.000000
2363.118408 6868.000000
2364.186523 6707.000000
2365.253906 7026.000000
2366.320801 7155.000000
2367.386963 6105.000000
2368.451904 6933.000000
2369.516846 6971.000000
2370.581055 6345.000000
2371.644531 6974.000000
2372.706787 5807.000000
2373.769043 6367.000000
2374.830322 6350.000000
2375.891357 5963.000000
2376.951172 6321.000000
2378.010254 7915.000000
2379.069336 6522.000000
2380.127441 7653.000000
2381.184814 6939.000000
2382.241211 8031.000000
2383.297363 7878.000000
2384.353027 6244.000000
2385.407959 7103.000000
2386.461426 6794.000000
2387.515137 6526.000000
2388.567871 6320.000000
2389.620117 6773.000000
2390.671631 6170.000000
2391.722168 6685.000000
2392.772461 6529.000000
2393.821777 6232.000000
2394.871094 6223.000000
2395.918945 6945.000000
2396.966309 7034.000000
2398.013428 6266.000000
2399.059570 6737.000000
2400.104980 6174.000000
2401.149658 6775.000000
2402.194336 7821.000000
2403.237549 7460.000000
2404.280762 6587.000000
2405.322510 5708.000000
2406.364502 6730.000000
2407.405762 7183.000000
2408.446045 6080.000000
2409.485596 6439.000000
2410.524170 6340.000000
2411.562988 6036.000000
2412.600586 6518.000000
2413.637939 6829.000000
2414.674072 7215.000000
2415.709961 6268.000000
2416.745117 6304.000000
2417.779785 6657.000000
2418.812988 7270.000000
2419.846436 6467.000000
2420.878906 6737.000000
2421.911133 6780.000000
2422.941895 7054.000000
2423.972656 6396.000000
2425.002930 6902.000000
2426.031982 6887.000000
2427.061035 6752.000000
2428.088379 7340.000000
2429.116211 6768.000000
2430.142822 7276.000000
2431.169189 6935.000000
2432.194092 7765.000000
2433.219238 6528.000000
2434.243408 7112.000000
2435.267334 6785.000000
2436.290039 5823.000000
2437.312012 6287.000000
2438.333740 6660.000000
2439.354736 6681.000000
2440.375244 6003.000000
2441.394531 6479.000000
2442.413818 6574.000000
2443.432129 8385.000000
2444.450195 6258.000000
2445.466797 6538.000000
2446.483398 6607.000000
2447.499268 5973.000000
2448.515137 7043.000000
2449.529541 6904.000000
2450.543213 5548.000000
2451.556396 7211.000000
2452.569336 6063.000000
2453.581543 7239.000000
2454.592773 6708.000000
2455.603760 7656.000000
2456.614014 6355.000000
2457.623779 7610.000000
2458.632568 5951.000000
2459.640625 5904.000000
2460.648682 6336.000000
2461.655518 7351.000000
2462.662109 5436.000000
2463.667480 7435.000000
2464.672607 6957.000000
2465.677490 5948.000000
2466.681152 6567.000000
2467.684570 6380.000000
2468.687012 7610.000000
2469.689209 7366.000000
2470.690918 6921.000000
2471.691650 6574.000000
2472.691406 6960.000000
2473.691162 6757.000000
2474.689941 5681.000000
2475.688232 6579.000000
2476.685547 7077.000000
2477.682617 6221.000000
2478.679688 6963.000000
2479.675293 5818.000000
2480.670898 7214.000000
2481.664795 6655.000000
2482.658691 8047.000000
2483.652100 6850.000000
2484.645020 6772.000000
2485.636963 7444.000000
2486.628174 7258.000000
2487.619141 6751.000000
2488.609619 5912.000000
2489.599121 6656.000000
2490.587891 6508.000000
2491.576660 5624.000000
2492.564453 6799.000000
2493.551025 6617.000000
2494.537598 8061.000000
2495.523682 6733.000000
2496.509033 7112.000000
2497.493408 8414.000000
2498.477539 6071.000000
2499.461670 6906.000000
2500.444336 5786.000000
2501.426514 7053.000000
2502.408203 6888.000000
2503.389160 7206.000000
2504.369629 6564.000000
2505.349854 5777.000000
2506.328613 6334.000000
2507.307129 7540.000000
2508.285156 6716.000000
2509.262695 7097.000000
2510.239258 6019.000000
2511.215576 6001.000000
2512.191162 6457.000000
2513.166260 6232.000000
2514.140869 6454.000000
2515.114258 7534.000000
2516.087402 6843.000000
2517.060303 6970.000000
2518.032227 6148.000000
2519.003418 6841.000000
2519.974121 6908.000000
2520.944580 7723.000000
2521.914307 8112.000000
2522.883057 6124.000000
2523.851074 6202.000000
2524.819092 7781.000000
2525.786133 6310.000000
2526.752930 5549.000000
2527.718506 7244.000000
2528.684082 7021.000000
2529.648926 7755.000000
2530.613281 6345.000000
2531.576416 6426.000000
2532.539795 5932.000000
2533.502197 5999.000000
2534.464355 6734.000000
2535.425293 6434.000000
2536.385498 6145.000000
2537.345947 6237.000000
2538.305420 6843.000000
2539.264160 6856.000000
2540.221924 6737.000000
2541.179932 6258.000000
2542.137207 6727.000000
2543.093506 6079.000000
2544.049561 7153.000000
2545.004395 6211.000000
2545.959473 7744.000000
2546.913818 6990.000000
2547.867432 6382.000000
2548.820068 7206.000000
2549.772461 6759.000000
2550.724365 7044.000000
2551.675537 6449.000000
2552.625977 7637.000000
2553.575928 7296.000000
2554.525635 7375.000000
2555.474609 6620.000000
2556.423096 6307.000000
2557.370361 7127.000000
2558.317627 6321.000000
2559.264160 6514.000000
2560.210205 6765.000000
2561.155273 7515.000000
2562.100098 6774.000000
2563.044434 7206.000000
2563.988281 6797.000000
2564.931641 6651.000000
2565.873535 6638.000000
2566.815674 6613.000000
2567.757080 6217.000000
2568.697754 7234.000000
2569.637695 7306.000000
2570.577637 5760.000000
2571.516602 6179.000000
2572.455322 7523.000000
2573.393066 7268.000000
2574.330566 5480.000000
2575.267334 6997.000000
2576.203369 6778.000000
2577.138916 7495.000000
2578.073730 6457.000000
2579.008545 5953.000000
2579.942383 7067.000000
2580.875732 7165.000000
2581.808350 5907.000000
2582.740723 6986.000000
2583.672363 5455.000000
2584.603516 7055.000000
2585.534180 6951.000000
2586.463623 6918.000000
2587.393066 7301.000000
2588.322021 6459.000000
2589.250732 7547.000000
2590.177734 7311.000000
2591.104980 5941.000000
2592.031738 6794.000000
2592.957764 6298.000000
2593.883545 5686.000000
2594.808105 7646.000000
2595.732422 7714.000000
2596.656250 5413.000000
2597.579590 7337.000000
2598.501953 6268.000000
2599.424072 6844.000000
2600.345703 8313.000000
2601.266602 6402.000000
2602.186768 5770.000000
2603.106689 6381.000000
2604.026123 6408.000000
2604.945313 6458.000000
2605.863525 5804.000000
2606.780518 6036.000000
2607.697754 7306.000000
2608.614746 5940.000000
2609.530762 7565.000000
2610.445557 6676.000000
2611.360840 6652.000000
2612.275391 6541.000000
2613.188965 6644.000000
2614.102539 6098.000000
2615.014893 7612.000000
2615.927246 7061.000000
2616.838623 6859.000000
2617.749756 5733.000000
2618.660156 7244.000000
2619.570313 6701.000000
2620.479736 6167.000000
2621.388672 6671.000000
2622.296631 6258.000000
2623.204834 6849.000000
2624.112061 6610.000000
2625.018799 7047.000000
2625.924805 5991.000000
2626.830566 6549.000000
2627.735596 6418.000000
2628.640381 7880.000000
2629.544434 6502.000000
2630.447510 6407.000000
2631.350586 6435.000000
2632.252686 5656.000000
2633.154785 6816.000000
2634.056641 7060.000000
2634.956787 6750.000000
2635.857178 6383.000000
2636.756836 6505.000000
2637.656250 6041.000000
2638.554199 6837.000000
2639.452637 6793.000000
2640.350586 6395.000000
2641.247803 6178.000000
2642.143799 6203.000000
2643.039795 6847.000000
2643.935547 6130.000000
2644.830566 6482.000000
2645.725342 6641.000000
2646.618652 7143.000000
2647.511963 6302.000000
2648.405029 6769.000000
2649.297852 6433.000000
2650.188965 7515.000000
2651.080322 6410.000000
2651.971191 7684.000000
2652.861328 7355.000000
2653.751221 6590.000000
2654.639893 7283.000000
2655.528809 6688.000000
2656.417236 6613.000000
2657.304688 7266.000000
2658.191162 6492.000000
2659.078125 7135.000000
2659.964355 6868.000000
2660.850098 6810.000000
2661.734619 6545.000000
2662.619141 6428.000000
2663.503418 6231.000000
2664.386963 7101.000000
2665.270020 7828.000000
2666.152344 7278.000000
2667.034180 6176.000000
2667.915283 6650.000000
2668.796631 6142.000000
2669.676514 6565.000000
2670.556641 7436.000000
2671.436035 7244.000000
2672.315430 6245.000000
2673.194092 6181.000000
2674.071045 6447.000000
2674.948730 6781.000000
2675.825684 6432.000000
2676.701904 8223.000000
2677.577637 7214.000000
2678.452637 6290.000000
2679.327881 7742.000000
2680.202148 7053.000000
2681.075928 7302.000000
2681.948975 7061.000000
2682.821777 6200.000000
2683.694336 6196.000000
2684.566162 6954.000000
2685.437256 6544.000000
2686.308105 6874.000000
2687.178467 7121.000000
2688.048584 6713.000000
2688.916992 6365.000000
2689.786133 7376.000000
2690.654541 7092.000000
2691.522705 6787.000000
2692.390137 6951.000000
2693.256348 5871.000000
2694.123047 7217.000000
2694.988770 7349.000000
2695.854492 7235.000000
2696.718750 7931.000000
2697.583740 6618.000000
2698.447266 7327.000000
2699.311035 5890.000000
2700.173340 7411.000000
2701.036133 6834.000000
2701.897949 5948.000000
2702.759277 6910.000000
2703.620605 6748.000000
2704.480713 7431.000000
2705.340820 7341.000000
2706.200439 6557.000000
2707.059814 6888.000000
2707.917480 7236.000000
2708.775391 6923.000000
2709.633789 7338.000000
2710.490967 6766.000000
2711.347412 6048.000000
2712.203369 6821.000000
2713.059326 6142.000000
2713.914551 6988.000000
2714.769043 6137.000000
2715.623047 6884.000000
2716.477051 7302.000000
2717.330078 6265.000000
2718.183350 6520.000000
2719.034912 7823.000000
2719.886963 6785.000000
2720.738770 6313.000000
2721.589355 6571.000000
2722.439941 6448.000000
2723.290039 7178.000000
2724.139404 7038.000000
2724.988770 7003.000000
2725.836914 6702.000000
2726.684570 6584.000000
2727.532715 6993.000000
2728.379639 6849.000000
2729.227051 5619.000000
2730.072998 7517.000000
2730.918213 7084.000000
2731.763916 6490.000000
2732.608643 6986.000000
2733.453369 7330.000000
2734.296875 6979.000000
2735.140625 7805.000000
2735.983643 7208.000000
2736.826172 6064.000000
2737.667725 6268.000000
2738.509766 6782.000000
2739.350830 6971.000000
2740.191650 5872.000000
2741.032227 5964.000000
2741.871582 7769.000000
2742.710938 6876.000000
2743.550293 6971.000000
2744.388428 6860.000000
2745.226074 7745.000000
2746.063721 6411.000000
2746.900879 7133.000000
2747.737793 6198.000000
2748.574219 6033.000000
2749.409424 6667.000000
2750.244873 6330.000000
2751.079834 6331.000000
2751.914063 6280.000000
2752.748047 6951.000000
2753.581543 6886.000000
2754.415039 8013.000000
2755.247559 6775.000000
2756.079590 7284.000000
2756.911133 6818.000000
2757.742676 7124.000000
2758.573242 7303.000000
2759.404053 7271.000000
2760.233643 7316.000000
2761.063232 6684.000000
2761.892578 7328.000000
2762.721191 6838.000000
2763.549316 6811.000000
2764.376953 6936.000000
2765.204590 6781.000000
2766.031738 7945.000000
2766.858154 5812.000000
2767.684082 7567.000000
2768.509521 6884.000000
2769.334717 7838.000000
2770.159912 7031.000000
2770.983887 6809.000000
2771.807861 6522.000000
2772.631836 7672.000000
2773.454590 6381.000000
2774.277588 6855.000000
2775.099365 6918.000000
2775.921143 6941.000000
2776.742920 6536.000000
2777.563721 8015.000000
2778.383789 6538.000000
2779.204102 7036.000000
2780.023926 7327.000000
2780.843750 6477.000000
2781.661621 5919.000000
2782.480713 8028.000000
2783.298584 6556.000000
2784.116211 6779.000000
2784.933350 7159.000000
2785.750000 7326.000000
2786.566406 7189.000000
2787.382324 6304.000000
2788.197998 6002.000000
2789.012695 6386.000000
2789.827881 7041.000000
2790.642334 7178.000000
2791.456299 6600.000000
2792.270020 7480.000000
2793.082520 8829.000000
2793.895264 6986.000000
2794.707520 7424.000000
2795.519287 7236.000000
2796.330322 7360.000000
2797.142090 6551.000000
2797.952637 7292.000000
2798.763184 7061.000000
2799.572266 7432.000000
2800.382080 8280.000000
2801.191162 7799.000000
2802.000000 6676.000000
2802.808350 7179.000000
2803.615723 6200.000000
2804.423584 6468.000000
2805.230713 6907.000000
2806.037598 6789.000000
2806.843262 7026.000000
2807.649414 6616.000000
2808.454834 6568.000000
2809.260254 7307.000000
2810.064941 6210.000000
2810.868652 7621.000000
2811.672852 7460.000000
2812.476563 6361.000000
2813.280029 6131.000000
2814.082031 6601.000000
2814.884766 7310.000000
2815.686768 7788.000000
2816.488525 6138.000000
2817.289795 6606.000000
2818.090576 7239.000000
2818.890869 6532.000000
2819.691406 6665.000000
2820.490967 8064.000000
2821.290039 7164.000000
2822.089111 6438.000000
2822.887939 6968.000000
2823.686279 6407.000000
2824.483643 7101.000000
2825.281250 7448.000000
2826.078125 6777.000000
2826.875244 7388.000000
2827.671631 7971.000000
2828.467285 7030.000000
2829.262939 7332.000000
2830.058350 7582.000000
2830.853271 7524.000000
2831.647461 6623.000000
2832.441650 6880.000000
2833.235596 5644.000000
2834.029053 6917.000000
2834.821777 7173.000000
2835.614258 8183.000000
2836.406738 7680.000000
2837.198975 7524.000000
2837.990723 6459.000000
2838.781494 6783.000000
2839.572266 8858.000000
2840.363281 7440.000000
2841.153320 6260.000000
2841.942871 7687.000000
2842.732666 7111.000000
2843.521484 7320.000000
2844.310303 7869.000000
2845.099121 7704.000000
2845.886963 7546.000000
2846.674316 7250.000000
2847.461914 7504.000000
2848.249023 7387.000000
2849.035400 6677.000000
2849.821777 7425.000000
2850.607910 7236.000000
2851.393555 7529.000000
2852.178223 7222.000000
2852.963379 6975.000000
2853.748291 7451.000000
2854.532471 7108.000000
2855.316650 6951.000000
2856.099609 8320.000000
2856.882813 6839.000000
2857.665771 6879.000000
2858.448242 7788.000000
2859.230469 6330.000000
2860.012207 6680.000000
2860.793701 7587.000000
2861.575439 7514.000000
2862.356445 7676.000000
2863.136719 6648.000000
2863.916748 6736.000000
2864.696777 8227.000000
2865.476563 7569.000000
2866.255371 8089.000000
2867.034424 7688.000000
2867.812988 6817.000000
2868.591309 6863.000000
2869.369141 7254.000000
2870.146729 6970.000000
2870.924072 7473.000000
2871.701172 6995.000000
2872.477783 6434.000000
2873.253906 7517.000000
2874.030029 7212.000000
2874.805664 8334.000000
2875.581055 7182.000000
2876.355957 6624.000000
2877.130615 8006.000000
2877.905273 6657.000000
2878.679688 7837.000000
2879.453369 6781.000000
2880.226318 7173.000000
2881.000000 6792.000000
2881.772705 7618.000000
2882.545410 7822.000000
2883.317383 8271.000000
2884.089111 6266.000000
2884.861328 6756.000000
2885.632324 6905.000000
2886.402832 6177.000000
2887.173828 8298.000000
2887.944824 7409.000000
2888.715088 7980.000000
2889.484375 7631.000000
2890.253906 6955.000000
2891.023438 7244.000000
2891.792480 7386.000000
2892.561035 7949.000000
2893.329590 7731.000000
2894.097168 7059.000000
2894.865234 6612.000000
2895.632813 7476.000000
2896.400391 8378.000000
2897.166748 7362.000000
2897.934082 6530.000000
2898.700195 7272.000000
2899.466553 7000.000000
2900.231445 8345.000000
2900.996826 7005.000000
2901.762695 6561.000000
2902.527100 7677.000000
2903.291504 7708.000000
2904.056152 8522.000000
2904.819824 6643.000000
2905.584229 8506.000000
2906.347900 6711.000000
2907.110840 8413.000000
2907.873535 6505.000000
2908.636719 8979.000000
2909.399414 6965.000000
2910.160889 6826.000000
2910.922852 6826.000000
