scanname Analyse057
timestamp 2017-02-10 21:15:50
ccdbias 896.250977
ccdgain 3.473401
sigmaread 8.960639
laserwavenum -0.346472
wavenumcorrection 0.176492
scancount 1
totalexposurems 10000
singleexposurems 10000
measurementstate Unknown
scanmode Manual
snr 169.061264 3.139910 2.536295
replacelist 3
373 31859.000000 5738.000000
374 33098.000000 15020.000000
671 30055.000000 10137.000000
peaks 18
277.574646 0.486991 0.000000 1.163073 0.000139
300.978302 0.490126 0.000000 0.673583 0.000049
333.586334 0.490903 0.000000 0.526745 0.000097
341.734924 0.488866 0.000000 0.119051 0.000014
387.043640 0.495494 0.000000 0.977474 0.000135
448.943848 0.480917 0.000000 0.311534 0.000015
499.930817 0.484803 0.000000 0.492996 0.000048
519.279785 0.479527 0.000000 0.325472 0.000017
533.208252 0.480767 0.000000 0.814737 0.000138
586.510376 0.484866 0.000000 0.718166 0.000090
677.904114 0.466069 0.000000 0.613517 0.000045
777.937927 0.456465 0.000000 3.616941 0.000483
878.452881 0.431289 0.000000 0.305455 0.000076
1153.690186 0.374178 0.000000 0.118013 0.000076
1315.262939 0.376176 0.000000 13.559521 0.002876
1336.473145 0.366778 0.000000 8.331242 0.000968
1457.756470 0.332701 0.000000 0.359059 0.000244
2330.144531 0.148418 0.000000 0.587691 0.000262
finalresult GLS_NoMatch 0
spectrum 2048
-97.254982 45862.000000
-94.628113 45862.000000
-92.003120 46427.000000
-89.380020 46356.000000
-86.758789 47080.000000
-84.139458 46769.000000
-81.521988 47045.000000
-78.906395 46803.000000
-76.292679 47004.000000
-73.680840 47449.000000
-71.070862 47206.000000
-68.462769 47410.000000
-65.856522 47470.000000
-63.252151 47505.000000
-60.649643 47303.000000
-58.048988 47716.000000
-55.450195 47125.000000
-52.853260 46500.000000
-50.258179 46945.000000
-47.664951 46867.000000
-45.073574 47128.000000
-42.484043 46594.000000
-39.896355 47504.000000
-37.310516 47394.000000
-34.726521 46886.000000
-32.144363 47688.000000
-29.564051 47036.000000
-26.985565 47641.000000
-24.408922 47092.000000
-21.834105 47004.000000
-19.261127 46796.000000
-16.689970 46717.000000
-14.120646 46375.000000
-11.553148 45416.000000
-8.987469 46796.000000
-6.423615 46617.000000
-3.861574 47062.000000
-1.301358 47174.000000
1.257050 46704.000000
3.813637 45723.000000
6.368419 45942.000000
8.921384 46449.000000
11.472548 45447.000000
14.021900 45281.000000
16.569456 44634.000000
19.115200 44905.000000
21.659151 44499.000000
24.201298 42222.000000
26.741648 40035.000000
29.280212 36241.000000
31.816980 32066.000000
34.351948 24921.000000
36.885136 15596.000000
39.416542 9862.000000
41.946156 8925.000000
44.473972 8964.000000
47.000031 8355.000000
49.524300 7224.000000
52.046799 6076.000000
54.567501 5583.000000
57.086449 5963.000000
59.603622 6990.000000
62.119019 8865.000000
64.632637 11743.000000
67.144501 13157.000000
69.654617 8737.000000
72.162941 5184.000000
74.669510 4238.000000
77.174332 3458.000000
79.677399 2762.000000
82.178688 2435.000000
84.678238 2315.000000
87.176033 2268.000000
89.672096 2484.000000
92.166382 2932.000000
94.658928 3122.000000
97.149757 3257.000000
99.638817 2956.000000
102.126129 2304.000000
104.611717 1852.000000
107.095566 1756.000000
109.577667 1623.000000
112.058044 1432.000000
114.536697 1400.000000
117.013626 1276.000000
119.488800 1213.000000
121.962265 1250.000000
124.433998 1285.000000
126.904022 1380.000000
129.372284 1443.000000
131.838882 1622.000000
134.303726 1700.000000
136.766876 1841.000000
139.228287 2100.000000
141.688004 2426.000000
144.145996 3100.000000
146.602295 3587.000000
149.056885 4374.000000
151.509750 5188.000000
153.960938 6293.000000
156.410431 7480.000000
158.858200 8807.000000
161.304260 10331.000000
163.748642 11568.000000
166.191345 13015.000000
168.632355 13965.000000
171.071655 15053.000000
173.509247 15397.000000
175.945206 15997.000000
178.379425 16125.000000
180.811966 16294.000000
183.242859 16455.000000
185.672028 16526.000000
188.099548 16494.000000
190.525391 16694.000000
192.949554 16980.000000
195.372055 17066.000000
197.792862 17393.000000
200.212006 17784.000000
202.629486 18300.000000
205.045273 18903.000000
207.459412 19775.000000
209.871918 21766.000000
212.282745 24465.000000
214.691895 26348.000000
217.099411 26386.000000
219.505219 28638.000000
221.909439 29217.000000
224.311951 29906.000000
226.712845 30185.000000
229.112091 31124.000000
231.509674 31023.000000
233.905594 30750.000000
236.299896 31513.000000
238.692535 32302.000000
241.083557 31468.000000
243.472916 31850.000000
245.860657 32168.000000
248.246750 31714.000000
250.631210 32552.000000
253.014023 30984.000000
255.395264 32080.000000
257.774811 31975.000000
260.152771 32256.000000
262.529053 31304.000000
264.903778 31180.000000
267.276855 30789.000000
269.648285 32098.000000
272.018066 31721.000000
274.386292 32247.000000
276.752869 31812.000000
279.117859 31455.000000
281.481232 32084.000000
283.842957 31970.000000
286.203094 31070.000000
288.561615 32096.000000
290.918549 31569.000000
293.273865 31796.000000
295.627594 32107.000000
297.979675 32163.000000
300.330200 31836.000000
302.679138 31805.000000
305.026428 31461.000000
307.372192 31834.000000
309.716278 31743.000000
312.058838 31003.000000
314.399780 30710.000000
316.739105 30946.000000
319.076874 30945.000000
321.413086 29806.000000
323.747650 31238.000000
326.080658 30940.000000
328.412109 31448.000000
330.741974 30777.000000
333.070251 31135.000000
335.396912 30192.000000
337.722076 31016.000000
340.045624 31113.000000
342.367615 31394.000000
344.688049 29962.000000
347.006866 29683.000000
349.324127 31001.000000
351.639862 31218.000000
353.954010 30200.000000
356.266571 30792.000000
358.577576 30798.000000
360.887054 30133.000000
363.195007 30695.000000
365.501343 31224.000000
367.806091 30596.000000
370.109375 30612.000000
372.411041 30654.000000
374.711212 30578.000000
377.009827 30609.000000
379.306885 31164.000000
381.602386 30856.000000
383.896362 31117.000000
386.188751 31880.000000
388.479645 31727.000000
390.769012 31500.000000
393.056793 31560.000000
395.343048 31485.000000
397.627808 31039.000000
399.910950 31850.000000
402.192657 31481.000000
404.472839 31864.000000
406.751434 30703.000000
409.028503 31375.000000
411.304047 30960.000000
413.578064 31137.000000
415.850647 31191.000000
418.121613 31153.000000
420.391083 31006.000000
422.659058 30275.000000
424.925476 29975.000000
427.190399 30734.000000
429.453857 30511.000000
431.715729 30237.000000
433.976135 30587.000000
436.234985 29857.000000
438.492371 30307.000000
440.748260 30558.000000
443.002655 30281.000000
445.255524 30630.000000
447.506836 29154.000000
449.756744 29899.000000
452.005066 29673.000000
454.251953 30199.000000
456.497375 29417.000000
458.741241 29360.000000
460.983612 28947.000000
463.224487 30046.000000
465.463959 28959.000000
467.701843 30103.000000
469.938293 29675.000000
472.173218 29530.000000
474.406677 28352.000000
476.638702 28781.000000
478.869202 29631.000000
481.098206 28929.000000
483.325745 29083.000000
485.551788 29432.000000
487.776398 28846.000000
489.999542 29634.000000
492.221222 29201.000000
494.441345 28927.000000
496.660065 29928.000000
498.877289 29368.000000
501.093140 30131.000000
503.307373 29626.000000
505.520294 29539.000000
507.731628 29572.000000
509.941528 29141.000000
512.149963 29450.000000
514.357056 29244.000000
516.562561 29298.000000
518.766663 29112.000000
520.969238 29397.000000
523.170410 28985.000000
525.370239 28875.000000
527.568542 28337.000000
529.765320 29755.000000
531.960754 29294.000000
534.154663 29666.000000
536.347229 27718.000000
538.538269 28501.000000
540.727905 29018.000000
542.916138 28008.000000
545.102844 27641.000000
547.288086 27687.000000
549.472046 27889.000000
551.654419 27551.000000
553.835449 27663.000000
556.014954 27710.000000
558.193176 27789.000000
560.369873 27630.000000
562.545166 27318.000000
564.719055 27154.000000
566.891479 27580.000000
569.062500 27482.000000
571.232056 27200.000000
573.400330 28252.000000
575.567078 27283.000000
577.732361 27463.000000
579.896240 27597.000000
582.058838 28044.000000
584.219910 27804.000000
586.379578 28207.000000
588.537903 28110.000000
590.694702 27954.000000
592.850159 27636.000000
595.004211 28448.000000
597.156921 28118.000000
599.308105 27155.000000
601.457947 27769.000000
603.606445 27617.000000
605.753357 28136.000000
607.899048 27808.000000
610.043335 27931.000000
612.186157 27341.000000
614.327515 28138.000000
616.467651 27803.000000
618.606262 26457.000000
620.743591 28346.000000
622.879456 27385.000000
625.013916 27091.000000
627.146912 26642.000000
629.278748 26994.000000
631.409119 26988.000000
633.538086 26703.000000
635.665588 26818.000000
637.791809 26860.000000
639.916504 25776.000000
642.039978 26552.000000
644.162109 25982.000000
646.282776 25916.000000
648.402100 25964.000000
650.520020 26476.000000
652.636597 26309.000000
654.751770 25663.000000
656.865601 25443.000000
658.977966 25873.000000
661.089111 25529.000000
663.198853 26122.000000
665.307129 25762.000000
667.414246 25739.000000
669.519897 25151.000000
671.624084 25921.000000
673.727051 26187.000000
675.828613 25288.000000
677.928833 26842.000000
680.027649 25789.000000
682.125122 26474.000000
684.221313 25742.000000
686.316040 26544.000000
688.409546 25840.000000
690.501709 26258.000000
692.592346 25032.000000
694.681763 26240.000000
696.769897 26100.000000
698.856567 26472.000000
700.942017 25704.000000
703.025940 26840.000000
705.108643 26157.000000
707.190063 26117.000000
709.270020 24477.000000
711.348755 24844.000000
713.426025 25264.000000
715.502014 24713.000000
717.576721 25258.000000
719.650146 24647.000000
721.722046 25480.000000
723.792786 24465.000000
725.862183 25126.000000
727.930176 24668.000000
729.996826 24699.000000
732.062256 24037.000000
734.126343 24526.000000
736.189087 24321.000000
738.250488 23887.000000
740.310608 23978.000000
742.369324 24339.000000
744.426819 23837.000000
746.483032 23918.000000
748.537842 23831.000000
750.591370 23941.000000
752.643494 23350.000000
754.694397 24113.000000
756.744080 23500.000000
758.792297 23611.000000
760.839294 23758.000000
762.885010 23404.000000
764.929321 25099.000000
766.972351 21588.500000
769.014160 24872.500000
771.054626 23624.000000
773.093689 23447.000000
775.131592 23629.000000
777.168152 23674.000000
779.203491 23887.000000
781.237488 24340.000000
783.270081 24137.000000
785.301514 26031.000000
787.331543 20395.000000
789.360291 24230.000000
791.387878 24023.000000
793.414124 23930.000000
795.438965 24147.000000
797.462708 24511.000000
799.485046 23979.000000
801.506165 24346.000000
803.525940 23817.000000
805.544434 24854.000000
807.561707 24050.000000
809.577576 23870.000000
811.592285 24440.000000
813.605652 23810.000000
815.617798 23677.000000
817.628723 23475.000000
819.638306 23128.000000
821.646667 23437.000000
823.653625 23276.000000
825.659363 23035.000000
827.663879 22961.000000
829.667114 22887.000000
831.669067 22445.000000
833.669739 22560.000000
835.669189 22466.000000
837.667297 22522.000000
839.664307 22250.000000
841.659912 22459.000000
843.654358 22432.000000
845.647461 22193.000000
847.639343 21684.000000
849.629883 21885.000000
851.619141 21459.000000
853.607361 21529.000000
855.594177 21667.000000
857.579773 21553.000000
859.564087 21283.000000
861.547302 21413.000000
863.529114 21567.000000
865.509705 21794.000000
867.489014 21018.000000
869.467163 21273.000000
871.443970 21463.000000
873.419495 21730.000000
875.393982 22020.000000
877.367004 22172.000000
879.338989 22553.000000
881.309631 22239.000000
883.279114 22376.000000
885.247253 22393.000000
887.214233 22481.000000
889.179871 22102.000000
891.144348 22090.000000
893.107605 22063.000000
895.069641 21785.000000
897.030396 21894.000000
898.989929 21716.000000
900.948181 21668.000000
902.905334 21563.000000
904.861328 21837.000000
906.815918 21595.000000
908.769287 21708.000000
910.721497 21464.000000
912.672485 21450.000000
914.622192 20858.000000
916.570740 21082.000000
918.518066 21045.000000
920.464111 20797.000000
922.408875 20532.000000
924.352600 20239.000000
926.295166 20075.000000
928.236450 19929.000000
930.176392 19446.000000
932.115234 19501.000000
934.052795 19398.000000
935.989136 19345.000000
937.924316 19445.000000
939.858215 19328.000000
941.791016 19454.000000
943.722595 19396.000000
945.653015 19530.000000
947.582214 19378.000000
949.510071 19536.000000
951.436890 19475.000000
953.362427 19521.000000
955.286682 19589.000000
957.209839 19747.000000
959.131836 19785.000000
961.052551 19785.000000
962.972107 19833.000000
964.890503 19947.000000
966.807861 20054.000000
968.723755 20158.000000
970.638550 20023.000000
972.552124 20063.000000
974.464539 20087.000000
976.375732 20104.000000
978.285767 20003.000000
980.194519 19978.000000
982.102234 20070.000000
984.008728 20010.000000
985.914001 19919.000000
987.818176 19846.000000
989.721130 19712.000000
991.622864 19687.000000
993.523438 19904.000000
995.422852 19694.000000
997.321045 19549.000000
999.218079 19439.000000
1001.113892 18933.000000
1003.008545 18508.000000
1004.902100 18552.000000
1006.794373 18550.000000
1008.685730 18557.000000
1010.575745 18233.000000
1012.464539 17995.000000
1014.352173 18065.000000
1016.238647 18025.000000
1018.123962 17898.000000
1020.008118 18142.000000
1021.891052 18050.000000
1023.772949 17914.000000
1025.653564 17953.000000
1027.533081 17956.000000
1029.411621 17904.000000
1031.288818 18039.000000
1033.164673 17615.000000
1035.039551 17898.000000
1036.913452 17843.000000
1038.785889 18004.000000
1040.657349 17906.000000
1042.527466 17747.000000
1044.396606 17925.000000
1046.264526 17883.000000
1048.131348 17640.000000
1049.997070 18013.000000
1051.861572 18059.000000
1053.724976 18014.000000
1055.587036 18174.000000
1057.448120 18104.000000
1059.308105 18205.000000
1061.166748 18093.000000
1063.024292 18115.000000
1064.880737 18137.000000
1066.736084 18159.000000
1068.590210 18293.000000
1070.443481 18047.000000
1072.295288 18198.000000
1074.146118 18197.000000
1075.995728 18107.000000
1077.844116 18053.000000
1079.691650 17874.000000
1081.537842 18051.000000
1083.382813 17870.000000
1085.226929 17966.000000
1087.069702 17791.000000
1088.911255 17809.000000
1090.752075 17735.000000
1092.591309 17440.000000
1094.429810 17631.000000
1096.266968 17590.000000
1098.102905 17423.000000
1099.937866 16885.000000
1101.771606 16880.000000
1103.604370 16641.000000
1105.435791 16580.000000
1107.266357 16947.000000
1109.095581 16510.000000
1110.923828 15881.000000
1112.750854 16030.000000
1114.576904 16031.000000
1116.401733 16054.000000
1118.225464 16072.000000
1120.047974 15986.000000
1121.869385 15945.000000
1123.689941 16007.000000
1125.509033 15856.000000
1127.327271 16048.000000
1129.144165 16009.000000
1130.960205 16170.000000
1132.775024 16173.000000
1134.588745 16272.000000
1136.401367 16333.000000
1138.212769 16441.000000
1140.023193 16659.000000
1141.832520 16479.000000
1143.640503 16616.000000
1145.447754 16658.000000
1147.253540 16741.000000
1149.058472 16703.000000
1150.862305 16650.000000
1152.664917 16836.000000
1154.466675 16817.000000
1156.266968 16835.000000
1158.066284 16686.000000
1159.864624 16496.000000
1161.661621 16549.000000
1163.457886 16326.000000
1165.252808 16266.000000
1167.046631 16000.000000
1168.839600 15959.000000
1170.631226 15726.000000
1172.421875 15684.000000
1174.211548 15304.000000
1175.999756 15556.000000
1177.787109 15475.000000
1179.573364 15452.000000
1181.358521 15403.000000
1183.142578 15524.000000
1184.925537 15157.000000
1186.707520 15366.000000
1188.488281 15480.000000
1190.268066 15227.000000
1192.046753 15085.000000
1193.824463 15083.000000
1195.600952 15141.000000
1197.376343 14775.000000
1199.150635 14666.000000
1200.923828 14574.000000
1202.696167 14333.000000
1204.467163 14326.000000
1206.237305 14507.000000
1208.006226 14381.000000
1209.774048 14308.000000
1211.541016 14351.000000
1213.306641 14308.000000
1215.071289 14390.000000
1216.834839 14309.000000
1218.597290 14364.000000
1220.358887 14066.000000
1222.119263 14240.000000
1223.878540 14044.000000
1225.636963 14029.000000
1227.394165 14052.000000
1229.150269 14351.000000
1230.905273 14277.000000
1232.659424 14200.000000
1234.412231 14274.000000
1236.164063 14384.000000
1237.915039 14563.000000
1239.664673 14601.000000
1241.413452 14455.000000
1243.160889 14549.000000
1244.907593 14491.000000
1246.653076 14446.000000
1248.397705 14625.000000
1250.140991 14614.000000
1251.883301 14455.000000
1253.624512 14593.000000
1255.364868 14363.000000
1257.104126 13941.000000
1258.842163 13577.000000
1260.579346 13414.000000
1262.315308 13513.000000
1264.050293 13835.000000
1265.784302 13878.000000
1267.517334 14135.000000
1269.249146 14272.000000
1270.979980 14278.000000
1272.709595 14378.000000
1274.438354 14427.000000
1276.166016 14466.000000
1277.892578 14412.000000
1279.618286 14403.000000
1281.342651 14279.000000
1283.066162 14257.000000
1284.788696 14180.000000
1286.510254 14148.000000
1288.230591 14182.000000
1289.949951 14050.000000
1291.668213 14051.000000
1293.385498 13928.000000
1295.101807 14153.000000
1296.816895 14004.000000
1298.531006 14049.000000
1300.244141 13850.000000
1301.956421 13755.000000
1303.667480 13403.000000
1305.377563 13477.000000
1307.086548 13274.000000
1308.794312 13319.000000
1310.501465 13258.000000
1312.207153 13162.000000
1313.912109 13143.000000
1315.616089 13284.000000
1317.318848 13425.000000
1319.020630 13495.000000
1320.721558 14652.000000
1322.421143 9190.000000
1324.119873 3728.000000
1325.817871 12771.000000
1327.514526 12738.000000
1329.210083 12688.000000
1330.904785 12637.000000
1332.598267 12684.000000
1334.290894 12613.000000
1335.982666 12275.000000
1337.673096 12557.000000
1339.362793 12339.000000
1341.051392 12248.000000
1342.738892 12213.000000
1344.425415 12190.000000
1346.110840 12153.000000
1347.795288 12238.000000
1349.478882 12276.000000
1351.161255 12366.000000
1352.842651 12496.000000
1354.523193 12670.000000
1356.202515 12697.000000
1357.881226 12860.000000
1359.558594 13007.000000
1361.234863 12904.000000
1362.910156 12992.000000
1364.584717 13045.000000
1366.258057 12880.000000
1367.930420 12889.000000
1369.601807 12863.000000
1371.272217 12816.000000
1372.941528 12866.000000
1374.609863 12803.000000
1376.277344 12821.000000
1377.943726 12643.000000
1379.609131 12668.000000
1381.273560 12568.000000
1382.936768 12605.000000
1384.599365 12467.000000
1386.260620 12230.000000
1387.921021 12192.000000
1389.580322 12183.000000
1391.238647 12022.000000
1392.896240 12074.000000
1394.552612 12133.000000
1396.208130 12192.000000
1397.862427 12247.000000
1399.515869 12165.000000
1401.168213 12319.000000
1402.819824 12177.000000
1404.470215 11899.000000
1406.119507 11810.000000
1407.768066 11671.000000
1409.415527 11382.000000
1411.062012 11345.000000
1412.707642 11327.000000
1414.352295 11248.000000
1415.995728 11090.000000
1417.638306 11144.000000
1419.279785 10993.000000
1420.920410 11050.000000
1422.560059 11236.000000
1424.198608 11100.000000
1425.836304 10923.000000
1427.472900 10906.000000
1429.108521 10936.000000
1430.743408 10896.000000
1432.377197 10784.000000
1434.009888 10810.000000
1435.641602 10705.000000
1437.272461 10808.000000
1438.902222 10777.000000
1440.530884 10700.000000
1442.158936 10739.000000
1443.785889 10694.000000
1445.411621 10743.000000
1447.036743 10849.000000
1448.660767 10967.000000
1450.283813 11013.000000
1451.905884 11024.000000
1453.526855 11154.000000
1455.146851 11031.000000
1456.766113 11054.000000
1458.384033 11594.000000
1460.001343 11356.000000
1461.617676 10912.000000
1463.232788 10762.000000
1464.847046 10808.000000
1466.460449 11005.000000
1468.072754 11096.000000
1469.684204 11040.000000
1471.294800 10997.000000
1472.904175 10960.000000
1474.512573 10970.000000
1476.120117 11032.000000
1477.726685 10996.000000
1479.332520 10877.000000
1480.937134 10956.000000
1482.540894 10787.000000
1484.143433 10525.000000
1485.745361 10199.000000
1487.346069 10174.000000
1488.946045 10024.000000
1490.544922 9982.000000
1492.142944 10006.000000
1493.739868 9982.000000
1495.335938 10357.000000
1496.931030 10840.000000
1498.525146 10700.000000
1500.118530 10631.000000
1501.710815 10528.000000
1503.301880 10598.000000
1504.892456 10373.000000
1506.481689 10327.000000
1508.070313 10302.000000
1509.657837 10255.000000
1511.244263 10080.000000
1512.829956 9974.000000
1514.414551 10051.000000
1515.998291 10128.000000
1517.580933 9958.000000
1519.162842 9936.000000
1520.743652 10024.000000
1522.323730 10013.000000
1523.902588 9791.000000
1525.480591 9737.000000
1527.057861 9847.000000
1528.633911 9601.000000
1530.209229 9487.000000
1531.783447 9573.000000
1533.356934 9451.000000
1534.929199 9390.000000
1536.500732 9537.000000
1538.071289 9443.000000
1539.640991 9445.000000
1541.209473 9503.000000
1542.777222 9393.000000
1544.344116 9298.000000
1545.909790 9278.000000
1547.474731 9199.000000
1549.038574 9175.000000
1550.601807 9054.000000
1552.163696 9201.000000
1553.724976 9300.000000
1555.285156 9134.000000
1556.844604 9219.000000
1558.402954 9272.000000
1559.960571 8930.000000
1561.517090 9056.000000
1563.072388 9137.000000
1564.627075 8959.000000
1566.181030 9149.000000
1567.734009 9052.000000
1569.285645 9148.000000
1570.836548 9062.000000
1572.386719 8979.000000
1573.935913 9142.000000
1575.483765 8989.000000
1577.031128 9048.000000
1578.577515 9095.000000
1580.123047 9046.000000
1581.667603 9165.000000
1583.210938 9067.000000
1584.753662 9036.000000
1586.295532 8958.000000
1587.836304 8976.000000
1589.376099 8986.000000
1590.915161 8863.000000
1592.453125 8924.000000
1593.990601 8856.000000
1595.526733 8984.000000
1597.061768 8904.000000
1598.596313 8722.000000
1600.129883 8772.000000
1601.662598 8847.000000
1603.193726 8829.000000
1604.724609 8827.000000
1606.254639 8939.000000
1607.783447 8613.000000
1609.311157 8775.000000
1610.838257 8790.000000
1612.364624 8819.000000
1613.890015 8954.000000
1615.414551 8894.000000
1616.937744 8650.000000
1618.460205 8748.000000
1619.981934 8685.000000
1621.502808 8799.000000
1623.022217 8196.000000
1624.541138 8663.000000
1626.059326 8579.000000
1627.576660 8466.000000
1629.092896 8550.000000
1630.607788 8467.000000
1632.122192 8394.000000
1633.635864 8330.000000
1635.148438 8377.000000
1636.659790 8256.000000
1638.170776 8274.000000
1639.680664 8360.000000
1641.189697 8221.000000
1642.697388 8353.000000
1644.204712 8225.000000
1645.711182 8212.000000
1647.216675 8060.000000
1648.721313 8089.000000
1650.224487 8111.000000
1651.727051 8010.000000
1653.229248 8033.000000
1654.730103 7939.000000
1656.229858 7858.000000
1657.728760 7954.000000
1659.227295 7792.000000
1660.724609 7802.000000
1662.221191 7815.000000
1663.716187 7627.000000
1665.210938 7644.000000
1666.704834 7619.000000
1668.197754 7960.000000
1669.689331 6846.000000
1671.180420 7475.000000
1672.670898 7509.000000
1674.160278 7546.000000
1675.648193 7325.000000
1677.135864 7331.000000
1678.622559 7615.000000
1680.108398 7526.000000
1681.593384 7352.000000
1683.076904 7247.000000
1684.560181 7190.000000
1686.042603 7319.000000
1687.523926 7288.000000
1689.003784 7328.000000
1690.483398 7290.000000
1691.962280 7263.000000
1693.440186 7242.000000
1694.917114 7272.000000
1696.392822 7295.000000
1697.868164 7164.000000
1699.342285 7109.000000
1700.815796 7044.000000
1702.287842 7200.000000
1703.759644 7198.000000
1705.230469 6996.000000
1706.700439 7094.000000
1708.169067 7257.000000
1709.637207 7229.000000
1711.104614 7120.000000
1712.570923 7112.000000
1714.036621 7120.000000
1715.500610 7239.000000
1716.964478 7262.000000
1718.427490 7020.000000
1719.889526 7248.000000
1721.350342 7168.000000
1722.810547 7187.000000
1724.270020 7084.000000
1725.728638 7264.000000
1727.186279 7117.000000
1728.642578 7155.000000
1730.098633 7154.000000
1731.553711 7079.000000
1733.007813 7128.000000
1734.460693 7134.000000
1735.913330 7014.000000
1737.364868 6812.000000
1738.815674 6938.000000
1740.265503 6948.000000
1741.713989 6976.000000
1743.162109 6892.000000
1744.609375 6929.000000
1746.055908 6861.000000
1747.500854 6880.000000
1748.945557 6765.000000
1750.389404 6671.000000
1751.832397 6831.000000
1753.273926 6677.000000
1754.715210 6903.000000
1756.155640 6119.000000
1757.595093 6663.000000
1759.033569 6766.000000
1760.471069 6623.000000
1761.908081 6519.000000
1763.344116 6433.000000
1764.779297 6538.000000
1766.213013 6505.000000
1767.646606 6702.000000
1769.079224 6530.000000
1770.510986 6519.000000
1771.941895 6596.000000
1773.371582 6490.000000
1774.800537 6381.000000
1776.229004 6264.000000
1777.656494 6078.000000
1779.082642 5797.000000
1780.508545 6209.000000
1781.933350 6241.000000
1783.357544 6193.000000
1784.780273 6176.000000
1786.202515 6202.000000
1787.624023 6146.000000
1789.044800 6137.000000
1790.464600 6041.000000
1791.883057 6013.000000
1793.301025 6040.000000
1794.718384 5977.000000
1796.134888 5922.000000
1797.549927 5909.000000
1798.964600 5922.000000
1800.378662 5896.000000
1801.791504 5950.000000
1803.203735 5960.000000
1804.614624 5790.000000
1806.025024 5879.000000
1807.434692 5852.000000
1808.843384 5748.000000
1810.250977 5964.000000
1811.658081 5808.000000
1813.064331 5794.000000
1814.469604 5939.000000
1815.873779 5871.000000
1817.277588 5827.000000
1818.680420 5900.000000
1820.082397 5875.000000
1821.483765 5805.000000
1822.883667 5770.000000
1824.282959 5830.000000
1825.681763 5844.000000
1827.079712 5753.000000
1828.476318 5654.000000
1829.872314 5873.000000
1831.267578 5699.000000
1832.662231 5709.000000
1834.055908 5689.000000
1835.448242 5769.000000
1836.840088 5769.000000
1838.231323 5683.000000
1839.621582 5775.000000
1841.010620 5598.000000
1842.399292 5701.000000
1843.786987 5837.000000
1845.173950 5666.000000
1846.559570 5571.000000
1847.944946 5663.000000
1849.329468 5499.000000
1850.713257 5638.000000
1852.095947 5516.000000
1853.477417 5537.000000
1854.858398 5379.000000
1856.238892 5469.000000
1857.618408 5349.000000
1858.996460 5405.000000
1860.374390 5369.000000
1861.751343 5410.000000
1863.127563 5341.000000
1864.502930 5294.000000
1865.876831 5259.000000
1867.250610 5314.000000
1868.623535 5173.000000
1869.995361 5154.000000
1871.366211 5181.000000
1872.736694 5142.000000
1874.106079 5057.000000
1875.474976 5059.000000
1876.842285 4935.000000
1878.209473 5070.000000
1879.575684 5071.000000
1880.941162 5146.000000
1882.305908 5039.000000
1883.669067 5038.000000
1885.032104 4992.000000
1886.394287 5003.000000
1887.755615 5041.000000
1889.115601 4903.000000
1890.475220 4876.000000
1891.834229 4912.000000
1893.192261 4894.000000
1894.549438 4895.000000
1895.905396 4930.000000
1897.261108 4759.000000
1898.615845 4775.000000
1899.969727 4959.000000
1901.322510 4851.000000
1902.674805 4896.000000
1904.026367 4897.000000
1905.377075 4742.000000
1906.726563 4806.000000
1908.075562 4806.000000
1909.423706 4869.000000
1910.771240 4779.000000
1912.118042 4744.000000
1913.463257 4912.000000
1914.808228 4795.000000
1916.152466 4871.000000
1917.495850 4926.000000
1918.837891 4759.000000
1920.179688 4804.000000
1921.520630 4707.000000
1922.860840 4862.000000
1924.200073 4908.000000
1925.538330 4847.000000
1926.875977 4864.000000
1928.212891 4917.000000
1929.548950 4779.000000
1930.883789 4785.000000
1932.218262 4834.000000
1933.552002 4708.000000
1934.884888 4718.000000
1936.216309 4766.000000
1937.547852 4593.000000
1938.878052 4636.000000
1940.207764 4596.000000
1941.536621 4573.000000
1942.864258 4601.000000
1944.191406 4619.000000
1945.517822 4729.000000
1946.843506 4447.000000
1948.167847 4638.000000
1949.491943 4582.000000
1950.815186 4597.000000
1952.137695 4555.000000
1953.459106 4498.000000
1954.779541 4568.000000
1956.099365 4467.000000
1957.418823 4490.000000
1958.737305 4509.000000
1960.054443 4405.000000
1961.371216 4457.000000
1962.687256 4410.000000
1964.002563 4348.000000
1965.316406 4299.000000
1966.630005 4406.000000
1967.942871 4298.000000
1969.254883 4427.000000
1970.566284 4311.000000
1971.876343 4238.000000
1973.185913 4295.000000
1974.494751 4108.000000
1975.802979 4147.000000
1977.109863 4134.000000
1978.416138 4079.000000
1979.722046 4118.000000
1981.026733 4152.000000
1982.330933 4233.000000
1983.633911 4113.000000
1984.936523 4163.000000
1986.238159 4215.000000
1987.539185 3943.000000
1988.838623 4090.000000
1990.138184 4075.000000
1991.436646 3954.000000
1992.734619 3973.000000
1994.031006 3990.000000
1995.327393 3972.000000
1996.622803 3933.000000
1997.917480 3833.000000
1999.211304 3918.000000
2000.503906 3867.000000
2001.796021 3780.000000
2003.087646 3857.000000
2004.378540 3749.000000
2005.667847 3757.000000
2006.956909 3887.000000
2008.245239 3712.000000
2009.532837 3825.000000
2010.819580 3910.000000
2012.105225 3778.000000
2013.390503 3749.000000
2014.674805 3817.000000
2015.958496 3763.000000
2017.240845 3660.000000
2018.522827 3668.000000
2019.804321 3762.000000
2021.084839 3578.000000
2022.364624 3685.000000
2023.643311 3692.000000
2024.921265 3755.000000
2026.198730 3667.000000
2027.475586 3684.000000
2028.750732 3802.000000
2030.026001 3772.000000
2031.300293 3734.000000
2032.573608 3661.000000
2033.846069 3732.000000
2035.118164 3749.000000
2036.389160 3696.000000
2037.659912 3621.000000
2038.929321 3674.000000
2040.197632 3780.000000
2041.465942 3702.000000
2042.733276 3728.000000
2043.999878 3642.000000
2045.265259 3693.000000
2046.530029 3503.000000
2047.794556 3635.000000
2049.057861 3671.000000
2050.320801 3597.000000
2051.581787 3635.000000
2052.843262 3501.000000
2054.103516 3566.000000
2055.363037 3457.000000
2056.621826 3562.000000
2057.879639 3451.000000
2059.136963 3595.000000
2060.393555 3420.000000
2061.648682 3573.000000
2062.903809 3499.000000
2064.157959 3545.000000
2065.411377 3481.000000
2066.664063 3388.000000
2067.915527 3457.000000
2069.166748 3366.000000
2070.417236 3466.000000
2071.666992 3451.000000
2072.915283 2960.000000
2074.163574 3370.000000
2075.410889 3387.000000
2076.657471 3345.000000
2077.903320 3405.000000
2079.147949 3340.000000
2080.392090 3404.000000
2081.635742 3310.000000
2082.878418 3363.000000
2084.119873 3283.000000
2085.361084 3276.000000
2086.601807 3196.000000
2087.841553 3149.000000
2089.080078 3203.000000
2090.318115 3161.000000
2091.555420 3153.000000
2092.792480 3268.000000
2094.028076 3214.000000
2095.262939 3154.000000
2096.497559 3127.000000
2097.731201 3166.000000
2098.963867 3149.000000
2100.195801 3223.000000
2101.427246 3048.000000
2102.657715 3178.000000
2103.887451 3155.000000
2105.116943 3134.000000
2106.344482 3037.000000
2107.572266 3104.000000
2108.799316 2903.000000
2110.025391 3033.000000
2111.250000 2956.000000
2112.474854 2951.000000
2113.698486 2940.000000
2114.921631 2899.000000
2116.143555 2995.000000
2117.365234 2984.000000
2118.585938 2982.000000
2119.805908 2972.000000
2121.025391 3017.000000
2122.243408 3083.000000
2123.461426 2932.000000
2124.678467 2935.000000
2125.895020 3047.000000
2127.109863 3113.000000
2128.324951 3007.000000
2129.539063 3020.000000
2130.752441 2970.000000
2131.965088 2879.000000
2133.176270 2990.000000
2134.387695 3005.000000
2135.597900 3061.000000
2136.807617 2905.000000
2138.015869 3047.000000
2139.224121 2952.000000
2140.431641 2882.000000
2141.637939 2891.000000
2142.843506 2881.000000
2144.048828 2930.000000
2145.253174 2836.000000
2146.456787 2956.000000
2147.659912 2846.000000
2148.861572 2842.000000
2150.062988 2848.000000
2151.263672 2903.000000
2152.463623 2845.000000
2153.662354 2804.000000
2154.860840 2772.000000
2156.058838 2828.000000
2157.255859 2873.000000
2158.452148 2783.000000
2159.647217 2816.000000
2160.842041 2727.000000
2162.036133 2764.000000
2163.229248 2614.000000
2164.421387 2714.000000
2165.613281 2577.000000
2166.804443 2677.000000
2167.994629 2581.000000
2169.184082 2659.000000
2170.373047 2581.000000
2171.561035 2626.000000
2172.748779 2550.000000
2173.935059 2499.000000
2175.120605 2538.000000
2176.305908 2494.000000
2177.490723 2373.000000
2178.674316 2508.000000
2179.857178 2358.000000
2181.039063 2492.000000
2182.220703 2393.000000
2183.401855 2542.000000
2184.581787 2444.000000
2185.760742 2467.000000
2186.939209 2455.000000
2188.117432 2477.000000
2189.294434 2427.000000
2190.470459 2484.000000
2191.646240 2409.000000
2192.821533 2443.000000
2193.995361 2398.000000
2195.168701 2434.000000
2196.341797 2372.000000
2197.513672 2443.000000
2198.685059 2355.000000
2199.855957 2411.000000
2201.025146 2445.000000
2202.194336 2493.000000
2203.363037 2554.000000
2204.530762 2507.000000
2205.697510 2461.000000
2206.863525 2433.000000
2208.029053 2411.000000
2209.194336 2231.000000
2210.358154 2451.000000
2211.521484 2458.000000
2212.683594 2409.000000
2213.845947 2357.000000
2215.007080 2429.000000
2216.167236 2270.000000
2217.326904 2332.000000
2218.486328 2370.000000
2219.644531 2418.000000
2220.801758 2373.000000
2221.958740 2221.000000
2223.114990 2300.000000
2224.270508 2381.000000
2225.425293 2347.000000
2226.579102 2391.000000
2227.731934 2306.000000
2228.885254 2160.000000
2230.036621 2254.000000
2231.187744 2259.000000
2232.338135 2274.000000
2233.488037 2245.000000
2234.636963 2308.000000
2235.785400 2225.000000
2236.932373 2274.000000
2238.079590 2221.000000
2239.225586 2230.000000
2240.371338 2140.000000
2241.515381 2086.000000
2242.659668 2063.000000
2243.802979 2165.000000
2244.945557 2016.000000
2246.087158 2083.000000
2247.228516 2103.000000
2248.368896 2030.000000
2249.508545 2130.000000
2250.647705 1960.000000
2251.785645 2006.000000
2252.923584 2031.000000
2254.060547 2045.000000
2255.196777 2051.000000
2256.332031 1973.000000
2257.466553 2065.000000
2258.600830 1969.000000
2259.734619 2018.000000
2260.866943 2105.000000
2261.998779 1970.000000
2263.130127 1906.000000
2264.260498 1874.000000
2265.390625 1872.000000
2266.519531 1909.000000
2267.647949 1880.000000
2268.775879 1896.000000
2269.902832 1845.000000
2271.029053 1909.000000
2272.154297 1955.000000
2273.279541 1799.000000
2274.404053 1932.000000
2275.527344 1858.000000
2276.649902 1855.000000
2277.771973 1926.000000
2278.893555 1830.000000
2280.014404 1887.000000
2281.134033 1899.000000
2282.253174 1783.000000
2283.372070 1808.000000
2284.490234 1772.000000
2285.607422 1750.000000
2286.723633 1737.000000
2287.839600 1806.000000
2288.954834 1855.000000
2290.069336 1813.000000
2291.182617 1844.000000
2292.295898 1811.000000
2293.408447 1827.000000
2294.520264 1825.000000
2295.631348 1733.000000
2296.741211 1789.000000
2297.850586 1914.000000
2298.959717 1874.000000
2300.067871 1838.000000
2301.175049 1831.000000
2302.281982 1830.000000
2303.388184 1824.000000
2304.493896 1832.000000
2305.598145 1844.000000
2306.702148 1902.000000
2307.805664 1851.000000
2308.908691 1697.000000
2310.010498 1851.000000
2311.111572 1887.000000
2312.212158 1787.000000
2313.312256 1821.000000
2314.411621 1754.000000
2315.509521 1779.000000
2316.607910 1726.000000
2317.704834 1683.000000
2318.801514 1683.000000
2319.897705 1837.000000
2320.992188 1786.000000
2322.086670 1628.000000
2323.180420 1742.000000
2324.273926 1749.000000
2325.365723 1734.000000
2326.457520 1684.000000
2327.548584 1791.000000
2328.638916 1753.000000
2329.728271 1834.000000
2330.817627 1753.000000
2331.905762 1821.000000
2332.993408 1818.000000
2334.080811 1629.000000
2335.166504 1788.000000
2336.251953 1621.000000
2337.337158 1710.000000
2338.421387 1617.000000
2339.504639 1538.000000
2340.587646 1659.000000
2341.669678 1031.000000
2342.751465 1465.000000
2343.832520 1581.000000
2344.912354 1624.000000
2345.991699 1558.000000
2347.070557 1526.000000
2348.148926 1570.000000
2349.225830 1494.000000
2350.302490 1532.000000
2351.378906 1557.000000
2352.454346 1480.000000
2353.528809 1544.000000
2354.603027 1472.000000
2355.676514 1463.000000
2356.749512 1466.000000
2357.821289 1427.000000
2358.892822 1456.000000
2359.963379 1620.000000
2361.033691 1514.000000
2362.103027 1504.000000
2363.171387 1459.000000
2364.239502 1544.000000
2365.306885 1449.000000
2366.373779 1417.000000
2367.439941 1467.000000
2368.504883 1406.000000
2369.569824 1336.000000
2370.634033 1382.000000
2371.697510 1486.000000
2372.759766 1366.000000
2373.822021 1392.000000
2374.883301 1408.000000
2375.944336 1316.000000
2377.004150 1372.000000
2378.063232 1471.000000
2379.122314 1288.000000
2380.180420 1472.000000
2381.237793 1393.000000
2382.294189 1383.000000
2383.350342 1346.000000
2384.406006 1376.000000
2385.460938 1469.000000
2386.514404 1338.000000
2387.568115 1238.000000
2388.620850 1373.000000
2389.673096 1353.000000
2390.724609 1310.000000
2391.775146 1320.000000
2392.825439 1280.000000
2393.874756 1347.000000
2394.924072 1266.000000
2395.971924 1320.000000
2397.019287 1341.000000
2398.066406 1316.000000
2399.112549 1250.000000
2400.157959 1351.000000
2401.202637 1136.000000
2402.247314 1294.000000
2403.290527 1473.000000
2404.333740 1285.000000
2405.375488 1226.000000
2406.417480 1259.000000
2407.458740 1284.000000
2408.499023 1371.000000
2409.538574 1335.000000
2410.577148 1252.000000
2411.615967 1374.000000
2412.653564 1269.000000
2413.690918 1246.000000
2414.727051 1343.000000
2415.762939 1244.000000
2416.798096 1332.000000
2417.832764 1347.000000
2418.865967 1176.000000
2419.899414 1325.000000
2420.931885 1237.000000
2421.964111 1236.000000
2422.994873 1310.000000
2424.025635 1297.000000
2425.055908 1250.000000
2426.084961 1263.000000
2427.114014 1231.000000
2428.141357 1248.000000
2429.169189 1298.000000
2430.195801 1288.000000
2431.222168 1234.000000
2432.247070 1153.000000
2433.272217 1208.000000
2434.296387 1117.000000
2435.320313 1176.000000
2436.343018 1244.000000
2437.364990 1103.000000
2438.386719 1251.000000
2439.407715 1266.000000
2440.428223 1172.000000
2441.447510 1107.000000
2442.466797 1182.000000
2443.485107 1183.000000
2444.503174 1059.000000
2445.519775 1117.000000
2446.536377 1146.000000
2447.552246 1099.000000
2448.568115 1097.000000
2449.582520 1183.000000
2450.596191 1117.000000
2451.609375 1148.000000
2452.622314 1050.000000
2453.634521 1151.000000
2454.645752 1094.000000
2455.656738 1130.000000
2456.666992 1057.000000
2457.676758 1065.000000
2458.685547 1058.000000
2459.693604 1016.000000
2460.701660 1067.000000
2461.708496 990.000000
2462.715088 1119.000000
2463.720459 960.000000
2464.725586 1144.000000
2465.730469 1027.000000
2466.734131 1011.000000
2467.737549 1074.000000
2468.739990 964.000000
2469.742188 1044.000000
2470.743896 1095.000000
2471.744629 1062.000000
2472.744385 1067.000000
2473.744141 1100.000000
2474.742920 1069.000000
2475.741211 974.000000
2476.738525 1004.000000
2477.735596 985.000000
2478.732666 1021.000000
2479.728271 1030.000000
2480.723877 1039.000000
2481.717773 1040.000000
2482.711670 1005.000000
2483.705078 919.000000
2484.697998 1080.000000
2485.689941 974.000000
2486.681152 951.000000
2487.672119 1067.000000
2488.662598 998.000000
2489.652100 961.000000
2490.640869 1000.000000
2491.629639 1073.000000
2492.617432 1003.000000
2493.604004 992.000000
2494.590576 929.000000
2495.576660 1076.000000
2496.562012 1114.000000
2497.546387 1022.000000
2498.530518 1004.000000
2499.514648 1031.000000
2500.497314 952.000000
2501.479492 1064.000000
2502.461182 908.000000
2503.442139 1001.000000
2504.422607 986.000000
2505.402832 957.000000
2506.381592 921.000000
2507.360107 811.000000
2508.338135 990.000000
2509.315674 993.000000
2510.292236 1001.000000
2511.268555 1049.000000
2512.244141 942.000000
2513.219238 975.000000
2514.193848 902.000000
2515.167236 970.000000
2516.140381 922.000000
2517.113281 907.000000
2518.085205 910.000000
2519.056396 855.000000
2520.027100 891.000000
2520.997559 924.000000
2521.967285 809.000000
2522.936035 905.000000
2523.904053 867.000000
2524.872070 817.000000
2525.839111 915.000000
2526.805908 881.000000
2527.771484 906.000000
2528.737061 977.000000
2529.701904 854.000000
2530.666260 853.000000
2531.629395 862.000000
2532.592773 864.000000
2533.555176 882.000000
2534.517334 851.000000
2535.478271 851.000000
2536.438477 808.000000
2537.398926 848.000000
2538.358398 943.000000
2539.317139 850.000000
2540.274902 982.000000
2541.232910 820.000000
2542.190186 844.000000
2543.146484 817.000000
2544.102539 887.000000
2545.057373 896.000000
2546.012451 852.000000
2546.966797 816.000000
2547.920410 1157.000000
2548.873047 749.000000
2549.825439 721.000000
2550.777344 784.000000
2551.728516 813.000000
2552.678955 774.000000
2553.628906 898.000000
2554.578613 698.000000
2555.527588 776.000000
2556.476074 874.000000
2557.423340 812.000000
2558.370605 833.000000
2559.317139 877.000000
2560.263184 796.000000
2561.208252 797.000000
2562.153076 764.000000
2563.097412 846.000000
2564.041260 803.000000
2564.984619 788.000000
2565.926514 726.000000
2566.868652 712.000000
2567.810059 717.000000
2568.750732 674.000000
2569.690674 744.000000
2570.630615 831.000000
2571.569580 723.000000
2572.508301 727.000000
2573.446045 752.000000
2574.383545 711.000000
2575.320313 762.000000
2576.256348 858.000000
2577.191895 739.000000
2578.126709 784.000000
2579.061523 782.000000
2579.995361 709.000000
2580.928711 856.000000
2581.861328 729.000000
2582.793701 724.000000
2583.725342 804.000000
2584.656494 662.000000
2585.587158 756.000000
2586.516602 718.000000
2587.446045 587.000000
2588.375000 716.000000
2589.303711 836.000000
2590.230713 665.000000
2591.157959 733.000000
2592.084717 834.000000
2593.010742 715.000000
2593.936523 632.000000
2594.861084 687.000000
2595.785400 790.000000
2596.709229 760.000000
2597.632568 682.000000
2598.554932 784.000000
2599.477051 774.000000
2600.398682 687.000000
2601.319580 668.000000
2602.239746 680.000000
2603.159668 712.000000
2604.079102 688.000000
2604.998291 711.000000
2605.916504 692.000000
2606.833496 776.000000
2607.750732 727.000000
2608.667725 680.000000
2609.583740 658.000000
2610.498535 624.000000
2611.413818 600.000000
2612.328369 666.000000
2613.241943 689.000000
2614.155518 693.000000
2615.067871 700.000000
2615.980225 672.000000
2616.891602 711.000000
2617.802734 677.000000
2618.713135 622.000000
2619.623291 699.000000
2620.532715 685.000000
2621.441650 654.000000
2622.349609 701.000000
2623.257813 644.000000
2624.165039 606.000000
2625.071777 603.000000
2625.977783 560.000000
2626.883545 706.000000
2627.788574 476.000000
2628.693359 684.000000
2629.597412 662.000000
2630.500488 583.000000
2631.403564 656.000000
2632.305664 624.000000
2633.207764 611.000000
2634.109619 652.000000
2635.009766 578.000000
2635.910156 632.000000
2636.809814 631.000000
2637.709229 642.000000
2638.607178 592.000000
2639.505615 568.000000
2640.403564 545.000000
2641.300781 622.000000
2642.196777 571.000000
2643.092773 684.000000
2643.988525 540.000000
2644.883545 678.000000
2645.778320 668.000000
2646.671631 618.000000
2647.564941 493.000000
2648.458008 556.000000
2649.350830 536.000000
2650.241943 645.000000
2651.133301 524.000000
2652.024170 574.000000
2652.914307 596.000000
2653.804199 672.000000
2654.692871 486.000000
2655.581787 521.000000
2656.470215 584.000000
2657.357666 556.000000
2658.244141 591.000000
2659.131104 547.000000
2660.017334 466.000000
2660.903076 603.000000
2661.787598 523.000000
2662.672119 555.000000
2663.556396 421.000000
2664.439941 484.000000
2665.322998 603.000000
2666.205322 603.000000
2667.087158 594.000000
2667.968262 513.000000
2668.849609 485.000000
2669.729492 603.000000
2670.609619 511.000000
2671.489014 561.000000
2672.368408 430.000000
2673.247070 599.000000
2674.124023 545.000000
2675.001709 598.000000
2675.878662 525.000000
2676.754883 477.000000
2677.630615 569.000000
2678.505615 473.000000
2679.380859 519.000000
2680.255127 486.000000
2681.128906 502.000000
2682.001953 505.000000
2682.874756 533.000000
2683.747314 561.000000
2684.619141 516.000000
2685.490234 560.000000
2686.361084 389.000000
2687.231445 493.000000
2688.101563 647.000000
2688.969971 467.000000
2689.839111 536.000000
2690.707520 610.000000
2691.575684 586.000000
2692.443115 571.000000
2693.309326 499.000000
2694.176025 472.000000
2695.041748 540.000000
2695.907471 476.000000
2696.771729 454.000000
2697.636719 505.000000
2698.500244 495.000000
2699.364014 551.000000
2700.226318 412.000000
2701.089111 504.000000
2701.950928 553.000000
2702.812256 434.000000
2703.673584 545.000000
2704.533691 404.000000
2705.393799 483.000000
2706.253418 599.000000
2707.112793 520.000000
2707.970459 514.000000
2708.828369 536.000000
2709.686768 383.000000
2710.543945 577.000000
2711.400391 476.000000
2712.256348 457.000000
2713.112305 421.000000
2713.967529 481.000000
2714.822021 494.000000
2715.676025 551.000000
2716.530029 381.000000
2717.383057 458.000000
2718.236328 385.000000
2719.087891 500.000000
2719.939941 399.000000
2720.791748 502.000000
2721.642334 492.000000
2722.492920 559.000000
2723.343018 407.000000
2724.192383 422.000000
2725.041748 516.000000
2725.889893 419.000000
2726.737549 405.000000
2727.585693 481.000000
2728.432617 503.000000
2729.280029 495.000000
2730.125977 427.000000
2730.971191 426.000000
2731.816895 478.000000
2732.661621 425.000000
2733.506348 405.000000
2734.349854 471.000000
2735.193604 352.000000
2736.036621 415.000000
2736.879150 462.000000
2737.720703 413.000000
2738.562744 475.000000
2739.403809 449.000000
2740.244629 465.000000
2741.085205 416.000000
2741.924561 527.000000
2742.763916 437.000000
2743.603271 367.000000
2744.441406 382.000000
2745.279053 351.000000
2746.116699 369.000000
2746.953857 427.000000
2747.790771 382.000000
2748.627197 420.000000
2749.462402 338.000000
2750.297852 465.000000
2751.132813 419.000000
2751.967041 404.000000
2752.801025 375.000000
2753.634521 320.000000
2754.468018 405.000000
2755.300537 410.000000
2756.132568 476.000000
2756.964111 362.000000
2757.795654 388.000000
2758.626221 311.000000
2759.457031 397.000000
2760.286621 413.000000
2761.116211 340.000000
2761.945557 285.000000
2762.774170 458.000000
2763.602295 391.000000
2764.429932 438.000000
2765.257568 368.000000
2766.084717 306.000000
2766.911133 419.000000
2767.737061 341.000000
2768.562500 368.000000
2769.387695 399.000000
2770.212891 369.000000
2771.036865 407.000000
2771.860840 406.000000
2772.684814 325.000000
2773.507568 358.000000
2774.330566 562.000000
2775.152344 354.000000
2775.974121 400.000000
2776.795898 366.000000
2777.616699 408.000000
2778.436768 360.000000
2779.257080 327.000000
2780.076904 371.000000
2780.896729 437.000000
2781.714600 373.000000
2782.533691 328.000000
2783.351563 307.000000
2784.169189 354.000000
2784.986328 378.000000
2785.802979 281.000000
2786.619385 364.000000
2787.435303 299.000000
2788.250977 372.000000
2789.065674 400.000000
2789.880859 334.000000
2790.695313 289.000000
2791.509277 351.000000
2792.322998 356.000000
2793.135498 252.000000
2793.948242 311.000000
2794.760498 286.000000
2795.572266 262.000000
2796.383301 299.000000
2797.195068 336.000000
2798.005615 298.000000
2798.816162 263.000000
2799.625244 369.000000
2800.435059 333.000000
2801.244141 268.000000
2802.052979 344.000000
2802.861328 311.000000
2803.668701 373.000000
2804.476563 334.000000
2805.283691 407.000000
2806.090576 268.000000
2806.896240 138.000000
2807.702393 394.000000
2808.507813 220.000000
2809.313232 278.000000
2810.117920 324.000000
2810.921631 377.000000
2811.725830 327.000000
2812.529541 232.000000
2813.333008 317.000000
2814.135010 340.000000
2814.937744 274.000000
2815.739746 217.000000
2816.541504 339.000000
2817.342773 354.000000
2818.143555 335.000000
2818.943848 280.000000
2819.744385 389.000000
2820.543945 334.000000
2821.343018 368.000000
2822.142090 265.000000
2822.940918 281.000000
2823.739258 383.000000
2824.536621 259.000000
2825.334229 236.000000
2826.131104 263.000000
2826.928223 227.000000
2827.724609 286.000000
2828.520264 291.000000
2829.315918 299.000000
2830.111328 142.000000
2830.906250 294.000000
2831.700439 288.000000
2832.494629 302.000000
2833.288574 343.000000
2834.082031 264.000000
2834.874756 172.000000
2835.667236 304.000000
2836.459717 335.000000
2837.251953 242.000000
2838.043701 261.000000
2838.834473 339.000000
2839.625244 249.000000
2840.416260 303.000000
2841.206299 297.000000
2841.995850 366.000000
2842.785645 338.000000
2843.574463 354.000000
2844.363281 223.000000
2845.152100 250.000000
2845.939941 265.000000
2846.727295 260.000000
2847.514893 228.000000
2848.302002 278.000000
2849.088379 379.000000
2849.874756 258.000000
2850.660889 300.000000
2851.446533 275.000000
2852.231201 300.000000
2853.016357 151.000000
2853.801270 255.000000
2854.585449 312.000000
2855.369629 281.000000
2856.152588 340.000000
2856.935791 270.000000
2857.718750 222.000000
2858.501221 227.000000
2859.283447 395.000000
2860.065186 391.000000
2860.846680 304.000000
2861.628418 251.000000
2862.409424 301.000000
2863.189697 330.000000
2863.969727 286.000000
2864.749756 241.000000
2865.529541 253.000000
2866.308350 326.000000
2867.087402 287.000000
2867.865967 231.000000
2868.644287 371.000000
2869.422119 267.000000
2870.199707 347.000000
2870.977051 194.000000
2871.754150 265.000000
2872.530762 350.000000
2873.306885 275.000000
2874.083008 299.000000
2874.858643 285.000000
2875.634033 327.000000
2876.408936 321.000000
2877.183594 293.000000
2877.958252 254.000000
2878.732666 226.000000
2879.506348 338.000000
2880.279297 258.000000
2881.052979 169.000000
2881.825684 279.000000
2882.598389 220.000000
2883.370361 241.000000
2884.142090 332.000000
2884.914307 331.000000
2885.685303 277.000000
2886.455811 265.000000
2887.226807 358.000000
2887.997803 264.000000
2888.768066 222.000000
2889.537354 295.000000
2890.306885 262.000000
2891.076416 223.000000
2891.845459 267.000000
2892.614014 285.000000
2893.382568 250.000000
2894.150146 300.000000
2894.918213 358.000000
2895.685791 321.000000
2896.453369 255.000000
2897.219727 248.000000
2897.987061 147.000000
2898.753174 249.000000
2899.519531 134.000000
2900.284424 114.000000
2901.049805 192.000000
2901.815674 282.000000
2902.580078 191.000000
2903.344482 320.000000
2904.109131 237.000000
2904.872803 224.000000
2905.637207 245.000000
2906.400879 249.000000
2907.163818 196.000000
2907.926514 195.000000
2908.689697 204.000000
2909.452393 262.000000
2910.213867 334.000000
2910.975830 334.000000
spectrumdark 2048
-97.254982 6262.000000
-94.628113 6262.000000
-92.003120 6026.000000
-89.380020 6392.000000
-86.758789 5786.000000
-84.139458 6206.000000
-81.521988 6076.000000
-78.906395 6400.000000
-76.292679 6196.000000
-73.680840 5824.000000
-71.070862 6101.000000
-68.462769 5957.000000
-65.856522 5905.000000
-63.252151 5888.000000
-60.649643 6092.000000
-58.048988 5642.000000
-55.450195 6258.000000
-52.853260 6875.000000
-50.258179 6433.000000
-47.664951 6472.000000
-45.073574 6212.000000
-42.484043 6753.000000
-39.896355 5858.000000
-37.310516 5931.000000
-34.726521 6429.000000
-32.144363 5644.000000
-29.564051 6266.000000
-26.985565 5660.000000
-24.408922 6167.000000
-21.834105 6207.000000
-19.261127 6441.000000
-16.689970 6476.000000
-14.120646 6808.000000
-11.553148 7734.000000
-8.987469 6303.000000
-6.423615 6414.000000
-3.861574 5960.000000
-1.301358 5777.000000
1.257050 6109.000000
3.813637 6963.000000
6.368419 6648.000000
8.921384 5976.000000
11.472548 6719.000000
14.021900 6510.000000
16.569456 6667.000000
19.115200 5956.000000
21.659151 5692.000000
24.201298 6630.000000
26.741648 6704.000000
29.280212 6846.000000
31.816980 6197.000000
34.351948 5745.000000
36.885136 7181.000000
39.416542 6301.000000
41.946156 7153.000000
44.473972 6451.000000
47.000031 7786.000000
49.524300 5630.000000
52.046799 6222.000000
54.567501 6714.000000
57.086449 6275.000000
59.603622 6353.000000
62.119019 6568.000000
64.632637 5633.000000
67.144501 5685.000000
69.654617 6503.000000
72.162941 6478.000000
74.669510 5865.000000
77.174332 6318.000000
79.677399 6390.000000
82.178688 6218.000000
84.678238 6113.000000
87.176033 6315.000000
89.672096 5741.000000
92.166382 7112.000000
94.658928 5761.000000
97.149757 6939.000000
99.638817 7186.000000
102.126129 6331.000000
104.611717 6133.000000
107.095566 6334.000000
109.577667 5766.000000
112.058044 6544.000000
114.536697 6175.000000
117.013626 6459.000000
119.488800 7216.000000
121.962265 6829.000000
124.433998 5872.000000
126.904022 6726.000000
129.372284 6267.000000
131.838882 6212.000000
134.303726 5647.000000
136.766876 6189.000000
139.228287 7181.000000
141.688004 6918.000000
144.145996 6268.000000
146.602295 5959.000000
149.056885 5774.000000
151.509750 6770.000000
153.960938 6320.000000
156.410431 6636.000000
158.858200 6034.000000
161.304260 6501.000000
163.748642 8644.000000
166.191345 6432.000000
168.632355 6772.000000
171.071655 6217.000000
173.509247 7267.000000
175.945206 6576.000000
178.379425 6917.000000
180.811966 7088.000000
183.242859 6670.000000
185.672028 7102.000000
188.099548 6725.000000
190.525391 6350.000000
192.949554 6673.000000
195.372055 7157.000000
197.792862 7380.000000
200.212006 6491.000000
202.629486 6016.000000
205.045273 7519.000000
207.459412 6991.000000
209.871918 6329.000000
212.282745 6094.000000
214.691895 6164.000000
217.099411 7406.000000
219.505219 6139.000000
221.909439 6498.000000
224.311951 6609.000000
226.712845 6948.000000
229.112091 6429.000000
231.509674 6843.000000
233.905594 7256.000000
236.299896 6518.000000
238.692535 5833.000000
241.083557 6803.000000
243.472916 6563.000000
245.860657 6328.000000
248.246750 6925.000000
250.631210 6062.000000
253.014023 7806.000000
255.395264 6647.000000
257.774811 6653.000000
260.152771 6450.000000
262.529053 7532.000000
264.903778 7569.000000
267.276855 7786.000000
269.648285 6158.000000
272.018066 6436.000000
274.386292 5837.000000
276.752869 6343.000000
279.117859 6740.000000
281.481232 6040.000000
283.842957 6153.000000
286.203094 7107.000000
288.561615 5930.000000
290.918549 6481.000000
293.273865 6304.000000
295.627594 5951.000000
297.979675 5931.000000
300.330200 6324.000000
302.679138 6363.000000
305.026428 6764.000000
307.372192 6382.000000
309.716278 6462.000000
312.058838 7305.000000
314.399780 7570.000000
316.739105 7176.000000
319.076874 6960.000000
321.413086 8009.000000
323.747650 6274.000000
326.080658 6441.000000
328.412109 5916.000000
330.741974 6617.000000
333.070251 6311.000000
335.396912 7240.000000
337.722076 6358.000000
340.045624 6176.000000
342.367615 5938.000000
344.688049 7490.000000
347.006866 7665.000000
349.324127 6060.000000
351.639862 5737.000000
353.954010 6905.000000
356.266571 6276.000000
358.577576 6274.000000
360.887054 7009.000000
363.195007 6311.000000
365.501343 5659.000000
367.806091 6392.000000
370.109375 6397.000000
372.411041 6262.000000
374.711212 6339.000000
377.009827 6290.000000
379.306885 5692.000000
381.602386 6026.000000
383.896362 5872.000000
386.188751 5207.000000
388.479645 5568.000000
390.769012 6120.000000
393.056793 6248.000000
395.343048 6457.000000
397.627808 6947.000000
399.910950 6061.000000
402.192657 6424.000000
404.472839 6041.000000
406.751434 7218.000000
409.028503 6446.000000
411.304047 6711.000000
413.578064 6441.000000
415.850647 6303.000000
418.121613 6277.000000
420.391083 6353.000000
422.659058 7043.000000
424.925476 7250.000000
427.190399 6231.000000
429.453857 6294.000000
431.715729 6462.000000
433.976135 5978.000000
436.234985 6597.000000
438.492371 6031.000000
440.748260 5625.000000
443.002655 5785.000000
445.255524 5416.000000
447.506836 6938.000000
449.756744 6098.000000
452.005066 6194.000000
454.251953 5658.000000
456.497375 6436.000000
458.741241 6473.000000
460.983612 6812.000000
463.224487 5617.000000
465.463959 6680.000000
467.701843 5468.000000
469.938293 5843.000000
472.173218 6076.000000
474.406677 7290.000000
476.638702 6725.000000
478.869202 5692.000000
481.098206 6419.000000
483.325745 6277.000000
485.551788 5901.000000
487.776398 6606.000000
489.999542 5820.000000
492.221222 6287.000000
494.441345 6658.000000
496.660065 5638.000000
498.877289 6225.000000
501.093140 5493.000000
503.307373 6147.000000
505.520294 6364.000000
507.731628 6380.000000
509.941528 6826.000000
512.149963 6479.000000
514.357056 6566.000000
516.562561 6409.000000
518.766663 6541.000000
520.969238 6209.000000
523.170410 6594.000000
525.370239 6613.000000
527.568542 6970.000000
529.765320 5387.000000
531.960754 5811.000000
534.154663 5501.000000
536.347229 7571.000000
538.538269 6685.000000
540.727905 5951.000000
542.916138 6886.000000
545.102844 7110.000000
547.288086 6779.000000
549.472046 6227.000000
551.654419 6411.000000
553.835449 6185.000000
556.014954 6013.000000
558.193176 5859.000000
560.369873 5994.000000
562.545166 6322.000000
564.719055 6446.000000
566.891479 5902.000000
569.062500 6031.000000
571.232056 6364.000000
573.400330 5260.000000
575.567078 6369.000000
577.732361 6265.000000
579.896240 6094.000000
582.058838 5672.000000
584.219910 5973.000000
586.379578 5590.000000
588.537903 5802.000000
590.694702 6077.000000
592.850159 6532.000000
595.004211 5730.000000
597.156921 6144.000000
599.308105 7249.000000
601.457947 6654.000000
603.606445 6628.000000
605.753357 6065.000000
607.899048 6428.000000
610.043335 6406.000000
612.186157 6965.000000
614.327515 6109.000000
616.467651 6355.000000
618.606262 7684.000000
620.743591 5680.000000
622.879456 6527.000000
625.013916 6827.000000
627.146912 7163.000000
629.278748 6629.000000
631.409119 6505.000000
633.538086 6746.000000
635.665588 6454.000000
637.791809 6231.000000
639.916504 7275.000000
642.039978 6331.000000
644.162109 6781.000000
646.282776 6760.000000
648.402100 6486.000000
650.520020 5598.000000
652.636597 5706.000000
654.751770 6423.000000
656.865601 6469.000000
658.977966 5792.000000
661.089111 6112.000000
663.198853 5416.000000
665.307129 6010.000000
667.414246 6226.000000
669.519897 6808.000000
671.624084 5861.000000
673.727051 5677.000000
675.828613 6924.000000
677.928833 5261.000000
680.027649 6677.000000
682.125122 6218.000000
684.221313 7031.000000
686.316040 6176.000000
688.409546 6967.000000
690.501709 6599.000000
692.592346 7944.000000
694.681763 6607.000000
696.769897 6513.000000
698.856567 5955.000000
700.942017 6614.000000
703.025940 5156.000000
705.108643 5894.000000
707.190063 5926.000000
709.270020 7538.000000
711.348755 6161.000000
713.426025 5525.000000
715.502014 6605.000000
717.576721 6124.000000
719.650146 7020.000000
721.722046 6302.000000
723.792786 7326.000000
725.862183 5814.000000
727.930176 6457.000000
729.996826 6324.000000
732.062256 7040.000000
734.126343 5740.000000
736.189087 6124.000000
738.250488 6575.000000
740.310608 6608.000000
742.369324 6028.000000
744.426819 6640.000000
746.483032 6508.000000
748.537842 6642.000000
750.591370 6388.000000
752.643494 7381.000000
754.694397 5777.000000
756.744080 6697.000000
758.792297 6304.000000
760.839294 6180.000000
762.885010 6959.000000
764.929321 5342.000000
766.972351 10181.000000
769.014160 6331.500000
771.054626 6925.000000
773.093689 6303.000000
775.131592 6081.000000
777.168152 5968.000000
779.203491 5377.000000
781.237488 5738.000000
783.270081 6855.000000
785.301514 5430.000000
787.331543 12129.000000
789.360291 5995.000000
791.387878 6289.000000
793.414124 6298.000000
795.438965 5744.000000
797.462708 5470.000000
799.485046 6347.000000
801.506165 5831.000000
803.525940 6616.000000
805.544434 4933.000000
807.561707 6645.000000
809.577576 6827.000000
811.592285 5646.000000
813.605652 6413.000000
815.617798 6230.000000
817.628723 6167.000000
819.638306 6502.000000
821.646667 5272.000000
823.653625 5667.000000
825.659363 6036.000000
827.663879 5723.000000
829.667114 5637.000000
831.669067 6449.000000
833.669739 6123.000000
835.669189 5904.000000
837.667297 6331.000000
839.664307 6971.000000
841.659912 6202.000000
843.654358 5962.000000
845.647461 6184.000000
847.639343 6839.000000
849.629883 5586.000000
851.619141 6736.000000
853.607361 5992.000000
855.594177 5816.000000
857.579773 6374.000000
859.564087 7252.000000
861.547302 6329.000000
863.529114 6300.000000
865.509705 5809.000000
867.489014 7725.000000
869.467163 7053.000000
871.443970 6186.000000
873.419495 5965.000000
875.393982 6126.000000
877.367004 5998.000000
879.338989 5375.000000
881.309631 6368.000000
883.279114 6062.000000
885.247253 5600.000000
887.214233 5104.000000
889.179871 6106.000000
891.144348 5825.000000
893.107605 5933.000000
895.069641 6401.000000
897.030396 5761.000000
898.989929 6388.000000
900.948181 6662.000000
902.905334 6346.000000
904.861328 5963.000000
906.815918 6839.000000
908.769287 6437.000000
910.721497 6425.000000
912.672485 6332.000000
914.622192 7119.000000
916.570740 6279.000000
918.518066 6174.000000
920.464111 6090.000000
922.408875 6021.000000
924.352600 6251.000000
926.295166 5923.000000
928.236450 5561.000000
930.176392 6436.000000
932.115234 5646.000000
934.052795 5526.000000
935.989136 5955.000000
937.924316 5771.000000
939.858215 6064.000000
941.791016 5853.000000
943.722595 6725.000000
945.653015 5234.000000
947.582214 6446.000000
949.510071 6924.000000
951.436890 6571.000000
953.362427 5918.000000
955.286682 5364.000000
957.209839 5977.000000
959.131836 6744.000000
961.052551 7271.000000
962.972107 6509.000000
964.890503 5292.000000
966.807861 6378.000000
968.723755 6404.000000
970.638550 6150.000000
972.552124 5906.000000
974.464539 6316.000000
976.375732 6404.000000
978.285767 5477.000000
980.194519 6197.000000
982.102234 6105.000000
984.008728 6285.000000
985.914001 5681.000000
987.818176 6786.000000
989.721130 6123.000000
991.622864 6799.000000
993.523438 6319.000000
995.422852 6538.000000
997.321045 5272.000000
999.218079 6487.000000
1001.113892 6503.000000
1003.008545 7663.000000
1004.902100 5621.000000
1006.794373 7060.000000
1008.685730 6015.000000
1010.575745 5375.000000
1012.464539 6591.000000
1014.352173 6242.000000
1016.238647 6880.000000
1018.123962 6710.000000
1020.008118 5923.000000
1021.891052 5799.000000
1023.772949 6201.000000
1025.653564 5161.000000
1027.533081 5845.000000
1029.411621 6023.000000
1031.288818 5407.000000
1033.164673 6191.000000
1035.039551 5926.000000
1036.913452 6547.000000
1038.785889 6935.000000
1040.657349 6674.000000
1042.527466 5462.000000
1044.396606 5508.000000
1046.264526 5410.000000
1048.131348 7042.000000
1049.997070 6652.000000
1051.861572 6424.000000
1053.724976 6465.000000
1055.587036 6424.000000
1057.448120 5908.000000
1059.308105 6489.000000
1061.166748 6549.000000
1063.024292 5767.000000
1064.880737 6688.000000
1066.736084 5925.000000
1068.590210 5743.000000
1070.443481 6266.000000
1072.295288 6267.000000
1074.146118 6089.000000
1075.995728 6130.000000
1077.844116 5735.000000
1079.691650 7913.000000
1081.537842 5539.000000
1083.382813 6215.000000
1085.226929 5397.000000
1087.069702 5534.000000
1088.911255 6534.000000
1090.752075 5482.000000
1092.591309 5783.000000
1094.429810 6043.000000
1096.266968 5949.000000
1098.102905 6724.000000
1099.937866 6533.000000
1101.771606 5370.000000
1103.604370 5603.000000
1105.435791 6119.000000
1107.266357 7188.000000
1109.095581 6499.000000
1110.923828 6448.000000
1112.750854 7066.000000
1114.576904 5451.000000
1116.401733 6249.000000
1118.225464 7142.000000
1120.047974 6081.000000
1121.869385 5848.000000
1123.689941 5866.000000
1125.509033 6527.000000
1127.327271 7020.000000
1129.144165 6838.000000
1130.960205 6589.000000
1132.775024 6437.000000
1134.588745 5567.000000
1136.401367 5788.000000
1138.212769 5617.000000
1140.023193 6091.000000
1141.832520 6722.000000
1143.640503 6886.000000
1145.447754 5969.000000
1147.253540 5887.000000
1149.058472 5330.000000
1150.862305 5397.000000
1152.664917 6068.000000
1154.466675 6074.000000
1156.266968 6002.000000
1158.066284 6089.000000
1159.864624 5754.000000
1161.661621 5468.000000
1163.457886 5904.000000
1165.252808 6008.000000
1167.046631 6295.000000
1168.839600 7697.000000
1170.631226 5728.000000
1172.421875 6472.000000
1174.211548 6064.000000
1175.999756 5846.000000
1177.787109 7422.000000
1179.573364 6908.000000
1181.358521 5749.000000
1183.142578 5920.000000
1184.925537 7720.000000
1186.707520 5824.000000
1188.488281 5877.000000
1190.268066 6282.000000
1192.046753 6840.000000
1193.824463 6632.000000
1195.600952 7144.000000
1197.376343 6559.000000
1199.150635 6477.000000
1200.923828 6673.000000
1202.696167 6493.000000
1204.467163 6716.000000
1206.237305 5582.000000
1208.006226 6134.000000
1209.774048 6287.000000
1211.541016 5746.000000
1213.306641 5900.000000
1215.071289 6964.000000
1216.834839 6513.000000
1218.597290 5915.000000
1220.358887 6809.000000
1222.119263 5864.000000
1223.878540 6280.000000
1225.636963 6051.000000
1227.394165 7095.000000
1229.150269 6379.000000
1230.905273 5544.000000
1232.659424 6073.000000
1234.412231 5850.000000
1236.164063 6019.000000
1237.915039 5914.000000
1239.664673 4893.000000
1241.413452 7015.000000
1243.160889 6420.000000
1244.907593 6575.000000
1246.653076 6457.000000
1248.397705 6363.000000
1250.140991 6694.000000
1251.883301 6700.000000
1253.624512 5259.000000
1255.364868 4979.000000
1257.104126 5755.000000
1258.842163 6552.000000
1260.579346 7101.000000
1262.315308 6091.000000
1264.050293 6346.000000
1265.784302 7306.000000
1267.517334 5944.000000
1269.249146 6138.000000
1270.979980 6362.000000
1272.709595 7180.000000
1274.438354 5881.000000
1276.166016 5636.000000
1277.892578 5517.000000
1279.618286 5497.000000
1281.342651 6397.000000
1283.066162 5167.000000
1284.788696 6861.000000
1286.510254 6614.000000
1288.230591 6119.000000
1289.949951 6627.000000
1291.668213 7218.000000
1293.385498 6418.000000
1295.101807 5736.000000
1296.816895 6414.000000
1298.531006 6078.000000
1300.244141 5736.000000
1301.956421 6385.000000
1303.667480 8260.000000
1305.377563 5228.000000
1307.086548 6348.000000
1308.794312 6633.000000
1310.501465 7027.000000
1312.207153 5753.000000
1313.912109 6872.000000
1315.616089 6112.000000
1317.318848 5939.000000
1319.020630 6499.000000
1320.721558 6074.000000
1322.421143 18707.500000
1324.119873 31341.000000
1325.817871 5562.000000
1327.514526 6455.000000
1329.210083 7112.000000
1330.904785 6834.000000
1332.598267 5691.000000
1334.290894 5405.000000
1335.982666 7303.000000
1337.673096 6152.000000
1339.362793 6600.000000
1341.051392 6094.000000
1342.738892 7639.000000
1344.425415 5630.000000
1346.110840 6785.000000
1347.795288 5944.000000
1349.478882 7225.000000
1351.161255 6367.000000
1352.842651 5916.000000
1354.523193 6519.000000
1356.202515 6696.000000
1357.881226 5855.000000
1359.558594 6523.000000
1361.234863 5784.000000
1362.910156 5526.000000
1364.584717 6505.000000
1366.258057 6414.000000
1367.930420 6743.000000
1369.601807 5161.000000
1371.272217 6709.000000
1372.941528 6114.000000
1374.609863 5649.000000
1376.277344 5835.000000
1377.943726 6326.000000
1379.609131 6122.000000
1381.273560 5804.000000
1382.936768 5867.000000
1384.599365 5698.000000
1386.260620 6341.000000
1387.921021 6525.000000
1389.580322 6389.000000
1391.238647 6495.000000
1392.896240 6821.000000
1394.552612 6442.000000
1396.208130 7003.000000
1397.862427 6266.000000
1399.515869 5794.000000
1401.168213 6107.000000
1402.819824 6393.000000
1404.470215 7199.000000
1406.119507 6177.000000
1407.768066 7436.000000
1409.415527 7859.000000
1411.062012 6163.000000
1412.707642 6178.000000
1414.352295 5946.000000
1415.995728 7033.000000
1417.638306 7146.000000
1419.279785 6847.000000
1420.920410 6472.000000
1422.560059 6397.000000
1424.198608 6027.000000
1425.836304 6589.000000
1427.472900 6331.000000
1429.108521 5957.000000
1430.743408 6343.000000
1432.377197 5907.000000
1434.009888 6091.000000
1435.641602 5682.000000
1437.272461 6119.000000
1438.902222 6058.000000
1440.530884 7847.000000
1442.158936 6007.000000
1443.785889 6196.000000
1445.411621 6203.000000
1447.036743 6117.000000
1448.660767 6511.000000
1450.283813 6011.000000
1451.905884 6009.000000
1453.526855 7326.000000
1455.146851 6258.000000
1456.766113 6863.000000
1458.384033 5575.000000
1460.001343 16590.000000
1461.617676 5496.000000
1463.232788 7269.000000
1464.847046 6238.000000
1466.460449 5178.000000
1468.072754 5641.000000
1469.684204 6292.000000
1471.294800 6378.000000
1472.904175 5993.000000
1474.512573 5912.000000
1476.120117 6203.000000
1477.726685 6701.000000
1479.332520 5321.000000
1480.937134 6211.000000
1482.540894 5457.000000
1484.143433 6654.000000
1485.745361 5539.000000
1487.346069 5551.000000
1488.946045 5690.000000
1490.544922 6231.000000
1492.142944 6405.000000
1493.739868 6623.000000
1495.335938 6342.000000
1496.931030 5973.000000
1498.525146 5467.000000
1500.118530 6539.000000
1501.710815 5542.000000
1503.301880 6113.000000
1504.892456 6746.000000
1506.481689 6443.000000
1508.070313 6135.000000
1509.657837 6541.000000
1511.244263 6878.000000
1512.829956 6213.000000
1514.414551 6618.000000
1515.998291 6274.000000
1517.580933 6115.000000
1519.162842 6640.000000
1520.743652 6614.000000
1522.323730 5965.000000
1523.902588 6201.000000
1525.480591 6346.000000
1527.057861 6225.000000
1528.633911 5632.000000
1530.209229 5914.000000
1531.783447 6339.000000
1533.356934 5440.000000
1534.929199 5991.000000
1536.500732 6381.000000
1538.071289 6384.000000
1539.640991 6267.000000
1541.209473 5344.000000
1542.777222 6598.000000
1544.344116 5642.000000
1545.909790 6728.000000
1547.474731 5966.000000
1549.038574 5036.000000
1550.601807 7457.000000
1552.163696 6244.000000
1553.724976 5957.000000
1555.285156 5688.000000
1556.844604 5676.000000
1558.402954 5802.000000
1559.960571 6285.000000
1561.517090 7002.000000
1563.072388 5828.000000
1564.627075 6336.000000
1566.181030 5596.000000
1567.734009 6295.000000
1569.285645 5633.000000
1570.836548 5924.000000
1572.386719 6236.000000
1573.935913 6333.000000
1575.483765 5718.000000
1577.031128 5495.000000
1578.577515 5673.000000
1580.123047 5065.000000
1581.667603 6590.000000
1583.210938 6356.000000
1584.753662 6630.000000
1586.295532 6391.000000
1587.836304 6659.000000
1589.376099 5824.000000
1590.915161 6696.000000
1592.453125 5869.000000
1593.990601 6055.000000
1595.526733 5847.000000
1597.061768 6684.000000
1598.596313 6237.000000
1600.129883 5946.000000
1601.662598 5999.000000
1603.193726 6274.000000
1604.724609 6285.000000
1606.254639 5691.000000
1607.783447 6148.000000
1609.311157 6122.000000
1610.838257 5988.000000
1612.364624 5806.000000
1613.890015 6235.000000
1615.414551 5728.000000
1616.937744 5820.000000
1618.460205 5593.000000
1619.981934 6597.000000
1621.502808 6947.000000
1623.022217 15544.000000
1624.541138 6153.000000
1626.059326 6035.000000
1627.576660 5891.000000
1629.092896 6306.000000
1630.607788 7017.000000
1632.122192 6747.000000
1633.635864 5762.000000
1635.148438 6690.000000
1636.659790 5921.000000
1638.170776 6427.000000
1639.680664 6178.000000
1641.189697 6180.000000
1642.697388 5573.000000
1644.204712 6070.000000
1645.711182 7079.000000
1647.216675 6244.000000
1648.721313 6821.000000
1650.224487 6070.000000
1651.727051 6572.000000
1653.229248 6290.000000
1654.730103 6661.000000
1656.229858 7574.000000
1657.728760 5884.000000
1659.227295 6525.000000
1660.724609 6229.000000
1662.221191 5906.000000
1663.716187 6513.000000
1665.210938 6285.000000
1666.704834 5187.000000
1668.197754 5711.000000
1669.689331 21129.000000
1671.180420 6438.000000
1672.670898 6062.000000
1674.160278 5927.000000
1675.648193 6986.000000
1677.135864 6867.000000
1678.622559 5984.000000
1680.108398 5316.000000
1681.593384 6066.000000
1683.076904 6196.000000
1684.560181 6171.000000
1686.042603 5828.000000
1687.523926 6165.000000
1689.003784 6168.000000
1690.483398 5469.000000
1691.962280 6531.000000
1693.440186 6001.000000
1694.917114 6098.000000
1696.392822 5701.000000
1697.868164 6011.000000
1699.342285 6271.000000
1700.815796 5519.000000
1702.287842 5525.000000
1703.759644 6843.000000
1705.230469 6403.000000
1706.700439 7051.000000
1708.169067 5078.000000
1709.637207 5814.000000
1711.104614 6351.000000
1712.570923 5483.000000
1714.036621 5742.000000
1715.500610 6212.000000
1716.964478 5916.000000
1718.427490 6963.000000
1719.889526 6327.000000
1721.350342 6668.000000
1722.810547 5500.000000
1724.270020 6381.000000
1725.728638 6063.000000
1727.186279 6014.000000
1728.642578 6193.000000
1730.098633 6037.000000
1731.553711 6435.000000
1733.007813 5991.000000
1734.460693 6809.000000
1735.913330 5911.000000
1737.364868 6935.000000
1738.815674 5995.000000
1740.265503 6531.000000
1741.713989 5883.000000
1743.162109 7255.000000
1744.609375 6502.000000
1746.055908 6622.000000
1747.500854 6639.000000
1748.945557 6118.000000
1750.389404 5871.000000
1751.832397 5460.000000
1753.273926 6497.000000
1754.715210 6299.000000
1756.155640 19452.000000
1757.595093 6330.000000
1759.033569 5160.000000
1760.471069 6046.000000
1761.908081 7486.000000
1763.344116 5873.000000
1764.779297 7140.000000
1766.213013 6156.000000
1767.646606 6389.000000
1769.079224 6632.000000
1770.510986 5794.000000
1771.941895 5729.000000
1773.371582 6356.000000
1774.800537 6130.000000
1776.229004 6269.000000
1777.656494 6676.000000
1779.082642 6230.000000
1780.508545 5568.000000
1781.933350 6877.000000
1783.357544 5578.000000
1784.780273 6609.000000
1786.202515 6473.000000
1787.624023 6813.000000
1789.044800 5799.000000
1790.464600 5953.000000
1791.883057 6166.000000
1793.301025 6802.000000
1794.718384 5454.000000
1796.134888 6007.000000
1797.549927 6551.000000
1798.964600 5872.000000
1800.378662 6616.000000
1801.791504 5968.000000
1803.203735 6910.000000
1804.614624 7079.000000
1806.025024 7773.000000
1807.434692 6468.000000
1808.843384 6004.000000
1810.250977 5352.000000
1811.658081 6418.000000
1813.064331 6379.000000
1814.469604 6637.000000
1815.873779 5977.000000
1817.277588 5961.000000
1818.680420 6220.000000
1820.082397 5971.000000
1821.483765 5819.000000
1822.883667 6342.000000
1824.282959 6491.000000
1825.681763 6577.000000
1827.079712 7375.000000
1828.476318 5762.000000
1829.872314 6700.000000
1831.267578 5891.000000
1832.662231 8102.000000
1834.055908 5975.000000
1835.448242 6828.000000
1836.840088 6385.000000
1838.231323 5894.000000
1839.621582 7048.000000
1841.010620 5991.000000
1842.399292 6045.000000
1843.786987 5923.000000
1845.173950 5816.000000
1846.559570 6904.000000
1847.944946 5767.000000
1849.329468 6418.000000
1850.713257 6318.000000
1852.095947 6397.000000
1853.477417 5341.000000
1854.858398 6530.000000
1856.238892 6309.000000
1857.618408 5744.000000
1858.996460 5962.000000
1860.374390 6291.000000
1861.751343 7816.000000
1863.127563 6071.000000
1864.502930 6084.000000
1865.876831 5652.000000
1867.250610 5722.000000
1868.623535 6232.000000
1869.995361 5927.000000
1871.366211 6864.000000
1872.736694 5429.000000
1874.106079 6020.000000
1875.474976 6084.000000
1876.842285 7199.000000
1878.209473 6000.000000
1879.575684 5987.000000
1880.941162 6684.000000
1882.305908 7452.000000
1883.669067 6730.000000
1885.032104 6885.000000
1886.394287 6302.000000
1887.755615 6404.000000
1889.115601 5644.000000
1890.475220 5780.000000
1891.834229 6135.000000
1893.192261 6597.000000
1894.549438 7244.000000
1895.905396 5860.000000
1897.261108 7625.000000
1898.615845 5899.000000
1899.969727 5495.000000
1901.322510 5896.000000
1902.674805 5868.000000
1904.026367 5867.000000
1905.377075 6875.000000
1906.726563 6506.000000
1908.075562 6688.000000
1909.423706 5768.000000
1910.771240 6170.000000
1912.118042 6295.000000
1913.463257 6760.000000
1914.808228 6117.000000
1916.152466 5404.000000
1917.495850 6413.000000
1918.837891 5995.000000
1920.179688 6741.000000
1921.520630 7038.000000
1922.860840 6172.000000
1924.200073 6262.000000
1925.538330 6278.000000
1926.875977 6410.000000
1928.212891 6957.000000
1929.548950 6729.000000
1930.883789 5584.000000
1932.218262 6665.000000
1933.552002 7257.000000
1934.884888 6239.000000
1936.216309 5730.000000
1937.547852 6361.000000
1938.878052 6639.000000
1940.207764 5823.000000
1941.536621 6082.000000
1942.864258 5752.000000
1944.191406 4994.000000
1945.517822 5798.000000
1946.843506 6523.000000
1948.167847 5744.000000
1949.491943 6681.000000
1950.815186 6301.000000
1952.137695 6396.000000
1953.459106 5799.000000
1954.779541 7384.000000
1956.099365 6019.000000
1957.418823 5534.000000
1958.737305 6781.000000
1960.054443 5894.000000
1961.371216 5816.000000
1962.687256 6523.000000
1964.002563 6585.000000
1965.316406 6262.000000
1966.630005 5601.000000
1967.942871 6253.000000
1969.254883 5939.000000
1970.566284 6043.000000
1971.876343 6265.000000
1973.185913 5803.000000
1974.494751 6162.000000
1975.802979 6606.000000
1977.109863 6074.000000
1978.416138 7271.000000
1979.722046 5542.000000
1981.026733 6409.000000
1982.330933 5909.000000
1983.633911 5724.000000
1984.936523 7562.000000
1986.238159 6077.000000
1987.539185 6847.000000
1988.838623 6034.000000
1990.138184 6576.000000
1991.436646 5293.000000
1992.734619 6055.000000
1994.031006 6103.000000
1995.327393 5725.000000
1996.622803 5605.000000
1997.917480 6626.000000
1999.211304 5695.000000
2000.503906 6547.000000
2001.796021 5722.000000
2003.087646 7103.000000
2004.378540 6409.000000
2005.667847 6202.000000
2006.956909 6742.000000
2008.245239 5956.000000
2009.532837 5983.000000
2010.819580 6606.000000
2012.105225 5597.000000
2013.390503 6325.000000
2014.674805 5948.000000
2015.958496 5574.000000
2017.240845 6008.000000
2018.522827 6462.000000
2019.804321 6686.000000
2021.084839 5889.000000
2022.364624 6105.000000
2023.643311 6716.000000
2024.921265 5833.000000
2026.198730 5905.000000
2027.475586 6202.000000
2028.750732 5699.000000
2030.026001 6536.000000
2031.300293 5982.000000
2032.573608 5951.000000
2033.846069 5881.000000
2035.118164 6114.000000
2036.389160 6933.000000
2037.659912 6616.000000
2038.929321 6003.000000
2040.197632 6754.000000
2041.465942 6572.000000
2042.733276 5866.000000
2043.999878 6000.000000
2045.265259 5694.000000
2046.530029 5573.000000
2047.794556 5413.000000
2049.057861 5849.000000
2050.320801 6376.000000
2051.581787 6076.000000
2052.843262 6067.000000
2054.103516 5814.000000
2055.363037 6483.000000
2056.621826 6245.000000
2057.879639 6836.000000
2059.136963 6106.000000
2060.393555 6037.000000
2061.648682 6427.000000
2062.903809 5603.000000
2064.157959 5577.000000
2065.411377 5597.000000
2066.664063 6842.000000
2067.915527 6239.000000
2069.166748 6278.000000
2070.417236 5566.000000
2071.666992 5406.000000
2072.915283 6505.000000
2074.163574 6483.000000
2075.410889 7405.000000
2076.657471 5568.000000
2077.903320 6017.000000
2079.147949 6979.000000
2080.392090 7534.000000
2081.635742 5486.000000
2082.878418 6004.000000
2084.119873 6950.000000
2085.361084 5951.000000
2086.601807 6340.000000
2087.841553 6740.000000
2089.080078 7032.000000
2090.318115 6177.000000
2091.555420 5722.000000
2092.792480 6548.000000
2094.028076 6033.000000
2095.262939 6200.000000
2096.497559 6078.000000
2097.731201 5612.000000
2098.963867 6076.000000
2100.195801 6799.000000
2101.427246 6409.000000
2102.657715 6713.000000
2103.887451 6013.000000
2105.116943 5933.000000
2106.344482 5959.000000
2107.572266 5926.000000
2108.799316 6307.000000
2110.025391 5451.000000
2111.250000 6359.000000
2112.474854 6922.000000
2113.698486 7068.000000
2114.921631 6226.000000
2116.143555 7458.000000
2117.365234 5971.000000
2118.585938 6809.000000
2119.805908 6045.000000
2121.025391 6085.000000
2122.243408 6556.000000
2123.461426 7018.000000
2124.678467 5723.000000
2125.895020 5775.000000
2127.109863 6487.000000
2128.324951 6324.000000
2129.539063 6936.000000
2130.752441 5675.000000
2131.965088 6074.000000
2133.176270 5810.000000
2134.387695 6521.000000
2135.597900 6620.000000
2136.807617 5922.000000
2138.015869 6104.000000
2139.224121 5640.000000
2140.431641 5862.000000
2141.637939 7688.000000
2142.843506 5889.000000
2144.048828 5673.000000
2145.253174 5537.000000
2146.456787 6256.000000
2147.659912 6225.000000
2148.861572 6467.000000
2150.062988 5286.000000
2151.263672 6211.000000
2152.463623 6028.000000
2153.662354 5971.000000
2154.860840 6979.000000
2156.058838 6176.000000
2157.255859 5891.000000
2158.452148 5108.000000
2159.647217 5239.000000
2160.842041 6099.000000
2162.036133 5497.000000
2163.229248 6106.000000
2164.421387 6881.000000
2165.613281 5954.000000
2166.804443 6295.000000
2167.994629 6290.000000
2169.184082 6445.000000
2170.373047 6806.000000
2171.561035 5957.000000
2172.748779 5675.000000
2173.935059 5928.000000
2175.120605 6527.000000
2176.305908 5952.000000
2177.490723 5866.000000
2178.674316 6311.000000
2179.857178 7501.000000
2181.039063 6330.000000
2182.220703 5964.000000
2183.401855 6549.000000
2184.581787 5650.000000
2185.760742 5535.000000
2186.939209 6301.000000
2188.117432 6813.000000
2189.294434 7159.000000
2190.470459 6721.000000
2191.646240 6119.000000
2192.821533 5594.000000
2193.995361 6695.000000
2195.168701 6158.000000
2196.341797 6150.000000
2197.513672 6386.000000
2198.685059 7080.000000
2199.855957 6355.000000
2201.025146 6824.000000
2202.194336 7496.000000
2203.363037 6296.000000
2204.530762 5820.000000
2205.697510 5627.000000
2206.863525 7185.000000
2208.029053 6640.000000
2209.194336 6149.000000
2210.358154 6680.000000
2211.521484 5435.000000
2212.683594 6203.000000
2213.845947 6137.000000
2215.007080 6599.000000
2216.167236 6653.000000
2217.326904 6291.000000
2218.486328 6539.000000
2219.644531 6331.000000
2220.801758 6271.000000
2221.958740 6814.000000
2223.114990 6595.000000
2224.270508 6698.000000
2225.425293 6211.000000
2226.579102 6370.000000
2227.731934 6005.000000
2228.885254 6927.000000
2230.036621 6177.000000
2231.187744 6142.000000
2232.338135 6496.000000
2233.488037 7622.000000
2234.636963 6190.000000
2235.785400 5238.000000
2236.932373 6761.000000
2238.079590 6992.000000
2239.225586 6017.000000
2240.371338 7257.000000
2241.515381 7312.000000
2242.659668 6691.000000
2243.802979 6125.000000
2244.945557 5994.000000
2246.087158 5731.000000
2247.228516 5793.000000
2248.368896 6366.000000
2249.508545 6323.000000
2250.647705 5824.000000
2251.785645 5826.000000
2252.923584 6174.000000
2254.060547 5268.000000
2255.196777 6279.000000
2256.332031 6112.000000
2257.466553 7204.000000
2258.600830 6389.000000
2259.734619 5361.000000
2260.866943 6043.000000
2261.998779 6820.000000
2263.130127 6260.000000
2264.260498 6486.000000
2265.390625 8074.000000
2266.519531 6723.000000
2267.647949 6068.000000
2268.775879 5528.000000
2269.902832 6112.000000
2271.029053 5920.000000
2272.154297 6646.000000
2273.279541 6521.000000
2274.404053 6364.000000
2275.527344 5924.000000
2276.649902 6376.000000
2277.771973 5968.000000
2278.893555 7443.000000
2280.014404 6425.000000
2281.134033 6425.000000
2282.253174 7144.000000
2283.372070 7665.000000
2284.490234 7242.000000
2285.607422 5935.000000
2286.723633 6467.000000
2287.839600 6972.000000
2288.954834 6855.000000
2290.069336 7308.000000
2291.182617 5755.000000
2292.295898 6346.000000
2293.408447 5969.000000
2294.520264 5399.000000
2295.631348 6825.000000
2296.741211 6434.000000
2297.850586 6136.000000
2298.959717 6594.000000
2300.067871 6251.000000
2301.175049 6730.000000
2302.281982 5849.000000
2303.388184 6272.000000
2304.493896 6577.000000
2305.598145 6550.000000
2306.702148 5368.000000
2307.805664 5751.000000
2308.908691 6552.000000
2310.010498 7367.000000
2311.111572 7245.000000
2312.212158 6577.000000
2313.312256 5507.000000
2314.411621 6365.000000
2315.509521 6442.000000
2316.607910 6979.000000
2317.704834 8202.000000
2318.801514 6934.000000
2319.897705 5750.000000
2320.992188 6840.000000
2322.086670 7650.000000
2323.180420 5808.000000
2324.273926 5989.000000
2325.365723 6421.000000
2326.457520 6909.000000
2327.548584 6073.000000
2328.638916 6268.000000
2329.728271 6879.000000
2330.817627 6018.000000
2331.905762 6294.000000
2332.993408 6734.000000
2334.080811 6545.000000
2335.166504 6630.000000
2336.251953 7733.000000
2337.337158 6293.000000
2338.421387 6712.000000
2339.504639 5867.000000
2340.587646 6401.000000
2341.669678 7570.000000
2342.751465 6014.000000
2343.832520 7397.000000
2344.912354 6579.000000
2345.991699 5635.000000
2347.070557 6752.000000
2348.148926 6552.000000
2349.225830 6290.000000
2350.302490 6951.000000
2351.378906 6002.000000
2352.454346 6396.000000
2353.528809 5897.000000
2354.603027 6284.000000
2355.676514 6767.000000
2356.749512 6297.000000
2357.821289 7025.000000
2358.892822 6230.000000
2359.963379 6592.000000
2361.033691 7559.000000
2362.103027 7519.000000
2363.171387 6742.000000
2364.239502 6721.000000
2365.306885 7072.000000
2366.373779 7106.000000
2367.439941 6043.000000
2368.504883 6873.000000
2369.569824 7015.000000
2370.634033 6313.000000
2371.697510 6901.000000
2372.759766 5747.000000
2373.822021 6274.000000
2374.883301 6306.000000
2375.944336 5886.000000
2377.004150 6306.000000
2378.063232 7823.000000
2379.122314 6457.000000
2380.180420 7536.000000
2381.237793 6856.000000
2382.294189 7997.000000
2383.350342 7834.000000
2384.406006 6202.000000
2385.460938 6976.000000
2386.514404 6761.000000
2387.568115 6586.000000
2388.620850 6296.000000
2389.673096 6704.000000
2390.724609 6128.000000
2391.775146 6619.000000
2392.825439 6521.000000
2393.874756 6152.000000
2394.924072 6221.000000
2395.971924 6913.000000
2397.019287 6978.000000
2398.066406 6323.000000
2399.112549 6685.000000
2400.157959 6103.000000
2401.202637 6822.000000
2402.247314 7724.000000
2403.290527 7386.000000
2404.333740 6534.000000
2405.375488 5754.000000
2406.417480 6709.000000
2407.458740 7101.000000
2408.499023 6080.000000
2409.538574 6376.000000
2410.577148 6356.000000
2411.615967 5887.000000
2412.653564 6546.000000
2413.690918 6909.000000
2414.727051 7316.000000
2415.762939 6181.000000
2416.798096 6266.000000
2417.832764 6864.000000
2418.865967 7267.000000
2419.899414 6437.000000
2420.931885 6746.000000
2421.964111 6785.000000
2422.994873 7064.000000
2424.025635 6354.000000
2425.055908 6763.000000
2426.084961 6816.000000
2427.114014 6639.000000
2428.141357 7380.000000
2429.169189 6641.000000
2430.195801 7246.000000
2431.222168 6917.000000
2432.247070 7759.000000
2433.272217 6540.000000
2434.296387 7222.000000
2435.320313 6720.000000
2436.343018 5803.000000
2437.364990 6346.000000
2438.386719 6537.000000
2439.407715 6605.000000
2440.428223 6033.000000
2441.447510 6511.000000
2442.466797 6512.000000
2443.485107 8414.000000
2444.503174 6335.000000
2445.519775 6462.000000
2446.536377 6543.000000
2447.552246 6041.000000
2448.568115 7005.000000
2449.582520 6830.000000
2450.596191 5533.000000
2451.609375 7198.000000
2452.622314 5966.000000
2453.634521 7170.000000
2454.645752 6700.000000
2455.656738 7659.000000
2456.666992 6424.000000
2457.676758 7612.000000
2458.685547 5888.000000
2459.693604 6009.000000
2460.701660 6319.000000
2461.708496 7344.000000
2462.715088 5384.000000
2463.720459 7377.000000
2464.725586 6878.000000
2465.730469 5898.000000
2466.734131 6577.000000
2467.737549 6353.000000
2468.739990 7599.000000
2469.742188 7373.000000
2470.743896 6816.000000
2471.744629 6571.000000
2472.744385 6859.000000
2473.744141 6690.000000
2474.742920 5590.000000
2475.741211 6633.000000
2476.738525 7051.000000
2477.735596 6111.000000
2478.732666 6964.000000
2479.728271 5780.000000
2480.723877 7047.000000
2481.717773 6655.000000
2482.711670 8075.000000
2483.705078 6880.000000
2484.697998 6693.000000
2485.689941 7491.000000
2486.681152 7227.000000
2487.672119 6654.000000
2488.662598 5813.000000
2489.652100 6546.000000
2490.640869 6455.000000
2491.629639 5615.000000
2492.617432 6776.000000
2493.604004 6543.000000
2494.590576 8069.000000
2495.576660 6683.000000
2496.562012 7039.000000
2497.546387 8037.000000
2498.530518 6022.000000
2499.514648 6870.000000
2500.497314 5759.000000
2501.479492 6922.000000
2502.461182 6830.000000
2503.442139 7248.000000
2504.422607 6461.000000
2505.402832 5714.000000
2506.381592 6356.000000
2507.360107 7613.000000
2508.338135 6705.000000
2509.315674 7018.000000
2510.292236 6053.000000
2511.268555 5889.000000
2512.244141 6443.000000
2513.219238 6175.000000
2514.193848 6476.000000
2515.167236 7599.000000
2516.140381 6843.000000
2517.113281 6935.000000
2518.085205 6127.000000
2519.056396 6841.000000
2520.027100 6907.000000
2520.997559 7747.000000
2521.967285 8067.000000
2522.936035 6110.000000
2523.904053 6098.000000
2524.872070 7803.000000
2525.839111 6263.000000
2526.805908 5523.000000
2527.771484 7252.000000
2528.737061 7001.000000
2529.701904 7754.000000
2530.666260 6295.000000
2531.629395 6367.000000
2532.592773 5860.000000
2533.555176 5954.000000
2534.517334 6649.000000
2535.478271 6406.000000
2536.438477 6162.000000
2537.398926 6101.000000
2538.358398 6697.000000
2539.317139 6858.000000
2540.274902 6601.000000
2541.232910 6213.000000
2542.190186 6746.000000
2543.146484 6071.000000
2544.102539 7005.000000
2545.057373 6138.000000
2546.012451 7747.000000
2546.966797 7052.000000
2547.920410 6507.000000
2548.873047 7259.000000
2549.825439 6736.000000
2550.777344 6935.000000
2551.728516 6380.000000
2552.678955 7678.000000
2553.628906 7222.000000
2554.578613 7424.000000
2555.527588 6634.000000
2556.476074 6149.000000
2557.423340 7093.000000
2558.370605 6220.000000
2559.317139 6456.000000
2560.263184 6740.000000
2561.208252 7406.000000
2562.153076 6698.000000
2563.097412 7065.000000
2564.041260 6768.000000
2564.984619 6584.000000
2565.926514 6588.000000
2566.868652 6572.000000
2567.810059 6142.000000
2568.750732 7205.000000
2569.690674 7260.000000
2570.630615 5597.000000
2571.569580 6177.000000
2572.508301 7496.000000
2573.446045 7166.000000
2574.383545 5461.000000
2575.320313 6947.000000
2576.256348 6735.000000
2577.191895 7468.000000
2578.126709 6208.000000
2579.061523 5946.000000
2579.995361 7098.000000
2580.928711 7098.000000
2581.861328 5885.000000
2582.793701 6845.000000
2583.725342 5433.000000
2584.656494 7052.000000
2585.587158 6940.000000
2586.516602 6867.000000
2587.446045 7295.000000
2588.375000 6471.000000
2589.303711 7412.000000
2590.230713 7248.000000
2591.157959 5918.000000
2592.084717 6746.000000
2593.010742 6231.000000
2593.936523 5632.000000
2594.861084 7612.000000
2595.785400 7556.000000
2596.709229 5349.000000
2597.632568 7274.000000
2598.554932 6232.000000
2599.477051 6857.000000
2600.398682 8297.000000
2601.319580 6411.000000
2602.239746 5768.000000
2603.159668 6340.000000
2604.079102 6346.000000
2604.998291 6430.000000
2605.916504 5802.000000
2606.833496 5944.000000
2607.750732 7189.000000
2608.667725 5865.000000
2609.583740 7524.000000
2610.498535 6657.000000
2611.413818 6633.000000
2612.328369 6547.000000
2613.241943 6498.000000
2614.155518 6136.000000
2615.067871 7558.000000
2615.980225 7026.000000
2616.891602 6707.000000
2617.802734 5749.000000
2618.713135 7197.000000
2619.623291 6621.000000
2620.532715 6108.000000
2621.441650 6614.000000
2622.349609 6183.000000
2623.257813 6802.000000
2624.165039 6610.000000
2625.071777 7092.000000
2625.977783 6045.000000
2626.883545 6487.000000
2627.788574 6521.000000
2628.693359 7792.000000
2629.597412 6432.000000
2630.500488 6391.000000
2631.403564 6350.000000
2632.305664 5603.000000
2633.207764 6725.000000
2634.109619 6964.000000
2635.009766 6719.000000
2635.910156 6400.000000
2636.809814 6399.000000
2637.709229 6002.000000
2638.607178 6881.000000
2639.505615 6771.000000
2640.403564 6412.000000
2641.300781 6087.000000
2642.196777 6141.000000
2643.092773 6671.000000
2643.988525 6086.000000
2644.883545 6405.000000
2645.778320 6562.000000
2646.671631 7063.000000
2647.564941 6326.000000
2648.458008 6780.000000
2649.350830 6419.000000
2650.241943 7320.000000
2651.133301 6395.000000
2652.024170 7608.000000
2652.914307 7280.000000
2653.804199 6466.000000
2654.692871 7304.000000
2655.581787 6642.000000
2656.470215 6557.000000
2657.357666 7264.000000
2658.244141 6441.000000
2659.131104 7133.000000
2660.017334 6833.000000
2660.903076 6763.000000
2661.787598 6521.000000
2662.672119 6406.000000
2663.556396 6255.000000
2664.439941 7087.000000
2665.322998 7782.000000
2666.205322 7286.000000
2667.087158 6161.000000
2667.968262 6607.000000
2668.849609 6042.000000
2669.729492 6508.000000
2670.609619 7368.000000
2671.489014 7162.000000
2672.368408 6367.000000
2673.247070 6064.000000
2674.124023 6405.000000
2675.001709 6712.000000
2675.878662 6369.000000
2676.754883 8118.000000
2677.630615 7129.000000
2678.505615 6287.000000
2679.380859 7725.000000
2680.255127 6999.000000
2681.128906 7321.000000
2682.001953 6995.000000
2682.874756 6139.000000
2683.747314 6019.000000
2684.619141 6922.000000
2685.490234 6467.000000
2686.361084 6947.000000
2687.231445 7131.000000
2688.101563 6602.000000
2688.969971 6313.000000
2689.839111 7327.000000
2690.707520 7055.000000
2691.575684 6594.000000
2692.443115 6860.000000
2693.309326 5842.000000
2694.176025 7158.000000
2695.041748 7335.000000
2695.907471 7176.000000
2696.771729 7917.000000
2697.636719 6549.000000
2698.500244 7245.000000
2699.364014 5779.000000
2700.226318 7461.000000
2701.089111 6747.000000
2701.950928 5903.000000
2702.812256 6919.000000
2703.673584 6663.000000
2704.533691 7403.000000
2705.393799 7275.000000
2706.253418 6506.000000
2707.112793 6783.000000
2707.970459 7143.000000
2708.828369 6822.000000
2709.686768 7342.000000
2710.543945 6701.000000
2711.400391 5922.000000
2712.256348 6846.000000
2713.112305 6140.000000
2713.967529 6893.000000
2714.822021 6079.000000
2715.676025 6741.000000
2716.530029 7337.000000
2717.383057 6228.000000
2718.236328 6643.000000
2719.087891 7695.000000
2719.939941 6762.000000
2720.791748 6271.000000
2721.642334 6497.000000
2722.492920 6322.000000
2723.343018 7163.000000
2724.192383 6997.000000
2725.041748 6862.000000
2725.889893 6615.000000
2726.737549 6565.000000
2727.585693 6951.000000
2728.432617 6791.000000
2729.280029 5561.000000
2730.125977 7430.000000
2730.971191 7006.000000
2731.816895 6407.000000
2732.661621 6963.000000
2733.506348 7359.000000
2734.349854 6884.000000
2735.193604 7757.000000
2736.036621 7075.000000
2736.879150 5994.000000
2737.720703 6195.000000
2738.562744 6768.000000
2739.403809 6886.000000
2740.244629 5787.000000
2741.085205 5885.000000
2741.924561 7702.000000
2742.763916 6837.000000
2743.603271 6904.000000
2744.441406 6794.000000
2745.279053 7851.000000
2746.116699 6325.000000
2746.953857 7118.000000
2747.790771 6157.000000
2748.627197 5977.000000
2749.462402 6642.000000
2750.297852 6211.000000
2751.132813 6296.000000
2751.967041 6239.000000
2752.801025 6883.000000
2753.634521 6848.000000
2754.468018 7935.000000
2755.300537 6788.000000
2756.132568 7262.000000
2756.964111 6823.000000
2757.795654 7109.000000
2758.626221 7246.000000
2759.457031 7224.000000
2760.286621 7244.000000
2761.116211 6666.000000
2761.945557 7298.000000
2762.774170 6801.000000
2763.602295 6760.000000
2764.429932 6869.000000
2765.257568 6636.000000
2766.084717 7860.000000
2766.911133 5763.000000
2767.737061 7473.000000
2768.562500 6866.000000
2769.387695 7745.000000
2770.212891 7036.000000
2771.036865 6738.000000
2771.860840 6502.000000
2772.684814 7656.000000
2773.507568 6638.000000
2774.330566 6749.000000
2775.152344 6904.000000
2775.974121 6917.000000
2776.795898 6468.000000
2777.616699 7972.000000
2778.436768 6539.000000
2779.257080 7025.000000
2780.076904 7255.000000
2780.896729 6388.000000
2781.714600 5944.000000
2782.533691 7974.000000
2783.351563 6498.000000
2784.169189 6683.000000
2784.986328 7096.000000
2785.802979 7265.000000
2786.619385 7164.000000
2787.435303 6256.000000
2788.250977 5947.000000
2789.065674 6373.000000
2789.880859 7042.000000
2790.695313 7168.000000
2791.509277 6596.000000
2792.322998 7407.000000
2793.135498 8783.000000
2793.948242 6973.000000
2794.760498 7473.000000
2795.572266 7216.000000
2796.383301 7343.000000
2797.195068 6522.000000
2798.005615 7211.000000
2798.816162 7051.000000
2799.625244 7344.000000
2800.435059 8151.000000
2801.244141 7828.000000
2802.052979 6651.000000
2802.861328 7198.000000
2803.668701 6125.000000
2804.476563 6503.000000
2805.283691 6885.000000
2806.090576 7023.000000
2806.896240 7220.000000
2807.702393 6598.000000
2808.507813 6507.000000
2809.313232 7330.000000
2810.117920 6135.000000
2810.921631 7560.000000
2811.725830 7449.000000
2812.529541 6323.000000
2813.333008 6096.000000
2814.135010 6267.000000
2814.937744 7361.000000
2815.739746 7799.000000
2816.541504 6123.000000
2817.342773 6512.000000
2818.143555 7203.000000
2818.943848 6519.000000
2819.744385 6599.000000
2820.543945 7923.000000
2821.343018 7144.000000
2822.142090 6435.000000
2822.940918 6878.000000
2823.739258 6350.000000
2824.536621 7031.000000
2825.334229 7080.000000
2826.131104 6682.000000
2826.928223 7340.000000
2827.724609 7933.000000
2828.520264 7014.000000
2829.315918 7345.000000
2830.111328 7665.000000
2830.906250 7429.000000
2831.700439 6619.000000
2832.494629 6825.000000
2833.288574 5634.000000
2834.082031 6899.000000
2834.874756 7163.000000
2835.667236 8130.000000
2836.459717 7575.000000
2837.251953 7756.000000
2838.043701 6434.000000
2838.834473 6743.000000
2839.625244 8788.000000
2840.416260 7398.000000
2841.206299 6200.000000
2841.995850 7580.000000
2842.785645 7119.000000
2843.574463 7281.000000
2844.363281 7788.000000
2845.152100 7700.000000
2845.939941 7524.000000
2846.727295 7215.000000
2847.514893 7514.000000
2848.302002 7321.000000
2849.088379 6601.000000
2849.874756 7420.000000
2850.660889 7195.000000
2851.446533 7493.000000
2852.231201 7178.000000
2853.016357 6914.000000
2853.801270 7469.000000
2854.585449 7102.000000
2855.369629 6867.000000
2856.152588 8221.000000
2856.935791 6789.000000
2857.718750 6790.000000
2858.501221 7741.000000
2859.283447 6178.000000
2860.065186 6535.000000
2860.846680 7550.000000
2861.628418 7445.000000
2862.409424 7579.000000
2863.189697 6544.000000
2863.969727 6642.000000
2864.749756 8204.000000
2865.529541 7451.000000
2866.308350 8046.000000
2867.087402 7609.000000
2867.865967 6813.000000
2868.644287 6948.000000
2869.422119 7226.000000
2870.199707 6889.000000
2870.977051 7530.000000
2871.754150 6987.000000
2872.530762 6424.000000
2873.306885 7480.000000
2874.083008 7134.000000
2874.858643 8236.000000
2875.634033 7142.000000
2876.408936 6576.000000
2877.183594 7989.000000
2877.958252 6604.000000
2878.732666 7873.000000
2879.506348 6733.000000
2880.279297 7165.000000
2881.052979 6775.000000
2881.825684 7585.000000
2882.598389 7822.000000
2883.370361 8222.000000
2884.142090 6186.000000
2884.914307 6766.000000
2885.685303 6963.000000
2886.455811 6112.000000
2887.226807 8280.000000
2887.997803 7384.000000
2888.768066 7973.000000
2889.537354 7658.000000
2890.306885 6937.000000
2891.076416 7209.000000
2891.845459 7385.000000
2892.614014 7870.000000
2893.382568 7680.000000
2894.150146 6942.000000
2894.918213 6571.000000
2895.685791 7327.000000
2896.453369 8312.000000
2897.219727 7328.000000
2897.987061 6513.000000
2898.753174 7230.000000
2899.519531 7014.000000
2900.284424 8341.000000
2901.049805 7000.000000
2901.815674 6431.000000
2902.580078 7768.000000
2903.344482 7697.000000
2904.109131 8414.000000
2904.872803 6640.000000
2905.637207 8438.000000
2906.400879 6661.000000
2907.163818 8435.000000
2907.926514 6528.000000
2908.689697 8952.000000
2909.452393 6965.000000
2910.213867 6750.000000
2910.975830 6750.000000
