scanname Analyse052
timestamp 2017-02-10 21:09:42
ccdbias 897.593750
ccdgain 3.473401
sigmaread 8.960639
laserwavenum -0.478759
wavenumcorrection 0.044205
scancount 1
totalexposurems 10000
singleexposurems 10000
measurementstate Unknown
scanmode Manual
snr 55.862354 0.801182 0.503865
replacelist 1
671 16371.000000 10098.000000
peaks 9
398.779297 0.135206 0.000000 0.297251 0.000035
811.193970 0.124700 0.000000 0.523839 0.000063
840.872009 0.123791 0.000000 0.179183 0.000046
879.198486 0.130322 0.000000 0.428207 0.000165
1153.382202 0.110193 0.000000 0.218792 0.000065
1313.235718 0.110730 0.000000 3.517453 0.000490
1334.443848 0.117958 0.000000 3.562027 0.000520
1457.309082 0.109603 0.000000 0.222729 0.000052
1557.354004 0.094411 0.000000 0.129241 0.000028
finalresult GLS_Multiple 5
A6025	2-Nitrothiophene	7.084977e-002
A9370	1,2-(Methylenedioxy)-4-nitrobenzene	6.242392e-002
A13180	Polypropylene (lot B)	6.107382e-002
A13500	Poly(propylene-co-ethylene)	5.792576e-002
A0115	Polypropylene	5.704200e-002
spectrum 2048
-97.122696 45533.000000
-94.495827 45533.000000
-91.870834 46149.000000
-89.247734 46046.000000
-86.626503 46974.000000
-84.007172 46662.000000
-81.389702 47022.000000
-78.774109 46771.000000
-76.160393 47028.000000
-73.548553 47484.000000
-70.938576 47192.000000
-68.330482 47397.000000
-65.724236 47394.000000
-63.119865 47336.000000
-60.517357 47256.000000
-57.916702 47828.000000
-55.317909 47225.000000
-52.720974 46528.000000
-50.125893 46933.000000
-47.532665 46888.000000
-44.941288 47144.000000
-42.351757 46662.000000
-39.764069 47471.000000
-37.178230 47269.000000
-34.594234 46905.000000
-32.012074 47664.000000
-29.431763 46952.000000
-26.853277 47594.000000
-24.276634 47158.000000
-21.701817 47006.000000
-19.128839 46772.000000
-16.557682 46680.000000
-13.988358 46387.000000
-11.420860 45308.000000
-8.855181 46852.000000
-6.291327 46529.000000
-3.729286 46937.000000
-1.169070 46930.000000
1.389338 46491.000000
3.945925 45527.000000
6.500707 45450.000000
9.053672 45738.000000
11.604836 44361.000000
14.154188 43857.000000
16.701744 42862.000000
19.247488 42881.000000
21.791439 42245.000000
24.333586 39563.000000
26.873936 37718.000000
29.412500 34760.000000
31.949268 30521.000000
34.484234 21634.000000
37.017422 13746.000000
39.548828 8937.000000
42.078442 8088.000000
44.606258 7662.000000
47.132317 6929.000000
49.656586 6043.000000
52.179085 5190.000000
54.699787 4819.000000
57.218735 4924.000000
59.735909 5807.000000
62.251305 7179.000000
64.764923 8065.000000
67.276787 7710.000000
69.786903 5955.000000
72.295227 3887.000000
74.801796 3089.000000
77.306618 2762.000000
79.809685 2331.000000
82.310974 1974.000000
84.810524 1975.000000
87.308319 1822.000000
89.804382 1964.000000
92.298668 2431.000000
94.791214 2625.000000
97.282043 2542.000000
99.771103 2147.000000
102.258415 1736.000000
104.744003 1550.000000
107.227852 1373.000000
109.709953 1329.000000
112.190331 1163.000000
114.668983 1219.000000
117.145912 1028.000000
119.621086 1121.000000
122.094551 1034.000000
124.566284 1037.000000
127.036308 998.000000
129.504578 1112.000000
131.971176 1026.000000
134.436020 1059.000000
136.899170 1129.000000
139.360580 1288.000000
141.820297 1220.000000
144.278290 1529.000000
146.734589 1623.000000
149.189178 1918.000000
151.642044 2109.000000
154.093231 2464.000000
156.542725 2833.000000
158.990494 3281.000000
161.436554 3663.000000
163.880936 4081.000000
166.323639 4577.000000
168.764648 4998.000000
171.203949 5206.000000
173.641541 5350.000000
176.077499 5553.000000
178.511719 5474.000000
180.944260 5459.000000
183.375153 5509.000000
185.804321 5495.000000
188.231842 5535.000000
190.657684 5409.000000
193.081848 5465.000000
195.504349 5462.000000
197.925156 5514.000000
200.344299 5589.000000
202.761780 5822.000000
205.177567 5873.000000
207.591705 6080.000000
210.004211 6440.000000
212.415039 6726.000000
214.824188 7128.000000
217.231705 7509.000000
219.637512 7857.000000
222.041733 8205.000000
224.444244 8704.000000
226.845139 8952.000000
229.244385 9103.000000
231.641968 9190.000000
234.037888 9254.000000
236.432190 9368.000000
238.824829 9408.000000
241.215851 9345.000000
243.605209 9419.000000
245.992950 9449.000000
248.379044 9268.000000
250.763504 9264.000000
253.146317 9222.000000
255.527557 9294.000000
257.907104 9146.000000
260.285065 9277.000000
262.661346 9184.000000
265.036072 9247.000000
267.409149 9055.000000
269.780579 9060.000000
272.150360 9135.000000
274.518585 9037.000000
276.885162 8919.000000
279.250153 8978.000000
281.613525 9020.000000
283.975250 8879.000000
286.335388 8898.000000
288.693909 8895.000000
291.050842 8847.000000
293.406158 8868.000000
295.759888 9017.000000
298.111969 8857.000000
300.462494 8793.000000
302.811432 8790.000000
305.158722 8732.000000
307.504486 8699.000000
309.848572 8690.000000
312.191132 8562.000000
314.532074 8605.000000
316.871399 8616.000000
319.209167 8569.000000
321.545380 8583.000000
323.879944 8485.000000
326.212952 8634.000000
328.544403 8381.000000
330.874268 8486.000000
333.202545 8475.000000
335.529205 8442.000000
337.854370 8380.000000
340.177917 8383.000000
342.499908 8569.000000
344.820343 8322.000000
347.139160 8460.000000
349.456421 8352.000000
351.772156 8210.000000
354.086304 8149.000000
356.398865 8335.000000
358.709869 8259.000000
361.019348 8279.000000
363.327301 8271.000000
365.633636 8194.000000
367.938385 8291.000000
370.241669 8379.000000
372.543335 8205.000000
374.843506 8305.000000
377.142120 8320.000000
379.439178 8274.000000
381.734680 8318.000000
384.028656 8298.000000
386.321045 8315.000000
388.611938 8444.000000
390.901306 8363.000000
393.189087 8525.000000
395.475342 8792.000000
397.760101 8786.000000
400.043243 8824.000000
402.324951 8814.000000
404.605133 8694.000000
406.883728 8612.000000
409.160797 8544.000000
411.436340 8661.000000
413.710358 8405.000000
415.982941 8553.000000
418.253906 8492.000000
420.523376 8560.000000
422.791351 8341.000000
425.057770 8285.000000
427.322693 8469.000000
429.586151 8336.000000
431.848022 8400.000000
434.108429 8451.000000
436.367279 8222.000000
438.624664 8378.000000
440.880554 8327.000000
443.134949 8177.000000
445.387817 8154.000000
447.639130 8196.000000
449.889038 8116.000000
452.137360 8098.000000
454.384247 8050.000000
456.629669 8048.000000
458.873535 8012.000000
461.115906 8120.000000
463.356781 8028.000000
465.596252 7980.000000
467.834137 8117.000000
470.070587 8055.000000
472.305511 7931.000000
474.538971 8051.000000
476.770996 8021.000000
479.001495 7942.000000
481.230499 7902.000000
483.458038 7782.000000
485.684082 7814.000000
487.908691 7862.000000
490.131836 7811.000000
492.353516 7764.000000
494.573639 7964.000000
496.792358 7940.000000
499.009583 7921.000000
501.225433 7910.000000
503.439667 7812.000000
505.652588 7913.000000
507.863922 7960.000000
510.073822 7830.000000
512.282288 7957.000000
514.489380 7912.000000
516.694885 7946.000000
518.898987 7891.000000
521.101563 7936.000000
523.302734 7901.000000
525.502563 7916.000000
527.700867 7785.000000
529.897644 7902.000000
532.093079 7773.000000
534.286987 7943.000000
536.479553 7744.000000
538.670593 7681.000000
540.860229 7821.000000
543.048462 7674.000000
545.235168 7762.000000
547.420410 7557.000000
549.604370 7450.000000
551.786743 7442.000000
553.967773 7396.000000
556.147278 7352.000000
558.325500 7394.000000
560.502197 7377.000000
562.677490 7368.000000
564.851379 7296.000000
567.023804 7284.000000
569.194824 7312.000000
571.364380 7282.000000
573.532654 7351.000000
575.699402 7288.000000
577.864685 7455.000000
580.028564 7291.000000
582.191162 7263.000000
584.352234 7357.000000
586.511902 7340.000000
588.670227 7270.000000
590.827026 7317.000000
592.982483 7363.000000
595.136536 7369.000000
597.289246 7323.000000
599.440430 7389.000000
601.590271 7466.000000
603.738770 7415.000000
605.885681 7279.000000
608.031372 7302.000000
610.175659 7367.000000
612.318481 7421.000000
614.459839 7413.000000
616.599976 7471.000000
618.738586 7279.000000
620.875916 7393.000000
623.011780 7371.000000
625.146240 7397.000000
627.279236 7254.000000
629.411072 7233.000000
631.541443 7258.000000
633.670410 7109.000000
635.797913 7178.000000
637.924133 7035.000000
640.048828 7043.000000
642.172302 7120.000000
644.294434 6994.000000
646.415100 6968.000000
648.534424 6875.000000
650.652344 6997.000000
652.768921 6977.000000
654.884094 6951.000000
656.997925 6792.000000
659.110291 6742.000000
661.221436 6839.000000
663.331177 6709.000000
665.439453 6959.000000
667.546570 6816.000000
669.652222 6936.000000
671.756409 6746.000000
673.859375 6839.000000
675.960938 6813.000000
678.061157 6897.000000
680.159973 6941.000000
682.257446 7060.000000
684.353638 6891.000000
686.448364 6926.000000
688.541870 6986.000000
690.634033 6842.000000
692.724670 6823.000000
694.814087 7054.000000
696.902222 6956.000000
698.988892 7039.000000
701.074341 7119.000000
703.158264 7111.000000
705.240967 7032.000000
707.322388 6896.000000
709.402344 6833.000000
711.481079 6658.000000
713.558350 6571.000000
715.634338 6644.000000
717.709045 6587.000000
719.782471 6557.000000
721.854370 6804.000000
723.925110 6647.000000
725.994507 6676.000000
728.062500 6583.000000
730.129150 6614.000000
732.194580 6459.000000
734.258667 6595.000000
736.321411 6541.000000
738.382813 6507.000000
740.442932 6533.000000
742.501648 6525.000000
744.559143 6450.000000
746.615356 6429.000000
748.670166 6303.000000
750.723694 6355.000000
752.775818 6486.000000
754.826721 6476.000000
756.876404 6317.000000
758.924622 6286.000000
760.971619 6445.000000
763.017334 6285.000000
765.061646 6313.000000
767.104675 6301.000000
769.146484 6244.000000
771.186951 6318.000000
773.226013 6203.000000
775.263916 6281.000000
777.300476 6386.000000
779.335815 6340.000000
781.369812 6431.000000
783.402405 6325.000000
785.433838 6439.000000
787.463867 6388.000000
789.492615 6480.000000
791.520203 6498.000000
793.546448 6467.000000
795.571289 6570.000000
797.595032 6555.000000
799.617371 6672.000000
801.638489 6593.000000
803.658264 6553.000000
805.676758 6800.000000
807.694031 6910.000000
809.709900 6911.000000
811.724609 6881.000000
813.737976 6829.000000
815.750122 6616.000000
817.761047 6552.000000
819.770630 6363.000000
821.778992 6398.000000
823.785950 6327.000000
825.791687 6404.000000
827.796204 6240.000000
829.799438 6243.000000
831.801392 6257.000000
833.802063 6229.000000
835.801514 6260.000000
837.799622 6359.000000
839.796631 6523.000000
841.792236 6402.000000
843.786682 6378.000000
845.779785 6241.000000
847.771667 6221.000000
849.762207 6054.000000
851.751465 6080.000000
853.739685 5976.000000
855.726501 6082.000000
857.712097 5998.000000
859.696411 5883.000000
861.679626 5929.000000
863.661438 6105.000000
865.642029 6041.000000
867.621338 6005.000000
869.599487 5990.000000
871.576294 6123.000000
873.551819 6350.000000
875.526306 6470.000000
877.499329 6667.000000
879.471313 6729.000000
881.441956 6849.000000
883.411438 6672.000000
885.379578 6477.000000
887.346558 6382.000000
889.312195 6329.000000
891.276672 6131.000000
893.239929 6164.000000
895.201965 6150.000000
897.162720 6148.000000
899.122253 5982.000000
901.080505 6058.000000
903.037659 5964.000000
904.993652 5936.000000
906.948242 5848.000000
908.901611 5901.000000
910.853821 5979.000000
912.804810 5765.000000
914.754517 5740.000000
916.703064 5760.000000
918.650391 5835.000000
920.596436 5679.000000
922.541199 5670.000000
924.484924 5479.000000
926.427490 5472.000000
928.368774 5453.000000
930.308716 5434.000000
932.247559 5400.000000
934.185120 5370.000000
936.121460 5392.000000
938.056641 5427.000000
939.990540 5343.000000
941.923340 5380.000000
943.854919 5315.000000
945.785339 5281.000000
947.714539 5218.000000
949.642395 5287.000000
951.569214 5319.000000
953.494751 5314.000000
955.419006 5311.000000
957.342163 5280.000000
959.264160 5301.000000
961.184875 5406.000000
963.104431 5328.000000
965.022827 5403.000000
966.940186 5457.000000
968.856079 5545.000000
970.770874 5579.000000
972.684448 5508.000000
974.596863 5565.000000
976.508057 5522.000000
978.418091 5662.000000
980.326843 5571.000000
982.234558 5452.000000
984.141052 5478.000000
986.046326 5420.000000
987.950500 5409.000000
989.853455 5302.000000
991.755188 5335.000000
993.655762 5668.000000
995.555176 5412.000000
997.453369 5374.000000
999.350403 5435.000000
1001.246216 5198.000000
1003.140869 5167.000000
1005.034424 5093.000000
1006.926697 5137.000000
1008.818054 4997.000000
1010.708069 5051.000000
1012.596863 4994.000000
1014.484497 4890.000000
1016.370972 4906.000000
1018.256287 4917.000000
1020.140442 4970.000000
1022.023376 5003.000000
1023.905273 4891.000000
1025.785889 4856.000000
1027.665405 4926.000000
1029.543945 4829.000000
1031.421143 5030.000000
1033.296997 5038.000000
1035.171875 5024.000000
1037.045776 5080.000000
1038.918213 5047.000000
1040.789673 5096.000000
1042.659790 5072.000000
1044.528931 5039.000000
1046.396851 5111.000000
1048.263672 4962.000000
1050.129395 5060.000000
1051.993896 5120.000000
1053.857300 5071.000000
1055.719360 5189.000000
1057.580444 5077.000000
1059.440430 5165.000000
1061.299072 5025.000000
1063.156616 5055.000000
1065.013062 5086.000000
1066.868408 5063.000000
1068.722534 5070.000000
1070.575806 5103.000000
1072.427612 5101.000000
1074.278442 5072.000000
1076.128052 5282.000000
1077.976440 5155.000000
1079.823975 5094.000000
1081.670166 5054.000000
1083.515137 5151.000000
1085.359253 5083.000000
1087.202026 5146.000000
1089.043579 5117.000000
1090.884399 5064.000000
1092.723633 4977.000000
1094.562134 5071.000000
1096.399292 5020.000000
1098.235229 4979.000000
1100.070190 4756.000000
1101.903931 4673.000000
1103.736694 4694.000000
1105.568115 4641.000000
1107.398682 4762.000000
1109.227905 4669.000000
1111.056152 4561.000000
1112.883179 4487.000000
1114.709229 4577.000000
1116.534058 4504.000000
1118.357788 4498.000000
1120.180298 4501.000000
1122.001709 4582.000000
1123.822266 4445.000000
1125.641357 4517.000000
1127.459595 4524.000000
1129.276489 4558.000000
1131.092529 4528.000000
1132.907349 4578.000000
1134.721069 4539.000000
1136.533691 4588.000000
1138.345093 4681.000000
1140.155518 4724.000000
1141.964844 4712.000000
1143.772827 4734.000000
1145.580078 4852.000000
1147.385864 4835.000000
1149.190796 4888.000000
1150.994629 4793.000000
1152.797241 4927.000000
1154.598999 5017.000000
1156.399292 4990.000000
1158.198608 4940.000000
1159.996948 4698.000000
1161.793945 4706.000000
1163.590210 4606.000000
1165.385132 4693.000000
1167.178955 4568.000000
1168.971924 4611.000000
1170.763550 4448.000000
1172.554199 4508.000000
1174.343872 4421.000000
1176.132080 4372.000000
1177.919434 4286.000000
1179.705688 4176.000000
1181.490845 4464.000000
1183.274902 4345.000000
1185.057861 4292.000000
1186.839844 4352.000000
1188.620605 4339.000000
1190.400391 4368.000000
1192.179077 4245.000000
1193.956787 4247.000000
1195.733276 4211.000000
1197.508667 4158.000000
1199.282959 4068.000000
1201.056152 4103.000000
1202.828491 4110.000000
1204.599487 4014.000000
1206.369629 4089.000000
1208.138550 4044.000000
1209.906372 4043.000000
1211.673340 4083.000000
1213.438965 3987.000000
1215.203613 4071.000000
1216.967163 4087.000000
1218.729614 4050.000000
1220.491211 4073.000000
1222.251587 4055.000000
1224.010864 4034.000000
1225.769287 4021.000000
1227.526489 3912.000000
1229.282593 3998.000000
1231.037598 4047.000000
1232.791748 4149.000000
1234.544556 4070.000000
1236.296387 4124.000000
1238.047363 4148.000000
1239.796997 4259.000000
1241.545776 4186.000000
1243.293213 4176.000000
1245.039917 4172.000000
1246.785400 4240.000000
1248.530029 4226.000000
1250.273315 4233.000000
1252.015625 4184.000000
1253.756836 4169.000000
1255.497192 4148.000000
1257.236450 3997.000000
1258.974487 3862.000000
1260.711670 3873.000000
1262.447632 3919.000000
1264.182617 3963.000000
1265.916626 4002.000000
1267.649658 4143.000000
1269.381470 4010.000000
1271.112305 4198.000000
1272.841919 4177.000000
1274.570679 4249.000000
1276.298340 4233.000000
1278.024902 4177.000000
1279.750610 4187.000000
1281.474976 4279.000000
1283.198486 4214.000000
1284.921021 4143.000000
1286.642578 4135.000000
1288.362915 4166.000000
1290.082275 4141.000000
1291.800537 4125.000000
1293.517822 4131.000000
1295.234131 4227.000000
1296.949219 4060.000000
1298.663330 4221.000000
1300.376465 4106.000000
1302.088745 4034.000000
1303.799805 4006.000000
1305.509888 4073.000000
1307.218872 3961.000000
1308.926636 4028.000000
1310.633789 3920.000000
1312.339478 3895.000000
1314.044434 3966.000000
1315.748413 3871.000000
1317.451172 4052.000000
1319.152954 4055.000000
1320.853882 4114.000000
1322.553467 2674.000000
1324.252197 1234.000000
1325.950195 3992.000000
1327.646851 3998.000000
1329.342407 4091.000000
1331.037109 4122.000000
1332.730591 3975.000000
1334.423218 3860.000000
1336.114990 4121.000000
1337.805420 3894.000000
1339.495117 3832.000000
1341.183716 3782.000000
1342.871216 3732.000000
1344.557739 3766.000000
1346.243164 3792.000000
1347.927612 3739.000000
1349.611206 3769.000000
1351.293579 3724.000000
1352.974976 3889.000000
1354.655518 3952.000000
1356.334839 4006.000000
1358.013550 3930.000000
1359.690918 4016.000000
1361.367188 4071.000000
1363.042480 4032.000000
1364.717041 4025.000000
1366.390381 3991.000000
1368.062744 3856.000000
1369.734131 3983.000000
1371.404541 3864.000000
1373.073853 3962.000000
1374.742188 3946.000000
1376.409668 3952.000000
1378.076050 3907.000000
1379.741455 3928.000000
1381.405884 3916.000000
1383.069092 3911.000000
1384.731689 3884.000000
1386.392944 3778.000000
1388.053345 3719.000000
1389.712646 3713.000000
1391.370972 3677.000000
1393.028564 3789.000000
1394.684937 3680.000000
1396.340454 3631.000000
1397.994751 3677.000000
1399.648193 3766.000000
1401.300537 3751.000000
1402.952148 3736.000000
1404.602539 3730.000000
1406.251831 3614.000000
1407.900391 3521.000000
1409.547852 3586.000000
1411.194336 3485.000000
1412.839966 3505.000000
1414.484619 3492.000000
1416.128052 3377.000000
1417.770630 3363.000000
1419.412109 3443.000000
1421.052734 3393.000000
1422.692383 3499.000000
1424.330933 3350.000000
1425.968628 3427.000000
1427.605225 3379.000000
1429.240845 3427.000000
1430.875732 3266.000000
1432.509521 3380.000000
1434.142212 3378.000000
1435.773926 3374.000000
1437.404785 3413.000000
1439.034546 3419.000000
1440.663208 3472.000000
1442.291260 3376.000000
1443.918213 3309.000000
1445.543945 3538.000000
1447.169067 3478.000000
1448.793091 3528.000000
1450.416138 3640.000000
1452.038208 3609.000000
1453.659180 3673.000000
1455.279175 3740.000000
1456.898438 3756.000000
1458.516357 3748.000000
1460.133667 3559.000000
1461.750000 3645.000000
1463.365112 3693.000000
1464.979370 3551.000000
1466.592773 3544.000000
1468.205078 3594.000000
1469.816528 3502.000000
1471.427124 3458.000000
1473.036499 3406.000000
1474.644897 3420.000000
1476.252441 3480.000000
1477.859009 3501.000000
1479.464844 3309.000000
1481.069458 3540.000000
1482.673218 3255.000000
1484.275757 3200.000000
1485.877686 3206.000000
1487.478394 3103.000000
1489.078369 3120.000000
1490.677246 3010.000000
1492.275269 2980.000000
1493.872192 3053.000000
1495.468262 3090.000000
1497.063354 3276.000000
1498.657471 3247.000000
1500.250854 3227.000000
1501.843140 3163.000000
1503.434204 3188.000000
1505.024780 3128.000000
1506.614014 3181.000000
1508.202637 3146.000000
1509.790161 3038.000000
1511.376587 2929.000000
1512.962280 3016.000000
1514.546875 3078.000000
1516.130615 3047.000000
1517.713257 3109.000000
1519.295166 3035.000000
1520.875977 3057.000000
1522.456055 2968.000000
1524.034912 2891.000000
1525.612915 2977.000000
1527.190186 2889.000000
1528.766235 2883.000000
1530.341553 2861.000000
1531.915771 2859.000000
1533.489258 2842.000000
1535.061523 2841.000000
1536.633057 2969.000000
1538.203613 2873.000000
1539.773315 2838.000000
1541.341797 2792.000000
1542.909546 2783.000000
1544.476440 2706.000000
1546.042114 2775.000000
1547.607056 2787.000000
1549.170898 2848.000000
1550.734131 2734.000000
1552.296021 2827.000000
1553.857300 2918.000000
1555.417480 2873.000000
1556.976929 2888.000000
1558.535278 2879.000000
1560.092896 2778.000000
1561.649414 2844.000000
1563.204712 2826.000000
1564.759399 2793.000000
1566.313354 2829.000000
1567.866333 2759.000000
1569.417969 2716.000000
1570.968872 2732.000000
1572.519043 2761.000000
1574.068237 2749.000000
1575.616089 2787.000000
1577.163452 2736.000000
1578.709839 2855.000000
1580.255371 2769.000000
1581.799927 2771.000000
1583.343262 2741.000000
1584.885986 2852.000000
1586.427856 2774.000000
1587.968628 2699.000000
1589.508423 2866.000000
1591.047485 2699.000000
1592.585449 2699.000000
1594.122925 2741.000000
1595.659058 2757.000000
1597.194092 2680.000000
1598.728638 2649.000000
1600.262207 2841.000000
1601.794922 2838.000000
1603.326050 2714.000000
1604.856934 2680.000000
1606.386963 2763.000000
1607.915771 2698.000000
1609.443481 2748.000000
1610.970581 2776.000000
1612.496948 2681.000000
1614.022339 2701.000000
1615.546875 2800.000000
1617.070068 2684.000000
1618.592529 2712.000000
1620.114258 2817.000000
1621.635132 2767.000000
1623.154541 2684.000000
1624.673462 2661.000000
1626.191650 2752.000000
1627.708984 2690.000000
1629.225220 2670.000000
1630.740112 2623.000000
1632.254517 2663.000000
1633.768188 2679.000000
1635.280762 2599.000000
1636.792114 2604.000000
1638.303101 2566.000000
1639.812988 2679.000000
1641.322021 2518.000000
1642.829712 2598.000000
1644.337036 2524.000000
1645.843506 2588.000000
1647.348999 2522.000000
1648.853638 2580.000000
1650.356812 2551.000000
1651.859375 2529.000000
1653.361572 2472.000000
1654.862427 2525.000000
1656.362183 2553.000000
1657.861084 2373.000000
1659.359619 2526.000000
1660.856934 2411.000000
1662.353516 2442.000000
1663.848511 2490.000000
1665.343262 2405.000000
1666.837158 2372.000000
1668.330078 2317.000000
1669.821655 2532.000000
1671.312744 2313.000000
1672.803223 2350.000000
1674.292603 2284.000000
1675.780518 2279.000000
1677.268188 2237.000000
1678.754883 2346.000000
1680.240723 2289.000000
1681.725708 2209.000000
1683.209229 2246.000000
1684.692505 2209.000000
1686.174927 2303.000000
1687.656250 2307.000000
1689.136108 2202.000000
1690.615723 2231.000000
1692.094604 2214.000000
1693.572510 2233.000000
1695.049438 2202.000000
1696.525146 2248.000000
1698.000488 2182.000000
1699.474609 2160.000000
1700.948120 2322.000000
1702.420166 2199.000000
1703.891968 2232.000000
1705.362793 2187.000000
1706.832764 2213.000000
1708.301392 2253.000000
1709.769531 2285.000000
1711.236938 2241.000000
1712.703247 2202.000000
1714.168945 2190.000000
1715.632935 2287.000000
1717.096802 2219.000000
1718.559814 2209.000000
1720.021851 2147.000000
1721.482666 2164.000000
1722.942871 2166.000000
1724.402344 2198.000000
1725.860962 2178.000000
1727.318604 2221.000000
1728.774902 2180.000000
1730.230957 2191.000000
1731.686035 2091.000000
1733.140137 2152.000000
1734.593018 2197.000000
1736.045654 2109.000000
1737.497192 2166.000000
1738.947998 2070.000000
1740.397827 2177.000000
1741.846313 2231.000000
1743.294434 2159.000000
1744.741699 2092.000000
1746.188232 2056.000000
1747.633179 2058.000000
1749.077881 2034.000000
1750.521729 1910.000000
1751.964722 2173.000000
1753.406250 2097.000000
1754.847534 2039.000000
1756.287964 1916.000000
1757.727417 1995.000000
1759.165894 2017.000000
1760.603394 2074.000000
1762.040405 2005.000000
1763.476440 2048.000000
1764.911621 1914.000000
1766.345337 1978.000000
1767.778931 1959.000000
1769.211548 1938.000000
1770.643311 1987.000000
1772.074219 1956.000000
1773.503906 2000.000000
1774.932861 1901.000000
1776.361328 1991.000000
1777.788818 1809.000000
1779.214966 1776.000000
1780.640869 1855.000000
1782.065674 1839.000000
1783.489868 1938.000000
1784.912598 1765.000000
1786.334839 1825.000000
1787.756348 1821.000000
1789.177124 1770.000000
1790.596924 1828.000000
1792.015381 1811.000000
1793.433350 1835.000000
1794.850708 1803.000000
1796.267212 1741.000000
1797.682251 1744.000000
1799.096924 1835.000000
1800.510986 1845.000000
1801.923828 1770.000000
1803.336060 1850.000000
1804.746948 1703.000000
1806.157349 1775.000000
1807.567017 1670.000000
1808.975708 1789.000000
1810.383301 1768.000000
1811.790405 1817.000000
1813.196655 1750.000000
1814.601929 1716.000000
1816.006104 1762.000000
1817.409912 1803.000000
1818.812744 1706.000000
1820.214722 1815.000000
1821.616089 1792.000000
1823.015991 1765.000000
1824.415283 1815.000000
1825.814087 1736.000000
1827.212036 1770.000000
1828.608643 1792.000000
1830.004639 1775.000000
1831.399902 1723.000000
1832.794556 1892.000000
1834.188232 1736.000000
1835.580566 1760.000000
1836.972412 1770.000000
1838.363647 1670.000000
1839.753906 1713.000000
1841.142944 1681.000000
1842.531616 1688.000000
1843.919312 1688.000000
1845.306274 1835.000000
1846.691895 1683.000000
1848.077271 1718.000000
1849.461792 1779.000000
1850.845581 1733.000000
1852.228271 1631.000000
1853.609741 1727.000000
1854.990723 1704.000000
1856.371216 1669.000000
1857.750732 1670.000000
1859.128784 1681.000000
1860.506714 1629.000000
1861.883667 1740.000000
1863.259888 1641.000000
1864.635254 1652.000000
1866.009155 1571.000000
1867.382935 1503.000000
1868.755859 1688.000000
1870.127686 1589.000000
1871.498535 1557.000000
1872.869019 1594.000000
1874.238403 1626.000000
1875.607300 1560.000000
1876.974609 1506.000000
1878.341797 1550.000000
1879.708008 1427.000000
1881.073486 1491.000000
1882.438232 1492.000000
1883.801392 1516.000000
1885.164429 1556.000000
1886.526611 1467.000000
1887.887939 1491.000000
1889.247925 1520.000000
1890.607544 1512.000000
1891.966553 1437.000000
1893.324585 1441.000000
1894.681763 1499.000000
1896.037720 1473.000000
1897.393433 1464.000000
1898.748169 1393.000000
1900.102051 1394.000000
1901.454834 1423.000000
1902.807129 1439.000000
1904.158691 1507.000000
1905.509399 1358.000000
1906.858887 1473.000000
1908.207886 1531.000000
1909.556030 1458.000000
1910.903564 1485.000000
1912.250366 1343.000000
1913.595581 1449.000000
1914.940552 1530.000000
1916.284790 1367.000000
1917.628174 1417.000000
1918.970215 1414.000000
1920.312012 1390.000000
1921.652954 1492.000000
1922.993164 1594.000000
1924.332397 1486.000000
1925.670654 1463.000000
1927.008301 1529.000000
1928.345215 1493.000000
1929.681274 1476.000000
1931.016113 1493.000000
1932.350586 1418.000000
1933.684326 1410.000000
1935.017212 1438.000000
1936.348633 1467.000000
1937.680176 1415.000000
1939.010376 1376.000000
1940.340088 1396.000000
1941.668945 1408.000000
1942.996582 1462.000000
1944.323730 1447.000000
1945.650146 1419.000000
1946.975830 1343.000000
1948.300171 1465.000000
1949.624268 1496.000000
1950.947510 1390.000000
1952.270020 1369.000000
1953.591431 1406.000000
1954.911865 1470.000000
1956.231689 1385.000000
1957.551147 1420.000000
1958.869629 1367.000000
1960.186768 1368.000000
1961.503540 1359.000000
1962.819580 1349.000000
1964.134888 1261.000000
1965.448730 1299.000000
1966.762329 1377.000000
1968.075195 1367.000000
1969.387207 1258.000000
1970.698608 1282.000000
1972.008667 1287.000000
1973.318237 1390.000000
1974.627075 1306.000000
1975.935303 1313.000000
1977.242188 1285.000000
1978.548462 1201.000000
1979.854370 1296.000000
1981.159058 1208.000000
1982.463257 1241.000000
1983.766235 1270.000000
1985.068848 1257.000000
1986.370483 1261.000000
1987.671509 1308.000000
1988.970947 1162.000000
1990.270508 1227.000000
1991.568970 1175.000000
1992.866943 1162.000000
1994.163330 1304.000000
1995.459717 1216.000000
1996.755127 1257.000000
1998.049805 1135.000000
1999.343628 1187.000000
2000.636230 1172.000000
2001.928345 1115.000000
2003.219971 1149.000000
2004.510864 1261.000000
2005.800171 1209.000000
2007.089233 1147.000000
2008.377563 1182.000000
2009.665161 1122.000000
2010.951904 1158.000000
2012.237549 1102.000000
2013.522827 1218.000000
2014.807129 1199.000000
2016.090820 1148.000000
2017.373169 1193.000000
2018.655151 1140.000000
2019.936646 1104.000000
2021.217163 1081.000000
2022.496948 1205.000000
2023.775635 1169.000000
2025.053589 1113.000000
2026.331055 1145.000000
2027.607910 1123.000000
2028.883057 1094.000000
2030.158325 1162.000000
2031.432617 1138.000000
2032.705933 1182.000000
2033.978394 1153.000000
2035.250488 1081.000000
2036.521484 1171.000000
2037.792236 1216.000000
2039.061646 1152.000000
2040.329956 1163.000000
2041.598267 1158.000000
2042.865601 1158.000000
2044.132202 1093.000000
2045.397583 1300.000000
2046.662354 1567.000000
2047.926880 1115.000000
2049.190186 1053.000000
2050.453125 1209.000000
2051.714111 1065.000000
2052.975586 1110.000000
2054.235840 1146.000000
2055.495361 1110.000000
2056.754150 1121.000000
2058.011963 1145.000000
2059.269287 1179.000000
2060.525879 1181.000000
2061.781006 1007.000000
2063.036133 1131.000000
2064.290283 1119.000000
2065.543701 1066.000000
2066.796387 1170.000000
2068.047852 982.000000
2069.299072 1034.000000
2070.549561 1070.000000
2071.799316 1139.000000
2073.047607 1092.000000
2074.295898 1096.000000
2075.543213 1084.000000
2076.789795 1044.000000
2078.035645 983.000000
2079.280273 1153.000000
2080.524414 1111.000000
2081.768066 1028.000000
2083.010742 1044.000000
2084.252197 1071.000000
2085.493408 902.000000
2086.734131 1034.000000
2087.973877 1020.000000
2089.212402 1111.000000
2090.450439 939.000000
2091.687744 1015.000000
2092.924805 1052.000000
2094.160400 920.000000
2095.395264 942.000000
2096.629883 970.000000
2097.863525 974.000000
2099.096191 908.000000
2100.328125 1016.000000
2101.559570 996.000000
2102.790039 915.000000
2104.019775 928.000000
2105.249268 940.000000
2106.476807 977.000000
2107.704590 980.000000
2108.931641 969.000000
2110.157715 928.000000
2111.382324 971.000000
2112.607178 971.000000
2113.830811 916.000000
2115.053955 970.000000
2116.275879 977.000000
2117.497559 922.000000
2118.718262 994.000000
2119.938232 800.000000
2121.157715 971.000000
2122.375732 869.000000
2123.593750 972.000000
2124.810791 935.000000
2126.027344 933.000000
2127.242188 974.000000
2128.457275 905.000000
2129.671387 889.000000
2130.884766 862.000000
2132.097412 855.000000
2133.308594 952.000000
2134.520020 938.000000
2135.730225 721.000000
2136.939941 927.000000
2138.148193 858.000000
2139.356445 868.000000
2140.563965 843.000000
2141.770264 1113.000000
2142.975830 899.000000
2144.181152 967.000000
2145.385498 933.000000
2146.589111 906.000000
2147.792236 931.000000
2148.993896 843.000000
2150.195313 966.000000
2151.395996 946.000000
2152.595947 936.000000
2153.794678 942.000000
2154.993164 851.000000
2156.191162 903.000000
2157.388184 928.000000
2158.584473 868.000000
2159.779541 964.000000
2160.974365 858.000000
2162.168457 813.000000
2163.361572 860.000000
2164.553711 956.000000
2165.745605 832.000000
2166.936768 799.000000
2168.126953 826.000000
2169.316406 744.000000
2170.505371 768.000000
2171.693359 815.000000
2172.881104 887.000000
2174.067383 839.000000
2175.252930 744.000000
2176.438232 757.000000
2177.623047 782.000000
2178.806641 853.000000
2179.989502 877.000000
2181.171387 836.000000
2182.353027 787.000000
2183.534180 735.000000
2184.714111 767.000000
2185.893066 734.000000
2187.071533 769.000000
2188.249756 865.000000
2189.426758 742.000000
2190.602783 763.000000
2191.778564 788.000000
2192.953857 782.000000
2194.127686 775.000000
2195.301025 740.000000
2196.474121 693.000000
2197.645996 733.000000
2198.817383 688.000000
2199.988281 857.000000
2201.157471 796.000000
2202.326660 763.000000
2203.495361 698.000000
2204.663086 652.000000
2205.829834 858.000000
2206.995850 832.000000
2208.161377 853.000000
2209.326660 727.000000
2210.490479 820.000000
2211.653809 760.000000
2212.815918 768.000000
2213.978271 761.000000
2215.139404 814.000000
2216.299561 789.000000
2217.459229 796.000000
2218.618652 844.000000
2219.776855 698.000000
2220.934082 760.000000
2222.091064 790.000000
2223.247314 785.000000
2224.402832 792.000000
2225.557617 839.000000
2226.711426 704.000000
2227.864258 756.000000
2229.017578 690.000000
2230.168945 736.000000
2231.320068 663.000000
2232.470459 676.000000
2233.620361 672.000000
2234.769287 785.000000
2235.917725 752.000000
2237.064697 727.000000
2238.211914 708.000000
2239.357910 664.000000
2240.503662 689.000000
2241.647705 680.000000
2242.791992 677.000000
2243.935303 615.000000
2245.077881 711.000000
2246.219482 769.000000
2247.360840 667.000000
2248.501221 629.000000
2249.640869 629.000000
2250.780029 593.000000
2251.917969 702.000000
2253.055908 597.000000
2254.192871 650.000000
2255.329102 682.000000
2256.464355 721.000000
2257.598877 700.000000
2258.733154 694.000000
2259.866943 680.000000
2260.999268 688.000000
2262.131104 714.000000
2263.262451 707.000000
2264.392822 620.000000
2265.522949 663.000000
2266.651855 565.000000
2267.780273 616.000000
2268.908203 658.000000
2270.035156 635.000000
2271.161377 631.000000
2272.286621 589.000000
2273.411865 568.000000
2274.536377 704.000000
2275.659668 650.000000
2276.782227 553.000000
2277.904297 587.000000
2279.025879 499.000000
2280.146729 685.000000
2281.266357 544.000000
2282.385498 585.000000
2283.504395 589.000000
2284.622559 539.000000
2285.739746 665.000000
2286.855957 571.000000
2287.971924 601.000000
2289.087158 577.000000
2290.201660 603.000000
2291.314941 538.000000
2292.428223 615.000000
2293.540771 534.000000
2294.652588 607.000000
2295.763672 629.000000
2296.873535 624.000000
2297.982910 630.000000
2299.092041 584.000000
2300.200195 607.000000
2301.307373 570.000000
2302.414307 508.000000
2303.520508 605.000000
2304.626221 533.000000
2305.730469 603.000000
2306.834473 560.000000
2307.937988 640.000000
2309.041016 581.000000
2310.142822 443.000000
2311.243896 593.000000
2312.344482 608.000000
2313.444580 640.000000
2314.543945 586.000000
2315.641846 619.000000
2316.740234 627.000000
2317.837158 661.000000
2318.933838 553.000000
2320.030029 628.000000
2321.124512 557.000000
2322.218994 590.000000
2323.312744 621.000000
2324.406250 591.000000
2325.498047 648.000000
2326.589844 515.000000
2327.680908 620.000000
2328.771240 654.000000
2329.860596 635.000000
2330.949951 657.000000
2332.038086 571.000000
2333.125732 584.000000
2334.213135 575.000000
2335.298828 535.000000
2336.384277 549.000000
2337.469482 566.000000
2338.553711 508.000000
2339.636963 479.000000
2340.719971 526.000000
2341.802002 1042.000000
2342.883789 520.000000
2343.964844 529.000000
2345.044678 509.000000
2346.124023 469.000000
2347.202881 477.000000
2348.281250 488.000000
2349.358154 507.000000
2350.434814 506.000000
2351.511230 511.000000
2352.586670 461.000000
2353.661133 551.000000
2354.735352 543.000000
2355.808838 515.000000
2356.881836 478.000000
2357.953613 450.000000
2359.025146 474.000000
2360.095703 462.000000
2361.166016 505.000000
2362.235352 375.000000
2363.303711 473.000000
2364.371826 473.000000
2365.439209 493.000000
2366.506104 534.000000
2367.572266 495.000000
2368.637207 493.000000
2369.702148 418.000000
2370.766357 570.000000
2371.829834 412.000000
2372.892090 447.000000
2373.954346 375.000000
2375.015625 436.000000
2376.076660 564.000000
2377.136475 539.000000
2378.195557 583.000000
2379.254639 457.000000
2380.312744 572.000000
2381.370117 476.000000
2382.426514 410.000000
2383.482666 514.000000
2384.538330 442.000000
2385.593262 388.000000
2386.646729 464.000000
2387.700439 495.000000
2388.753174 445.000000
2389.805420 413.000000
2390.856934 468.000000
2391.907471 412.000000
2392.957764 323.000000
2394.007080 405.000000
2395.056396 421.000000
2396.104248 405.000000
2397.151611 511.000000
2398.198730 497.000000
2399.244873 438.000000
2400.290283 422.000000
2401.334961 493.000000
2402.379639 338.000000
2403.422852 387.000000
2404.466064 476.000000
2405.507813 443.000000
2406.549805 443.000000
2407.591064 336.000000
2408.631348 341.000000
2409.670898 539.000000
2410.709473 410.000000
2411.748291 375.000000
2412.785889 423.000000
2413.823242 463.000000
2414.859375 430.000000
2415.895264 512.000000
2416.930420 357.000000
2417.965088 442.000000
2418.998291 449.000000
2420.031738 464.000000
2421.064209 431.000000
2422.096436 434.000000
2423.127197 447.000000
2424.157959 342.000000
2425.188232 376.000000
2426.217285 435.000000
2427.246338 427.000000
2428.273682 470.000000
2429.301514 468.000000
2430.328125 369.000000
2431.354492 367.000000
2432.379395 379.000000
2433.404541 387.000000
2434.428711 444.000000
2435.452637 426.000000
2436.475342 395.000000
2437.497314 417.000000
2438.519043 451.000000
2439.540039 360.000000
2440.560547 383.000000
2441.579834 409.000000
2442.599121 433.000000
2443.617432 333.000000
2444.635498 392.000000
2445.652100 353.000000
2446.668701 342.000000
2447.684570 362.000000
2448.700439 322.000000
2449.714844 416.000000
2450.728516 358.000000
2451.741699 321.000000
2452.754639 299.000000
2453.766846 268.000000
2454.778076 393.000000
2455.789063 352.000000
2456.799316 313.000000
2457.809082 350.000000
2458.817871 457.000000
2459.825928 291.000000
2460.833984 328.000000
2461.840820 318.000000
2462.847412 356.000000
2463.852783 429.000000
2464.857910 318.000000
2465.862793 421.000000
2466.866455 340.000000
2467.869873 355.000000
2468.872314 382.000000
2469.874512 288.000000
2470.876221 302.000000
2471.876953 328.000000
2472.876709 386.000000
2473.876465 352.000000
2474.875244 308.000000
2475.873535 376.000000
2476.870850 301.000000
2477.867920 269.000000
2478.864990 344.000000
2479.860596 352.000000
2480.856201 311.000000
2481.850098 393.000000
2482.843994 350.000000
2483.837402 268.000000
2484.830322 340.000000
2485.822266 390.000000
2486.813477 402.000000
2487.804443 332.000000
2488.794922 241.000000
2489.784424 420.000000
2490.773193 357.000000
2491.761963 305.000000
2492.749756 425.000000
2493.736328 337.000000
2494.722900 297.000000
2495.708984 347.000000
2496.694336 315.000000
2497.678711 297.000000
2498.662842 319.000000
2499.646973 361.000000
2500.629639 331.000000
2501.611816 286.000000
2502.593506 290.000000
2503.574463 247.000000
2504.554932 274.000000
2505.535156 283.000000
2506.513916 404.000000
2507.492432 324.000000
2508.470459 373.000000
2509.447998 300.000000
2510.424561 314.000000
2511.400879 377.000000
2512.376465 316.000000
2513.351563 297.000000
2514.326172 311.000000
2515.299561 293.000000
2516.272705 382.000000
2517.245605 276.000000
2518.217529 414.000000
2519.188721 301.000000
2520.159424 329.000000
2521.129883 247.000000
2522.099609 288.000000
2523.068359 324.000000
2524.036377 346.000000
2525.004395 343.000000
2525.971436 334.000000
2526.938232 360.000000
2527.903809 308.000000
2528.869385 296.000000
2529.834229 241.000000
2530.798584 332.000000
2531.761719 288.000000
2532.725098 324.000000
2533.687500 268.000000
2534.649658 326.000000
2535.610596 317.000000
2536.570801 420.000000
2537.531250 231.000000
2538.490723 260.000000
2539.449463 327.000000
2540.407227 183.000000
2541.365234 280.000000
2542.322510 299.000000
2543.278809 264.000000
2544.234863 225.000000
2545.189697 426.000000
2546.144775 320.000000
2547.099121 303.000000
2548.052734 476.000000
2549.005371 297.000000
2549.957764 239.000000
2550.909668 288.000000
2551.860840 285.000000
2552.811279 273.000000
2553.761230 265.000000
2554.710938 239.000000
2555.659912 303.000000
2556.608398 261.000000
2557.555664 273.000000
2558.502930 281.000000
2559.449463 226.000000
2560.395508 271.000000
2561.340576 138.000000
2562.285400 214.000000
2563.229736 210.000000
2564.173584 241.000000
2565.116943 214.000000
2566.058838 343.000000
2567.000977 267.000000
2567.942383 247.000000
2568.883057 387.000000
2569.822998 189.000000
2570.762939 330.000000
2571.701904 241.000000
2572.640625 282.000000
2573.578369 307.000000
2574.515869 317.000000
2575.452637 253.000000
2576.388672 178.000000
2577.324219 160.000000
2578.259033 322.000000
2579.193848 257.000000
2580.127686 305.000000
2581.061035 435.000000
2581.993652 328.000000
2582.926025 249.000000
2583.857666 214.000000
2584.788818 198.000000
2585.719482 215.000000
2586.648926 180.000000
2587.578369 251.000000
2588.507324 321.000000
2589.436035 363.000000
2590.363037 374.000000
2591.290283 288.000000
2592.217041 286.000000
2593.143066 229.000000
2594.068848 238.000000
2594.993408 197.000000
2595.917725 157.000000
2596.841553 233.000000
2597.764893 266.000000
2598.687256 304.000000
2599.609375 279.000000
2600.531006 286.000000
2601.451904 242.000000
2602.372070 260.000000
2603.291992 257.000000
2604.211426 229.000000
2605.130615 228.000000
2606.048828 216.000000
2606.965820 329.000000
2607.883057 250.000000
2608.800049 207.000000
2609.716064 205.000000
2610.630859 215.000000
2611.546143 246.000000
2612.460693 268.000000
2613.374268 227.000000
2614.287842 214.000000
2615.200195 242.000000
2616.112549 256.000000
2617.023926 196.000000
2617.935059 227.000000
2618.845459 163.000000
2619.755615 291.000000
2620.665039 171.000000
2621.573975 315.000000
2622.481934 294.000000
2623.390137 151.000000
2624.297363 237.000000
2625.204102 182.000000
2626.110107 262.000000
2627.015869 332.000000
2627.920898 246.000000
2628.825684 166.000000
2629.729736 281.000000
2630.632813 268.000000
2631.535889 265.000000
2632.437988 188.000000
2633.340088 159.000000
2634.241943 231.000000
2635.142090 240.000000
2636.042480 202.000000
2636.942139 235.000000
2637.841553 250.000000
2638.739502 182.000000
2639.637939 221.000000
2640.535889 243.000000
2641.433105 337.000000
2642.329102 284.000000
2643.225098 384.000000
2644.120850 130.000000
2645.015869 238.000000
2645.910645 211.000000
2646.803955 203.000000
2647.697266 192.000000
2648.590332 253.000000
2649.483154 227.000000
2650.374268 154.000000
2651.265625 219.000000
2652.156494 208.000000
2653.046631 174.000000
2653.936523 242.000000
2654.825195 192.000000
2655.714111 159.000000
2656.602539 153.000000
2657.489990 128.000000
2658.376465 179.000000
2659.263428 172.000000
2660.149658 118.000000
2661.035400 141.000000
2661.919922 223.000000
2662.804443 227.000000
2663.688721 216.000000
2664.572266 153.000000
2665.455322 215.000000
2666.337646 246.000000
2667.219482 95.000000
2668.100586 296.000000
2668.981934 169.000000
2669.861816 99.000000
2670.741943 205.000000
2671.621338 138.000000
2672.500732 179.000000
2673.379395 282.000000
2674.256348 190.000000
2675.134033 231.000000
2676.010986 272.000000
2676.887207 102.000000
2677.762939 220.000000
2678.637939 177.000000
2679.513184 230.000000
2680.387451 211.000000
2681.261230 155.000000
2682.134277 188.000000
2683.007080 246.000000
2683.879639 36.000000
2684.751465 185.000000
2685.622559 78.000000
2686.493408 217.000000
2687.363770 152.000000
2688.233887 224.000000
2689.102295 218.000000
2689.971436 92.000000
2690.839844 569.000000
2691.708008 141.000000
2692.575439 159.000000
2693.441650 207.000000
2694.308350 156.000000
2695.174072 185.000000
2696.039795 159.000000
2696.904053 309.000000
2697.769043 237.000000
2698.632568 217.000000
2699.496338 197.000000
2700.358643 230.000000
2701.221436 251.000000
2702.083252 158.000000
2702.944580 283.000000
2703.805908 89.000000
2704.666016 152.000000
2705.526123 215.000000
2706.385742 124.000000
2707.245117 90.000000
2708.102783 146.000000
2708.960693 192.000000
2709.819092 230.000000
2710.676270 144.000000
2711.532715 208.000000
2712.388672 99.000000
2713.244629 65.000000
2714.099854 139.000000
2714.954346 252.000000
2715.808350 159.000000
2716.662354 70.000000
2717.515381 87.000000
2718.368652 110.000000
2719.220215 167.000000
2720.072266 70.000000
2720.924072 91.000000
2721.774658 159.000000
2722.625244 165.000000
2723.475342 161.000000
2724.324707 196.000000
2725.174072 166.000000
2726.022217 193.000000
2726.869873 103.000000
2727.718018 182.000000
2728.564941 95.000000
2729.412354 189.000000
2730.258301 214.000000
2731.103516 105.000000
2731.949219 137.000000
2732.793945 178.000000
2733.638672 98.000000
2734.482178 116.000000
2735.325928 141.000000
2736.168945 122.000000
2737.011475 91.000000
2737.853027 103.000000
2738.695068 113.000000
2739.536133 121.000000
2740.376953 204.000000
2741.217529 147.000000
2742.056885 126.000000
2742.896240 95.000000
2743.735596 134.000000
2744.573730 143.000000
2745.411377 135.000000
2746.249023 120.000000
2747.086182 134.000000
2747.923096 120.000000
2748.759521 210.000000
2749.594727 145.000000
2750.430176 149.000000
2751.265137 176.000000
2752.099365 156.000000
2752.933350 100.000000
2753.766846 94.000000
2754.600342 170.000000
2755.432861 124.000000
2756.264893 123.000000
2757.096436 148.000000
2757.927979 143.000000
2758.758545 144.000000
2759.589355 217.000000
2760.418945 194.000000
2761.248535 172.000000
2762.077881 -2.000000
2762.906494 100.000000
2763.734619 115.000000
2764.562256 176.000000
2765.389893 51.000000
2766.217041 160.000000
2767.043457 220.000000
2767.869385 229.000000
2768.694824 116.000000
2769.520020 222.000000
2770.345215 48.000000
2771.169189 45.000000
2771.993164 206.000000
2772.817139 108.000000
2773.639893 41.000000
2774.462891 76.000000
2775.284668 58.000000
2776.106445 129.000000
2776.928223 97.000000
2777.749023 86.000000
2778.569092 12.000000
2779.389404 177.000000
2780.209229 123.000000
2781.029053 82.000000
2781.846924 237.000000
2782.666016 217.000000
2783.483887 158.000000
2784.301514 58.000000
2785.118652 17.000000
2785.935303 207.000000
2786.751709 122.000000
2787.567627 107.000000
2788.383301 124.000000
2789.197998 66.000000
2790.013184 87.000000
2790.827637 116.000000
2791.641602 11.000000
2792.455322 151.000000
2793.267822 68.000000
2794.080566 162.000000
2794.892822 133.000000
2795.704590 66.000000
2796.515625 203.000000
2797.327393 96.000000
2798.137939 148.000000
2798.948486 173.000000
2799.757568 109.000000
2800.567383 141.000000
2801.376465 85.000000
2802.185303 148.000000
2802.993652 134.000000
2803.801025 105.000000
2804.608887 66.000000
2805.416016 101.000000
2806.222900 120.000000
2807.028564 140.000000
2807.834717 206.000000
2808.640137 144.000000
2809.445557 162.000000
2810.250244 121.000000
2811.053955 84.000000
2811.858154 89.000000
2812.661865 128.000000
2813.465332 144.000000
2814.267334 115.000000
2815.070068 103.000000
2815.872070 -6.000000
2816.673828 136.000000
2817.475098 -45.000000
2818.275879 166.000000
2819.076172 117.000000
2819.876709 -48.000000
2820.676270 79.000000
2821.475342 194.000000
2822.274414 104.000000
2823.073242 83.000000
2823.871582 41.000000
2824.668945 78.000000
2825.466553 148.000000
2826.263428 87.000000
2827.060547 142.000000
2827.856934 250.000000
2828.652588 -1.000000
2829.448242 52.000000
2830.243652 101.000000
2831.038574 61.000000
2831.832764 27.000000
2832.626953 79.000000
2833.420898 177.000000
2834.214355 62.000000
2835.007080 82.000000
2835.799561 69.000000
2836.592041 90.000000
2837.384277 159.000000
2838.176025 115.000000
2838.966797 157.000000
2839.757568 185.000000
2840.548584 152.000000
2841.338623 205.000000
2842.128174 107.000000
2842.917969 79.000000
2843.706787 186.000000
2844.495605 119.000000
2845.284424 141.000000
2846.072266 179.000000
2846.859619 123.000000
2847.647217 37.000000
2848.434326 106.000000
2849.220703 81.000000
2850.007080 94.000000
2850.793213 173.000000
2851.578857 122.000000
2852.363525 127.000000
2853.148682 106.000000
2853.933594 -4.000000
2854.717773 103.000000
2855.501953 185.000000
2856.284912 250.000000
2857.068115 136.000000
2857.851074 64.000000
2858.633545 87.000000
2859.415771 85.000000
2860.197510 76.000000
2860.979004 48.000000
2861.760742 144.000000
2862.541748 141.000000
2863.322021 82.000000
2864.102051 153.000000
2864.882080 152.000000
2865.661865 61.000000
2866.440674 54.000000
2867.219727 101.000000
2867.998291 89.000000
2868.776611 127.000000
2869.554443 169.000000
2870.332031 164.000000
2871.109375 169.000000
2871.886475 130.000000
2872.663086 114.000000
2873.439209 187.000000
2874.215332 165.000000
2874.990967 229.000000
2875.766357 105.000000
2876.541260 181.000000
2877.315918 47.000000
2878.090576 166.000000
2878.864990 186.000000
2879.638672 293.000000
2880.411621 154.000000
2881.185303 162.000000
2881.958008 212.000000
2882.730713 204.000000
2883.502686 175.000000
2884.274414 124.000000
2885.046631 143.000000
2885.817627 193.000000
2886.588135 153.000000
2887.359131 206.000000
2888.130127 164.000000
2888.900391 138.000000
2889.669678 146.000000
2890.439209 203.000000
2891.208740 100.000000
2891.977783 160.000000
2892.746338 240.000000
2893.514893 179.000000
2894.282471 183.000000
2895.050537 153.000000
2895.818115 212.000000
2896.585693 232.000000
2897.352051 179.000000
2898.119385 230.000000
2898.885498 77.000000
2899.651855 179.000000
2900.416748 88.000000
2901.182129 137.000000
2901.947998 149.000000
2902.712402 187.000000
2903.476807 161.000000
2904.241455 156.000000
2905.005127 154.000000
2905.769531 186.000000
2906.533203 118.000000
2907.296143 126.000000
2908.058838 160.000000
2908.822021 160.000000
2909.584717 131.000000
2910.346191 140.000000
2911.108154 140.000000
spectrumdark 2048
-97.122696 6163.000000
-94.495827 6163.000000
-91.870834 6073.000000
-89.247734 6399.000000
-86.626503 5758.000000
-84.007172 6241.000000
-81.389702 6034.000000
-78.774109 6418.000000
-76.160393 6198.000000
-73.548553 5808.000000
-70.938576 6098.000000
-68.330482 5972.000000
-65.724236 5965.000000
-63.119865 6000.000000
-60.517357 6104.000000
-57.916702 5609.000000
-55.317909 6165.000000
-52.720974 6850.000000
-50.125893 6488.000000
-47.532665 6508.000000
-44.941288 6259.000000
-42.351757 6722.000000
-39.764069 5917.000000
-37.178230 6077.000000
-34.594234 6440.000000
-32.012074 5666.000000
-29.431763 6301.000000
-26.853277 5690.000000
-24.276634 6094.000000
-21.701817 6220.000000
-19.128839 6420.000000
-16.557682 6511.000000
-13.988358 6785.000000
-11.420860 7797.000000
-8.855181 6200.000000
-6.291327 6448.000000
-3.729286 5918.000000
-1.169070 5810.000000
1.389338 6159.000000
3.945925 6945.000000
6.500707 6712.000000
9.053672 5977.000000
11.604836 6716.000000
14.154188 6487.000000
16.701744 6642.000000
19.247488 5976.000000
21.791439 5702.000000
24.333586 6636.000000
26.873936 6778.000000
29.412500 6837.000000
31.949268 6181.000000
34.484234 5792.000000
37.017422 7212.000000
39.548828 6308.000000
42.078442 7095.000000
44.606258 6455.000000
47.132317 7792.000000
49.656586 5681.000000
52.179085 6241.000000
54.699787 6691.000000
57.218735 6250.000000
59.735909 6364.000000
62.251305 6690.000000
64.764923 5634.000000
67.276787 5726.000000
69.786903 6501.000000
72.295227 6520.000000
74.801796 5945.000000
77.306618 6325.000000
79.809685 6353.000000
82.310974 6254.000000
84.810524 6072.000000
87.308319 6362.000000
89.804382 5743.000000
92.298668 7154.000000
94.791214 5776.000000
97.282043 6868.000000
99.771103 7177.000000
102.258415 6407.000000
104.744003 6172.000000
107.227852 6405.000000
109.709953 5732.000000
112.190331 6590.000000
114.668983 6127.000000
117.145912 6508.000000
119.621086 7095.000000
122.094551 6764.000000
124.566284 5853.000000
127.036308 6734.000000
129.504578 6249.000000
131.971176 6315.000000
134.436020 5701.000000
136.899170 6167.000000
139.360580 7257.000000
141.820297 6851.000000
144.278290 6334.000000
146.734589 6014.000000
149.189178 5746.000000
151.642044 6802.000000
154.093231 6359.000000
156.542725 6577.000000
158.990494 6053.000000
161.436554 6565.000000
163.880936 8717.000000
166.323639 6410.000000
168.764648 6711.000000
171.203949 6186.000000
173.641541 7187.000000
176.077499 6599.000000
178.511719 6969.000000
180.944260 7123.000000
183.375153 6700.000000
185.804321 7095.000000
188.231842 6678.000000
190.657684 6342.000000
193.081848 6687.000000
195.504349 7144.000000
197.925156 7310.000000
200.344299 6517.000000
202.761780 5956.000000
205.177567 7643.000000
207.591705 7076.000000
210.004211 6353.000000
212.415039 6114.000000
214.824188 6236.000000
217.231705 7415.000000
219.637512 6152.000000
222.041733 6506.000000
224.444244 6665.000000
226.845139 6929.000000
229.244385 6450.000000
231.641968 6860.000000
234.037888 7257.000000
236.432190 6486.000000
238.824829 5794.000000
241.215851 6817.000000
243.605209 6533.000000
245.992950 6330.000000
248.379044 6936.000000
250.763504 6124.000000
253.146317 7882.000000
255.527557 6631.000000
257.907104 6661.000000
260.285065 6456.000000
262.661346 7460.000000
265.036072 7489.000000
267.409149 7843.000000
269.780579 6174.000000
272.150360 6424.000000
274.518585 5844.000000
276.885162 6322.000000
279.250153 6731.000000
281.613525 6009.000000
283.975250 6260.000000
286.335388 7085.000000
288.693909 5980.000000
291.050842 6515.000000
293.406158 6347.000000
295.759888 5905.000000
298.111969 5958.000000
300.462494 6249.000000
302.811432 6339.000000
305.158722 6847.000000
307.504486 6398.000000
309.848572 6488.000000
312.191132 7334.000000
314.532074 7514.000000
316.871399 7166.000000
319.209167 6917.000000
321.545380 8089.000000
323.879944 6252.000000
326.212952 6401.000000
328.544403 6008.000000
330.874268 6603.000000
333.202545 6378.000000
335.529205 7165.000000
337.854370 6335.000000
340.177917 6196.000000
342.499908 5934.000000
344.820343 7525.000000
347.139160 7679.000000
349.456421 5954.000000
351.772156 5837.000000
354.086304 6985.000000
356.398865 6287.000000
358.709869 6423.000000
361.019348 7021.000000
363.327301 6363.000000
365.633636 5650.000000
367.938385 6426.000000
370.241669 6418.000000
372.543335 6251.000000
374.843506 6347.000000
377.142120 6284.000000
379.439178 5665.000000
381.734680 6060.000000
384.028656 5858.000000
386.321045 5198.000000
388.611938 5516.000000
390.901306 6215.000000
393.189087 6216.000000
395.475342 6420.000000
397.760101 6944.000000
400.043243 6033.000000
402.324951 6398.000000
404.605133 6140.000000
406.883728 7240.000000
409.160797 6412.000000
411.436340 6730.000000
413.710358 6532.000000
415.982941 6396.000000
418.253906 6444.000000
420.523376 6384.000000
422.791351 7025.000000
425.057770 7261.000000
427.322693 6177.000000
429.586151 6329.000000
431.848022 6449.000000
434.108429 6010.000000
436.367279 6587.000000
438.624664 6042.000000
440.880554 5643.000000
443.134949 5842.000000
445.387817 5473.000000
447.639130 6827.000000
449.889038 6077.000000
452.137360 6278.000000
454.384247 5676.000000
456.629669 6495.000000
458.873535 6559.000000
461.115906 6727.000000
463.356781 5588.000000
465.596252 6712.000000
467.834137 5374.000000
470.070587 5835.000000
472.305511 5975.000000
474.538971 7209.000000
476.770996 6612.000000
479.001495 5609.000000
481.230499 6411.000000
483.458038 6338.000000
485.684082 5951.000000
487.908691 6513.000000
490.131836 5843.000000
492.353516 6415.000000
494.573639 6612.000000
496.792358 5623.000000
499.009583 6234.000000
501.225433 5510.000000
503.439667 6159.000000
505.652588 6376.000000
507.863922 6395.000000
510.073822 6912.000000
512.282288 6488.000000
514.489380 6511.000000
516.694885 6376.000000
518.898987 6587.000000
521.101563 6156.000000
523.302734 6537.000000
525.502563 6615.000000
527.700867 6996.000000
529.897644 5323.000000
532.093079 5832.000000
534.286987 5462.000000
536.479553 7519.000000
538.670593 6733.000000
540.860229 5930.000000
543.048462 6921.000000
545.235168 7053.000000
547.420410 6794.000000
549.604370 6226.000000
551.786743 6353.000000
553.967773 6167.000000
556.147278 6051.000000
558.325500 5841.000000
560.502197 5972.000000
562.677490 6355.000000
564.851379 6430.000000
567.023804 5851.000000
569.194824 5983.000000
571.364380 6321.000000
573.532654 5235.000000
575.699402 6392.000000
577.864685 6239.000000
580.028564 6147.000000
582.191162 5763.000000
584.352234 5939.000000
586.511902 5604.000000
588.670227 5774.000000
590.827026 6131.000000
592.982483 6570.000000
595.136536 5723.000000
597.289246 6145.000000
599.440430 7208.000000
601.590271 6702.000000
603.738770 6604.000000
605.885681 6102.000000
608.031372 6406.000000
610.175659 6472.000000
612.318481 7000.000000
614.459839 6109.000000
616.599976 6396.000000
618.738586 7585.000000
620.875916 5681.000000
623.011780 6536.000000
625.146240 6799.000000
627.279236 7105.000000
629.411072 6587.000000
631.541443 6531.000000
633.670410 6801.000000
635.797913 6435.000000
637.924133 6195.000000
640.048828 7298.000000
642.172302 6318.000000
644.294434 6767.000000
646.415100 6795.000000
648.534424 6518.000000
650.652344 5605.000000
652.768921 5640.000000
654.884094 6387.000000
656.997925 6438.000000
659.110291 5777.000000
661.221436 6126.000000
663.331177 5393.000000
665.439453 5962.000000
667.546570 6312.000000
669.652222 6710.000000
671.756409 5884.000000
673.859375 5678.000000
675.960938 7001.000000
678.061157 5288.000000
680.159973 6748.000000
682.257446 6157.000000
684.353638 6968.000000
686.448364 6178.000000
688.541870 6973.000000
690.634033 6604.000000
692.724670 7959.000000
694.814087 6568.000000
696.902222 6456.000000
698.988892 5995.000000
701.074341 6629.000000
703.158264 5058.000000
705.240967 5880.000000
707.322388 5937.000000
709.402344 7615.000000
711.481079 6198.000000
713.558350 5548.000000
715.634338 6485.000000
717.709045 6091.000000
719.782471 6987.000000
721.854370 6244.000000
723.925110 7320.000000
725.994507 5782.000000
728.062500 6482.000000
730.129150 6331.000000
732.194580 7089.000000
734.258667 5748.000000
736.321411 6144.000000
738.382813 6488.000000
740.442932 6574.000000
742.501648 6047.000000
744.559143 6612.000000
746.615356 6509.000000
748.670166 6736.000000
750.723694 6400.000000
752.775818 7447.000000
754.826721 5737.000000
756.876404 6723.000000
758.924622 6357.000000
760.971619 6125.000000
763.017334 7014.000000
765.061646 5322.000000
767.104675 5719.000000
769.146484 14886.000000
771.186951 6922.000000
773.226013 6424.000000
775.263916 6089.000000
777.300476 5975.000000
779.335815 5333.000000
781.369812 5737.000000
783.402405 6909.000000
785.433838 5562.000000
787.463867 11574.000000
789.492615 6014.000000
791.520203 6287.000000
793.546448 6378.000000
795.571289 5769.000000
797.595032 5517.000000
799.617371 6313.000000
801.638489 5914.000000
803.658264 6737.000000
805.676758 4915.000000
807.694031 6694.000000
809.709900 6747.000000
811.724609 5761.000000
813.737976 6379.000000
815.750122 6226.000000
817.761047 6113.000000
819.770630 6606.000000
821.778992 5291.000000
823.785950 5634.000000
825.791687 5984.000000
827.796204 5719.000000
829.799438 5620.000000
831.801392 6426.000000
833.802063 6085.000000
835.801514 5901.000000
837.799622 6291.000000
839.796631 6932.000000
841.792236 6197.000000
843.786682 6014.000000
845.779785 6182.000000
847.771667 6803.000000
849.762207 5616.000000
851.751465 6783.000000
853.739685 6013.000000
855.726501 5720.000000
857.712097 6382.000000
859.696411 7265.000000
861.679626 6198.000000
863.661438 6350.000000
865.642029 5812.000000
867.621338 7756.000000
869.599487 7107.000000
871.576294 6212.000000
873.551819 6021.000000
875.526306 6156.000000
877.499329 5968.000000
879.471313 5366.000000
881.441956 6341.000000
883.411438 6074.000000
885.379578 5576.000000
887.346558 5233.000000
889.312195 6101.000000
891.276672 5814.000000
893.239929 6000.000000
895.201965 6436.000000
897.162720 5762.000000
899.122253 6407.000000
901.080505 6652.000000
903.037659 6340.000000
904.993652 6060.000000
906.948242 6897.000000
908.901611 6530.000000
910.853821 6409.000000
912.804810 6364.000000
914.754517 7085.000000
916.703064 6258.000000
918.650391 6136.000000
920.596436 6090.000000
922.541199 6020.000000
924.484924 6283.000000
926.427490 5929.000000
928.368774 5525.000000
930.308716 6405.000000
932.247559 5732.000000
934.185120 5486.000000
936.121460 5887.000000
938.056641 5798.000000
939.990540 6071.000000
941.923340 5880.000000
943.854919 6737.000000
945.785339 5190.000000
947.714539 6408.000000
949.642395 7066.000000
951.569214 6605.000000
953.494751 5919.000000
955.419006 5392.000000
957.342163 6000.000000
959.264160 6701.000000
961.184875 7287.000000
963.104431 6494.000000
965.022827 5316.000000
966.940186 6392.000000
968.856079 6383.000000
970.770874 6079.000000
972.684448 5952.000000
974.596863 6397.000000
976.508057 6481.000000
978.418091 5430.000000
980.326843 6210.000000
982.234558 6164.000000
984.141052 6334.000000
986.046326 5695.000000
987.950500 6768.000000
989.853455 6141.000000
991.755188 6813.000000
993.655762 6285.000000
995.555176 6526.000000
997.453369 5260.000000
999.350403 6471.000000
1001.246216 6530.000000
1003.140869 7735.000000
1005.034424 5572.000000
1006.926697 7080.000000
1008.818054 6071.000000
1010.708069 5317.000000
1012.596863 6603.000000
1014.484497 6328.000000
1016.370972 6889.000000
1018.256287 6799.000000
1020.140442 5919.000000
1022.023376 5803.000000
1023.905273 6205.000000
1025.785889 5222.000000
1027.665405 5810.000000
1029.543945 6058.000000
1031.421143 5435.000000
1033.296997 6186.000000
1035.171875 5937.000000
1037.045776 6565.000000
1038.918213 7020.000000
1040.789673 6735.000000
1042.659790 5496.000000
1044.528931 5507.000000
1046.396851 5707.000000
1048.263672 7029.000000
1050.129395 6707.000000
1051.993896 6412.000000
1053.857300 6466.000000
1055.719360 6419.000000
1057.580444 5898.000000
1059.440430 6454.000000
1061.299072 6812.000000
1063.156616 5756.000000
1065.013062 6698.000000
1066.868408 5896.000000
1068.722534 5812.000000
1070.575806 6240.000000
1072.427612 6277.000000
1074.278442 6117.000000
1076.128052 6117.000000
1077.976440 5789.000000
1079.823975 7932.000000
1081.670166 5587.000000
1083.515137 6195.000000
1085.359253 5419.000000
1087.202026 5447.000000
1089.043579 6528.000000
1090.884399 5443.000000
1092.723633 5763.000000
1094.562134 5986.000000
1096.399292 6007.000000
1098.235229 6784.000000
1100.070190 6515.000000
1101.903931 5419.000000
1103.736694 5673.000000
1105.568115 6210.000000
1107.398682 7256.000000
1109.227905 6578.000000
1111.056152 6403.000000
1112.883179 7095.000000
1114.709229 5429.000000
1116.534058 6272.000000
1118.357788 7117.000000
1120.180298 6063.000000
1122.001709 5842.000000
1123.822266 5887.000000
1125.641357 6540.000000
1127.459595 7034.000000
1129.276489 6827.000000
1131.092529 6660.000000
1132.907349 6482.000000
1134.721069 5600.000000
1136.533691 5812.000000
1138.345093 5650.000000
1140.155518 6113.000000
1141.964844 6656.000000
1143.772827 6957.000000
1145.580078 5865.000000
1147.385864 5880.000000
1149.190796 5355.000000
1150.994629 5480.000000
1152.797241 6107.000000
1154.598999 6042.000000
1156.399292 6044.000000
1158.198608 6067.000000
1159.996948 5836.000000
1161.793945 5475.000000
1163.590210 5913.000000
1165.385132 6064.000000
1167.178955 6302.000000
1168.971924 7677.000000
1170.763550 5743.000000
1172.554199 6559.000000
1174.343872 5997.000000
1176.132080 5808.000000
1177.919434 7526.000000
1179.705688 6838.000000
1181.490845 5647.000000
1183.274902 5939.000000
1185.057861 7676.000000
1186.839844 5836.000000
1188.620605 5837.000000
1190.400391 6266.000000
1192.179077 6939.000000
1193.956787 6677.000000
1195.733276 7157.000000
1197.508667 6579.000000
1199.282959 6536.000000
1201.056152 6598.000000
1202.828491 6579.000000
1204.599487 6695.000000
1206.369629 5678.000000
1208.138550 6149.000000
1209.906372 6288.000000
1211.673340 5699.000000
1213.438965 5935.000000
1215.203613 6936.000000
1216.967163 6491.000000
1218.729614 5957.000000
1220.491211 6699.000000
1222.251587 5894.000000
1224.010864 6264.000000
1225.769287 5963.000000
1227.526489 7070.000000
1229.282593 6423.000000
1231.037598 5484.000000
1232.791748 5972.000000
1234.544556 5846.000000
1236.296387 5976.000000
1238.047363 5938.000000
1239.796997 4896.000000
1241.545776 6916.000000
1243.293213 6469.000000
1245.039917 6577.000000
1246.785400 6424.000000
1248.530029 6401.000000
1250.273315 6692.000000
1252.015625 6662.000000
1253.756836 5362.000000
1255.497192 4968.000000
1257.236450 5830.000000
1258.974487 6573.000000
1260.711670 7108.000000
1262.447632 6104.000000
1264.182617 6433.000000
1265.916626 7281.000000
1267.649658 5991.000000
1269.381470 6257.000000
1271.112305 6404.000000
1272.841919 7271.000000
1274.570679 5914.000000
1276.298340 5655.000000
1278.024902 5518.000000
1279.750610 5549.000000
1281.474976 6446.000000
1283.198486 5205.000000
1284.921021 6934.000000
1286.642578 6548.000000
1288.362915 6083.000000
1290.082275 6685.000000
1291.800537 7182.000000
1293.517822 6400.000000
1295.234131 5696.000000
1296.949219 6443.000000
1298.663330 6115.000000
1300.376465 5761.000000
1302.088745 6421.000000
1303.799805 8300.000000
1305.509888 5218.000000
1307.218872 6311.000000
1308.926636 6562.000000
1310.633789 6958.000000
1312.339478 5785.000000
1314.044434 6821.000000
1315.748413 6170.000000
1317.451172 5984.000000
1319.152954 6573.000000
1320.853882 6039.000000
1322.553467 18699.500000
1324.252197 31360.000000
1325.950195 5569.000000
1327.646851 6427.000000
1329.342407 7103.000000
1331.037109 6805.000000
1332.730591 5737.000000
1334.423218 5390.000000
1336.114990 7198.000000
1337.805420 6198.000000
1339.495117 6590.000000
1341.183716 6046.000000
1342.871216 7640.000000
1344.557739 5636.000000
1346.243164 6713.000000
1347.927612 5933.000000
1349.611206 7260.000000
1351.293579 6424.000000
1352.974976 5956.000000
1354.655518 6470.000000
1356.334839 6698.000000
1358.013550 5941.000000
1359.690918 6629.000000
1361.367188 5768.000000
1363.042480 5553.000000
1364.717041 6544.000000
1366.390381 6471.000000
1368.062744 6807.000000
1369.734131 5128.000000
1371.404541 6835.000000
1373.073853 6145.000000
1374.742188 5674.000000
1376.409668 5994.000000
1378.076050 6464.000000
1379.741455 6143.000000
1381.405884 5871.000000
1383.069092 5889.000000
1384.731689 5616.000000
1386.392944 6380.000000
1388.053345 6623.000000
1389.712646 6434.000000
1391.370972 6503.000000
1393.028564 6748.000000
1394.684937 6397.000000
1396.340454 6998.000000
1397.994751 6369.000000
1399.648193 5779.000000
1401.300537 6120.000000
1402.952148 6454.000000
1404.602539 7149.000000
1406.251831 6243.000000
1407.900391 7506.000000
1409.547852 7877.000000
1411.194336 6164.000000
1412.839966 6158.000000
1414.484619 5979.000000
1416.128052 7061.000000
1417.770630 7183.000000
1419.412109 6780.000000
1421.052734 6501.000000
1422.692383 6375.000000
1424.330933 5986.000000
1425.968628 6534.000000
1427.605225 6312.000000
1429.240845 5966.000000
1430.875732 6367.000000
1432.509521 5848.000000
1434.142212 6121.000000
1435.773926 5637.000000
1437.404785 6073.000000
1439.034546 6043.000000
1440.663208 7693.000000
1442.291260 5982.000000
1443.918213 6246.000000
1445.543945 6099.000000
1447.169067 6170.000000
1448.793091 6475.000000
1450.416138 6021.000000
1452.038208 6053.000000
1453.659180 7354.000000
1455.279175 6297.000000
1456.898438 6891.000000
1458.516357 5642.000000
1460.133667 16674.000000
1461.750000 5549.000000
1463.365112 7202.000000
1464.979370 6223.000000
1466.592773 5224.000000
1468.205078 5549.000000
1469.816528 6298.000000
1471.427124 6360.000000
1473.036499 5986.000000
1474.644897 5940.000000
1476.252441 6150.000000
1477.859009 6716.000000
1479.464844 5368.000000
1481.069458 6236.000000
1482.673218 5521.000000
1484.275757 6641.000000
1485.877686 5480.000000
1487.478394 5468.000000
1489.078369 5605.000000
1490.677246 6242.000000
1492.275269 6482.000000
1493.872192 6684.000000
1495.468262 6352.000000
1497.063354 5974.000000
1498.657471 5473.000000
1500.250854 6509.000000
1501.843140 5512.000000
1503.434204 6172.000000
1505.024780 6789.000000
1506.614014 6451.000000
1508.202637 6110.000000
1509.790161 6524.000000
1511.376587 6900.000000
1512.962280 6219.000000
1514.546875 6563.000000
1516.130615 6289.000000
1517.713257 6152.000000
1519.295166 6588.000000
1520.875977 6598.000000
1522.456055 6054.000000
1524.034912 6234.000000
1525.612915 6341.000000
1527.190186 6337.000000
1528.766235 5632.000000
1530.341553 5880.000000
1531.915771 6324.000000
1533.489258 5439.000000
1535.061523 5951.000000
1536.633057 6301.000000
1538.203613 6421.000000
1539.773315 6277.000000
1541.341797 5458.000000
1542.909546 6578.000000
1544.476440 5667.000000
1546.042114 6766.000000
1547.607056 5971.000000
1549.170898 5008.000000
1550.734131 7485.000000
1552.296021 6271.000000
1553.857300 5928.000000
1555.417480 5671.000000
1556.976929 5664.000000
1558.535278 6019.000000
1560.092896 6222.000000
1561.649414 6945.000000
1563.204712 5806.000000
1564.759399 6316.000000
1566.313354 5607.000000
1567.866333 6277.000000
1569.417969 5655.000000
1570.968872 5880.000000
1572.519043 6185.000000
1574.068237 6283.000000
1575.616089 5754.000000
1577.163452 5523.000000
1578.709839 5665.000000
1580.255371 5051.000000
1581.799927 6638.000000
1583.343262 6377.000000
1584.885986 6562.000000
1586.427856 6434.000000
1587.968628 6754.000000
1589.508423 5768.000000
1591.047485 6658.000000
1592.585449 5929.000000
1594.122925 6112.000000
1595.659058 5929.000000
1597.194092 6709.000000
1598.728638 6285.000000
1600.262207 5887.000000
1601.794922 6032.000000
1603.326050 6258.000000
1604.856934 6283.000000
1606.386963 5754.000000
1607.915771 6134.000000
1609.443481 6120.000000
1610.970581 5972.000000
1612.496948 5830.000000
1614.022339 6197.000000
1615.546875 5752.000000
1617.070068 5772.000000
1618.592529 5605.000000
1620.114258 6473.000000
1621.635132 6966.000000
1623.154541 15560.000000
1624.673462 6240.000000
1626.191650 5987.000000
1627.708984 5947.000000
1629.225220 6369.000000
1630.740112 7021.000000
1632.254517 6748.000000
1633.768188 5739.000000
1635.280762 6843.000000
1636.792114 5942.000000
1638.303101 6463.000000
1639.812988 6236.000000
1641.322021 6171.000000
1642.829712 5599.000000
1644.337036 6133.000000
1645.843506 7090.000000
1647.348999 6300.000000
1648.853638 6786.000000
1650.356812 6143.000000
1651.859375 6594.000000
1653.361572 6313.000000
1654.862427 6588.000000
1656.362183 7544.000000
1657.861084 5983.000000
1659.359619 6437.000000
1660.856934 6199.000000
1662.353516 5928.000000
1663.848511 6413.000000
1665.343262 6295.000000
1666.837158 5190.000000
1668.330078 5703.000000
1669.821655 21176.000000
1671.312744 6426.000000
1672.803223 6107.000000
1674.292603 5977.000000
1675.780518 6914.000000
1677.268188 6828.000000
1678.754883 6005.000000
1680.240723 5314.000000
1681.725708 6034.000000
1683.209229 6176.000000
1684.692505 6221.000000
1686.174927 5855.000000
1687.656250 6176.000000
1689.136108 6260.000000
1690.615723 5525.000000
1692.094604 6547.000000
1693.572510 5987.000000
1695.049438 6145.000000
1696.525146 5757.000000
1698.000488 6003.000000
1699.474609 6282.000000
1700.948120 5435.000000
1702.420166 5531.000000
1703.891968 6883.000000
1705.362793 6351.000000
1706.832764 7036.000000
1708.301392 5114.000000
1709.769531 5771.000000
1711.236938 6310.000000
1712.703247 5459.000000
1714.168945 5740.000000
1715.632935 6144.000000
1717.096802 5978.000000
1718.559814 6933.000000
1720.021851 6383.000000
1721.482666 6624.000000
1722.942871 5465.000000
1724.402344 6380.000000
1725.860962 6111.000000
1727.318604 5983.000000
1728.774902 6208.000000
1730.230957 5995.000000
1731.686035 6485.000000
1733.140137 5986.000000
1734.593018 6847.000000
1736.045654 5948.000000
1737.497192 6854.000000
1738.947998 5975.000000
1740.397827 6536.000000
1741.846313 5894.000000
1743.294434 7304.000000
1744.741699 6481.000000
1746.188232 6634.000000
1747.633179 6689.000000
1749.077881 6181.000000
1750.521729 5913.000000
1751.964722 5462.000000
1753.406250 6552.000000
1754.847534 6303.000000
1756.287964 19406.000000
1757.727417 6271.000000
1759.165894 5213.000000
1760.603394 6037.000000
1762.040405 7507.000000
1763.476440 5773.000000
1764.911621 7146.000000
1766.345337 6135.000000
1767.778931 6487.000000
1769.211548 6627.000000
1770.643311 5723.000000
1772.074219 5784.000000
1773.503906 6334.000000
1774.932861 6159.000000
1776.361328 6227.000000
1777.788818 6663.000000
1779.214966 6224.000000
1780.640869 5625.000000
1782.065674 6910.000000
1783.489868 5526.000000
1784.912598 6679.000000
1786.334839 6540.000000
1787.756348 6883.000000
1789.177124 5864.000000
1790.596924 5952.000000
1792.015381 6170.000000
1793.433350 6820.000000
1794.850708 5486.000000
1796.267212 6056.000000
1797.682251 6544.000000
1799.096924 5796.000000
1800.510986 6569.000000
1801.923828 5968.000000
1803.336060 6952.000000
1804.746948 7149.000000
1806.157349 7812.000000
1807.567017 6511.000000
1808.975708 5928.000000
1810.383301 5404.000000
1811.790405 6383.000000
1813.196655 6372.000000
1814.601929 6711.000000
1816.006104 5949.000000
1817.409912 5921.000000
1818.812744 6266.000000
1820.214722 5985.000000
1821.616089 5890.000000
1823.015991 6374.000000
1824.415283 6462.000000
1825.814087 6521.000000
1827.212036 7443.000000
1828.608643 5725.000000
1830.004639 6700.000000
1831.399902 5904.000000
1832.794556 8090.000000
1834.188232 6039.000000
1835.580566 6790.000000
1836.972412 6353.000000
1838.363647 5924.000000
1839.753906 7092.000000
1841.142944 6058.000000
1842.531616 6088.000000
1843.919312 5967.000000
1845.306274 5761.000000
1846.691895 6900.000000
1848.077271 5816.000000
1849.461792 6313.000000
1850.845581 6258.000000
1852.228271 6358.000000
1853.609741 5304.000000
1854.990723 6516.000000
1856.371216 6307.000000
1857.750732 5673.000000
1859.128784 5949.000000
1860.506714 6217.000000
1861.883667 7793.000000
1863.259888 6051.000000
1864.635254 6090.000000
1866.009155 5630.000000
1867.382935 5770.000000
1868.755859 6122.000000
1870.127686 5999.000000
1871.498535 6932.000000
1872.869019 5425.000000
1874.238403 6048.000000
1875.607300 6101.000000
1876.974609 7166.000000
1878.341797 6004.000000
1879.708008 6055.000000
1881.073486 6781.000000
1882.438232 7475.000000
1883.801392 6749.000000
1885.164429 6896.000000
1886.526611 6306.000000
1887.887939 6398.000000
1889.247925 5615.000000
1890.607544 5794.000000
1891.966553 6136.000000
1893.324585 6645.000000
1894.681763 7252.000000
1896.037720 5950.000000
1897.393433 7629.000000
1898.748169 5853.000000
1900.102051 5507.000000
1901.454834 5932.000000
1902.807129 5900.000000
1904.158691 5923.000000
1905.509399 6895.000000
1906.858887 6522.000000
1908.207886 6628.000000
1909.556030 5789.000000
1910.903564 6115.000000
1912.250366 6327.000000
1913.595581 6821.000000
1914.940552 6029.000000
1916.284790 5491.000000
1917.628174 6519.000000
1918.970215 6006.000000
1920.312012 6722.000000
1921.652954 6922.000000
1922.993164 6082.000000
1924.332397 6231.000000
1925.670654 6261.000000
1927.008301 6412.000000
1928.345215 6992.000000
1929.681274 6704.000000
1931.016113 5558.000000
1932.350586 6686.000000
1933.684326 7232.000000
1935.017212 6209.000000
1936.348633 5709.000000
1937.680176 6308.000000
1939.010376 6653.000000
1940.340088 5800.000000
1941.668945 6079.000000
1942.996582 5807.000000
1944.323730 5000.000000
1945.650146 5819.000000
1946.975830 6537.000000
1948.300171 5730.000000
1949.624268 6639.000000
1950.947510 6333.000000
1952.270020 6383.000000
1953.591431 5762.000000
1954.911865 7360.000000
1956.231689 6002.000000
1957.551147 5538.000000
1958.869629 6858.000000
1960.186768 5921.000000
1961.503540 5773.000000
1962.819580 6573.000000
1964.134888 6624.000000
1965.448730 6232.000000
1966.762329 5630.000000
1968.075195 6202.000000
1969.387207 5998.000000
1970.698608 6005.000000
1972.008667 6328.000000
1973.318237 5789.000000
1974.627075 6193.000000
1975.935303 6580.000000
1977.242188 6050.000000
1978.548462 7241.000000
1979.854370 5598.000000
1981.159058 6415.000000
1982.463257 5909.000000
1983.766235 5680.000000
1985.068848 7547.000000
1986.370483 6096.000000
1987.671509 6771.000000
1988.970947 6042.000000
1990.270508 6629.000000
1991.568970 5294.000000
1992.866943 6064.000000
1994.163330 6083.000000
1995.459717 5776.000000
1996.755127 5603.000000
1998.049805 6528.000000
1999.343628 5669.000000
2000.636230 6486.000000
2001.928345 5749.000000
2003.219971 7147.000000
2004.510864 6325.000000
2005.800171 6187.000000
2007.089233 6801.000000
2008.377563 6010.000000
2009.665161 6022.000000
2010.951904 6623.000000
2012.237549 5687.000000
2013.522827 6286.000000
2014.807129 5953.000000
2016.090820 5600.000000
2017.373169 5994.000000
2018.655151 6510.000000
2019.936646 6760.000000
2021.217163 5899.000000
2022.496948 6044.000000
2023.775635 6793.000000
2025.053589 5824.000000
2026.331055 5868.000000
2027.607910 6262.000000
2028.883057 5772.000000
2030.158325 6587.000000
2031.432617 6024.000000
2032.705933 5961.000000
2033.978394 5917.000000
2035.250488 6136.000000
2036.521484 6923.000000
2037.792236 6525.000000
2039.061646 6002.000000
2040.329956 6922.000000
2041.598267 6616.000000
2042.865601 5910.000000
2044.132202 6002.000000
2045.397583 5613.000000
2046.662354 5444.000000
2047.926880 5381.000000
2049.190186 5884.000000
2050.453125 6397.000000
2051.714111 6142.000000
2052.975586 6052.000000
2054.235840 5842.000000
2055.495361 6436.000000
2056.754150 6207.000000
2058.011963 6937.000000
2059.269287 6157.000000
2060.525879 5980.000000
2061.781006 6497.000000
2063.036133 5626.000000
2064.290283 5578.000000
2065.543701 5583.000000
2066.796387 6773.000000
2068.047852 6238.000000
2069.299072 6277.000000
2070.549561 5600.000000
2071.799316 5399.000000
2073.047607 6494.000000
2074.295898 6505.000000
2075.543213 7406.000000
2076.789795 5616.000000
2078.035645 6054.000000
2079.280273 6924.000000
2080.524414 7587.000000
2081.768066 5468.000000
2083.010742 6029.000000
2084.252197 6928.000000
2085.493408 5953.000000
2086.734131 6298.000000
2087.973877 6732.000000
2089.212402 6999.000000
2090.450439 6236.000000
2091.687744 5775.000000
2092.924805 6593.000000
2094.160400 6089.000000
2095.395264 6206.000000
2096.629883 6061.000000
2097.863525 5611.000000
2099.096191 6123.000000
2100.328125 6839.000000
2101.559570 6364.000000
2102.790039 6791.000000
2104.019775 6050.000000
2105.249268 5986.000000
2106.476807 6006.000000
2107.704590 5989.000000
2108.931641 6239.000000
2110.157715 5501.000000
2111.382324 6377.000000
2112.607178 6924.000000
2113.830811 7087.000000
2115.053955 6182.000000
2116.275879 7514.000000
2117.497559 6014.000000
2118.718262 6737.000000
2119.938232 6198.000000
2121.157715 6129.000000
2122.375732 6629.000000
2123.593750 7036.000000
2124.810791 5739.000000
2126.027344 5804.000000
2127.242188 6554.000000
2128.457275 6315.000000
2129.671387 6944.000000
2130.884766 5706.000000
2132.097412 6108.000000
2133.308594 5784.000000
2134.520020 6491.000000
2135.730225 6821.000000
2136.939941 5925.000000
2138.148193 6225.000000
2139.356445 5681.000000
2140.563965 5899.000000
2141.770264 7515.000000
2142.975830 5846.000000
2144.181152 5635.000000
2145.385498 5522.000000
2146.589111 6267.000000
2147.792236 6230.000000
2148.993896 6476.000000
2150.195313 5242.000000
2151.395996 6260.000000
2152.595947 5982.000000
2153.794678 5889.000000
2154.993164 6980.000000
2156.191162 6181.000000
2157.388184 5948.000000
2158.584473 5136.000000
2159.779541 5254.000000
2160.974365 6141.000000
2162.168457 5591.000000
2163.361572 6017.000000
2164.553711 6821.000000
2165.745605 5925.000000
2166.936768 6315.000000
2168.126953 6291.000000
2169.316406 6535.000000
2170.505371 6831.000000
2171.693359 6003.000000
2172.881104 5630.000000
2174.067383 5879.000000
2175.252930 6590.000000
2176.438232 6006.000000
2177.623047 5798.000000
2178.806641 6321.000000
2179.989502 7491.000000
2181.171387 6293.000000
2182.353027 5964.000000
2183.534180 6585.000000
2184.714111 5698.000000
2185.893066 5558.000000
2187.071533 6318.000000
2188.249756 6813.000000
2189.426758 7235.000000
2190.602783 6736.000000
2191.778564 6137.000000
2192.953857 5653.000000
2194.127686 6674.000000
2195.301025 6187.000000
2196.474121 6181.000000
2197.645996 6374.000000
2198.817383 7147.000000
2199.988281 6273.000000
2201.157471 6870.000000
2202.326660 7550.000000
2203.495361 6321.000000
2204.663086 5935.000000
2205.829834 5611.000000
2206.995850 7148.000000
2208.161377 6613.000000
2209.326660 6003.000000
2210.490479 6678.000000
2211.653809 5414.000000
2212.815918 6161.000000
2213.978271 6215.000000
2215.139404 6627.000000
2216.299561 6684.000000
2217.459229 6273.000000
2218.618652 6559.000000
2219.776855 6347.000000
2220.934082 6259.000000
2222.091064 6717.000000
2223.247314 6590.000000
2224.402832 6763.000000
2225.557617 6231.000000
2226.711426 6419.000000
2227.864258 5999.000000
2229.017578 6913.000000
2230.168945 6162.000000
2231.320068 6182.000000
2232.470459 6539.000000
2233.620361 7754.000000
2234.769287 6214.000000
2235.917725 5152.000000
2237.064697 6696.000000
2238.211914 7082.000000
2239.357910 6033.000000
2240.503662 7209.000000
2241.647705 7260.000000
2242.791992 6745.000000
2243.935303 6197.000000
2245.077881 5963.000000
2246.219482 5687.000000
2247.360840 5793.000000
2248.501221 6443.000000
2249.640869 6455.000000
2250.780029 5851.000000
2251.917969 5766.000000
2253.055908 6195.000000
2254.192871 5251.000000
2255.329102 6334.000000
2256.464355 6083.000000
2257.598877 7213.000000
2258.733154 6355.000000
2259.866943 5402.000000
2260.999268 6121.000000
2262.131104 6806.000000
2263.262451 6215.000000
2264.392822 6486.000000
2265.522949 8073.000000
2266.651855 6730.000000
2267.780273 6060.000000
2268.908203 5511.000000
2270.035156 6085.000000
2271.161377 5898.000000
2272.286621 6765.000000
2273.411865 6549.000000
2274.536377 6366.000000
2275.659668 5887.000000
2276.782227 6465.000000
2277.904297 5966.000000
2279.025879 7423.000000
2280.146729 6380.000000
2281.266357 6394.000000
2282.385498 7063.000000
2283.504395 7653.000000
2284.622559 7302.000000
2285.739746 5865.000000
2286.855957 6425.000000
2287.971924 7003.000000
2289.087158 6851.000000
2290.201660 7320.000000
2291.314941 5827.000000
2292.428223 6330.000000
2293.540771 5958.000000
2294.652588 5378.000000
2295.763672 6745.000000
2296.873535 6370.000000
2297.982910 6108.000000
2299.092041 6640.000000
2300.200195 6332.000000
2301.307373 6754.000000
2302.414307 5889.000000
2303.520508 6224.000000
2304.626221 6636.000000
2305.730469 6540.000000
2306.834473 5432.000000
2307.937988 5691.000000
2309.041016 6533.000000
2310.142822 7492.000000
2311.243896 7289.000000
2312.344482 6592.000000
2313.444580 5494.000000
2314.543945 6359.000000
2315.641846 6416.000000
2316.740234 6962.000000
2317.837158 8180.000000
2318.933838 6860.000000
2320.030029 5747.000000
2321.124512 6845.000000
2322.218994 7569.000000
2323.312744 5793.000000
2324.406250 6008.000000
2325.498047 6434.000000
2326.589844 6958.000000
2327.680908 6107.000000
2328.771240 6271.000000
2329.860596 6952.000000
2330.949951 6000.000000
2332.038086 6364.000000
2333.125732 6847.000000
2334.213135 6535.000000
2335.298828 6676.000000
2336.384277 7745.000000
2337.469482 6296.000000
2338.553711 6722.000000
2339.636963 5910.000000
2340.719971 6445.000000
2341.802002 7390.000000
2342.883789 5985.000000
2343.964844 7360.000000
2345.044678 6585.000000
2346.124023 5722.000000
2347.202881 6772.000000
2348.281250 6563.000000
2349.358154 6332.000000
2350.434814 6994.000000
2351.511230 6044.000000
2352.586670 6449.000000
2353.661133 5855.000000
2354.735352 6268.000000
2355.808838 6701.000000
2356.881836 6200.000000
2357.953613 7027.000000
2359.025146 6290.000000
2360.095703 6820.000000
2361.166016 7515.000000
2362.235352 7557.000000
2363.303711 6834.000000
2364.371826 6688.000000
2365.439209 7028.000000
2366.506104 7103.000000
2367.572266 6046.000000
2368.637207 6853.000000
2369.702148 7017.000000
2370.766357 6297.000000
2371.829834 6951.000000
2372.892090 5792.000000
2373.954346 6306.000000
2375.015625 6363.000000
2376.076660 5923.000000
2377.136475 6291.000000
2378.195557 7824.000000
2379.254639 6437.000000
2380.312744 7527.000000
2381.370117 6875.000000
2382.426514 8007.000000
2383.482666 7788.000000
2384.538330 6255.000000
2385.593262 7078.000000
2386.646729 6711.000000
2387.700439 6507.000000
2388.753174 6264.000000
2389.805420 6750.000000
2390.856934 6128.000000
2391.907471 6635.000000
2392.957764 6526.000000
2394.007080 6197.000000
2395.056396 6205.000000
2396.104248 6956.000000
2397.151611 6943.000000
2398.198730 6249.000000
2399.244873 6663.000000
2400.290283 6174.000000
2401.334961 6713.000000
2402.379639 7735.000000
2403.422852 7498.000000
2404.466064 6566.000000
2405.507813 5737.000000
2406.549805 6658.000000
2407.591064 7182.000000
2408.631348 6117.000000
2409.670898 6361.000000
2410.709473 6346.000000
2411.748291 6040.000000
2412.785889 6513.000000
2413.823242 6862.000000
2414.859375 7319.000000
2415.895264 6192.000000
2416.930420 6217.000000
2417.965088 6835.000000
2418.998291 7237.000000
2420.031738 6459.000000
2421.064209 6653.000000
2422.096436 6830.000000
2423.127197 7079.000000
2424.157959 6391.000000
2425.188232 6842.000000
2426.217285 6882.000000
2427.246338 6641.000000
2428.273682 7310.000000
2429.301514 6643.000000
2430.328125 7288.000000
2431.354492 6944.000000
2432.379395 7750.000000
2433.404541 6561.000000
2434.428711 7082.000000
2435.452637 6644.000000
2436.475342 5832.000000
2437.497314 6329.000000
2438.519043 6586.000000
2439.540039 6649.000000
2440.560547 5981.000000
2441.579834 6493.000000
2442.599121 6539.000000
2443.617432 8473.000000
2444.635498 6227.000000
2445.652100 6423.000000
2446.668701 6599.000000
2447.684570 6010.000000
2448.700439 6975.000000
2449.714844 6763.000000
2450.728516 5551.000000
2451.741699 7250.000000
2452.754639 5985.000000
2453.766846 7242.000000
2454.778076 6638.000000
2455.789063 7686.000000
2456.799316 6385.000000
2457.809082 7599.000000
2458.817871 5868.000000
2459.825928 5960.000000
2460.833984 6324.000000
2461.840820 7347.000000
2462.847412 5390.000000
2463.852783 7317.000000
2464.857910 6941.000000
2465.862793 5820.000000
2466.866455 6555.000000
2467.869873 6357.000000
2468.872314 7558.000000
2469.874512 7375.000000
2470.876221 6921.000000
2471.876953 6546.000000
2472.876709 6926.000000
2473.876465 6681.000000
2474.875244 5690.000000
2475.873535 6522.000000
2476.870850 7072.000000
2477.867920 6120.000000
2478.864990 6975.000000
2479.860596 5801.000000
2480.856201 7117.000000
2481.850098 6697.000000
2482.843994 8057.000000
2483.837402 6850.000000
2484.830322 6886.000000
2485.822266 7482.000000
2486.813477 7178.000000
2487.804443 6695.000000
2488.794922 5888.000000
2489.784424 6480.000000
2490.773193 6476.000000
2491.761963 5668.000000
2492.749756 6770.000000
2493.736328 6581.000000
2494.722900 8044.000000
2495.708984 6708.000000
2496.694336 7080.000000
2497.678711 8029.000000
2498.662842 6030.000000
2499.646973 6817.000000
2500.629639 5768.000000
2501.611816 6981.000000
2502.593506 6866.000000
2503.574463 7300.000000
2504.554932 6575.000000
2505.535156 5780.000000
2506.513916 6266.000000
2507.492432 7573.000000
2508.470459 6725.000000
2509.447998 7023.000000
2510.424561 6088.000000
2511.400879 5872.000000
2512.376465 6399.000000
2513.351563 6239.000000
2514.326172 6459.000000
2515.299561 7616.000000
2516.272705 6744.000000
2517.245605 6886.000000
2518.217529 6054.000000
2519.188721 6815.000000
2520.159424 6885.000000
2521.129883 7865.000000
2522.099609 8009.000000
2523.068359 6072.000000
2524.036377 6099.000000
2525.004395 7738.000000
2525.971436 6274.000000
2526.938232 5438.000000
2527.903809 7205.000000
2528.869385 7042.000000
2529.834229 7773.000000
2530.798584 6304.000000
2531.761719 6336.000000
2532.725098 5875.000000
2533.687500 5976.000000
2534.649658 6651.000000
2535.610596 6320.000000
2536.570801 6028.000000
2537.531250 6123.000000
2538.490723 6716.000000
2539.449463 6807.000000
2540.407227 6688.000000
2541.365234 6217.000000
2542.322510 6754.000000
2543.278809 6108.000000
2544.234863 7107.000000
2545.189697 6100.000000
2546.144775 7746.000000
2547.099121 6988.000000
2548.052734 6496.000000
2549.005371 7235.000000
2549.957764 6749.000000
2550.909668 6889.000000
2551.860840 6389.000000
2552.811279 7740.000000
2553.761230 7263.000000
2554.710938 7338.000000
2555.659912 6607.000000
2556.608398 6223.000000
2557.555664 7009.000000
2558.502930 6275.000000
2559.449463 6592.000000
2560.395508 6738.000000
2561.340576 7471.000000
2562.285400 6747.000000
2563.229736 7186.000000
2564.173584 6828.000000
2565.116943 6625.000000
2566.058838 6551.000000
2567.000977 6567.000000
2567.942383 6141.000000
2568.883057 7064.000000
2569.822998 7274.000000
2570.762939 5646.000000
2571.701904 6163.000000
2572.640625 7450.000000
2573.578369 7124.000000
2574.515869 5405.000000
2575.452637 6972.000000
2576.388672 6839.000000
2577.324219 7541.000000
2578.259033 6365.000000
2579.193848 5955.000000
2580.127686 7037.000000
2581.061035 7079.000000
2581.993652 5811.000000
2582.926025 6906.000000
2583.857666 5454.000000
2584.788818 7023.000000
2585.719482 6970.000000
2586.648926 6915.000000
2587.578369 7228.000000
2588.507324 6416.000000
2589.436035 7379.000000
2590.363037 7228.000000
2591.290283 5830.000000
2592.217041 6780.000000
2593.143066 6229.000000
2594.068848 5655.000000
2594.993408 7648.000000
2595.917725 7652.000000
2596.841553 5320.000000
2597.764893 7234.000000
2598.687256 6203.000000
2599.609375 6836.000000
2600.531006 8336.000000
2601.451904 6377.000000
2602.372070 5748.000000
2603.291992 6282.000000
2604.211426 6377.000000
2605.130615 6388.000000
2606.048828 5815.000000
2606.965820 5900.000000
2607.883057 7196.000000
2608.800049 5866.000000
2609.716064 7548.000000
2610.630859 6663.000000
2611.546143 6589.000000
2612.460693 6472.000000
2613.374268 6536.000000
2614.287842 6100.000000
2615.200195 7639.000000
2616.112549 6974.000000
2617.023926 6796.000000
2617.935059 5672.000000
2618.845459 7201.000000
2619.755615 6547.000000
2620.665039 6153.000000
2621.573975 6533.000000
2622.481934 6156.000000
2623.390137 6854.000000
2624.297363 6611.000000
2625.204102 7071.000000
2626.110107 5951.000000
2627.015869 6485.000000
2627.920898 6508.000000
2628.825684 7879.000000
2629.729736 6442.000000
2630.632813 6343.000000
2631.535889 6334.000000
2632.437988 5617.000000
2633.340088 6783.000000
2634.241943 6972.000000
2635.142090 6658.000000
2636.042480 6412.000000
2636.942139 6367.000000
2637.841553 6022.000000
2638.739502 6897.000000
2639.637939 6632.000000
2640.535889 6369.000000
2641.433105 6055.000000
2642.329102 6132.000000
2643.225098 6695.000000
2644.120850 6105.000000
2645.015869 6391.000000
2645.910645 6630.000000
2646.803955 7057.000000
2647.697266 6287.000000
2648.590332 6730.000000
2649.483154 6399.000000
2650.374268 7460.000000
2651.265625 6394.000000
2652.156494 7634.000000
2653.046631 7284.000000
2653.936523 6503.000000
2654.825195 7272.000000
2655.714111 6608.000000
2656.602539 6600.000000
2657.489990 7305.000000
2658.376465 6419.000000
2659.263428 7040.000000
2660.149658 6876.000000
2661.035400 6809.000000
2661.919922 6471.000000
2662.804443 6346.000000
2663.688721 6121.000000
2664.572266 7104.000000
2665.455322 7754.000000
2666.337646 7223.000000
2667.219482 6248.000000
2668.100586 6567.000000
2668.981934 6085.000000
2669.861816 6580.000000
2670.741943 7402.000000
2671.621338 7233.000000
2672.500732 6339.000000
2673.379395 6071.000000
2674.256348 6376.000000
2675.134033 6752.000000
2676.010986 6359.000000
2676.887207 8171.000000
2677.762939 7099.000000
2678.637939 6264.000000
2679.513184 7701.000000
2680.387451 6939.000000
2681.261230 7291.000000
2682.134277 6986.000000
2683.007080 6149.000000
2683.879639 6147.000000
2684.751465 6923.000000
2685.622559 6579.000000
2686.493408 6848.000000
2687.363770 7106.000000
2688.233887 6651.000000
2689.102295 6271.000000
2689.971436 7382.000000
2690.839844 7125.000000
2691.708008 6652.000000
2692.575439 6923.000000
2693.441650 5827.000000
2694.308350 7100.000000
2695.174072 7379.000000
2696.039795 7132.000000
2696.904053 7911.000000
2697.769043 6543.000000
2698.632568 7164.000000
2699.496338 5795.000000
2700.358643 7380.000000
2701.221436 6750.000000
2702.083252 5931.000000
2702.944580 6804.000000
2703.805908 6779.000000
2704.666016 7477.000000
2705.526123 7288.000000
2706.385742 6595.000000
2707.245117 6849.000000
2708.102783 7143.000000
2708.960693 6810.000000
2709.819092 7245.000000
2710.676270 6699.000000
2711.532715 5919.000000
2712.388672 6903.000000
2713.244629 6140.000000
2714.099854 6923.000000
2714.954346 6051.000000
2715.808350 6799.000000
2716.662354 7323.000000
2717.515381 6280.000000
2718.368652 6635.000000
2719.220215 7687.000000
2720.072266 6763.000000
2720.924072 6327.000000
2721.774658 6500.000000
2722.625244 6442.000000
2723.475342 7071.000000
2724.324707 6979.000000
2725.174072 6942.000000
2726.022217 6657.000000
2726.869873 6576.000000
2727.718018 6998.000000
2728.564941 6859.000000
2729.412354 5556.000000
2730.258301 7415.000000
2731.103516 7017.000000
2731.949219 6408.000000
2732.793945 6967.000000
2733.638672 7337.000000
2734.482178 6891.000000
2735.325928 7803.000000
2736.168945 7041.000000
2737.011475 6023.000000
2737.853027 6291.000000
2738.695068 6782.000000
2739.536133 6887.000000
2740.376953 5755.000000
2741.217529 5926.000000
2742.056885 7787.000000
2742.896240 6812.000000
2743.735596 6915.000000
2744.573730 6835.000000
2745.411377 7844.000000
2746.249023 6322.000000
2747.086182 7105.000000
2747.923096 6163.000000
2748.759521 5963.000000
2749.594727 6633.000000
2750.430176 6252.000000
2751.265137 6299.000000
2752.099365 6263.000000
2752.933350 6839.000000
2753.766846 6807.000000
2754.600342 7941.000000
2755.432861 6771.000000
2756.264893 7243.000000
2757.096436 6795.000000
2757.927979 7087.000000
2758.758545 7227.000000
2759.589355 7190.000000
2760.418945 7199.000000
2761.248535 6611.000000
2762.077881 7299.000000
2762.906494 6843.000000
2763.734619 6820.000000
2764.562256 6895.000000
2765.389893 6635.000000
2766.217041 7955.000000
2767.043457 5742.000000
2767.869385 7417.000000
2768.694824 6895.000000
2769.520020 7714.000000
2770.345215 7103.000000
2771.169189 6808.000000
2771.993164 6458.000000
2772.817139 7623.000000
2773.639893 6680.000000
2774.462891 6958.000000
2775.284668 6953.000000
2776.106445 6924.000000
2776.928223 6494.000000
2777.749023 8029.000000
2778.569092 6636.000000
2779.389404 6942.000000
2780.209229 7240.000000
2781.029053 6436.000000
2781.846924 5882.000000
2782.666016 7952.000000
2783.483887 6440.000000
2784.301514 6729.000000
2785.118652 7188.000000
2785.935303 7224.000000
2786.751709 7157.000000
2787.567627 6269.000000
2788.383301 5930.000000
2789.197998 6381.000000
2790.013184 7012.000000
2790.827637 7114.000000
2791.641602 6658.000000
2792.455322 7361.000000
2793.267822 8762.000000
2794.080566 6889.000000
2794.892822 7388.000000
2795.704590 7204.000000
2796.515625 7302.000000
2797.327393 6557.000000
2798.137939 7174.000000
2798.948486 6989.000000
2799.757568 7336.000000
2800.567383 8133.000000
2801.376465 7782.000000
2802.185303 6601.000000
2802.993652 7158.000000
2803.801025 6129.000000
2804.608887 6431.000000
2805.416016 6905.000000
2806.222900 6974.000000
2807.028564 7145.000000
2807.834717 6567.000000
2808.640137 6483.000000
2809.445557 7295.000000
2810.250244 6204.000000
2811.053955 7678.000000
2811.858154 7494.000000
2812.661865 6302.000000
2813.465332 6067.000000
2814.267334 6576.000000
2815.070068 7369.000000
2815.872070 7824.000000
2816.673828 6133.000000
2817.475098 6611.000000
2818.275879 7193.000000
2819.076172 6471.000000
2819.876709 6776.000000
2820.676270 7943.000000
2821.475342 7134.000000
2822.274414 6470.000000
2823.073242 6854.000000
2823.871582 6348.000000
2824.668945 6994.000000
2825.466553 7396.000000
2826.263428 6705.000000
2827.060547 7344.000000
2827.856934 7904.000000
2828.652588 7045.000000
2829.448242 7420.000000
2830.243652 7587.000000
2831.038574 7468.000000
2831.832764 6641.000000
2832.626953 6862.000000
2833.420898 5576.000000
2834.214355 6862.000000
2835.007080 7120.000000
2835.799561 8167.000000
2836.592041 7620.000000
2837.384277 7744.000000
2838.176025 6437.000000
2838.966797 6804.000000
2839.757568 8807.000000
2840.548584 7389.000000
2841.338623 6177.000000
2842.128174 7682.000000
2842.917969 7196.000000
2843.706787 7362.000000
2844.495605 7791.000000
2845.284424 7679.000000
2846.072266 7472.000000
2846.859619 7228.000000
2847.647217 7508.000000
2848.434326 7290.000000
2849.220703 6663.000000
2850.007080 7428.000000
2850.793213 7125.000000
2851.578857 7473.000000
2852.363525 7177.000000
2853.148682 6926.000000
2853.933594 7476.000000
2854.717773 7074.000000
2855.501953 6890.000000
2856.284912 8159.000000
2857.068115 6785.000000
2857.851074 6760.000000
2858.633545 7748.000000
2859.415771 6269.000000
2860.197510 6650.000000
2860.979004 7618.000000
2861.760742 7484.000000
2862.541748 7573.000000
2863.322021 6591.000000
2864.102051 6728.000000
2864.882080 8141.000000
2865.661865 7512.000000
2866.440674 8155.000000
2867.219727 7650.000000
2867.998291 6817.000000
2868.776611 7019.000000
2869.554443 7201.000000
2870.332031 6951.000000
2871.109375 7465.000000
2871.886475 6967.000000
2872.663086 6446.000000
2873.439209 7426.000000
2874.215332 7146.000000
2874.990967 8247.000000
2875.766357 7230.000000
2876.541260 6600.000000
2877.315918 8084.000000
2878.090576 6677.000000
2878.864990 7830.000000
2879.638672 6757.000000
2880.411621 7200.000000
2881.185303 6753.000000
2881.958008 7579.000000
2882.730713 7844.000000
2883.502686 8242.000000
2884.274414 6241.000000
2885.046631 6763.000000
2885.817627 6902.000000
2886.588135 6164.000000
2887.359131 8281.000000
2888.130127 7342.000000
2888.900391 8014.000000
2889.669678 7653.000000
2890.439209 6924.000000
2891.208740 7250.000000
2891.977783 7340.000000
2892.746338 7861.000000
2893.514893 7671.000000
2894.282471 6948.000000
2895.050537 6560.000000
2895.818115 7376.000000
2896.585693 8303.000000
2897.352051 7386.000000
2898.119385 6433.000000
2898.885498 7265.000000
2899.651855 6977.000000
2900.416748 8355.000000
2901.182129 7013.000000
2901.947998 6478.000000
2902.712402 7754.000000
2903.476807 7655.000000
2904.241455 8434.000000
2905.005127 6591.000000
2905.769531 8456.000000
2906.533203 6696.000000
2907.296143 8402.000000
2908.058838 6533.000000
2908.822021 9122.000000
2909.584717 6969.000000
2910.346191 6816.000000
2911.108154 6816.000000
