scanname Analyse049
timestamp 2017-02-10 21:05:28
ccdbias 899.381348
ccdgain 3.473401
sigmaread 8.960639
laserwavenum -0.562514
wavenumcorrection -0.039550
scancount 1
totalexposurems 10000
singleexposurems 10000
measurementstate Unknown
scanmode Manual
snr 309.854065 10.549356 9.047942
replacelist 4
672 53218.000000 31348.000000
754 52836.000000 19050.000000
889 50673.000000 21067.000000
948 47913.000000 19420.000000
peaks 81
278.467590 0.722740 0.000000 1.520823 0.000192
285.440704 0.722758 0.000000 0.798673 0.000061
294.133820 0.725078 0.000000 0.658884 0.000030
302.767792 0.726316 0.000000 0.247782 0.000026
329.738739 0.743078 0.000000 0.911945 0.000149
342.807556 0.746444 0.000000 0.714267 0.000033
350.546600 0.749462 0.000000 0.563907 0.000022
360.320099 0.751257 0.000000 0.383730 0.000019
386.259735 0.753400 0.000000 1.418010 0.000307
461.104279 0.769256 0.000000 0.167306 0.000037
487.364014 0.782929 0.000000 0.855117 0.000110
534.964355 0.785071 0.000000 0.583711 0.000140
559.372498 0.825221 0.000000 1.367482 0.000237
573.525879 0.831278 0.000000 0.298267 0.000075
582.554016 0.826208 0.000000 0.582848 0.000100
661.496521 0.862223 0.000000 1.319340 0.000259
673.250000 0.855332 0.000000 1.245911 0.000252
680.243713 0.856195 0.000000 0.356851 0.000043
715.714417 0.876908 0.000000 5.598684 0.001178
724.773743 0.858575 0.000000 1.263465 0.000054
741.926819 0.881818 0.000000 1.114532 0.000120
757.148071 0.908547 0.000000 6.077677 0.000698
779.228943 0.910406 0.000000 8.416894 0.001317
823.869690 0.909056 0.000000 0.313214 0.000150
833.029785 0.912859 0.000000 1.171093 0.000191
843.648560 0.916055 0.000000 1.097955 0.000055
853.326599 0.941395 0.000000 1.104886 0.000287
868.955994 0.936955 0.000000 0.804813 0.000161
937.752380 1.014038 0.000000 0.705729 0.000405
954.267517 0.993638 0.000000 3.599552 0.001095
1013.617554 1.036636 0.000000 1.872975 0.000743
1027.024048 1.050084 0.000000 0.610002 0.000257
1034.591797 1.040632 0.000000 0.897264 0.000109
1044.210693 1.047684 0.000000 4.174820 0.001370
1104.574951 1.069491 0.000000 2.175061 0.000610
1121.661621 1.102386 0.000000 0.982949 0.000375
1134.766724 1.087988 0.000000 2.351586 0.000983
1150.222656 1.069572 0.000000 2.390836 0.000982
1174.550781 1.101122 0.000000 1.443784 0.000493
1185.684692 1.106314 0.000000 0.761544 0.000086
1212.876221 1.187132 0.000000 0.827760 0.000256
1222.670654 1.194422 0.000000 1.449188 0.000553
1232.150146 1.176949 0.000000 1.203683 0.000332
1260.065918 1.215053 0.000000 3.102497 0.001451
1282.286377 1.153736 0.000000 0.789361 0.000260
1313.562988 1.222020 0.000000 2.179605 0.001205
1331.830811 1.291744 0.000000 3.968418 0.001393
1347.765137 1.291245 0.000000 0.808907 0.000744
1389.396606 1.272972 0.000000 0.761455 0.000301
1414.591797 1.351285 0.000000 2.892123 0.001748
1434.268677 1.403749 0.000000 1.413488 0.000747
1446.915161 1.398946 0.000000 1.432785 0.000525
1459.813965 1.397499 0.000000 2.598560 0.001716
1489.859131 1.467130 0.000000 4.065261 0.002537
1516.134033 1.404810 0.000000 0.259552 0.000157
1532.924194 1.488035 0.000000 0.892107 0.001022
1547.610596 1.506266 0.000000 0.519476 0.000332
1558.353638 1.531034 0.000000 1.455734 0.000919
1563.925659 1.523935 0.000000 0.812010 0.000165
1578.091064 1.523100 0.000000 1.462585 0.001412
1617.230103 1.562437 0.000000 13.079193 0.008448
1635.139282 1.563871 0.000000 5.418571 0.001470
1650.231201 1.557659 0.000000 0.183791 0.000092
1669.576782 1.648887 0.000000 1.743252 0.001861
1687.067505 1.651406 0.000000 0.817697 0.000531
1699.032593 1.661119 0.000000 1.152658 0.001529
1711.696045 1.633578 0.000000 1.194404 0.001009
1750.920288 1.608016 0.000000 0.661094 0.000754
1759.249634 1.614373 0.000000 0.102187 0.000186
1778.634644 1.608487 0.000000 4.357508 0.004212
1796.579224 1.591205 0.000000 0.872995 0.000643
1809.829956 1.585550 0.000000 1.306337 0.001235
1855.472412 1.538544 0.000000 1.947703 0.001703
1871.006226 1.523375 0.000000 0.583519 0.000559
1889.318237 1.511339 0.000000 1.183657 0.001301
1902.511475 1.512731 0.000000 1.843729 0.001780
1941.662964 1.467724 0.000000 0.767716 0.000494
1975.008301 1.432961 0.000000 0.490123 0.000413
1995.292725 1.422329 0.000000 1.041568 0.000486
2028.937744 1.388611 0.000000 0.442268 0.000228
2046.018066 1.377124 0.000000 0.643382 0.001128
finalresult GLS_NoMatch 0
spectrum 2048
-97.038940 47269.000000
-94.412071 47269.000000
-91.787079 47447.000000
-89.163979 47155.000000
-86.542747 47729.000000
-83.923416 47315.000000
-81.305946 47463.000000
-78.690353 47134.000000
-76.076637 47301.000000
-73.464798 47711.000000
-70.854820 47482.000000
-68.246727 47615.000000
-65.640480 47620.000000
-63.036110 47589.000000
-60.433601 47455.000000
-57.832947 47916.000000
-55.234154 47465.000000
-52.637218 46728.000000
-50.042137 47103.000000
-47.448910 47142.000000
-44.857533 47344.000000
-42.268002 46906.000000
-39.680313 47671.000000
-37.094475 47574.000000
-34.510479 47203.000000
-31.928320 47884.000000
-29.348007 47291.000000
-26.769522 47958.000000
-24.192879 47439.000000
-21.618061 47322.000000
-19.045084 47111.000000
-16.473927 47074.000000
-13.904603 46744.000000
-11.337105 45842.000000
-8.771425 47275.000000
-6.207572 47130.000000
-3.645531 47553.000000
-1.085315 47827.000000
1.473093 47511.000000
4.029680 46666.000000
6.584462 46957.000000
9.137427 47450.000000
11.688592 46862.000000
14.237944 47090.000000
16.785500 46872.000000
19.331244 47578.000000
21.875195 47836.000000
24.417341 46899.000000
26.957691 46816.000000
29.496256 46711.000000
32.033024 47327.000000
34.567989 47847.000000
37.101177 46355.000000
39.632584 47232.000000
42.162197 46513.000000
44.690014 47074.000000
47.216072 45774.000000
49.740341 47929.000000
52.262840 47328.000000
54.783543 46815.000000
57.302490 47239.000000
59.819664 47191.000000
62.335060 46866.000000
64.848679 47980.000000
67.360542 47873.000000
69.870659 47065.000000
72.378983 47102.000000
74.885551 47717.000000
77.390373 47247.000000
79.893440 47234.000000
82.394730 47407.000000
84.894279 47499.000000
87.392075 47329.000000
89.888138 47895.000000
92.382423 46384.000000
94.874969 47810.000000
97.365799 46682.000000
99.854858 46463.000000
102.342171 47198.000000
104.827759 47413.000000
107.311607 47251.000000
109.793709 47900.000000
112.274086 46986.000000
114.752739 47481.000000
117.229668 47097.000000
119.704842 46355.000000
122.178307 46768.000000
124.650040 47753.000000
127.120064 46875.000000
129.588333 47411.000000
132.054932 47326.000000
134.519775 47909.000000
136.982925 47434.000000
139.444336 46355.000000
141.904053 46759.000000
144.362045 47277.000000
146.818344 47578.000000
149.272934 47816.000000
151.725800 46794.000000
154.176987 47302.000000
156.626480 47022.000000
159.074249 47500.000000
161.520309 46975.000000
163.964691 44880.000000
166.407394 47207.000000
168.848404 46860.000000
171.287704 47440.000000
173.725296 46403.000000
176.161255 47017.000000
178.595474 46693.000000
181.028015 46468.000000
183.458908 46895.000000
185.888077 46498.000000
188.315598 46855.000000
190.741440 47230.000000
193.165604 46832.000000
195.588104 46406.000000
198.008911 46276.000000
200.428055 47107.000000
202.845535 47617.000000
205.261322 45979.000000
207.675461 46635.000000
210.087967 47259.000000
212.498795 47489.000000
214.907944 47351.000000
217.315460 46239.000000
219.721268 47403.000000
222.125488 47098.000000
224.528000 46857.000000
226.928894 46618.000000
229.328140 47186.000000
231.725723 46725.000000
234.121643 46247.000000
236.515945 47089.000000
238.908585 47740.000000
241.299606 46803.000000
243.688965 46998.000000
246.076706 47262.000000
248.462799 46586.000000
250.847260 47492.000000
253.230072 45694.000000
255.611313 46980.000000
257.990845 46896.000000
260.368805 47203.000000
262.745087 45999.000000
265.119812 46027.000000
267.492889 45676.000000
269.864319 47356.000000
272.234100 47138.000000
274.602325 47727.000000
276.968903 47271.000000
279.333893 46893.000000
281.697266 47583.000000
284.058990 47320.000000
286.419128 46493.000000
288.777649 47631.000000
291.134583 47115.000000
293.489899 47286.000000
295.843628 47612.000000
298.195709 47731.000000
300.546234 47293.000000
302.895172 47314.000000
305.242462 46851.000000
307.588226 47177.000000
309.932312 47102.000000
312.274872 46203.000000
314.615814 46019.000000
316.955139 46462.000000
319.292908 46694.000000
321.629120 45512.000000
323.963684 47353.000000
326.296692 47158.000000
328.628143 47584.000000
330.958008 46999.000000
333.286285 47155.000000
335.612946 46291.000000
337.938110 47252.000000
340.261658 47340.000000
342.583649 47565.000000
344.904083 46123.000000
347.222900 45895.000000
349.540161 47616.000000
351.855896 47761.000000
354.170044 46593.000000
356.482605 47201.000000
358.793610 47358.000000
361.103088 46569.000000
363.411041 47218.000000
365.717377 47889.000000
368.022125 47179.000000
370.325409 47213.000000
372.627075 47330.000000
374.927246 47221.000000
377.225861 47345.000000
379.522919 47866.000000
381.818420 47458.000000
384.112396 47769.000000
386.404785 48374.000000
388.695679 48039.000000
390.985046 47380.000000
393.272827 47333.000000
395.559082 47141.000000
397.843842 46556.000000
400.126984 47550.000000
402.408691 47204.000000
404.688873 47429.000000
406.967468 46350.000000
409.244537 47211.000000
411.520081 46876.000000
413.794098 47167.000000
416.066681 47195.000000
418.337646 47397.000000
420.607117 47105.000000
422.875092 46476.000000
425.141510 46366.000000
427.406433 47302.000000
429.669891 47258.000000
431.931763 47131.000000
434.192169 47613.000000
436.451019 46972.000000
438.708405 47451.000000
440.964294 47956.000000
443.218689 47782.000000
445.471558 48178.000000
447.722870 46668.000000
449.972778 47473.000000
452.221100 47281.000000
454.467987 47968.000000
456.713409 47065.000000
458.957275 47051.000000
461.199646 46905.000000
463.440521 47915.000000
465.679993 46892.000000
467.917877 48213.000000
470.154327 47690.000000
472.389252 47479.000000
474.622711 46286.000000
476.854736 46849.000000
479.085236 47909.000000
481.314240 47120.000000
483.541779 47297.000000
485.767822 47641.000000
487.992432 47025.000000
490.215576 47762.000000
492.437256 47159.000000
494.657379 46866.000000
496.876099 47918.000000
499.093323 47271.000000
501.309174 48072.000000
503.523407 47434.000000
505.736328 47144.000000
507.947662 47163.000000
510.157562 46726.000000
512.366028 47099.000000
514.573120 47020.000000
516.778625 47111.000000
518.982727 46910.000000
521.185303 47372.000000
523.386475 46946.000000
525.586304 46868.000000
527.784607 46659.000000
529.981384 48248.000000
532.176819 47749.000000
534.370728 47964.000000
536.563293 46036.000000
538.754333 46838.000000
540.943970 47547.000000
543.132202 46681.000000
545.318909 46472.000000
547.504150 46740.000000
549.688110 47343.000000
551.870483 47222.000000
554.051514 47355.000000
556.231018 47577.000000
558.409241 47656.000000
560.585938 47565.000000
562.761230 47120.000000
564.935120 47102.000000
567.107544 47678.000000
569.278564 47456.000000
571.448120 47199.000000
573.616394 48284.000000
575.783142 47148.000000
577.948425 47285.000000
580.112305 47468.000000
582.274902 47825.000000
584.435974 47543.000000
586.595642 47963.000000
588.753967 47767.000000
590.910767 47451.000000
593.066223 47019.000000
595.220276 47778.000000
597.372986 47430.000000
599.524170 46375.000000
601.674011 46746.000000
603.822510 46829.000000
605.969421 47439.000000
608.115112 47095.000000
610.259399 47082.000000
612.402222 46581.000000
614.543579 47374.000000
616.683716 47134.000000
618.822327 45893.000000
620.959656 47884.000000
623.095520 46982.000000
625.229980 46720.000000
627.362976 46356.000000
629.494812 46890.000000
631.625183 47055.000000
633.754150 46732.000000
635.881653 47107.000000
638.007874 47400.000000
640.132568 46247.000000
642.256042 47202.000000
644.378174 46767.000000
646.498840 46630.000000
648.618164 47004.000000
650.736084 47893.000000
652.852661 47775.000000
654.967834 47146.000000
657.081665 47204.000000
659.194031 47716.000000
661.305176 47511.000000
663.414917 48154.000000
665.523193 47561.000000
667.630310 47261.000000
669.735962 46740.000000
671.840149 47642.000000
673.943115 47781.000000
676.044678 46530.000000
678.144897 48262.000000
680.243713 46783.000000
682.341187 47320.000000
684.437378 46637.000000
686.532104 47355.000000
688.625610 46535.000000
690.717773 46933.000000
692.808411 45608.000000
694.897827 46887.000000
696.985962 47030.000000
699.072632 47558.000000
701.158081 46843.000000
703.242004 48323.000000
705.324707 47559.000000
707.406128 47571.000000
709.486084 45971.000000
711.564819 47391.000000
713.642090 47982.000000
715.718079 47031.000000
717.792786 47362.000000
719.866211 46565.000000
721.938110 47221.000000
724.008850 46112.000000
726.078247 47782.000000
728.146240 47031.000000
730.212891 47178.000000
732.278320 46471.000000
734.342407 47759.000000
736.405151 47341.000000
738.466553 47014.000000
740.526672 46932.000000
742.585388 47482.000000
744.642883 46842.000000
746.699097 47015.000000
748.753906 46868.000000
750.807434 47160.000000
752.859558 46048.000000
754.910461 47721.000000
756.960144 46823.000000
759.008362 47251.000000
761.055359 47396.000000
763.101074 46504.000000
765.145386 48251.000000
767.188416 47697.000000
769.230225 38470.000000
771.270691 46540.000000
773.309753 47172.000000
775.347656 47482.000000
777.384216 47522.000000
779.419556 48135.000000
781.453552 47752.000000
783.486145 46641.000000
785.517578 48080.000000
787.547607 41973.000000
789.576355 47505.000000
791.603943 47228.000000
793.630188 47201.000000
795.655029 47733.000000
797.678772 48055.000000
799.701111 47199.000000
801.722229 47757.000000
803.742004 46903.000000
805.760498 48630.000000
807.777771 46910.000000
809.793640 46702.000000
811.808350 47838.000000
813.821716 47046.000000
815.833862 47215.000000
817.844788 47449.000000
819.854370 46932.000000
821.862732 48173.000000
823.869690 47777.000000
825.875427 47494.000000
827.879944 47763.000000
829.883179 47852.000000
831.885132 47062.000000
833.885803 47490.000000
835.885254 47596.000000
837.883362 47169.000000
839.880371 46495.000000
841.875977 47256.000000
843.870422 47524.000000
845.863525 47308.000000
847.855408 46689.000000
849.845947 47919.000000
851.835205 46747.000000
853.823425 47500.000000
855.810242 47781.000000
857.795837 47085.000000
859.780151 46286.000000
861.763367 47169.000000
863.745178 47087.000000
865.725769 47645.000000
867.705078 45698.000000
869.683228 46503.000000
871.660034 47314.000000
873.635559 47613.000000
875.610046 47335.000000
877.583069 47507.000000
879.555054 48063.000000
881.525696 47075.000000
883.495178 47417.000000
885.463318 48021.000000
887.430298 48286.000000
889.395935 47338.000000
891.360413 47687.000000
893.323669 47530.000000
895.285706 47062.000000
897.246460 47700.000000
899.205994 47165.000000
901.164246 46811.000000
903.121399 47156.000000
905.077393 47500.000000
907.031982 46616.000000
908.985352 47042.000000
910.937561 47197.000000
912.888550 47145.000000
914.838257 46427.000000
916.786804 47257.000000
918.734131 47272.000000
920.680176 47419.000000
922.624939 47434.000000
924.568665 47261.000000
926.511230 47582.000000
928.452515 47995.000000
930.392456 47018.000000
932.331299 47777.000000
934.268860 47962.000000
936.205200 47512.000000
938.140381 47667.000000
940.074280 47513.000000
942.007080 47610.000000
943.938660 46759.000000
945.869080 48351.000000
947.798279 47139.000000
949.726135 46490.000000
951.652954 46895.000000
953.578491 47655.000000
955.502747 48122.000000
957.425903 47577.000000
959.347900 46744.000000
961.268616 46231.000000
963.188171 47014.000000
965.106567 48163.000000
967.023926 47089.000000
968.939819 47141.000000
970.854614 47379.000000
972.768188 47540.000000
974.680603 47173.000000
976.591797 47030.000000
978.501831 48062.000000
980.410583 47298.000000
982.318298 47368.000000
984.224792 47122.000000
986.130066 47823.000000
988.034241 46699.000000
989.937195 47312.000000
991.838928 46688.000000
993.739502 46952.000000
995.638916 46963.000000
997.537109 48278.000000
999.434143 46943.000000
1001.329956 46968.000000
1003.224609 45768.000000
1005.118164 47974.000000
1007.010437 46400.000000
1008.901794 47413.000000
1010.791809 48104.000000
1012.680603 46841.000000
1014.568237 47152.000000
1016.454712 46533.000000
1018.340027 46750.000000
1020.224182 47424.000000
1022.107117 47602.000000
1023.989014 47248.000000
1025.869629 48318.000000
1027.749146 47604.000000
1029.627686 47340.000000
1031.504883 48096.000000
1033.380737 47307.000000
1035.255615 47571.000000
1037.129517 46908.000000
1039.001953 46487.000000
1040.873413 46795.000000
1042.743530 48003.000000
1044.612671 47931.000000
1046.480591 47768.000000
1048.347412 46479.000000
1050.213135 46753.000000
1052.077637 47054.000000
1053.941040 46985.000000
1055.803101 46912.000000
1057.664185 47538.000000
1059.524170 47038.000000
1061.382813 46776.000000
1063.240356 47731.000000
1065.096802 46768.000000
1066.952148 47432.000000
1068.806274 47679.000000
1070.659546 47128.000000
1072.511353 47138.000000
1074.362183 47323.000000
1076.211792 47332.000000
1078.060181 47662.000000
1079.907715 45516.000000
1081.753906 47839.000000
1083.598877 47250.000000
1085.442993 47991.000000
1087.285767 47976.000000
1089.127319 46945.000000
1090.968140 47982.000000
1092.807373 47692.000000
1094.645874 47458.000000
1096.483032 47461.000000
1098.318970 46654.000000
1100.153931 46867.000000
1101.987671 48021.000000
1103.820435 47884.000000
1105.651855 47291.000000
1107.482422 46233.000000
1109.311646 46999.000000
1111.139893 47081.000000
1112.966919 46293.000000
1114.792969 48030.000000
1116.617798 47077.000000
1118.441528 46323.000000
1120.264038 47411.000000
1122.085449 47581.000000
1123.906006 47601.000000
1125.725098 46915.000000
1127.543335 46446.000000
1129.360229 46591.000000
1131.176270 46742.000000
1132.991089 46962.000000
1134.804810 47942.000000
1136.617432 47656.000000
1138.428833 47898.000000
1140.239258 47308.000000
1142.048584 46665.000000
1143.856567 46548.000000
1145.663818 47467.000000
1147.469604 47572.000000
1149.274536 48016.000000
1151.078369 48054.000000
1152.880981 47317.000000
1154.682739 47311.000000
1156.483032 47409.000000
1158.282349 47364.000000
1160.080688 47519.000000
1161.877686 47994.000000
1163.673950 47439.000000
1165.468872 47302.000000
1167.262695 47057.000000
1169.055664 45734.000000
1170.847290 47647.000000
1172.637939 46843.000000
1174.427612 47393.000000
1176.215820 47567.000000
1178.003174 45853.000000
1179.789429 46583.000000
1181.574585 47611.000000
1183.358643 47455.000000
1185.141602 45743.000000
1186.923584 47478.000000
1188.704346 47503.000000
1190.484131 47014.000000
1192.262817 46442.000000
1194.040527 46647.000000
1195.817017 46156.000000
1197.592407 46839.000000
1199.366699 46860.000000
1201.139893 46629.000000
1202.912231 46847.000000
1204.683228 46699.000000
1206.453369 47653.000000
1208.222290 47200.000000
1209.990112 47047.000000
1211.757080 47514.000000
1213.522705 47442.000000
1215.287354 46418.000000
1217.050903 46843.000000
1218.813354 47291.000000
1220.574951 46599.000000
1222.335327 47504.000000
1224.094604 47100.000000
1225.853027 47330.000000
1227.610229 46285.000000
1229.366333 46987.000000
1231.121338 47828.000000
1232.875488 47332.000000
1234.628296 47539.000000
1236.380127 47398.000000
1238.131104 47381.000000
1239.880737 48415.000000
1241.629517 46335.000000
1243.376953 46845.000000
1245.123657 46704.000000
1246.869141 46854.000000
1248.613770 46986.000000
1250.357056 46611.000000
1252.099365 46646.000000
1253.840576 47981.000000
1255.580933 48251.000000
1257.320190 47568.000000
1259.058228 46685.000000
1260.795410 46212.000000
1262.531372 47313.000000
1264.266357 46966.000000
1266.000366 46020.000000
1267.733398 47409.000000
1269.465210 47128.000000
1271.196045 46943.000000
1272.925659 46128.000000
1274.654419 47404.000000
1276.382080 47653.000000
1278.108643 47785.000000
1279.834351 47746.000000
1281.558716 46956.000000
1283.282227 48152.000000
1285.004761 46375.000000
1286.726318 46693.000000
1288.446655 47072.000000
1290.166016 46583.000000
1291.884277 46015.000000
1293.601563 46839.000000
1295.317871 47547.000000
1297.032959 46916.000000
1298.747070 47106.000000
1300.460205 47465.000000
1302.172485 46779.000000
1303.883545 45006.000000
1305.593628 48068.000000
1307.302612 46985.000000
1309.010376 46602.000000
1310.717529 46233.000000
1312.423218 47471.000000
1314.128174 46409.000000
1315.832153 47111.000000
1317.534912 47339.000000
1319.236694 46658.000000
1320.937622 47158.000000
1322.637207 43315.000000
1324.335938 45480.500000
1326.033936 47646.000000
1327.730591 46652.000000
1329.426147 46137.000000
1331.120850 46442.000000
1332.814331 47459.000000
1334.506958 47804.000000
1336.198730 45683.000000
1337.889160 46990.000000
1339.578857 46632.000000
1341.267456 47123.000000
1342.954956 45569.000000
1344.641479 47547.000000
1346.326904 46463.000000
1348.011353 47221.000000
1349.694946 45862.000000
1351.377319 46781.000000
1353.058716 47186.000000
1354.739258 46717.000000
1356.418579 46518.000000
1358.097290 47283.000000
1359.774658 46626.000000
1361.450928 47328.000000
1363.126221 47645.000000
1364.800781 46605.000000
1366.474121 46706.000000
1368.146484 46345.000000
1369.817871 48029.000000
1371.488281 46389.000000
1373.157593 47009.000000
1374.825928 47432.000000
1376.493408 47163.000000
1378.159790 46674.000000
1379.825195 47038.000000
1381.489624 47291.000000
1383.152832 47173.000000
1384.815430 47399.000000
1386.476685 46816.000000
1388.137085 46576.000000
1389.796387 46694.000000
1391.454712 46594.000000
1393.112305 46223.000000
1394.768677 46556.000000
1396.424194 46047.000000
1398.078491 46731.000000
1399.731934 47177.000000
1401.384277 46905.000000
1403.035889 46571.000000
1404.686279 45854.000000
1406.335571 46762.000000
1407.984131 45475.000000
1409.631592 44997.000000
1411.278076 46845.000000
1412.923706 46724.000000
1414.568359 46940.000000
1416.211792 45883.000000
1417.854370 45833.000000
1419.495850 46110.000000
1421.136475 46465.000000
1422.776123 46456.000000
1424.414673 46895.000000
1426.052368 46290.000000
1427.688965 46620.000000
1429.324585 46973.000000
1430.959473 46224.000000
1432.593262 46994.000000
1434.225952 46788.000000
1435.857666 47232.000000
1437.488525 46811.000000
1439.118286 46873.000000
1440.746948 45135.000000
1442.375000 46920.000000
1444.001953 46724.000000
1445.627686 46747.000000
1447.252808 46758.000000
1448.876831 46357.000000
1450.499878 46888.000000
1452.121948 46935.000000
1453.742920 45507.000000
1455.362915 46552.000000
1456.982178 46046.000000
1458.600098 47268.000000
1460.217407 47288.500000
1461.833740 47309.000000
1463.448853 45528.000000
1465.063110 46467.000000
1466.676514 47603.000000
1468.288818 47156.000000
1469.900269 46558.000000
1471.510864 46427.000000
1473.120239 46878.000000
1474.728638 46750.000000
1476.336182 46637.000000
1477.942749 46065.000000
1479.548584 47353.000000
1481.153198 46436.000000
1482.756958 47255.000000
1484.359497 46015.000000
1485.961426 47133.000000
1487.562134 47141.000000
1489.162109 47104.000000
1490.760986 46379.000000
1492.359009 46198.000000
1493.955933 45993.000000
1495.552002 46417.000000
1497.147095 46736.000000
1498.741211 47187.000000
1500.334595 46089.000000
1501.926880 47087.000000
1503.517944 46439.000000
1505.108521 45804.000000
1506.697754 46094.000000
1508.286377 46469.000000
1509.873901 46006.000000
1511.460327 45675.000000
1513.046021 46283.000000
1514.630615 45784.000000
1516.214355 46178.000000
1517.796997 46176.000000
1519.378906 45785.000000
1520.959717 45690.000000
1522.539795 46337.000000
1524.118652 46096.000000
1525.696655 45929.000000
1527.273926 45970.000000
1528.849976 46556.000000
1530.425293 46302.000000
1531.999512 45928.000000
1533.572998 46741.000000
1535.145264 46343.000000
1536.716797 45772.000000
1538.287354 45696.000000
1539.857056 45764.000000
1541.425537 46751.000000
1542.993286 45497.000000
1544.560181 46452.000000
1546.125854 45327.000000
1547.690796 46160.000000
1549.254639 46974.000000
1550.817871 44606.000000
1552.379761 45779.000000
1553.941040 46086.000000
1555.501221 46348.000000
1557.060669 46241.000000
1558.619019 46225.000000
1560.176636 45826.000000
1561.733154 45084.000000
1563.288452 46231.000000
1564.843140 45723.000000
1566.397095 46450.000000
1567.950073 45727.000000
1569.501709 46325.000000
1571.052612 46174.000000
1572.602783 45910.000000
1574.151978 45764.000000
1575.699829 46254.000000
1577.247192 46518.000000
1578.793579 46312.000000
1580.339111 47025.000000
1581.883667 45409.000000
1583.427002 45732.000000
1584.969727 45504.000000
1586.511597 45589.000000
1588.052368 45330.000000
1589.592163 46198.000000
1591.131226 45312.000000
1592.669189 46140.000000
1594.206665 45850.000000
1595.742798 46031.000000
1597.277832 45305.000000
1598.812378 45628.000000
1600.345947 45931.000000
1601.878662 45828.000000
1603.409790 45677.000000
1604.940674 45663.000000
1606.470703 46157.000000
1607.999512 45742.000000
1609.527222 45773.000000
1611.054321 45883.000000
1612.580688 46014.000000
1614.106079 45667.000000
1615.630615 46087.000000
1617.153809 46142.000000
1618.676270 46270.000000
1620.197998 45284.000000
1621.718872 44918.000000
1623.238281 36266.000000
1624.757202 45623.000000
1626.275391 45684.000000
1627.792725 45740.000000
1629.308960 45201.000000
1630.823853 44560.000000
1632.338257 44762.000000
1633.851929 45836.000000
1635.364502 44575.000000
1636.875854 45498.000000
1638.386841 44989.000000
1639.896729 45105.000000
1641.405762 45133.000000
1642.913452 45694.000000
1644.420776 45172.000000
1645.927246 44089.000000
1647.432739 45039.000000
1648.937378 44367.000000
1650.440552 44947.000000
1651.943115 44520.000000
1653.445313 44738.000000
1654.946167 44369.000000
1656.445923 43498.000000
1657.944824 44914.000000
1659.443359 44323.000000
1660.940674 44600.000000
1662.437256 44889.000000
1663.932251 44265.000000
1665.427002 44340.000000
1666.920898 45470.000000
1668.413818 44991.000000
1669.905396 44536.500000
1671.396484 44082.000000
1672.886963 44308.000000
1674.376343 44344.000000
1675.864258 43247.000000
1677.351929 43265.000000
1678.838623 44095.000000
1680.324463 44681.000000
1681.809448 43933.000000
1683.292969 43802.000000
1684.776245 43746.000000
1686.258667 43958.000000
1687.739990 43633.000000
1689.219849 43682.000000
1690.699463 44356.000000
1692.178345 43212.000000
1693.656250 43764.000000
1695.133179 43650.000000
1696.608887 44067.000000
1698.084229 43668.000000
1699.558350 43433.000000
1701.031860 44264.000000
1702.503906 44056.000000
1703.975708 42793.000000
1705.446533 43317.000000
1706.916504 42486.000000
1708.385132 44463.000000
1709.853271 43777.000000
1711.320679 43250.000000
1712.786987 44090.000000
1714.252686 43792.000000
1715.716675 43289.000000
1717.180542 43509.000000
1718.643555 42517.000000
1720.105591 42979.000000
1721.566406 42803.000000
1723.026611 43919.000000
1724.486084 42954.000000
1725.944702 43109.000000
1727.402344 43157.000000
1728.858643 42922.000000
1730.314697 43053.000000
1731.769775 42645.000000
1733.223877 43041.000000
1734.676758 42103.000000
1736.129395 42952.000000
1737.580933 41967.000000
1739.031738 42797.000000
1740.481567 42185.000000
1741.930054 42782.000000
1743.378174 41217.000000
1744.825439 41854.000000
1746.271973 41695.000000
1747.716919 41619.000000
1749.161621 42056.000000
1750.605469 42303.000000
1752.048462 42588.000000
1753.489990 41495.000000
1754.931274 41714.000000
1756.371704 41570.000000
1757.811157 41426.000000
1759.249634 41505.000000
1760.687134 40499.000000
1762.124146 39049.000000
1763.560181 40526.000000
1764.995361 39045.000000
1766.429077 39910.000000
1767.862671 39425.000000
1769.295288 39126.000000
1770.727051 39855.000000
1772.157959 39609.000000
1773.587646 38787.000000
1775.016602 38802.000000
1776.445068 38492.000000
1777.872559 38041.000000
1779.298706 38251.000000
1780.724609 38894.000000
1782.149414 37668.000000
1783.573608 38976.000000
1784.996338 37806.000000
1786.418579 37917.000000
1787.840088 37472.000000
1789.260864 38347.000000
1790.680664 38103.000000
1792.099121 37923.000000
1793.517090 37243.000000
1794.934448 38544.000000
1796.350952 37942.000000
1797.765991 37446.000000
1799.180664 38146.000000
1800.594727 37413.000000
1802.007568 37984.000000
1803.419800 36999.000000
1804.830688 36797.000000
1806.241089 36013.000000
1807.650757 37286.000000
1809.059448 37720.000000
1810.467041 38271.000000
1811.874146 37274.000000
1813.280396 37399.000000
1814.685669 37048.000000
1816.089844 37820.000000
1817.493652 37673.000000
1818.896484 37388.000000
1820.298462 37610.000000
1821.699829 37792.000000
1823.099731 37240.000000
1824.499023 37103.000000
1825.897827 37007.000000
1827.295776 36049.000000
1828.692383 37708.000000
1830.088379 36557.000000
1831.483643 37385.000000
1832.878296 35026.000000
1834.271973 37143.000000
1835.664307 36120.000000
1837.056152 36482.000000
1838.447388 36922.000000
1839.837646 35613.000000
1841.226685 36553.000000
1842.615356 36368.000000
1844.003052 36415.000000
1845.390015 36424.000000
1846.775635 35294.000000
1848.161011 36230.000000
1849.545532 35448.000000
1850.929321 35498.000000
1852.312012 35305.000000
1853.693481 36024.000000
1855.074463 34808.000000
1856.454956 34949.000000
1857.834473 35472.000000
1859.212524 35211.000000
1860.590454 34804.000000
1861.967407 33181.000000
1863.343628 34559.000000
1864.718994 34179.000000
1866.092896 34374.000000
1867.466675 34241.000000
1868.839600 33650.000000
1870.211426 33866.000000
1871.582275 32897.000000
1872.952759 34200.000000
1874.322144 33501.000000
1875.691040 33440.000000
1877.058350 32436.000000
1878.425537 33334.000000
1879.791748 33292.000000
1881.157227 32694.000000
1882.521973 31864.000000
1883.885132 32388.000000
1885.248169 31948.000000
1886.610352 32395.000000
1887.971680 32144.000000
1889.331665 32760.000000
1890.691284 32608.000000
1892.050293 32328.000000
1893.408325 31885.000000
1894.765503 31184.000000
1896.121460 32499.000000
1897.477173 30776.000000
1898.831909 32351.000000
1900.185791 32547.000000
1901.538574 32271.000000
1902.890869 32327.000000
1904.242432 32391.000000
1905.593140 31726.000000
1906.942627 31867.000000
1908.291626 31618.000000
1909.639771 32414.000000
1910.987305 32065.000000
1912.334106 31868.000000
1913.679321 31422.000000
1915.024292 32159.000000
1916.368530 32712.000000
1917.711914 31706.000000
1919.053955 32333.000000
1920.395752 31609.000000
1921.736694 31246.000000
1923.076904 32019.000000
1924.416138 31883.000000
1925.754395 31874.000000
1927.092041 31682.000000
1928.428955 31163.000000
1929.765015 31239.000000
1931.099854 32134.000000
1932.434326 30904.000000
1933.768066 30300.000000
1935.100952 31059.000000
1936.432373 31471.000000
1937.763916 30767.000000
1939.094116 30353.000000
1940.423828 31172.000000
1941.752686 30793.000000
1943.080322 31011.000000
1944.407471 31685.000000
1945.733887 30897.000000
1947.059570 30335.000000
1948.383911 30998.000000
1949.708008 29971.000000
1951.031250 30183.000000
1952.353760 30023.000000
1953.675171 30490.000000
1954.995605 28857.000000
1956.315430 30054.000000
1957.634888 30309.000000
1958.953369 29013.000000
1960.270508 29796.000000
1961.587280 29678.000000
1962.903320 28956.000000
1964.218628 28918.000000
1965.532471 29162.000000
1966.846069 29496.000000
1968.158936 28869.000000
1969.470947 29045.000000
1970.782349 28849.000000
1972.092407 28512.000000
1973.401978 28789.000000
1974.710815 28402.000000
1976.019043 28019.000000
1977.325928 28394.000000
1978.632202 27229.000000
1979.938110 28814.000000
1981.242798 27964.000000
1982.546997 28378.000000
1983.849976 28363.000000
1985.152588 26681.000000
1986.454224 27876.000000
1987.755249 26840.000000
1989.054688 27297.000000
1990.354248 26601.000000
1991.652710 27635.000000
1992.950684 26883.000000
1994.247070 26847.000000
1995.543457 26997.000000
1996.838867 27141.000000
1998.133545 26225.000000
1999.427368 26791.000000
2000.719971 26114.000000
2002.012085 26870.000000
2003.303711 25570.000000
2004.594604 26162.000000
2005.883911 26193.000000
2007.172974 25604.000000
2008.461304 26267.000000
2009.748901 26085.000000
2011.035645 25519.000000
2012.321289 26135.000000
2013.606567 25523.000000
2014.890869 25661.000000
2016.174561 25994.000000
2017.456909 25786.000000
2018.738892 25509.000000
2020.020386 25298.000000
2021.300903 25659.000000
2022.580688 25508.000000
2023.859375 24949.000000
2025.137329 25602.000000
2026.414795 25631.000000
2027.691650 25554.000000
2028.966797 26113.000000
2030.242065 25514.000000
2031.516357 25891.000000
2032.789673 25985.000000
2034.062134 26044.000000
2035.334229 26185.000000
2036.605225 25497.000000
2037.875977 25523.000000
2039.145386 26003.000000
2040.413696 25404.000000
2041.682007 25350.000000
2042.949341 25626.000000
2044.215942 25441.000000
2045.481323 25517.000000
2046.746094 25781.000000
2048.010498 25641.000000
2049.273926 25343.000000
2050.536865 24966.000000
2051.797852 25011.000000
2053.059326 24746.000000
2054.319580 24930.000000
2055.579102 24562.000000
2056.837891 24704.000000
2058.095703 24191.000000
2059.353027 24560.000000
2060.609619 24669.000000
2061.864746 24229.000000
2063.119873 24509.000000
2064.374023 24554.000000
2065.627441 24659.000000
2066.880127 23926.000000
2068.131592 23989.000000
2069.382813 23954.000000
2070.633301 24299.000000
2071.883057 24507.000000
2073.131348 24276.000000
2074.379639 24003.000000
2075.626953 23360.000000
2076.873535 23723.000000
2078.119385 23746.000000
2079.364014 23447.000000
2080.608154 22894.000000
2081.851807 23428.000000
2083.094482 23294.000000
2084.335938 22812.000000
2085.577148 23070.000000
2086.817871 23036.000000
2088.057617 22860.000000
2089.296143 22777.000000
2090.534180 22816.000000
2091.771484 22885.000000
2093.008545 22496.000000
2094.244141 22589.000000
2095.479004 22573.000000
2096.713623 22567.000000
2097.947266 22797.000000
2099.179932 22488.000000
2100.411865 22199.000000
2101.643311 22282.000000
2102.873779 21939.000000
2104.103516 22257.000000
2105.333008 21933.000000
2106.560547 22017.000000
2107.788330 21600.000000
2109.015381 21559.000000
2110.241455 21750.000000
2111.466064 21410.000000
2112.690918 21197.000000
2113.914551 21316.000000
2115.137695 21478.000000
2116.359619 21099.000000
2117.581299 21656.000000
2118.802002 21366.000000
2120.021973 21592.000000
2121.241455 21488.000000
2122.459473 21571.000000
2123.677490 21288.000000
2124.894531 21665.000000
2126.111084 21688.000000
2127.325928 21557.000000
2128.541016 21698.000000
2129.755127 21300.000000
2130.968506 21314.000000
2132.181152 20844.000000
2133.392334 21405.000000
2134.603760 21499.000000
2135.813965 21411.000000
2137.023682 21236.000000
2138.231934 21289.000000
2139.440186 21286.000000
2140.647705 21074.000000
2141.854004 20687.000000
2143.059570 21025.000000
2144.264893 20814.000000
2145.469238 21077.000000
2146.672852 20892.000000
2147.875977 21034.000000
2149.077637 20891.000000
2150.279053 20872.000000
2151.479736 20618.000000
2152.679688 20652.000000
2153.878418 20760.000000
2155.076904 20545.000000
2156.274902 20628.000000
2157.471924 20423.000000
2158.668213 20133.000000
2159.863281 19996.000000
2161.058105 19861.000000
2162.252197 19947.000000
2163.445313 19741.000000
2164.637451 19526.000000
2165.829346 19448.000000
2167.020508 19501.000000
2168.210693 19175.000000
2169.400146 19018.000000
2170.589111 19003.000000
2171.777100 18764.000000
2172.964844 18825.000000
2174.151123 18675.000000
2175.336670 18349.000000
2176.521973 18463.000000
2177.706787 18211.000000
2178.890381 18166.000000
2180.073242 18207.000000
2181.255127 18347.000000
2182.436768 18362.000000
2183.617920 18245.000000
2184.797852 18232.000000
2185.976807 18254.000000
2187.155273 18042.000000
2188.333496 17963.000000
2189.510498 18030.000000
2190.686523 17955.000000
2191.862305 18064.000000
2193.037598 18201.000000
2194.211426 18089.000000
2195.384766 18080.000000
2196.557861 18022.000000
2197.729736 18148.000000
2198.901123 18070.000000
2200.072021 18231.000000
2201.241211 18120.000000
2202.410400 18085.000000
2203.579102 18144.000000
2204.746826 18191.000000
2205.913574 18186.000000
2207.079590 18035.000000
2208.245117 17885.000000
2209.410400 17933.000000
2210.574219 17822.000000
2211.737549 17955.000000
2212.899658 17710.000000
2214.062012 17886.000000
2215.223145 17699.000000
2216.383301 17652.000000
2217.542969 17577.000000
2218.702393 17631.000000
2219.860596 17449.000000
2221.017822 17413.000000
2222.174805 17216.000000
2223.331055 17342.000000
2224.486572 17209.000000
2225.641357 17314.000000
2226.795166 17042.000000
2227.947998 17105.000000
2229.101318 16941.000000
2230.252686 16982.000000
2231.403809 16892.000000
2232.554199 16813.000000
2233.704102 16719.000000
2234.853027 16818.000000
2236.001465 16816.000000
2237.148438 16608.000000
2238.295654 16467.000000
2239.441650 16450.000000
2240.587402 16297.000000
2241.731445 16083.000000
2242.875732 16156.000000
2244.019043 16062.000000
2245.161621 15917.000000
2246.303223 15909.000000
2247.444580 15853.000000
2248.584961 15740.000000
2249.724609 15600.000000
2250.863770 15499.000000
2252.001709 15414.000000
2253.139648 15449.000000
2254.276611 15537.000000
2255.412842 15388.000000
2256.548096 15426.000000
2257.682617 15192.000000
2258.816895 15458.000000
2259.950684 15846.000000
2261.083008 15765.000000
2262.214844 15457.000000
2263.346191 15004.000000
2264.476563 14947.000000
2265.606689 14743.000000
2266.735596 14749.000000
2267.864014 14685.000000
2268.991943 14748.000000
2270.118896 14674.000000
2271.245117 14581.000000
2272.370361 14466.000000
2273.495605 14687.000000
2274.620117 14704.000000
2275.743408 14681.000000
2276.865967 14739.000000
2277.988037 14708.000000
2279.109619 14510.000000
2280.230469 14683.000000
2281.350098 14637.000000
2282.469238 14459.000000
2283.588135 14237.000000
2284.706299 14073.000000
2285.823486 14107.000000
2286.939697 14191.000000
2288.055664 14189.000000
2289.170898 14278.000000
2290.285400 14282.000000
2291.398682 14475.000000
2292.511963 14301.000000
2293.624512 14305.000000
2294.736328 14460.000000
2295.847412 14336.000000
2296.957275 14467.000000
2298.066650 14406.000000
2299.175781 14633.000000
2300.283936 14535.000000
2301.391113 14287.000000
2302.498047 14397.000000
2303.604248 14368.000000
2304.709961 14374.000000
2305.814209 14281.000000
2306.918213 14166.000000
2308.021729 14175.000000
2309.124756 14020.000000
2310.226563 13895.000000
2311.327637 13950.000000
2312.428223 13905.000000
2313.528320 13946.000000
2314.627686 13813.000000
2315.725586 13694.000000
2316.823975 13652.000000
2317.920898 13563.000000
2319.017578 13671.000000
2320.113770 13695.000000
2321.208252 13524.000000
2322.302734 13261.000000
2323.396484 13295.000000
2324.489990 13209.000000
2325.581787 13345.000000
2326.673584 13312.000000
2327.764648 13370.000000
2328.854980 13310.000000
2329.944336 13195.000000
2331.033691 13318.000000
2332.121826 13412.000000
2333.209473 13084.000000
2334.296875 13080.000000
2335.382568 12933.000000
2336.468018 13008.000000
2337.553223 12799.000000
2338.637451 12655.000000
2339.720703 12823.000000
2340.803711 12499.000000
2341.885742 12608.000000
2342.967529 12487.000000
2344.048584 12457.000000
2345.128418 12397.000000
2346.207764 12438.000000
2347.286621 12244.000000
2348.364990 12331.000000
2349.441895 12209.000000
2350.518555 12237.000000
2351.594971 12100.000000
2352.670410 11980.000000
2353.744873 12167.000000
2354.819092 12130.000000
2355.892578 11874.000000
2356.965576 11884.000000
2358.037354 11856.000000
2359.108887 11722.000000
2360.179443 11788.000000
2361.249756 11604.000000
2362.319092 11613.000000
2363.387451 11600.000000
2364.455566 11535.000000
2365.522949 11484.000000
2366.589844 11539.000000
2367.656006 11494.000000
2368.720947 11352.000000
2369.785889 11190.000000
2370.850098 11117.000000
2371.913574 11225.000000
2372.975830 11116.000000
2374.038086 11203.000000
2375.099365 11208.000000
2376.160400 11017.000000
2377.220215 11050.000000
2378.279297 11108.000000
2379.338379 11149.000000
2380.396484 10933.000000
2381.453857 11110.000000
2382.510254 10903.000000
2383.566406 10953.000000
2384.622070 10962.000000
2385.677002 11039.000000
2386.730469 10843.000000
2387.784180 10794.000000
2388.836914 10754.000000
2389.889160 10831.000000
2390.940674 10935.000000
2391.991211 10926.000000
2393.041504 10848.000000
2394.090820 10883.000000
2395.140137 10946.000000
2396.187988 10734.000000
2397.235352 10676.000000
2398.282471 10733.000000
2399.328613 10826.000000
2400.374023 10765.000000
2401.418701 10711.000000
2402.463379 10693.000000
2403.506592 10551.000000
2404.549805 10587.000000
2405.591553 10734.000000
2406.633545 10778.000000
2407.674805 10627.000000
2408.715088 10703.000000
2409.754639 10739.000000
2410.793213 10591.000000
2411.832031 10536.000000
2412.869629 10682.000000
2413.906982 10607.000000
2414.943115 10618.000000
2415.979004 10567.000000
2417.014160 10464.000000
2418.048828 10540.000000
2419.082031 10471.000000
2420.115479 10651.000000
2421.147949 10522.000000
2422.180176 10431.000000
2423.210938 10341.000000
2424.241699 10315.000000
2425.271973 10207.000000
2426.301025 10220.000000
2427.330078 10194.000000
2428.357422 9938.000000
2429.385254 10171.000000
2430.411865 9963.000000
2431.438232 10068.000000
2432.463135 9901.000000
2433.488281 9804.000000
2434.512451 9857.000000
2435.536377 9794.000000
2436.559082 9647.000000
2437.581055 9841.000000
2438.602783 9688.000000
2439.623779 9594.000000
2440.644287 9439.000000
2441.663574 9417.000000
2442.682861 9286.000000
2443.701172 9381.000000
2444.719238 9308.000000
2445.735840 9243.000000
2446.752441 9223.000000
2447.768311 9237.000000
2448.784180 9178.000000
2449.798584 9108.000000
2450.812256 9178.000000
2451.825439 9018.000000
2452.838379 9034.000000
2453.850586 9088.000000
2454.861816 8961.000000
2455.872803 9119.000000
2456.883057 9100.000000
2457.892822 8900.000000
2458.901611 8879.000000
2459.909668 8891.000000
2460.917725 8866.000000
2461.924561 8824.000000
2462.931152 8856.000000
2463.936523 8702.000000
2464.941650 8518.000000
2465.946533 8625.000000
2466.950195 8625.000000
2467.953613 8608.000000
2468.956055 8592.000000
2469.958252 8571.000000
2470.959961 8679.000000
2471.960693 8563.000000
2472.960449 8348.000000
2473.960205 8513.000000
2474.958984 8515.000000
2475.957275 8414.000000
2476.954590 8443.000000
2477.951660 8439.000000
2478.948730 8494.000000
2479.944336 8386.000000
2480.939941 8332.000000
2481.933838 8322.000000
2482.927734 8326.000000
2483.921143 8407.000000
2484.914063 8361.000000
2485.906006 8452.000000
2486.897217 8363.000000
2487.888184 8255.000000
2488.878662 8338.000000
2489.868164 8539.000000
2490.856934 8436.000000
2491.845703 8541.000000
2492.833496 8323.000000
2493.820068 8332.000000
2494.806641 8074.000000
2495.792725 8316.000000
2496.778076 8309.000000
2497.762451 8282.000000
2498.746582 8393.000000
2499.730713 8376.000000
2500.713379 8268.000000
2501.695557 8310.000000
2502.677246 8317.000000
2503.658203 8154.000000
2504.638672 8212.000000
2505.618896 8129.000000
2506.597656 8172.000000
2507.576172 7954.000000
2508.554199 8052.000000
2509.531738 7887.000000
2510.508301 8090.000000
2511.484619 8101.000000
2512.460205 7864.000000
2513.435303 7908.000000
2514.409912 7982.000000
2515.383301 7824.000000
2516.356445 7851.000000
2517.329346 7789.000000
2518.301270 7752.000000
2519.272461 7753.000000
2520.243164 7653.000000
2521.213623 7573.000000
2522.183350 7605.000000
2523.152100 7540.000000
2524.120117 7619.000000
2525.088135 7585.000000
2526.055176 7506.000000
2527.021973 7582.000000
2527.987549 7333.000000
2528.953125 7350.000000
2529.917969 7387.000000
2530.882324 7443.000000
2531.845459 7352.000000
2532.808838 7265.000000
2533.771240 7384.000000
2534.733398 7330.000000
2535.694336 7438.000000
2536.654541 7424.000000
2537.614990 7282.000000
2538.574463 7404.000000
2539.533203 7440.000000
2540.490967 7111.000000
2541.448975 7083.000000
2542.406250 6856.000000
2543.362549 6912.000000
2544.318604 6924.000000
2545.273438 6967.000000
2546.228516 6935.000000
2547.182861 6980.000000
2548.136475 7016.000000
2549.089111 6868.000000
2550.041504 6774.000000
2550.993408 6818.000000
2551.944580 6943.000000
2552.895020 6724.000000
2553.844971 6761.000000
2554.794678 6740.000000
2555.743652 6708.000000
2556.692139 6742.000000
2557.639404 6652.000000
2558.586670 6598.000000
2559.533203 6652.000000
2560.479248 6540.000000
2561.424316 6616.000000
2562.369141 6460.000000
2563.313477 6512.000000
2564.257324 6383.000000
2565.200684 6469.000000
2566.142578 6464.000000
2567.084717 6405.000000
2568.026123 6383.000000
2568.966797 6459.000000
2569.906738 6446.000000
2570.846680 6557.000000
2571.785645 6479.000000
2572.724365 6366.000000
2573.662109 6289.000000
2574.599609 6485.000000
2575.536377 6455.000000
2576.472412 6499.000000
2577.407959 6444.000000
2578.342773 6571.000000
2579.277588 6417.000000
2580.211426 6374.000000
2581.144775 6439.000000
2582.077393 6245.000000
2583.009766 6186.000000
2583.941406 6299.000000
2584.872559 6229.000000
2585.803223 6166.000000
2586.732666 6277.000000
2587.662109 6184.000000
2588.591064 6203.000000
2589.519775 6225.000000
2590.446777 6027.000000
2591.374023 6218.000000
2592.300781 6128.000000
2593.226807 6197.000000
2594.152588 6149.000000
2595.077148 6113.000000
2596.001465 6069.000000
2596.925293 6060.000000
2597.848633 6090.000000
2598.770996 6158.000000
2599.693115 6087.000000
2600.614746 6062.000000
2601.535645 6057.000000
2602.455811 6116.000000
2603.375732 6056.000000
2604.295166 6094.000000
2605.214355 6071.000000
2606.132568 6014.000000
2607.049561 6025.000000
2607.966797 5920.000000
2608.883789 5808.000000
2609.799805 5846.000000
2610.714600 5792.000000
2611.629883 5889.000000
2612.544434 5913.000000
2613.458008 5815.000000
2614.371582 5849.000000
2615.283936 5635.000000
2616.196289 5790.000000
2617.107666 5790.000000
2618.018799 5798.000000
2618.929199 5727.000000
2619.839355 5602.000000
2620.748779 5636.000000
2621.657715 5605.000000
2622.565674 5671.000000
2623.473877 5582.000000
2624.381104 5432.000000
2625.287842 5549.000000
2626.193848 5490.000000
2627.099609 5522.000000
2628.004639 5404.000000
2628.909424 5496.000000
2629.813477 5387.000000
2630.716553 5412.000000
2631.619629 5400.000000
2632.521729 5315.000000
2633.423828 5408.000000
2634.325684 5297.000000
2635.225830 5280.000000
2636.126221 5287.000000
2637.025879 5218.000000
2637.925293 5325.000000
2638.823242 5237.000000
2639.721680 5216.000000
2640.619629 5183.000000
2641.516846 5116.000000
2642.412842 5146.000000
2643.308838 5185.000000
2644.204590 5067.000000
2645.099609 5131.000000
2645.994385 5039.000000
2646.887695 5047.000000
2647.781006 5002.000000
2648.674072 4965.000000
2649.566895 5005.000000
2650.458008 4990.000000
2651.349365 5031.000000
2652.240234 4848.000000
2653.130371 4902.000000
2654.020264 4903.000000
2654.908936 4821.000000
2655.797852 4806.000000
2656.686279 4924.000000
2657.573730 4655.000000
2658.460205 4799.000000
2659.347168 4730.000000
2660.233398 4844.000000
2661.119141 4736.000000
2662.003662 4818.000000
2662.888184 4829.000000
2663.772461 4796.000000
2664.656006 4852.000000
2665.539063 4720.000000
2666.421387 4767.000000
2667.303223 4829.000000
2668.184326 4863.000000
2669.065674 4848.000000
2669.945557 4763.000000
2670.825684 4758.000000
2671.705078 4769.000000
2672.584473 4755.000000
2673.463135 4853.000000
2674.340088 4707.000000
2675.217773 4679.000000
2676.094727 4726.000000
2676.970947 4742.000000
2677.846680 4643.000000
2678.721680 4730.000000
2679.596924 4569.000000
2680.471191 4620.000000
2681.344971 4640.000000
2682.218018 4687.000000
2683.090820 4556.000000
2683.963379 4542.000000
2684.835205 4596.000000
2685.706299 4516.000000
2686.577148 4534.000000
2687.447510 4504.000000
2688.317627 4489.000000
2689.186035 4499.000000
2690.055176 4497.000000
2690.923584 4621.000000
2691.791748 4404.000000
2692.659180 4303.000000
2693.525391 4410.000000
2694.392090 4295.000000
2695.257813 4382.000000
2696.123535 4335.000000
2696.987793 4310.000000
2697.852783 4332.000000
2698.716309 4273.000000
2699.580078 4343.000000
2700.442383 4370.000000
2701.305176 4252.000000
2702.166992 4251.000000
2703.028320 4206.000000
2703.889648 4195.000000
2704.749756 4149.000000
2705.609863 4180.000000
2706.469482 4217.000000
2707.328857 4179.000000
2708.186523 4106.000000
2709.044434 4135.000000
2709.902832 4124.000000
2710.760010 4027.000000
2711.616455 4098.000000
2712.472412 4107.000000
2713.328369 4095.000000
2714.183594 4073.000000
2715.038086 4103.000000
2715.892090 4056.000000
2716.746094 3943.000000
2717.599121 3914.000000
2718.452393 3958.000000
2719.303955 3975.000000
2720.156006 3893.000000
2721.007813 4007.000000
2721.858398 3983.000000
2722.708984 3981.000000
2723.559082 4050.000000
2724.408447 3809.000000
2725.257813 3950.000000
2726.105957 3861.000000
2726.953613 3847.000000
2727.801758 3887.000000
2728.648682 3838.000000
2729.496094 3767.000000
2730.342041 3842.000000
2731.187256 3922.000000
2732.032959 3866.000000
2732.877686 3864.000000
2733.722412 3831.000000
2734.565918 3779.000000
2735.409668 3907.000000
2736.252686 3844.000000
2737.095215 3775.000000
2737.936768 3794.000000
2738.778809 3802.000000
2739.619873 3719.000000
2740.460693 3831.000000
2741.301270 3857.000000
2742.140625 3724.000000
2742.979980 3732.000000
2743.819336 3818.000000
2744.657471 3666.000000
2745.495117 3717.000000
2746.332764 3768.000000
2747.169922 3765.000000
2748.006836 3676.000000
2748.843262 3689.000000
2749.678467 3639.000000
2750.513916 3593.000000
2751.348877 3637.000000
2752.183105 3691.000000
2753.017090 3525.000000
2753.850586 3659.000000
2754.684082 3518.000000
2755.516602 3634.000000
2756.348633 3774.000000
2757.180176 3482.000000
2758.011719 3593.000000
2758.842285 3552.000000
2759.673096 3480.000000
2760.502686 3588.000000
2761.332275 3487.000000
2762.161621 3557.000000
2762.990234 3644.000000
2763.818359 3491.000000
2764.645996 3445.000000
2765.473633 3494.000000
2766.300781 3574.000000
2767.127197 3467.000000
2767.953125 3387.000000
2768.778564 3298.000000
2769.603760 3304.000000
2770.428955 3320.000000
2771.252930 3357.000000
2772.076904 3403.000000
2772.900879 3295.000000
2773.723633 3380.000000
2774.546631 3044.000000
2775.368408 3263.000000
2776.190186 3242.000000
2777.011963 3262.000000
2777.832764 3155.000000
2778.652832 3399.000000
2779.473145 3246.000000
2780.292969 3211.000000
2781.112793 3157.000000
2781.930664 3191.000000
2782.749756 3118.000000
2783.567627 3275.000000
2784.385254 3174.000000
2785.202393 3223.000000
2786.019043 3109.000000
2786.835449 3088.000000
2787.651367 3054.000000
2788.467041 3120.000000
2789.281738 3102.000000
2790.096924 3030.000000
2790.911377 3052.000000
2791.725342 3071.000000
2792.539063 3053.000000
2793.351563 3041.000000
2794.164307 2967.000000
2794.976563 3001.000000
2795.788330 3082.000000
2796.599365 2969.000000
2797.411133 3017.000000
2798.221680 3109.000000
2799.032227 2994.000000
2799.841309 2937.000000
2800.651123 2906.000000
2801.460205 2891.000000
2802.269043 2978.000000
2803.077393 2944.000000
2803.884766 3002.000000
2804.692627 2900.000000
2805.499756 2979.000000
2806.306641 2957.000000
2807.112305 2952.000000
2807.918457 2839.000000
2808.723877 2975.000000
2809.529297 2882.000000
2810.333984 2897.000000
2811.137695 2861.000000
2811.941895 2941.000000
2812.745605 2938.000000
2813.549072 2860.000000
2814.351074 2930.000000
2815.153809 2921.000000
2815.955811 2782.000000
2816.757568 2791.000000
2817.558838 2812.000000
2818.359619 2819.000000
2819.159912 2873.000000
2819.960449 2769.000000
2820.760010 2913.000000
2821.559082 2732.000000
2822.358154 2855.000000
2823.156982 2709.000000
2823.955322 2730.000000
2824.752686 2841.000000
2825.550293 2840.000000
2826.347168 2815.000000
2827.144287 2869.000000
2827.940674 2761.000000
2828.736328 2746.000000
2829.531982 2691.000000
2830.327393 2730.000000
2831.122314 2797.000000
2831.916504 2662.000000
2832.710693 2636.000000
2833.504639 2757.000000
2834.298096 2644.000000
2835.090820 2641.000000
2835.883301 2699.000000
2836.675781 2619.000000
2837.468018 2805.000000
2838.259766 2764.000000
2839.050537 2734.000000
2839.841309 2694.000000
2840.632324 2733.000000
2841.422363 2714.000000
2842.211914 2679.000000
2843.001709 2632.000000
2843.790527 2700.000000
2844.579346 2530.000000
2845.368164 2568.000000
2846.156006 2661.000000
2846.943359 2523.000000
2847.730957 2535.000000
2848.518066 2533.000000
2849.304443 2664.000000
2850.090820 2447.000000
2850.876953 2494.000000
2851.662598 2614.000000
2852.447266 2571.000000
2853.232422 2485.000000
2854.017334 2598.000000
2854.801514 2552.000000
2855.585693 2572.000000
2856.368652 2513.000000
2857.151855 2519.000000
2857.934814 2608.000000
2858.717285 2563.000000
2859.499512 2611.000000
2860.281250 2435.000000
2861.062744 2587.000000
2861.844482 2468.000000
2862.625488 2539.000000
2863.405762 2465.000000
2864.185791 2550.000000
2864.965820 2533.000000
2865.745605 2532.000000
2866.524414 2621.000000
2867.303467 2510.000000
2868.082031 2613.000000
2868.860352 2497.000000
2869.638184 2477.000000
2870.415771 2701.000000
2871.193115 2655.000000
2871.970215 2690.000000
2872.746826 2606.000000
2873.522949 2717.000000
2874.299072 2786.000000
2875.074707 2694.000000
2875.850098 2736.000000
2876.625000 2771.000000
2877.399658 2662.000000
2878.174316 2759.000000
2878.948730 2776.000000
2879.722412 2731.000000
2880.495361 2646.000000
2881.269043 2792.000000
2882.041748 2646.000000
2882.814453 2629.000000
2883.586426 2682.000000
2884.358154 2697.000000
2885.130371 2613.000000
2885.901367 2699.000000
2886.671875 2703.000000
2887.442871 2640.000000
2888.213867 2574.000000
2888.984131 2602.000000
2889.753418 2653.000000
2890.522949 2557.000000
2891.292480 2512.000000
2892.061523 2617.000000
2892.830078 2604.000000
2893.598633 2742.000000
2894.366211 2639.000000
2895.134277 2676.000000
2895.901855 2583.000000
2896.669434 2599.000000
2897.435791 2503.000000
2898.203125 2611.000000
2898.969238 2408.000000
2899.735596 2503.000000
2900.500488 2483.000000
2901.265869 2462.000000
2902.031738 2442.000000
2902.796143 2493.000000
2903.560547 2525.000000
2904.325195 2399.000000
2905.088867 2368.000000
2905.853271 2448.000000
2906.616943 2507.000000
2907.379883 2386.000000
2908.142578 2350.000000
2908.905762 2388.000000
2909.668457 2317.000000
2910.429932 2334.000000
2911.191895 2334.000000
spectrumdark 2048
-97.038940 6205.000000
-94.412071 6205.000000
-91.787079 6038.000000
-89.163979 6365.000000
-86.542747 5795.000000
-83.923416 6234.000000
-81.305946 6078.000000
-78.690353 6421.000000
-76.076637 6219.000000
-73.464798 5838.000000
-70.854820 6065.000000
-68.246727 5928.000000
-65.640480 5935.000000
-63.036110 6003.000000
-60.433601 6136.000000
-57.832947 5634.000000
-55.234154 6149.000000
-52.637218 6858.000000
-50.042137 6478.000000
-47.448910 6485.000000
-44.857533 6248.000000
-42.268002 6679.000000
-39.680313 5913.000000
-37.094475 6057.000000
-34.510479 6407.000000
-31.928320 5725.000000
-29.348007 6263.000000
-26.769522 5618.000000
-24.192879 6163.000000
-21.618061 6231.000000
-19.045084 6475.000000
-16.473927 6486.000000
-13.904603 6801.000000
-11.337105 7735.000000
-8.771425 6271.000000
-6.207572 6403.000000
-3.645531 6004.000000
-1.085315 5763.000000
1.473093 6079.000000
4.029680 6919.000000
6.584462 6622.000000
9.137427 6081.000000
11.688592 6690.000000
14.237944 6471.000000
16.785500 6667.000000
19.331244 5961.000000
21.875195 5751.000000
24.417341 6697.000000
26.957691 6719.000000
29.496256 6835.000000
32.033024 6195.000000
34.567989 5755.000000
37.101177 7190.000000
39.632584 6311.000000
42.162197 7067.000000
44.690014 6506.000000
47.216072 7822.000000
49.740341 5681.000000
52.262840 6198.000000
54.783543 6786.000000
57.302490 6305.000000
59.819664 6365.000000
62.335060 6674.000000
64.848679 5609.000000
67.360542 5737.000000
69.870659 6519.000000
72.378983 6543.000000
74.885551 5888.000000
77.390373 6319.000000
79.893440 6363.000000
82.394730 6206.000000
84.894279 6115.000000
87.392075 6293.000000
89.888138 5730.000000
92.382423 7203.000000
94.874969 5785.000000
97.365799 6918.000000
99.854858 7154.000000
102.342171 6377.000000
104.827759 6206.000000
107.311607 6335.000000
109.793709 5712.000000
112.274086 6592.000000
114.752739 6126.000000
117.229668 6477.000000
119.704842 7266.000000
122.178307 6808.000000
124.650040 5836.000000
127.120064 6728.000000
129.588333 6194.000000
132.054932 6244.000000
134.519775 5652.000000
136.982925 6185.000000
139.444336 7260.000000
141.904053 6884.000000
144.362045 6308.000000
146.818344 5988.000000
149.272934 5754.000000
151.725800 6809.000000
154.176987 6292.000000
156.626480 6552.000000
159.074249 6072.000000
161.520309 6625.000000
163.964691 8758.000000
166.407394 6385.000000
168.848404 6721.000000
171.287704 6169.000000
173.725296 7206.000000
176.161255 6588.000000
178.595474 6915.000000
181.028015 7135.000000
183.458908 6723.000000
185.888077 7068.000000
188.315598 6748.000000
190.741440 6386.000000
193.165604 6751.000000
195.588104 7159.000000
198.008911 7356.000000
200.428055 6508.000000
202.845535 5964.000000
205.261322 7615.000000
207.675461 6971.000000
210.087967 6345.000000
212.498795 6109.000000
214.907944 6256.000000
217.315460 7362.000000
219.721268 6182.000000
222.125488 6502.000000
224.528000 6735.000000
226.928894 6984.000000
229.328140 6416.000000
231.725723 6805.000000
234.121643 7297.000000
236.515945 6507.000000
238.908585 5853.000000
241.299606 6793.000000
243.688965 6551.000000
246.076706 6326.000000
248.462799 7002.000000
250.847260 6086.000000
253.230072 7910.000000
255.611313 6610.000000
257.990845 6701.000000
260.368805 6421.000000
262.745087 7601.000000
265.119812 7553.000000
267.492889 7885.000000
269.864319 6195.000000
272.234100 6443.000000
274.602325 5878.000000
276.968903 6326.000000
279.333893 6678.000000
281.697266 6007.000000
284.058990 6282.000000
286.419128 7113.000000
288.777649 5976.000000
291.134583 6496.000000
293.489899 6339.000000
295.843628 5984.000000
298.195709 5906.000000
300.546234 6349.000000
302.895172 6348.000000
305.242462 6727.000000
307.588226 6400.000000
309.932312 6485.000000
312.274872 7406.000000
314.615814 7561.000000
316.955139 7139.000000
319.292908 6904.000000
321.629120 8083.000000
323.963684 6253.000000
326.296692 6446.000000
328.628143 6023.000000
330.958008 6581.000000
333.286285 6407.000000
335.612946 7298.000000
337.938110 6364.000000
340.261658 6243.000000
342.583649 5999.000000
344.904083 7466.000000
347.222900 7700.000000
349.540161 5976.000000
351.855896 5810.000000
354.170044 7007.000000
356.482605 6401.000000
358.793610 6244.000000
361.103088 7040.000000
363.411041 6365.000000
365.717377 5695.000000
368.022125 6446.000000
370.325409 6404.000000
372.627075 6233.000000
374.927246 6350.000000
377.225861 6219.000000
379.522919 5709.000000
381.818420 6108.000000
384.112396 5814.000000
386.404785 5193.000000
388.695679 5538.000000
390.985046 6198.000000
393.272827 6252.000000
395.559082 6457.000000
397.843842 7046.000000
400.126984 6016.000000
402.408691 6400.000000
404.688873 6153.000000
406.967468 7251.000000
409.244537 6397.000000
411.520081 6737.000000
413.794098 6437.000000
416.066681 6386.000000
418.337646 6218.000000
420.607117 6483.000000
422.875092 7114.000000
425.141510 7243.000000
427.406433 6284.000000
429.669891 6328.000000
431.931763 6454.000000
434.192169 5952.000000
436.451019 6590.000000
438.708405 6129.000000
440.964294 5641.000000
443.218689 5792.000000
445.471558 5408.000000
447.722870 6888.000000
449.972778 6095.000000
452.221100 6258.000000
454.467987 5585.000000
456.713409 6524.000000
458.957275 6505.000000
461.199646 6671.000000
463.440521 5652.000000
465.679993 6719.000000
467.917877 5373.000000
470.154327 5866.000000
472.389252 6070.000000
474.622711 7232.000000
476.854736 6682.000000
479.085236 5663.000000
481.314240 6480.000000
483.541779 6273.000000
485.767822 5940.000000
487.992432 6541.000000
490.215576 5790.000000
492.437256 6381.000000
494.657379 6711.000000
496.876099 5660.000000
499.093323 6298.000000
501.309174 5512.000000
503.523407 6143.000000
505.736328 6434.000000
507.947662 6393.000000
510.157562 6845.000000
512.366028 6485.000000
514.573120 6547.000000
516.778625 6441.000000
518.982727 6618.000000
521.185303 6151.000000
523.386475 6619.000000
525.586304 6715.000000
527.784607 6918.000000
529.981384 5276.000000
532.176819 5826.000000
534.370728 5558.000000
536.563293 7515.000000
538.754333 6700.000000
540.943970 6021.000000
543.132202 6889.000000
545.318909 7121.000000
547.504150 6827.000000
549.688110 6189.000000
551.870483 6330.000000
554.051514 6246.000000
556.231018 6002.000000
558.409241 5910.000000
560.585938 5991.000000
562.761230 6460.000000
564.935120 6452.000000
567.107544 5881.000000
569.278564 6100.000000
571.448120 6326.000000
573.616394 5288.000000
575.783142 6432.000000
577.948425 6294.000000
580.112305 6108.000000
582.274902 5741.000000
584.435974 6021.000000
586.595642 5609.000000
588.753967 5836.000000
590.910767 6129.000000
593.066223 6570.000000
595.220276 5766.000000
597.372986 6099.000000
599.524170 7204.000000
601.674011 6786.000000
603.822510 6697.000000
605.969421 6089.000000
608.115112 6463.000000
610.259399 6480.000000
612.402222 7020.000000
614.543579 6171.000000
616.683716 6439.000000
618.822327 7679.000000
620.959656 5669.000000
623.095520 6560.000000
625.229980 6802.000000
627.362976 7194.000000
629.494812 6687.000000
631.625183 6515.000000
633.754150 6837.000000
635.881653 6461.000000
638.007874 6181.000000
640.132568 7331.000000
642.256042 6362.000000
644.378174 6771.000000
646.498840 6902.000000
648.618164 6555.000000
650.736084 5643.000000
652.852661 5725.000000
654.967834 6434.000000
657.081665 6393.000000
659.194031 5867.000000
661.305176 6050.000000
663.414917 5426.000000
665.523193 6008.000000
667.630310 6274.000000
669.735962 6770.000000
671.840149 5900.000000
673.943115 5736.000000
676.044678 7005.000000
678.144897 5285.000000
680.243713 6753.000000
682.341187 6245.000000
684.437378 6953.000000
686.532104 6191.000000
688.625610 6999.000000
690.717773 6591.000000
692.808411 7923.000000
694.897827 6602.000000
696.985962 6511.000000
699.072632 5954.000000
701.158081 6698.000000
703.242004 5183.000000
705.324707 5988.000000
707.406128 5935.000000
709.486084 7585.000000
711.564819 6172.000000
713.642090 5542.000000
715.718079 6520.000000
717.792786 6119.000000
719.866211 6943.000000
721.938110 6313.000000
724.008850 7388.000000
726.078247 5776.000000
728.146240 6511.000000
730.212891 6350.000000
732.278320 7066.000000
734.342407 5757.000000
736.405151 6176.000000
738.466553 6546.000000
740.526672 6605.000000
742.585388 6060.000000
744.642883 6646.000000
746.699097 6456.000000
748.753906 6680.000000
750.807434 6407.000000
752.859558 7493.000000
754.910461 5812.000000
756.960144 6728.000000
759.008362 6301.000000
761.055359 6146.000000
763.101074 7047.000000
765.145386 5284.000000
767.188416 5757.000000
769.230225 15043.000000
771.270691 6952.000000
773.309753 6355.000000
775.347656 6060.000000
777.384216 5999.000000
779.419556 5391.000000
781.453552 5765.000000
783.486145 6914.000000
785.517578 5453.000000
787.547607 11550.000000
789.576355 6035.000000
791.603943 6299.000000
793.630188 6321.000000
795.655029 5790.000000
797.678772 5480.000000
799.701111 6338.000000
801.722229 5810.000000
803.742004 6626.000000
805.760498 4889.000000
807.777771 6613.000000
809.793640 6824.000000
811.808350 5684.000000
813.821716 6461.000000
815.833862 6263.000000
817.844788 6062.000000
819.854370 6605.000000
821.862732 5320.000000
823.869690 5730.000000
825.875427 6002.000000
827.879944 5760.000000
829.883179 5630.000000
831.885132 6448.000000
833.885803 6053.000000
835.885254 5912.000000
837.883362 6333.000000
839.880371 6993.000000
841.875977 6248.000000
843.870422 6031.000000
845.863525 6208.000000
847.855408 6807.000000
849.845947 5590.000000
851.835205 6769.000000
853.823425 6034.000000
855.810242 5728.000000
857.795837 6435.000000
859.780151 7249.000000
861.763367 6339.000000
863.745178 6437.000000
865.725769 5901.000000
867.705078 7810.000000
869.683228 7047.000000
871.660034 6198.000000
873.635559 5911.000000
875.610046 6174.000000
877.583069 5989.000000
879.555054 5434.000000
881.525696 6445.000000
883.495178 6099.000000
885.463318 5537.000000
887.430298 5207.000000
889.395935 6169.000000
891.360413 5834.000000
893.323669 5975.000000
895.285706 6482.000000
897.246460 5818.000000
899.205994 6370.000000
901.164246 6696.000000
903.121399 6347.000000
905.077393 6045.000000
907.031982 6896.000000
908.985352 6493.000000
910.937561 6353.000000
912.888550 6362.000000
914.838257 7103.000000
916.786804 6304.000000
918.734131 6226.000000
920.680176 6086.000000
922.624939 6056.000000
924.568665 6235.000000
926.511230 5936.000000
928.452515 5505.000000
930.392456 6477.000000
932.331299 5736.000000
934.268860 5511.000000
936.205200 5985.000000
938.140381 5822.000000
940.074280 6046.000000
942.007080 5909.000000
943.938660 6747.000000
945.869080 5167.000000
947.798279 6384.000000
949.726135 7020.000000
951.652954 6607.000000
953.578491 5894.000000
955.502747 5387.000000
957.425903 5969.000000
959.347900 6756.000000
961.268616 7294.000000
963.188171 6469.000000
965.106567 5307.000000
967.023926 6423.000000
968.939819 6404.000000
970.854614 6124.000000
972.768188 5971.000000
974.680603 6359.000000
976.591797 6462.000000
978.501831 5457.000000
980.410583 6212.000000
982.318298 6126.000000
984.224792 6355.000000
986.130066 5677.000000
988.034241 6799.000000
989.937195 6153.000000
991.838928 6817.000000
993.739502 6563.000000
995.638916 6550.000000
997.537109 5214.000000
999.434143 6535.000000
1001.329956 6535.000000
1003.224609 7686.000000
1005.118164 5529.000000
1007.010437 7092.000000
1008.901794 6079.000000
1010.791809 5359.000000
1012.680603 6652.000000
1014.568237 6299.000000
1016.454712 6920.000000
1018.340027 6743.000000
1020.224182 6039.000000
1022.107117 5880.000000
1023.989014 6226.000000
1025.869629 5149.000000
1027.749146 5875.000000
1029.627686 6111.000000
1031.504883 5393.000000
1033.380737 6157.000000
1035.255615 5907.000000
1037.129517 6563.000000
1039.001953 6971.000000
1040.873413 6655.000000
1042.743530 5466.000000
1044.612671 5558.000000
1046.480591 5723.000000
1048.347412 6994.000000
1050.213135 6707.000000
1052.077637 6425.000000
1053.941040 6473.000000
1055.803101 6527.000000
1057.664185 5905.000000
1059.524170 6422.000000
1061.382813 6703.000000
1063.240356 5774.000000
1065.096802 6678.000000
1066.952148 5999.000000
1068.806274 5749.000000
1070.659546 6287.000000
1072.511353 6321.000000
1074.362183 6161.000000
1076.211792 6127.000000
1078.060181 5759.000000
1079.907715 7919.000000
1081.753906 5599.000000
1083.598877 6227.000000
1085.442993 5455.000000
1087.285767 5475.000000
1089.127319 6542.000000
1090.968140 5498.000000
1092.807373 5763.000000
1094.645874 5983.000000
1096.483032 6022.000000
1098.318970 6829.000000
1100.153931 6589.000000
1101.987671 5450.000000
1103.820435 5595.000000
1105.651855 6208.000000
1107.482422 7250.000000
1109.311646 6514.000000
1111.139893 6393.000000
1112.966919 7118.000000
1114.792969 5420.000000
1116.617798 6353.000000
1118.441528 7136.000000
1120.264038 6062.000000
1122.085449 5821.000000
1123.906006 5852.000000
1125.725098 6554.000000
1127.543335 7021.000000
1129.360229 6848.000000
1131.176270 6682.000000
1132.991089 6469.000000
1134.804810 5537.000000
1136.617432 5795.000000
1138.428833 5529.000000
1140.239258 6101.000000
1142.048584 6734.000000
1143.856567 6883.000000
1145.663818 5935.000000
1147.469604 5891.000000
1149.274536 5407.000000
1151.078369 5384.000000
1152.880981 6106.000000
1154.682739 6106.000000
1156.483032 6022.000000
1158.282349 6051.000000
1160.080688 5857.000000
1161.877686 5412.000000
1163.673950 5980.000000
1165.468872 6088.000000
1167.262695 6346.000000
1169.055664 7655.000000
1170.847290 5749.000000
1172.637939 6552.000000
1174.427612 6004.000000
1176.215820 5840.000000
1178.003174 7530.000000
1179.789429 6818.000000
1181.574585 5744.000000
1183.358643 5904.000000
1185.141602 7640.000000
1186.923584 5869.000000
1188.704346 5856.000000
1190.484131 6348.000000
1192.262817 6925.000000
1194.040527 6700.000000
1195.817017 7191.000000
1197.592407 6548.000000
1199.366699 6501.000000
1201.139893 6730.000000
1202.912231 6556.000000
1204.683228 6731.000000
1206.453369 5705.000000
1208.222290 6127.000000
1209.990112 6304.000000
1211.757080 5836.000000
1213.522705 5871.000000
1215.287354 6946.000000
1217.050903 6523.000000
1218.813354 6008.000000
1220.574951 6705.000000
1222.335327 5850.000000
1224.094604 6221.000000
1225.853027 6030.000000
1227.610229 7093.000000
1229.366333 6414.000000
1231.121338 5508.000000
1232.875488 6006.000000
1234.628296 5817.000000
1236.380127 5978.000000
1238.131104 5969.000000
1239.880737 4941.000000
1241.629517 7009.000000
1243.376953 6487.000000
1245.123657 6612.000000
1246.869141 6518.000000
1248.613770 6371.000000
1250.357056 6706.000000
1252.099365 6702.000000
1253.840576 5360.000000
1255.580933 5077.000000
1257.320190 5758.000000
1259.058228 6605.000000
1260.795410 7093.000000
1262.531372 6033.000000
1264.266357 6355.000000
1266.000366 7288.000000
1267.733398 5939.000000
1269.465210 6190.000000
1271.196045 6386.000000
1272.925659 7190.000000
1274.654419 5945.000000
1276.382080 5675.000000
1278.108643 5540.000000
1279.834351 5520.000000
1281.558716 6373.000000
1283.282227 5170.000000
1285.004761 6902.000000
1286.726318 6589.000000
1288.446655 6173.000000
1290.166016 6671.000000
1291.884277 7277.000000
1293.601563 6472.000000
1295.317871 5750.000000
1297.032959 6378.000000
1298.747070 6162.000000
1300.460205 5743.000000
1302.172485 6472.000000
1303.883545 8268.000000
1305.593628 5213.000000
1307.302612 6264.000000
1309.010376 6663.000000
1310.717529 7045.000000
1312.423218 5777.000000
1314.128174 6846.000000
1315.832153 6132.000000
1317.534912 5927.000000
1319.236694 6554.000000
1320.937622 6043.000000
1322.637207 9912.000000
1324.335938 7739.000000
1326.033936 5566.000000
1327.730591 6549.000000
1329.426147 7082.000000
1331.120850 6776.000000
1332.814331 5741.000000
1334.506958 5396.000000
1336.198730 7503.000000
1337.889160 6208.000000
1339.578857 6581.000000
1341.267456 6090.000000
1342.954956 7656.000000
1344.641479 5646.000000
1346.326904 6717.000000
1348.011353 5938.000000
1349.694946 7297.000000
1351.377319 6353.000000
1353.058716 5976.000000
1354.739258 6511.000000
1356.418579 6660.000000
1358.097290 5899.000000
1359.774658 6535.000000
1361.450928 5805.000000
1363.126221 5511.000000
1364.800781 6580.000000
1366.474121 6446.000000
1368.146484 6810.000000
1369.817871 5118.000000
1371.488281 6791.000000
1373.157593 6113.000000
1374.825928 5648.000000
1376.493408 5956.000000
1378.159790 6465.000000
1379.825195 6095.000000
1381.489624 5834.000000
1383.152832 5948.000000
1384.815430 5668.000000
1386.476685 6283.000000
1388.137085 6506.000000
1389.796387 6389.000000
1391.454712 6489.000000
1393.112305 6844.000000
1394.768677 6498.000000
1396.424194 6993.000000
1398.078491 6315.000000
1399.731934 5826.000000
1401.384277 6101.000000
1403.035889 6433.000000
1404.686279 7174.000000
1406.335571 6238.000000
1407.984131 7488.000000
1409.631592 7935.000000
1411.278076 6139.000000
1412.923706 6212.000000
1414.568359 5977.000000
1416.211792 7036.000000
1417.854370 7111.000000
1419.495850 6799.000000
1421.136475 6476.000000
1422.776123 6450.000000
1424.414673 6016.000000
1426.052368 6639.000000
1427.688965 6302.000000
1429.324585 5965.000000
1430.959473 6641.000000
1432.593262 5896.000000
1434.225952 6134.000000
1435.857666 5688.000000
1437.488525 6090.000000
1439.118286 6038.000000
1440.746948 7757.000000
1442.375000 5932.000000
1444.001953 6184.000000
1445.627686 6172.000000
1447.252808 6129.000000
1448.876831 6531.000000
1450.499878 6000.000000
1452.121948 5981.000000
1453.742920 7436.000000
1455.362915 6366.000000
1456.982178 6882.000000
1458.600098 5632.000000
1460.217407 5576.500000
1461.833740 5521.000000
1463.448853 7293.000000
1465.063110 6361.000000
1466.676514 5213.000000
1468.288818 5664.000000
1469.900269 6255.000000
1471.510864 6375.000000
1473.120239 5947.000000
1474.728638 6030.000000
1476.336182 6160.000000
1477.942749 6714.000000
1479.548584 5383.000000
1481.153198 6302.000000
1482.756958 5493.000000
1484.359497 6696.000000
1485.961426 5521.000000
1487.562134 5539.000000
1489.162109 5560.000000
1490.760986 6258.000000
1492.359009 6441.000000
1493.955933 6647.000000
1495.552002 6259.000000
1497.147095 5928.000000
1498.741211 5488.000000
1500.334595 6546.000000
1501.926880 5530.000000
1503.517944 6134.000000
1505.108521 6768.000000
1506.697754 6476.000000
1508.286377 6093.000000
1509.873901 6516.000000
1511.460327 6832.000000
1513.046021 6169.000000
1514.630615 6673.000000
1516.214355 6267.000000
1517.796997 6196.000000
1519.378906 6585.000000
1520.959717 6658.000000
1522.539795 6030.000000
1524.118652 6210.000000
1525.696655 6348.000000
1527.273926 6262.000000
1528.849976 5669.000000
1530.425293 5937.000000
1531.999512 6308.000000
1533.572998 5493.000000
1535.145264 5877.000000
1536.716797 6419.000000
1538.287354 6458.000000
1539.857056 6384.000000
1541.425537 5414.000000
1542.993286 6599.000000
1544.560181 5611.000000
1546.125854 6753.000000
1547.690796 5941.000000
1549.254639 5092.000000
1550.817871 7478.000000
1552.379761 6275.000000
1553.941040 5962.000000
1555.501221 5670.000000
1557.060669 5780.000000
1558.619019 5832.000000
1560.176636 6239.000000
1561.733154 7001.000000
1563.288452 5861.000000
1564.843140 6360.000000
1566.397095 5608.000000
1567.950073 6323.000000
1569.501709 5706.000000
1571.052612 5871.000000
1572.602783 6169.000000
1574.151978 6320.000000
1575.699829 5799.000000
1577.247192 5532.000000
1578.793579 5723.000000
1580.339111 5026.000000
1581.883667 6644.000000
1583.427002 6343.000000
1584.969727 6560.000000
1586.511597 6454.000000
1588.052368 6712.000000
1589.592163 5805.000000
1591.131226 6666.000000
1592.669189 5849.000000
1594.206665 6152.000000
1595.742798 5929.000000
1597.277832 6662.000000
1598.812378 6332.000000
1600.345947 5971.000000
1601.878662 6088.000000
1603.409790 6235.000000
1604.940674 6288.000000
1606.470703 5776.000000
1607.999512 6162.000000
1609.527222 6108.000000
1611.054321 5994.000000
1612.580688 5857.000000
1614.106079 6224.000000
1615.630615 5785.000000
1617.153809 5689.000000
1618.676270 5589.000000
1620.197998 6578.000000
1621.718872 6925.000000
1623.238281 15538.000000
1624.757202 6179.000000
1626.275391 6050.000000
1627.792725 5896.000000
1629.308960 6390.000000
1630.823853 7028.000000
1632.338257 6751.000000
1633.851929 5720.000000
1635.364502 6865.000000
1636.875854 5932.000000
1638.386841 6412.000000
1639.896729 6258.000000
1641.405762 6216.000000
1642.913452 5603.000000
1644.420776 6093.000000
1645.927246 7133.000000
1647.432739 6204.000000
1648.937378 6800.000000
1650.440552 6191.000000
1651.943115 6583.000000
1653.445313 6338.000000
1654.946167 6693.000000
1656.445923 7485.000000
1657.944824 5983.000000
1659.443359 6555.000000
1660.940674 6256.000000
1662.437256 5939.000000
1663.932251 6510.000000
1665.427002 6387.000000
1666.920898 5194.000000
1668.413818 5645.000000
1669.905396 6071.000000
1671.396484 6497.000000
1672.886963 6107.000000
1674.376343 5884.000000
1675.864258 6954.000000
1677.351929 6878.000000
1678.838623 6003.000000
1680.324463 5378.000000
1681.809448 6032.000000
1683.292969 6133.000000
1684.776245 6133.000000
1686.258667 5887.000000
1687.739990 6217.000000
1689.219849 6153.000000
1690.699463 5454.000000
1692.178345 6575.000000
1693.656250 6011.000000
1695.133179 6106.000000
1696.608887 5679.000000
1698.084229 6044.000000
1699.558350 6294.000000
1701.031860 5450.000000
1702.503906 5604.000000
1703.975708 6875.000000
1705.446533 6376.000000
1706.916504 7132.000000
1708.385132 5141.000000
1709.853271 5824.000000
1711.320679 6351.000000
1712.786987 5460.000000
1714.252686 5713.000000
1715.716675 6191.000000
1717.180542 5973.000000
1718.643555 6942.000000
1720.105591 6417.000000
1721.566406 6579.000000
1723.026611 5422.000000
1724.486084 6335.000000
1725.944702 6129.000000
1727.402344 6015.000000
1728.858643 6215.000000
1730.314697 6061.000000
1731.769775 6414.000000
1733.223877 5999.000000
1734.676758 6882.000000
1736.129395 5935.000000
1737.580933 6902.000000
1739.031738 5985.000000
1740.481567 6531.000000
1741.930054 5865.000000
1743.378174 7354.000000
1744.825439 6665.000000
1746.271973 6678.000000
1747.716919 6678.000000
1749.161621 6154.000000
1750.605469 5808.000000
1752.048462 5470.000000
1753.489990 6568.000000
1754.931274 6325.000000
1756.371704 6296.500000
1757.811157 6268.000000
1759.249634 5272.000000
1760.687134 6088.000000
1762.124146 7486.000000
1763.560181 5860.000000
1764.995361 7188.000000
1766.429077 6208.000000
1767.862671 6497.000000
1769.295288 6672.000000
1770.727051 5741.000000
1772.157959 5777.000000
1773.587646 6361.000000
1775.016602 6159.000000
1776.445068 6289.000000
1777.872559 6643.000000
1779.298706 6266.000000
1780.724609 5651.000000
1782.149414 6886.000000
1783.573608 5539.000000
1784.996338 6626.000000
1786.418579 6485.000000
1787.840088 6850.000000
1789.260864 5873.000000
1790.680664 6003.000000
1792.099121 6165.000000
1793.517090 6846.000000
1794.934448 5500.000000
1796.350952 6070.000000
1797.765991 6559.000000
1799.180664 5855.000000
1800.594727 6521.000000
1802.007568 5976.000000
1803.419800 6937.000000
1804.830688 7130.000000
1806.241089 7826.000000
1807.650757 6499.000000
1809.059448 5956.000000
1810.467041 5418.000000
1811.874146 6445.000000
1813.280396 6348.000000
1814.685669 6695.000000
1816.089844 5913.000000
1817.493652 5969.000000
1818.896484 6239.000000
1820.298462 6044.000000
1821.699829 5839.000000
1823.099731 6342.000000
1824.499023 6466.000000
1825.897827 6543.000000
1827.295776 7456.000000
1828.692383 5707.000000
1830.088379 6764.000000
1831.483643 5937.000000
1832.878296 8163.000000
1834.271973 6028.000000
1835.664307 6851.000000
1837.056152 6424.000000
1838.447388 5870.000000
1839.837646 7062.000000
1841.226685 6073.000000
1842.615356 6046.000000
1844.003052 5917.000000
1845.390015 5816.000000
1846.775635 6924.000000
1848.161011 5866.000000
1849.545532 6456.000000
1850.929321 6314.000000
1852.312012 6320.000000
1853.693481 5420.000000
1855.074463 6525.000000
1856.454956 6356.000000
1857.834473 5701.000000
1859.212524 5932.000000
1860.590454 6316.000000
1861.967407 7818.000000
1863.343628 6028.000000
1864.718994 6071.000000
1866.092896 5684.000000
1867.466675 5720.000000
1868.839600 6256.000000
1870.211426 5988.000000
1871.582275 6899.000000
1872.952759 5421.000000
1874.322144 6077.000000
1875.691040 6121.000000
1877.058350 7132.000000
1878.425537 6067.000000
1879.791748 6058.000000
1881.157227 6755.000000
1882.521973 7506.000000
1883.885132 6761.000000
1885.248169 6986.000000
1886.610352 6325.000000
1887.971680 6418.000000
1889.331665 5640.000000
1890.691284 5762.000000
1892.050293 6168.000000
1893.408325 6655.000000
1894.765503 7317.000000
1896.121460 5945.000000
1897.477173 7620.000000
1898.831909 5837.000000
1900.185791 5550.000000
1901.538574 5879.000000
1902.890869 5938.000000
1904.242432 5977.000000
1905.593140 6767.000000
1906.942627 6568.000000
1908.291626 6683.000000
1909.639771 5781.000000
1910.987305 6103.000000
1912.334106 6339.000000
1913.679321 6880.000000
1915.024292 6071.000000
1916.368530 5446.000000
1917.711914 6578.000000
1919.053955 5978.000000
1920.395752 6724.000000
1921.736694 7031.000000
1923.076904 6161.000000
1924.416138 6289.000000
1925.754395 6304.000000
1927.092041 6501.000000
1928.428955 6971.000000
1929.765015 6730.000000
1931.099854 5570.000000
1932.434326 6725.000000
1933.768066 7223.000000
1935.100952 6266.000000
1936.432373 5716.000000
1937.763916 6325.000000
1939.094116 6690.000000
1940.423828 5755.000000
1941.752686 6061.000000
1943.080322 5816.000000
1944.407471 5015.000000
1945.733887 5845.000000
1947.059570 6467.000000
1948.383911 5719.000000
1949.708008 6684.000000
1951.031250 6446.000000
1952.353760 6410.000000
1953.675171 5835.000000
1954.995605 7406.000000
1956.315430 6072.000000
1957.634888 5557.000000
1958.953369 6821.000000
1960.270508 5890.000000
1961.587280 5829.000000
1962.903320 6584.000000
1964.218628 6583.000000
1965.532471 6215.000000
1966.846069 5656.000000
1968.158936 6202.000000
1969.470947 5968.000000
1970.782349 6038.000000
1972.092407 6279.000000
1973.401978 5860.000000
1974.710815 6196.000000
1976.019043 6600.000000
1977.325928 6112.000000
1978.632202 7274.000000
1979.938110 5556.000000
1981.242798 6332.000000
1982.546997 5857.000000
1983.849976 5785.000000
1985.152588 7521.000000
1986.454224 6089.000000
1987.755249 6796.000000
1989.054688 6082.000000
1990.354248 6603.000000
1991.652710 5302.000000
1992.950684 6067.000000
1994.247070 6109.000000
1995.543457 5785.000000
1996.838867 5527.000000
1998.133545 6521.000000
1999.427368 5758.000000
2000.719971 6526.000000
2002.012085 5734.000000
2003.303711 7183.000000
2004.594604 6374.000000
2005.883911 6237.000000
2007.172974 6836.000000
2008.461304 5945.000000
2009.748901 6086.000000
2011.035645 6633.000000
2012.321289 5594.000000
2013.606567 6337.000000
2014.890869 5995.000000
2016.174561 5576.000000
2017.456909 6039.000000
2018.738892 6489.000000
2020.020386 6731.000000
2021.300903 5938.000000
2022.580688 6125.000000
2023.859375 6802.000000
2025.137329 5806.000000
2026.414795 5883.000000
2027.691650 6256.000000
2028.966797 5726.000000
2030.242065 6557.000000
2031.516357 6057.000000
2032.789673 5947.000000
2034.062134 5976.000000
2035.334229 6101.000000
2036.605225 6910.000000
2037.875977 6654.000000
2039.145386 6018.000000
2040.413696 6764.000000
2041.682007 6607.000000
2042.949341 5896.000000
2044.215942 5929.000000
2045.481323 5677.000000
2046.746094 5456.000000
2048.010498 5382.000000
2049.273926 5921.000000
2050.536865 6442.000000
2051.797852 6186.000000
2053.059326 6112.000000
2054.319580 5852.000000
2055.579102 6455.000000
2056.837891 6253.000000
2058.095703 6976.000000
2059.353027 6192.000000
2060.609619 5980.000000
2061.864746 6522.000000
2063.119873 5638.000000
2064.374023 5572.000000
2065.627441 5621.000000
2066.880127 6844.000000
2068.131592 6281.000000
2069.382813 6252.000000
2070.633301 5601.000000
2071.883057 5378.000000
2073.131348 6120.000000
2074.379639 6486.000000
2075.626953 7352.000000
2076.873535 5586.000000
2078.119385 6005.000000
2079.364014 7013.000000
2080.608154 7624.000000
2081.851807 5512.000000
2083.094482 6048.000000
2084.335938 6951.000000
2085.577148 5939.000000
2086.817871 6384.000000
2088.057617 6821.000000
2089.296143 7052.000000
2090.534180 6147.000000
2091.771484 5718.000000
2093.008545 6649.000000
2094.244141 6090.000000
2095.479004 6241.000000
2096.713623 6107.000000
2097.947266 5569.000000
2099.179932 6103.000000
2100.411865 6844.000000
2101.643311 6411.000000
2102.873779 6726.000000
2104.103516 5955.000000
2105.333008 5982.000000
2106.560547 5945.000000
2107.788330 5974.000000
2109.015381 6212.000000
2110.241455 5467.000000
2111.466064 6485.000000
2112.690918 6943.000000
2113.914551 7024.000000
2115.137695 6169.000000
2116.359619 7535.000000
2117.581299 6003.000000
2118.802002 6819.000000
2120.021973 6032.000000
2121.241455 6179.000000
2122.459473 6578.000000
2123.677490 7010.000000
2124.894531 5734.000000
2126.111084 5808.000000
2127.325928 6582.000000
2128.541016 6340.000000
2129.755127 6984.000000
2130.968506 5741.000000
2132.181152 6160.000000
2133.392334 5797.000000
2134.603760 6509.000000
2135.813965 6649.000000
2137.023682 5939.000000
2138.231934 6184.000000
2139.440186 5666.000000
2140.647705 5879.000000
2141.854004 7634.000000
2143.059570 5950.000000
2144.264893 5688.000000
2145.469238 5528.000000
2146.672852 6386.000000
2147.875977 6188.000000
2149.077637 6424.000000
2150.279053 5349.000000
2151.479736 6284.000000
2152.679688 6009.000000
2153.878418 5964.000000
2155.076904 6937.000000
2156.274902 6202.000000
2157.471924 5965.000000
2158.668213 5174.000000
2159.863281 5285.000000
2161.058105 6151.000000
2162.252197 5525.000000
2163.445313 6071.000000
2164.637451 6885.000000
2165.829346 5923.000000
2167.020508 6311.000000
2168.210693 6250.000000
2169.400146 6482.000000
2170.589111 6823.000000
2171.777100 6047.000000
2172.964844 5723.000000
2174.151123 5940.000000
2175.336670 6592.000000
2176.521973 6018.000000
2177.706787 5867.000000
2178.890381 6459.000000
2180.073242 7512.000000
2181.255127 6348.000000
2182.436768 5977.000000
2183.617920 6567.000000
2184.797852 5742.000000
2185.976807 5528.000000
2187.155273 6365.000000
2188.333496 6887.000000
2189.510498 7166.000000
2190.686523 6709.000000
2191.862305 6097.000000
2193.037598 5582.000000
2194.211426 6699.000000
2195.384766 6137.000000
2196.557861 6186.000000
2197.729736 6442.000000
2198.901123 7084.000000
2200.072021 6310.000000
2201.241211 6918.000000
2202.410400 7556.000000
2203.579102 6193.000000
2204.746826 5877.000000
2205.913574 5617.000000
2207.079590 7241.000000
2208.245117 6757.000000
2209.410400 6018.000000
2210.574219 6746.000000
2211.737549 5391.000000
2212.899658 6214.000000
2214.062012 6171.000000
2215.223145 6684.000000
2216.383301 6712.000000
2217.542969 6279.000000
2218.702393 6581.000000
2219.860596 6378.000000
2221.017822 6309.000000
2222.174805 6772.000000
2223.331055 6558.000000
2224.486572 6807.000000
2225.641357 6249.000000
2226.795166 6407.000000
2227.947998 6132.000000
2229.101318 6864.000000
2230.252686 6266.000000
2231.403809 6167.000000
2232.554199 6538.000000
2233.704102 7628.000000
2234.853027 6285.000000
2236.001465 5180.000000
2237.148438 6786.000000
2238.295654 7064.000000
2239.441650 6089.000000
2240.587402 7222.000000
2241.731445 7309.000000
2242.875732 6701.000000
2244.019043 6165.000000
2245.161621 5978.000000
2246.303223 5781.000000
2247.444580 5859.000000
2248.584961 6407.000000
2249.724609 6411.000000
2250.863770 5844.000000
2252.001709 5822.000000
2253.139648 6171.000000
2254.276611 5314.000000
2255.412842 6334.000000
2256.548096 6120.000000
2257.682617 7277.000000
2258.816895 6403.000000
2259.950684 5368.000000
2261.083008 6136.000000
2262.214844 6760.000000
2263.346191 6322.000000
2264.476563 6423.000000
2265.606689 8045.000000
2266.735596 6681.000000
2267.864014 6005.000000
2268.991943 5524.000000
2270.118896 6067.000000
2271.245117 5943.000000
2272.370361 6722.000000
2273.495605 6538.000000
2274.620117 6445.000000
2275.743408 5942.000000
2276.865967 6414.000000
2277.988037 5973.000000
2279.109619 7405.000000
2280.230469 6359.000000
2281.350098 6413.000000
2282.469238 7080.000000
2283.588135 7614.000000
2284.706299 7198.000000
2285.823486 5902.000000
2286.939697 6442.000000
2288.055664 7021.000000
2289.170898 6873.000000
2290.285400 7333.000000
2291.398682 5788.000000
2292.511963 6405.000000
2293.624512 6043.000000
2294.736328 5386.000000
2295.847412 6819.000000
2296.957275 6420.000000
2298.066650 6206.000000
2299.175781 6635.000000
2300.283936 6313.000000
2301.391113 6779.000000
2302.498047 5857.000000
2303.604248 6244.000000
2304.709961 6530.000000
2305.814209 6531.000000
2306.918213 5434.000000
2308.021729 5774.000000
2309.124756 6561.000000
2310.226563 7453.000000
2311.327637 7291.000000
2312.428223 6564.000000
2313.528320 5484.000000
2314.627686 6354.000000
2315.725586 6598.000000
2316.823975 6958.000000
2317.920898 8224.000000
2319.017578 6869.000000
2320.113770 5796.000000
2321.208252 6848.000000
2322.302734 7580.000000
2323.396484 5804.000000
2324.489990 6027.000000
2325.581787 6441.000000
2326.673584 6860.000000
2327.764648 6109.000000
2328.854980 6237.000000
2329.944336 7010.000000
2331.033691 6034.000000
2332.121826 6228.000000
2333.209473 6922.000000
2334.296875 6591.000000
2335.382568 6677.000000
2336.468018 7732.000000
2337.553223 6333.000000
2338.637451 6721.000000
2339.720703 5863.000000
2340.803711 6418.000000
2341.885742 7064.000000
2342.967529 6014.000000
2344.048584 7479.000000
2345.128418 6623.000000
2346.207764 5720.000000
2347.286621 6752.000000
2348.364990 6480.000000
2349.441895 6343.000000
2350.518555 7011.000000
2351.594971 6048.000000
2352.670410 6513.000000
2353.744873 5876.000000
2354.819092 6270.000000
2355.892578 6775.000000
2356.965576 6293.000000
2358.037354 6935.000000
2359.108887 6272.000000
2360.179443 6776.000000
2361.249756 7479.000000
2362.319092 7534.000000
2363.387451 6823.000000
2364.455566 6785.000000
2365.522949 7088.000000
2366.589844 7107.000000
2367.656006 5964.000000
2368.720947 6843.000000
2369.785889 6938.000000
2370.850098 6360.000000
2371.913574 6883.000000
2372.975830 5813.000000
2374.038086 6299.000000
2375.099365 6368.000000
2376.160400 5933.000000
2377.220215 6319.000000
2378.279297 7927.000000
2379.338379 6419.000000
2380.396484 7652.000000
2381.453857 6906.000000
2382.510254 8003.000000
2383.566406 7810.000000
2384.622070 6266.000000
2385.677002 6968.000000
2386.730469 6769.000000
2387.784180 6538.000000
2388.836914 6285.000000
2389.889160 6797.000000
2390.940674 6160.000000
2391.991211 6682.000000
2393.041504 6481.000000
2394.090820 6239.000000
2395.140137 6166.000000
2396.187988 6904.000000
2397.235352 7000.000000
2398.282471 6326.000000
2399.328613 6634.000000
2400.374023 6164.000000
2401.418701 6665.000000
2402.463379 7704.000000
2403.506592 7460.000000
2404.549805 6581.000000
2405.591553 5764.000000
2406.633545 6683.000000
2407.674805 7112.000000
2408.715088 6076.000000
2409.754639 6398.000000
2410.793213 6341.000000
2411.832031 6051.000000
2412.869629 6484.000000
2413.906982 6892.000000
2414.943115 7333.000000
2415.979004 6138.000000
2417.014160 6251.000000
2418.048828 6604.000000
2419.082031 7192.000000
2420.115479 6463.000000
2421.147949 6657.000000
2422.180176 6783.000000
2423.210938 7064.000000
2424.241699 6344.000000
2425.271973 6814.000000
2426.301025 6831.000000
2427.330078 6582.000000
2428.357422 7429.000000
2429.385254 6680.000000
2430.411865 7236.000000
2431.438232 6934.000000
2432.463135 7704.000000
2433.488281 6563.000000
2434.512451 7073.000000
2435.536377 6709.000000
2436.559082 5821.000000
2437.581055 6289.000000
2438.602783 6610.000000
2439.623779 6654.000000
2440.644287 6035.000000
2441.663574 6459.000000
2442.682861 6618.000000
2443.701172 8436.000000
2444.719238 6248.000000
2445.735840 6446.000000
2446.752441 6586.000000
2447.768311 6008.000000
2448.784180 7005.000000
2449.798584 6917.000000
2450.812256 5537.000000
2451.825439 7273.000000
2452.838379 5992.000000
2453.850586 7131.000000
2454.861816 6650.000000
2455.872803 7635.000000
2456.883057 6402.000000
2457.892822 7577.000000
2458.901611 5887.000000
2459.909668 5936.000000
2460.917725 6351.000000
2461.924561 7353.000000
2462.931152 5378.000000
2463.936523 7382.000000
2464.941650 6988.000000
2465.946533 5822.000000
2466.950195 6578.000000
2467.953613 6317.000000
2468.956055 7625.000000
2469.958252 7365.000000
2470.959961 6840.000000
2471.960693 6604.000000
2472.960449 6986.000000
2473.960205 6686.000000
2474.958984 5678.000000
2475.957275 6596.000000
2476.954590 7048.000000
2477.951660 6125.000000
2478.948730 6928.000000
2479.944336 5797.000000
2480.939941 7185.000000
2481.933838 6733.000000
2482.927734 8087.000000
2483.921143 6793.000000
2484.914063 6918.000000
2485.906006 7427.000000
2486.897217 7255.000000
2487.888184 6823.000000
2488.878662 5794.000000
2489.868164 6616.000000
2490.856934 6462.000000
2491.845703 5571.000000
2492.833496 6830.000000
2493.820068 6520.000000
2494.806641 8065.000000
2495.792725 6749.000000
2496.778076 7071.000000
2497.762451 8064.000000
2498.746582 6024.000000
2499.730713 6802.000000
2500.713379 5779.000000
2501.695557 6983.000000
2502.677246 6772.000000
2503.658203 7236.000000
2504.638672 6529.000000
2505.618896 5686.000000
2506.597656 6298.000000
2507.576172 7617.000000
2508.554199 6736.000000
2509.531738 7103.000000
2510.508301 6037.000000
2511.484619 5920.000000
2512.460205 6491.000000
2513.435303 6236.000000
2514.409912 6411.000000
2515.383301 7602.000000
2516.356445 6704.000000
2517.329346 6954.000000
2518.301270 6077.000000
2519.272461 6770.000000
2520.243164 6924.000000
2521.213623 7821.000000
2522.183350 8053.000000
2523.152100 6127.000000
2524.120117 6104.000000
2525.088135 7653.000000
2526.055176 6219.000000
2527.021973 5499.000000
2527.987549 7290.000000
2528.953125 7029.000000
2529.917969 7734.000000
2530.882324 6275.000000
2531.845459 6395.000000
2532.808838 5861.000000
2533.771240 5975.000000
2534.733398 6717.000000
2535.694336 6354.000000
2536.654541 6055.000000
2537.614990 6182.000000
2538.574463 6714.000000
2539.533203 6830.000000
2540.490967 6733.000000
2541.448975 6207.000000
2542.406250 6804.000000
2543.362549 6092.000000
2544.318604 7144.000000
2545.273438 6214.000000
2546.228516 7638.000000
2547.182861 6976.000000
2548.136475 6373.000000
2549.089111 7168.000000
2550.041504 6720.000000
2550.993408 6973.000000
2551.944580 6365.000000
2552.895020 7738.000000
2553.844971 7284.000000
2554.794678 7381.000000
2555.743652 6610.000000
2556.692139 6270.000000
2557.639404 7081.000000
2558.586670 6280.000000
2559.533203 6575.000000
2560.479248 6777.000000
2561.424316 7425.000000
2562.369141 6742.000000
2563.313477 7216.000000
2564.257324 6899.000000
2565.200684 6694.000000
2566.142578 6563.000000
2567.084717 6540.000000
2568.026123 6145.000000
2568.966797 7102.000000
2569.906738 7269.000000
2570.846680 5634.000000
2571.785645 6132.000000
2572.724365 7470.000000
2573.662109 7193.000000
2574.599609 5474.000000
2575.536377 6908.000000
2576.472412 6736.000000
2577.407959 7513.000000
2578.342773 6326.000000
2579.277588 5985.000000
2580.211426 7000.000000
2581.144775 7044.000000
2582.077393 5870.000000
2583.009766 6944.000000
2583.941406 5458.000000
2584.872559 6992.000000
2585.803223 7077.000000
2586.732666 6849.000000
2587.662109 7212.000000
2588.591064 6456.000000
2589.519775 7445.000000
2590.446777 7371.000000
2591.374023 5894.000000
2592.300781 6852.000000
2593.226807 6289.000000
2594.152588 5619.000000
2595.077148 7603.000000
2596.001465 7644.000000
2596.925293 5345.000000
2597.848633 7278.000000
2598.770996 6259.000000
2599.693115 6850.000000
2600.614746 8236.000000
2601.535645 6402.000000
2602.455811 5756.000000
2603.375732 6319.000000
2604.295166 6369.000000
2605.214355 6389.000000
2606.132568 5840.000000
2607.049561 5952.000000
2607.966797 7278.000000
2608.883789 5918.000000
2609.799805 7550.000000
2610.714600 6637.000000
2611.629883 6581.000000
2612.544434 6500.000000
2613.458008 6481.000000
2614.371582 6104.000000
2615.283936 7643.000000
2616.196289 7011.000000
2617.107666 6752.000000
2618.018799 5727.000000
2618.929199 7156.000000
2619.839355 6634.000000
2620.748779 6170.000000
2621.657715 6576.000000
2622.565674 6199.000000
2623.473877 6841.000000
2624.381104 6665.000000
2625.287842 7064.000000
2626.193848 6001.000000
2627.099609 6503.000000
2628.004639 6462.000000
2628.909424 7814.000000
2629.813477 6420.000000
2630.716553 6443.000000
2631.619629 6411.000000
2632.521729 5645.000000
2633.423828 6669.000000
2634.325684 6957.000000
2635.225830 6670.000000
2636.126221 6435.000000
2637.025879 6418.000000
2637.925293 5954.000000
2638.823242 6851.000000
2639.721680 6769.000000
2640.619629 6382.000000
2641.516846 6148.000000
2642.412842 6164.000000
2643.308838 6851.000000
2644.204590 6075.000000
2645.099609 6464.000000
2645.994385 6641.000000
2646.887695 7093.000000
2647.781006 6271.000000
2648.674072 6747.000000
2649.566895 6405.000000
2650.458008 7438.000000
2651.349365 6466.000000
2652.240234 7570.000000
2653.130371 7246.000000
2654.020264 6590.000000
2654.908936 7232.000000
2655.797852 6636.000000
2656.686279 6608.000000
2657.573730 7381.000000
2658.460205 6480.000000
2659.347168 7125.000000
2660.233398 6812.000000
2661.119141 6828.000000
2662.003662 6499.000000
2662.888184 6357.000000
2663.772461 6179.000000
2664.656006 7028.000000
2665.539063 7809.000000
2666.421387 7299.000000
2667.303223 6171.000000
2668.184326 6619.000000
2669.065674 6057.000000
2669.945557 6583.000000
2670.825684 7355.000000
2671.705078 7219.000000
2672.584473 6334.000000
2673.463135 6090.000000
2674.340088 6426.000000
2675.217773 6771.000000
2676.094727 6379.000000
2676.970947 8097.000000
2677.846680 7148.000000
2678.721680 6224.000000
2679.596924 7779.000000
2680.471191 6927.000000
2681.344971 7334.000000
2682.218018 6948.000000
2683.090820 6196.000000
2683.963379 6118.000000
2684.835205 6898.000000
2685.706299 6500.000000
2686.577148 6845.000000
2687.447510 7112.000000
2688.317627 6684.000000
2689.186035 6281.000000
2690.055176 7368.000000
2690.923584 7046.000000
2691.791748 6625.000000
2692.659180 6980.000000
2693.525391 5866.000000
2694.392090 7184.000000
2695.257813 7409.000000
2696.123535 7155.000000
2696.987793 7880.000000
2697.852783 6581.000000
2698.716309 7261.000000
2699.580078 5831.000000
2700.442383 7382.000000
2701.305176 6721.000000
2702.166992 5871.000000
2703.028320 6863.000000
2703.889648 6730.000000
2704.749756 7412.000000
2705.609863 7302.000000
2706.469482 6563.000000
2707.328857 6835.000000
2708.186523 7184.000000
2709.044434 6856.000000
2709.902832 7268.000000
2710.760010 6754.000000
2711.616455 5955.000000
2712.472412 6817.000000
2713.328369 6188.000000
2714.183594 6892.000000
2715.038086 6076.000000
2715.892090 6759.000000
2716.746094 7354.000000
2717.599121 6296.000000
2718.452393 6624.000000
2719.303955 7728.000000
2720.156006 6782.000000
2721.007813 6268.000000
2721.858398 6485.000000
2722.708984 6408.000000
2723.559082 7080.000000
2724.408447 7073.000000
2725.257813 6925.000000
2726.105957 6635.000000
2726.953613 6584.000000
2727.801758 6993.000000
2728.648682 6839.000000
2729.496094 5623.000000
2730.342041 7454.000000
2731.187256 6908.000000
2732.032959 6418.000000
2732.877686 6950.000000
2733.722412 7382.000000
2734.565918 6821.000000
2735.409668 7705.000000
2736.252686 7005.000000
2737.095215 6053.000000
2737.936768 6264.000000
2738.778809 6806.000000
2739.619873 6914.000000
2740.460693 5759.000000
2741.301270 5911.000000
2742.140625 7809.000000
2742.979980 6801.000000
2743.819336 6904.000000
2744.657471 6746.000000
2745.495117 7799.000000
2746.332764 6318.000000
2747.169922 7130.000000
2748.006836 6212.000000
2748.843262 6044.000000
2749.678467 6662.000000
2750.513916 6296.000000
2751.348877 6321.000000
2752.183105 6269.000000
2753.017090 6937.000000
2753.850586 6792.000000
2754.684082 8004.000000
2755.516602 6803.000000
2756.348633 7306.000000
2757.180176 6838.000000
2758.011719 7089.000000
2758.842285 7249.000000
2759.673096 7251.000000
2760.502686 7228.000000
2761.332275 6689.000000
2762.161621 7247.000000
2762.990234 6782.000000
2763.818359 6763.000000
2764.645996 6828.000000
2765.473633 6663.000000
2766.300781 7827.000000
2767.127197 5805.000000
2767.953125 7518.000000
2768.778564 6912.000000
2769.603760 7814.000000
2770.428955 7107.000000
2771.252930 6715.000000
2772.076904 6508.000000
2772.900879 7673.000000
2773.723633 6625.000000
2774.546631 7019.000000
2775.368408 6870.000000
2776.190186 6897.000000
2777.011963 6510.000000
2777.832764 8019.000000
2778.652832 6471.000000
2779.473145 6976.000000
2780.292969 7319.000000
2781.112793 6444.000000
2781.930664 5938.000000
2782.749756 8011.000000
2783.567627 6461.000000
2784.385254 6786.000000
2785.202393 7148.000000
2786.019043 7269.000000
2786.835449 7230.000000
2787.651367 6306.000000
2788.467041 5960.000000
2789.281738 6393.000000
2790.096924 6999.000000
2790.911377 7184.000000
2791.725342 6553.000000
2792.539063 7448.000000
2793.351563 8746.000000
2794.164307 6983.000000
2794.976563 7420.000000
2795.788330 7227.000000
2796.599365 7361.000000
2797.411133 6569.000000
2798.221680 7163.000000
2799.032227 7097.000000
2799.841309 7410.000000
2800.651123 8191.000000
2801.460205 7830.000000
2802.269043 6651.000000
2803.077393 7171.000000
2803.884766 6192.000000
2804.692627 6478.000000
2805.499756 6940.000000
2806.306641 6982.000000
2807.112305 7171.000000
2807.918457 6669.000000
2808.723877 6457.000000
2809.529297 7313.000000
2810.333984 6185.000000
2811.137695 7630.000000
2811.941895 7467.000000
2812.745605 6322.000000
2813.549072 6103.000000
2814.351074 6291.000000
2815.153809 7273.000000
2815.955811 7843.000000
2816.757568 6185.000000
2817.558838 6567.000000
2818.359619 7287.000000
2819.159912 6491.000000
2819.960449 6782.000000
2820.760010 7999.000000
2821.559082 7186.000000
2822.358154 6470.000000
2823.156982 6939.000000
2823.955322 6373.000000
2824.752686 7011.000000
2825.550293 7384.000000
2826.347168 6656.000000
2827.144287 7359.000000
2827.940674 8066.000000
2828.736328 7026.000000
2829.531982 7377.000000
2830.327393 7548.000000
2831.122314 7435.000000
2831.916504 6661.000000
2832.710693 6853.000000
2833.504639 5591.000000
2834.298096 6877.000000
2835.090820 7183.000000
2835.883301 8163.000000
2836.675781 7647.000000
2837.468018 7455.000000
2838.259766 6399.000000
2839.050537 6739.000000
2839.841309 8850.000000
2840.632324 7391.000000
2841.422363 6210.000000
2842.211914 7723.000000
2843.001709 7139.000000
2843.790527 7316.000000
2844.579346 7859.000000
2845.368164 7716.000000
2846.156006 7451.000000
2846.943359 7191.000000
2847.730957 7509.000000
2848.518066 7314.000000
2849.304443 6629.000000
2850.090820 7466.000000
2850.876953 7238.000000
2851.662598 7523.000000
2852.447266 7168.000000
2853.232422 6902.000000
2854.017334 7417.000000
2854.801514 7120.000000
2855.585693 6926.000000
2856.368652 8317.000000
2857.151855 6796.000000
2857.934814 6726.000000
2858.717285 7749.000000
2859.499512 6217.000000
2860.281250 6670.000000
2861.062744 7476.000000
2861.844482 7509.000000
2862.625488 7634.000000
2863.405762 6591.000000
2864.185791 6685.000000
2864.965820 8241.000000
2865.745605 7439.000000
2866.524414 8061.000000
2867.303467 7643.000000
2868.082031 6802.000000
2868.860352 7015.000000
2869.638184 7278.000000
2870.415771 6867.000000
2871.193115 7467.000000
2871.970215 6925.000000
2872.746826 6482.000000
2873.522949 7501.000000
2874.299072 7106.000000
2875.074707 8319.000000
2875.850098 7163.000000
2876.625000 6617.000000
2877.399658 8002.000000
2878.174316 6657.000000
2878.948730 7827.000000
2879.722412 6723.000000
2880.495361 7222.000000
2881.269043 6701.000000
2882.041748 7654.000000
2882.814453 7902.000000
2883.586426 8251.000000
2884.358154 6232.000000
2885.130371 6814.000000
2885.901367 6893.000000
2886.671875 6084.000000
2887.442871 8235.000000
2888.213867 7385.000000
2888.984131 7953.000000
2889.753418 7663.000000
2890.522949 6965.000000
2891.292480 7263.000000
2892.061523 7378.000000
2892.830078 7899.000000
2893.598633 7642.000000
2894.366211 6962.000000
2895.134277 6563.000000
2895.901855 7412.000000
2896.669434 8311.000000
2897.435791 7381.000000
2898.203125 6492.000000
2898.969238 7303.000000
2899.735596 6984.000000
2900.500488 8290.000000
2901.265869 6982.000000
2902.031738 6461.000000
2902.796143 7766.000000
2903.560547 7677.000000
2904.325195 8448.000000
2905.088867 6624.000000
2905.853271 8462.000000
2906.616943 6640.000000
2907.379883 8354.000000
2908.142578 6512.000000
2908.905762 9144.000000
2909.668457 6964.000000
2910.429932 6852.000000
2911.191895 6852.000000
