scanname Analyse031
timestamp 2017-02-10 20:38:47
ccdbias 902.398926
ccdgain 3.473401
sigmaread 8.960639
laserwavenum -0.633737
wavenumcorrection -0.110773
scancount 1
totalexposurems 10000
singleexposurems 10000
measurementstate Unknown
scanmode Manual
snr 342.812622 9.703064 8.165537
replacelist 4
672 53809.000000 30848.000000
754 53816.000000 14621.000000
889 53818.000000 20796.000000
948 53834.000000 19428.000000
peaks 115
278.505127 0.725025 0.000000 1.327612 0.000176
288.545807 0.725387 0.000000 0.699645 0.000041
303.031799 0.728100 0.000000 0.172565 0.000023
330.094910 0.745952 0.000000 0.889788 0.000147
350.311005 0.752792 0.000000 0.610111 0.000023
360.515533 0.755976 0.000000 0.659877 0.000060
386.348938 0.756210 0.000000 1.563372 0.000326
457.019012 0.769923 0.000000 0.344138 0.000046
484.731934 0.785378 0.000000 0.889058 0.000112
534.880493 0.788710 0.000000 0.645591 0.000148
559.773621 0.828753 0.000000 1.290044 0.000229
573.185608 0.834872 0.000000 0.265060 0.000072
583.214722 0.829560 0.000000 0.651510 0.000106
660.774414 0.862589 0.000000 1.235942 0.000119
673.384644 0.860412 0.000000 1.363616 0.000267
680.314941 0.860325 0.000000 0.399071 0.000045
715.837341 0.881377 0.000000 5.661736 0.001192
724.692505 0.862926 0.000000 1.282776 0.000055
742.965759 0.887976 0.000000 1.072988 0.000118
757.208191 0.912605 0.000000 5.958385 0.000687
779.298828 0.914964 0.000000 8.460216 0.001327
825.946655 0.921595 0.000000 1.042345 0.000053
831.890930 0.913590 0.000000 0.398433 0.000163
853.373962 0.945797 0.000000 0.965481 0.000265
868.230835 0.942225 0.000000 0.643747 0.000143
937.669312 1.019975 0.000000 0.898445 0.000452
954.242859 0.997258 0.000000 3.310472 0.001028
1013.689941 1.043698 0.000000 2.118242 0.000808
1020.512695 1.045774 0.000000 1.010373 0.000156
1026.775146 1.056297 0.000000 0.623876 0.000261
1044.340576 1.053393 0.000000 4.122972 0.001360
1104.565796 1.076398 0.000000 2.226871 0.000622
1117.798706 1.116180 0.000000 2.220906 0.000647
1134.656250 1.093829 0.000000 2.042464 0.000897
1150.332886 1.077086 0.000000 2.374841 0.000981
1174.622559 1.110002 0.000000 1.474849 0.000501
1187.490112 1.116086 0.000000 0.893694 0.000074
1212.277100 1.195979 0.000000 0.950595 0.000279
1222.534058 1.205251 0.000000 1.572089 0.000587
1232.253052 1.186238 0.000000 1.098495 0.000313
1260.127197 1.225706 0.000000 3.157781 0.001476
1281.463745 1.169030 0.000000 0.305356 0.000453
1312.723999 1.234033 0.000000 1.805101 0.000709
1330.525024 1.296452 0.000000 2.719819 0.001479
1348.020874 1.307743 0.000000 0.807691 0.000747
1390.043213 1.290513 0.000000 0.719143 0.000294
1415.602295 1.368676 0.000000 1.849563 0.000858
1434.256836 1.429828 0.000000 1.498128 0.000782
1446.908813 1.423333 0.000000 1.361924 0.000511
1460.114502 1.424947 0.000000 2.450460 0.001658
1489.949219 1.501498 0.000000 4.271064 0.002666
1517.188477 1.445259 0.000000 0.306309 0.000168
1533.191284 1.537756 0.000000 0.838155 0.001006
1547.705078 1.561399 0.000000 0.554808 0.000347
1558.329224 1.588218 0.000000 1.606328 0.000998
1563.843872 1.580154 0.000000 0.859058 0.000174
1578.202148 1.579547 0.000000 1.620583 0.001526
1598.388672 1.570363 0.000000 0.295664 0.000281
1617.323608 1.621934 0.000000 12.241170 0.008080
1635.554810 1.641001 0.000000 5.159897 0.001433
1670.165283 1.767127 0.000000 1.533687 0.001767
1688.081055 1.798847 0.000000 0.862420 0.000567
1699.237915 1.814416 0.000000 1.197761 0.001619
1711.761841 1.789872 0.000000 0.998820 0.000940
1762.454956 1.858640 0.000000 0.931232 0.000659
1778.996582 1.995136 0.000000 5.636556 0.005675
1796.412842 2.000515 0.000000 0.859876 0.000693
1809.926025 2.013301 0.000000 1.726071 0.001640
1856.688232 2.079411 0.000000 2.070542 0.002010
1873.193237 2.164366 0.000000 1.226142 0.000992
1890.360474 2.230919 0.000000 1.586436 0.002770
1902.140381 2.237991 0.000000 1.591581 0.001869
1913.135742 2.216472 0.000000 0.668875 0.000742
1943.777100 2.268795 0.000000 0.972894 0.000677
1979.077759 2.402448 0.000000 0.658160 0.000425
1992.724854 2.512856 0.000000 1.253349 0.002945
2014.901489 2.594604 0.000000 1.074305 0.001851
2025.154541 2.602644 0.000000 1.535568 0.002359
2047.049072 2.592067 0.000000 0.608161 0.002298
2063.949951 2.656892 0.000000 0.226372 0.001836
2100.317139 2.787137 0.000000 0.410767 0.000245
2109.371338 2.893859 0.000000 1.301436 0.003925
2132.356445 2.901660 0.000000 2.516618 0.006145
2143.587891 2.908077 0.000000 0.503473 0.001042
2161.381348 3.039301 0.000000 1.787607 0.005172
2175.849854 3.210007 0.000000 2.361230 0.004620
2185.476074 3.216936 0.000000 1.419385 0.004991
2193.782715 3.209873 0.000000 0.998320 0.004158
2205.214111 3.166800 0.000000 1.209225 0.004619
2253.400635 3.572804 0.000000 1.316039 0.005674
2270.624512 3.696418 0.000000 3.023695 0.007206
2286.746338 3.722726 0.000000 3.381124 0.011795
2294.009521 3.664285 0.000000 1.247299 0.003903
2307.007813 3.650435 0.000000 0.843007 0.003120
2313.330811 3.661106 0.000000 0.617263 0.000515
2325.772217 3.791914 0.000000 0.708390 0.004913
2356.580078 4.062074 0.000000 0.640404 0.001493
2373.763428 4.236711 0.000000 1.622465 0.005981
2388.412354 4.235767 0.000000 1.279495 0.005216
2439.289063 4.361009 0.000000 1.045566 0.003524
2449.485596 4.426079 0.000000 1.924882 0.004051
2466.461182 4.440131 0.000000 3.549747 0.019790
2475.956787 4.415578 0.000000 0.907124 0.005305
2488.981934 4.350839 0.000000 0.968393 0.003787
2504.646973 4.294589 0.000000 1.403384 0.011027
2525.278076 4.270547 0.000000 1.044319 0.004314
2534.971924 4.321898 0.000000 0.636095 0.004986
2550.795166 4.270934 0.000000 0.670519 0.003623
2558.180908 4.259256 0.000000 0.511547 0.003220
2569.867676 4.264977 0.000000 0.428014 0.001512
2581.940430 4.233146 0.000000 0.448593 0.002190
2592.968262 4.213149 0.000000 1.096530 0.002740
2608.559326 4.164136 0.000000 0.705323 0.001232
2635.487793 4.126146 0.000000 0.351845 0.001621
2645.302246 4.119565 0.000000 0.235742 0.001450
finalresult GLS_NoMatch 0
spectrum 2048
-96.967720 47548.000000
-94.340851 47548.000000
-91.715858 47746.000000
-89.092758 47362.000000
-86.471527 47937.000000
-83.852196 47487.000000
-81.234726 47673.000000
-78.619133 47379.000000
-76.005417 47500.000000
-73.393578 47957.000000
-70.783600 47718.000000
-68.175507 47789.000000
-65.569260 47814.000000
-62.964886 47796.000000
-60.362377 47625.000000
-57.761723 48127.000000
-55.162930 47571.000000
-52.565994 46893.000000
-49.970913 47415.000000
-47.377686 47421.000000
-44.786308 47531.000000
-42.196777 47041.000000
-39.609089 47822.000000
-37.023251 47718.000000
-34.439255 47281.000000
-31.857098 48066.000000
-29.276785 47358.000000
-26.698299 47979.000000
-24.121656 47620.000000
-21.546839 47525.000000
-18.973862 47284.000000
-16.402704 47291.000000
-13.833381 47010.000000
-11.265882 46080.000000
-8.700203 47462.000000
-6.136349 47324.000000
-3.574308 47725.000000
-1.014092 47880.000000
1.544316 47472.000000
4.100903 46904.000000
6.655684 47137.000000
9.208650 47769.000000
11.759814 47025.000000
14.309166 47220.000000
16.856722 47052.000000
19.402466 47718.000000
21.946417 48019.000000
24.488564 47122.000000
27.028913 46932.000000
29.567478 46936.000000
32.104248 47528.000000
34.639214 48030.000000
37.172401 46489.000000
39.703808 47504.000000
42.233421 46723.000000
44.761238 47317.000000
47.287296 45949.000000
49.811565 48097.000000
52.334064 47533.000000
54.854767 47047.000000
57.373714 47469.000000
59.890888 47310.000000
62.406284 47117.000000
64.919899 48155.000000
67.431763 48014.000000
69.941879 47214.000000
72.450203 47240.000000
74.956772 47805.000000
77.461594 47362.000000
79.964661 47416.000000
82.465950 47511.000000
84.965500 47605.000000
87.463295 47354.000000
89.959358 48061.000000
92.453644 46583.000000
94.946190 48050.000000
97.437019 46847.000000
99.926079 46668.000000
102.413391 47386.000000
104.898979 47542.000000
107.382828 47483.000000
109.864929 48027.000000
112.345306 47073.000000
114.823959 47668.000000
117.300888 47284.000000
119.776062 46634.000000
122.249527 46966.000000
124.721260 47909.000000
127.191284 47019.000000
129.659561 47556.000000
132.126160 47521.000000
134.591003 48069.000000
137.054153 47563.000000
139.515564 46491.000000
141.975281 46863.000000
144.433273 47418.000000
146.889572 47822.000000
149.344162 47971.000000
151.797028 46957.000000
154.248215 47349.000000
156.697708 47211.000000
159.145477 47660.000000
161.591537 47095.000000
164.035919 45057.000000
166.478622 47310.000000
168.919632 46998.000000
171.358932 47552.000000
173.796524 46531.000000
176.232483 47150.000000
178.666702 46756.000000
181.099243 46551.000000
183.530136 47040.000000
185.959305 46631.000000
188.386826 47052.000000
190.812668 47540.000000
193.236832 47118.000000
195.659332 46637.000000
198.080139 46405.000000
200.499283 47317.000000
202.916763 47752.000000
205.332550 46197.000000
207.746689 46611.000000
210.159195 47369.000000
212.570023 47698.000000
214.979172 47564.000000
217.386688 46422.000000
219.792496 47590.000000
222.196716 47145.000000
224.599228 47075.000000
227.000122 46764.000000
229.399368 47325.000000
231.796951 46965.000000
234.192871 46583.000000
236.587173 47239.000000
238.979813 47711.000000
241.370834 46906.000000
243.760193 47119.000000
246.147934 47494.000000
248.534027 46882.000000
250.918488 47697.000000
253.301300 45860.000000
255.682541 47181.000000
258.062073 47140.000000
260.440033 47307.000000
262.816315 46227.000000
265.191040 46189.000000
267.564117 45934.000000
269.935547 47644.000000
272.305328 47321.000000
274.673553 47922.000000
277.040131 47414.000000
279.405121 47007.000000
281.768494 47735.000000
284.130219 47535.000000
286.490356 46695.000000
288.848877 47700.000000
291.205811 47214.000000
293.561127 47314.000000
295.914856 47849.000000
298.266937 47765.000000
300.617462 47456.000000
302.966400 47412.000000
305.313690 46945.000000
307.659454 47422.000000
310.003540 47155.000000
312.346100 46431.000000
314.687042 46157.000000
317.026367 46555.000000
319.364136 46860.000000
321.700348 45750.000000
324.034912 47482.000000
326.367920 47242.000000
328.699371 47754.000000
331.029236 47187.000000
333.357513 47428.000000
335.684174 46472.000000
338.009338 47444.000000
340.332886 47545.000000
342.654877 47807.000000
344.975311 46295.000000
347.294128 46095.000000
349.611389 47821.000000
351.927124 47927.000000
354.241272 46794.000000
356.553833 47450.000000
358.864838 47339.000000
361.174316 46822.000000
363.482269 47365.000000
365.788605 48123.000000
368.093353 47311.000000
370.396637 47274.000000
372.698303 47504.000000
374.998474 47430.000000
377.297089 47542.000000
379.594147 48086.000000
381.889648 47648.000000
384.183624 47884.000000
386.476013 48556.000000
388.766907 48185.000000
391.056274 47592.000000
393.344055 47472.000000
395.630310 47197.000000
397.915070 46825.000000
400.198212 47771.000000
402.479919 47372.000000
404.760101 47636.000000
407.038696 46586.000000
409.315765 47365.000000
411.591309 47074.000000
413.865326 47368.000000
416.137909 47464.000000
418.408875 47528.000000
420.678345 47407.000000
422.946320 46741.000000
425.212738 46571.000000
427.477661 47529.000000
429.741119 47455.000000
432.002991 47307.000000
434.263397 47751.000000
436.522247 47187.000000
438.779633 47657.000000
441.035522 48101.000000
443.289917 48091.000000
445.542786 48370.000000
447.794098 46881.000000
450.044006 47687.000000
452.292328 47505.000000
454.539215 48122.000000
456.784637 47248.000000
459.028503 47247.000000
461.270874 46898.000000
463.511749 48062.000000
465.751221 47024.000000
467.989105 48252.000000
470.225555 47878.000000
472.460480 47620.000000
474.693939 46404.000000
476.925964 47091.000000
479.156464 48097.000000
481.385468 47377.000000
483.613007 47516.000000
485.839050 47796.000000
488.063660 47222.000000
490.286804 47933.000000
492.508484 47309.000000
494.728607 47051.000000
496.947327 48144.000000
499.164551 47496.000000
501.380402 48215.000000
503.594635 47593.000000
505.807556 47393.000000
508.018890 47264.000000
510.228790 46813.000000
512.437256 47225.000000
514.644348 47129.000000
516.849854 47267.000000
519.053955 47295.000000
521.256531 47599.000000
523.457703 47237.000000
525.657532 47083.000000
527.855835 46863.000000
530.052612 48491.000000
532.248047 47942.000000
534.441956 48210.000000
536.634521 46242.000000
538.825562 47042.000000
541.015198 47738.000000
543.203430 46844.000000
545.390137 46631.000000
547.575378 46969.000000
549.759338 47483.000000
551.941711 47343.000000
554.122742 47571.000000
556.302246 47790.000000
558.480469 47814.000000
560.657166 47754.000000
562.832458 47378.000000
565.006348 47351.000000
567.178772 47887.000000
569.349792 47679.000000
571.519348 47440.000000
573.687622 48528.000000
575.854370 47346.000000
578.019653 47429.000000
580.183533 47611.000000
582.346130 48063.000000
584.507202 47732.000000
586.666870 48211.000000
588.825195 48025.000000
590.981995 47578.000000
593.137451 47245.000000
595.291504 48025.000000
597.444214 47694.000000
599.595398 46570.000000
601.745239 47024.000000
603.893738 47155.000000
606.040649 47829.000000
608.186340 47235.000000
610.330627 47367.000000
612.473450 46747.000000
614.614807 47637.000000
616.754944 47329.000000
618.893555 46066.000000
621.030884 48050.000000
623.166748 47190.000000
625.301208 46930.000000
627.434204 46514.000000
629.566040 47124.000000
631.696411 47177.000000
633.825378 47057.000000
635.952881 47281.000000
638.079102 47579.000000
640.203796 46448.000000
642.327271 47374.000000
644.449402 46995.000000
646.570068 46947.000000
648.689392 47237.000000
650.807312 48127.000000
652.923889 48033.000000
655.039063 47381.000000
657.152893 47306.000000
659.265259 47950.000000
661.376404 47666.000000
663.486145 48395.000000
665.594421 47743.000000
667.701538 47503.000000
669.807190 46992.000000
671.911377 47979.000000
674.014343 48005.000000
676.115906 46834.000000
678.216125 48467.000000
680.314941 47083.000000
682.412415 47598.000000
684.508606 46798.000000
686.603333 47532.000000
688.696838 46795.000000
690.789001 47145.000000
692.879639 45848.000000
694.969055 47131.000000
697.057190 47312.000000
699.143860 47759.000000
701.229309 47026.000000
703.313232 48617.000000
705.395935 47842.000000
707.477356 47903.000000
709.557312 46145.000000
711.636047 47568.000000
713.713318 48265.000000
715.789307 47228.000000
717.864014 47697.000000
719.937439 46710.000000
722.009338 47536.000000
724.080078 46386.000000
726.149475 47975.000000
728.217468 47310.000000
730.284119 47373.000000
732.349548 46684.000000
734.413635 48060.000000
736.476379 47643.000000
738.537781 47284.000000
740.597900 47149.000000
742.656616 47752.000000
744.714111 47120.000000
746.770325 47330.000000
748.825134 47084.000000
750.878662 47433.000000
752.930786 46292.000000
754.981689 48005.000000
757.031372 47059.000000
759.079590 47359.000000
761.126587 47622.000000
763.172302 46781.000000
765.216614 48430.000000
767.259644 47990.000000
769.301453 38770.000000
771.341919 46572.000000
773.380981 47446.000000
775.418884 47700.000000
777.455444 47815.000000
779.490784 48340.000000
781.524780 48031.000000
783.557373 46915.000000
785.588806 48260.000000
787.618835 42154.000000
789.647583 47745.000000
791.675171 47465.000000
793.701416 47474.000000
795.726257 47975.000000
797.750000 48279.000000
799.772339 47442.000000
801.793457 47922.000000
803.813232 47075.000000
805.831726 48847.000000
807.848999 47197.000000
809.864868 47096.000000
811.879578 48071.000000
813.892944 47430.000000
815.905090 47502.000000
817.916016 47781.000000
819.925598 47240.000000
821.933960 48510.000000
823.940918 48115.000000
825.946655 47732.000000
827.951172 48081.000000
829.954407 48125.000000
831.956360 47301.000000
833.957031 47670.000000
835.956482 47797.000000
837.954590 47437.000000
839.951599 46819.000000
841.947205 47586.000000
843.941650 47819.000000
845.934753 47634.000000
847.926636 47007.000000
849.917175 48121.000000
851.906433 46936.000000
853.894653 47730.000000
855.881470 48020.000000
857.867065 47311.000000
859.851379 46558.000000
861.834595 47493.000000
863.816406 47387.000000
865.796997 47972.000000
867.776306 46038.000000
869.754456 46703.000000
871.731262 47622.000000
873.706787 47811.000000
875.681274 47569.000000
877.654297 47645.000000
879.626282 48334.000000
881.596924 47392.000000
883.566406 47711.000000
885.534546 48183.000000
887.501526 48545.000000
889.467163 47712.000000
891.431641 47963.000000
893.394897 47806.000000
895.356934 47206.000000
897.317688 47946.000000
899.277222 47351.000000
901.235474 47046.000000
903.192627 47456.000000
905.148621 47757.000000
907.103210 46909.000000
909.056580 47310.000000
911.008789 47360.000000
912.959778 47352.000000
914.909485 46626.000000
916.858032 47426.000000
918.805359 47661.000000
920.751404 47704.000000
922.696167 47703.000000
924.639893 47464.000000
926.582458 47747.000000
928.523743 48081.000000
930.463684 47244.000000
932.402527 47998.000000
934.340088 48228.000000
936.276428 47825.000000
938.211609 47990.000000
940.145508 47685.000000
942.078308 47851.000000
944.009888 46948.000000
945.940308 48521.000000
947.869507 47288.000000
949.797363 46814.000000
951.724182 47081.000000
953.649719 47729.000000
955.573975 48407.000000
957.497131 47721.000000
959.419128 47001.000000
961.339844 46465.000000
963.259399 47287.000000
965.177795 48433.000000
967.095154 47326.000000
969.011047 47385.000000
970.925842 47658.000000
972.839417 47842.000000
974.751831 47382.000000
976.663025 47303.000000
978.573059 48262.000000
980.481812 47528.000000
982.389526 47713.000000
984.296021 47397.000000
986.201294 48046.000000
988.105469 46972.000000
990.008423 47632.000000
991.910156 46954.000000
993.810730 47205.000000
995.710144 47156.000000
997.608337 48468.000000
999.505371 47232.000000
1001.401184 47239.000000
1003.295837 46087.000000
1005.189392 48129.000000
1007.081665 46564.000000
1008.973022 47692.000000
1010.863037 48474.000000
1012.751831 47143.000000
1014.639465 47362.000000
1016.525940 46907.000000
1018.411255 46997.000000
1020.295410 47824.000000
1022.178345 47929.000000
1024.060181 47544.000000
1025.940796 48542.000000
1027.820313 47931.000000
1029.698853 47607.000000
1031.576050 48331.000000
1033.451904 47537.000000
1035.326782 47875.000000
1037.200684 47121.000000
1039.073120 46739.000000
1040.944580 47006.000000
1042.814697 48239.000000
1044.683838 48271.000000
1046.551758 47974.000000
1048.418579 46814.000000
1050.284302 47072.000000
1052.148804 47379.000000
1054.012207 47270.000000
1055.874268 47296.000000
1057.735352 47873.000000
1059.595337 47337.000000
1061.453979 47126.000000
1063.311523 47976.000000
1065.167969 47080.000000
1067.023315 47854.000000
1068.877441 47971.000000
1070.730713 47512.000000
1072.582520 47416.000000
1074.433350 47636.000000
1076.282959 47689.000000
1078.131348 47995.000000
1079.978882 45729.000000
1081.825073 48144.000000
1083.670044 47600.000000
1085.514160 48326.000000
1087.356934 48346.000000
1089.198486 47225.000000
1091.039307 48257.000000
1092.878540 47984.000000
1094.717041 47793.000000
1096.554199 47745.000000
1098.390137 46949.000000
1100.225098 47215.000000
1102.058838 48367.000000
1103.891602 48146.000000
1105.723022 47598.000000
1107.553589 46543.000000
1109.382813 47258.000000
1111.211060 47354.000000
1113.038086 46657.000000
1114.864136 48341.000000
1116.688965 47374.000000
1118.512695 46601.000000
1120.335205 47653.000000
1122.156616 47901.000000
1123.977173 47826.000000
1125.796265 47220.000000
1127.614502 46679.000000
1129.431396 46902.000000
1131.247437 47066.000000
1133.062256 47315.000000
1134.875977 48125.000000
1136.688599 48003.000000
1138.500000 48037.000000
1140.310425 47652.000000
1142.119751 47022.000000
1143.927734 46858.000000
1145.734985 47835.000000
1147.540771 47837.000000
1149.345703 48392.000000
1151.149536 48377.000000
1152.952148 47672.000000
1154.753906 47662.000000
1156.554199 47675.000000
1158.353516 47715.000000
1160.151855 47887.000000
1161.948853 48299.000000
1163.745117 47884.000000
1165.540039 47718.000000
1167.333862 47390.000000
1169.126831 46022.000000
1170.918457 48026.000000
1172.709106 47313.000000
1174.498779 47748.000000
1176.286987 47896.000000
1178.074341 46324.000000
1179.860596 46897.000000
1181.645752 48067.000000
1183.429810 47843.000000
1185.212769 46037.000000
1186.994751 47925.000000
1188.775513 47811.000000
1190.555298 47454.000000
1192.333984 46854.000000
1194.111694 47131.000000
1195.888184 46559.000000
1197.663574 47170.000000
1199.437866 47153.000000
1201.211060 47060.000000
1202.983398 47313.000000
1204.754395 47118.000000
1206.524536 48079.000000
1208.293457 47559.000000
1210.061279 47404.000000
1211.828247 47929.000000
1213.593872 47759.000000
1215.358521 46826.000000
1217.122070 47302.000000
1218.884521 47747.000000
1220.646118 47110.000000
1222.406494 47842.000000
1224.165771 47480.000000
1225.924194 47741.000000
1227.681396 46677.000000
1229.437500 47267.000000
1231.192505 48268.000000
1232.946655 47784.000000
1234.699463 47933.000000
1236.451294 47734.000000
1238.202271 47789.000000
1239.951904 48816.000000
1241.700684 46768.000000
1243.448120 47390.000000
1245.194824 47220.000000
1246.940308 47295.000000
1248.684937 47404.000000
1250.428223 47001.000000
1252.170532 47080.000000
1253.911743 48388.000000
1255.652100 48638.000000
1257.391357 47983.000000
1259.129395 47154.000000
1260.866577 46680.000000
1262.602539 47636.000000
1264.337524 47292.000000
1266.071533 46466.000000
1267.804565 47812.000000
1269.536377 47607.000000
1271.267212 47271.000000
1272.996826 46529.000000
1274.725586 47843.000000
1276.453247 48085.000000
1278.179810 48274.000000
1279.905518 48267.000000
1281.629883 47266.000000
1283.353394 48586.000000
1285.075928 46829.000000
1286.797485 47136.000000
1288.517822 47414.000000
1290.237183 47180.000000
1291.955444 46536.000000
1293.672729 47353.000000
1295.389038 48048.000000
1297.104126 47412.000000
1298.818237 47597.000000
1300.531372 48017.000000
1302.243652 47286.000000
1303.954712 45489.000000
1305.664795 48453.000000
1307.373779 47462.000000
1309.081543 47055.000000
1310.788696 46743.000000
1312.494385 48045.000000
1314.199341 46878.000000
1315.903320 47596.000000
1317.606079 47738.000000
1319.307861 47205.000000
1321.008789 47710.000000
1322.708374 44681.000000
1324.407104 46436.500000
1326.105103 48192.000000
1327.801758 47286.000000
1329.497314 46549.000000
1331.192017 46866.000000
1332.885498 47970.000000
1334.578125 48411.000000
1336.269897 46505.000000
1337.960327 47550.000000
1339.650024 47171.000000
1341.338623 47668.000000
1343.026123 46129.000000
1344.712646 48111.000000
1346.398071 47021.000000
1348.082520 47790.000000
1349.766113 46517.000000
1351.448486 47450.000000
1353.129883 47815.000000
1354.810425 47222.000000
1356.489746 46996.000000
1358.168457 47801.000000
1359.845825 47208.000000
1361.522095 47991.000000
1363.197388 48199.000000
1364.871948 47207.000000
1366.545288 47234.000000
1368.217651 47039.000000
1369.889038 48571.000000
1371.559448 46967.000000
1373.228760 47515.000000
1374.897095 48089.000000
1376.564575 47770.000000
1378.230957 47254.000000
1379.896362 47601.000000
1381.560791 47827.000000
1383.223999 47810.000000
1384.886597 48036.000000
1386.547852 47364.000000
1388.208252 47215.000000
1389.867554 47334.000000
1391.525879 47281.000000
1393.183472 46861.000000
1394.839844 47303.000000
1396.495361 46785.000000
1398.149658 47443.000000
1399.803101 47902.000000
1401.455444 47667.000000
1403.107056 47318.000000
1404.757446 46617.000000
1406.406738 47450.000000
1408.055298 46212.000000
1409.702759 45878.000000
1411.349243 47547.000000
1412.994873 47505.000000
1414.639526 47833.000000
1416.282959 46820.000000
1417.925537 46573.000000
1419.567017 46875.000000
1421.207642 47279.000000
1422.847290 47314.000000
1424.485840 47673.000000
1426.123535 47171.000000
1427.760132 47438.000000
1429.395752 47750.000000
1431.030640 47335.000000
1432.664429 47895.000000
1434.297119 47587.000000
1435.928833 48068.000000
1437.559692 47576.000000
1439.189453 47706.000000
1440.818115 45974.000000
1442.446167 47729.000000
1444.073120 47572.000000
1445.698853 47571.000000
1447.323975 47601.000000
1448.947998 47208.000000
1450.571045 47673.000000
1452.193115 47676.000000
1453.814087 46331.000000
1455.434082 47454.000000
1457.053345 46888.000000
1458.671265 48166.000000
1460.288574 48222.500000
1461.904907 48279.000000
1463.520020 46568.000000
1465.134277 47444.000000
1466.747681 48608.000000
1468.359985 48178.000000
1469.971436 47598.000000
1471.582031 47427.000000
1473.191406 47741.000000
1474.799805 47695.000000
1476.407349 47483.000000
1478.013916 47155.000000
1479.619751 48443.000000
1481.224365 47433.000000
1482.828125 48266.000000
1484.430664 46979.000000
1486.032593 48182.000000
1487.633301 48315.000000
1489.233276 48161.000000
1490.832153 47499.000000
1492.430176 47165.000000
1494.027100 47108.000000
1495.623169 47463.000000
1497.218262 47773.000000
1498.812378 48310.000000
1500.405762 47214.000000
1501.998047 48240.000000
1503.589111 47582.000000
1505.179688 47010.000000
1506.768921 47228.000000
1508.357544 47668.000000
1509.945068 47264.000000
1511.531494 46929.000000
1513.117188 47675.000000
1514.701782 47141.000000
1516.285522 47372.000000
1517.868164 47472.000000
1519.450073 47174.000000
1521.030884 47059.000000
1522.610962 47742.000000
1524.189819 47581.000000
1525.767822 47449.000000
1527.345093 47481.000000
1528.921143 48046.000000
1530.496460 47884.000000
1532.070679 47482.000000
1533.644165 48326.000000
1535.216431 47793.000000
1536.787964 47441.000000
1538.358521 47364.000000
1539.928223 47409.000000
1541.496704 48387.000000
1543.064453 47242.000000
1544.631348 48179.000000
1546.197021 46909.000000
1547.761963 47834.000000
1549.325806 48737.000000
1550.889038 46280.000000
1552.450928 47415.000000
1554.012207 47790.000000
1555.572388 48076.000000
1557.131836 48063.000000
1558.690186 47916.000000
1560.247803 47489.000000
1561.804321 46761.000000
1563.359619 47887.000000
1564.914307 47390.000000
1566.468262 48128.000000
1568.021240 47451.000000
1569.572876 48102.000000
1571.123779 47846.000000
1572.673950 47541.000000
1574.223145 47399.000000
1575.770996 47961.000000
1577.318359 48275.000000
1578.864746 48024.000000
1580.410278 48694.000000
1581.954834 47133.000000
1583.498169 47385.000000
1585.040894 47131.000000
1586.582764 47305.000000
1588.123535 47064.000000
1589.663330 47967.000000
1591.202393 47118.000000
1592.740356 47862.000000
1594.277832 47637.000000
1595.813965 47893.000000
1597.348999 47130.000000
1598.883545 47520.000000
1600.417114 47768.000000
1601.949829 47613.000000
1603.480957 47486.000000
1605.011841 47456.000000
1606.541870 47936.000000
1608.070679 47636.000000
1609.598389 47554.000000
1611.125488 47787.000000
1612.651855 47937.000000
1614.177246 47493.000000
1615.701782 47944.000000
1617.224976 47983.000000
1618.747437 48115.000000
1620.269165 47225.000000
1621.790039 46854.000000
1623.309448 38616.000000
1624.828369 47526.000000
1626.346558 47734.000000
1627.863892 47835.000000
1629.380127 47416.000000
1630.895020 46756.000000
1632.409424 47016.000000
1633.923096 47975.000000
1635.435669 46914.000000
1636.947021 47836.000000
1638.458008 47379.000000
1639.967896 47513.000000
1641.476929 47562.000000
1642.984619 48131.000000
1644.491943 47631.000000
1645.998413 46722.000000
1647.503906 47583.000000
1649.008545 46884.000000
1650.511719 47605.000000
1652.014282 47210.000000
1653.516479 47384.000000
1655.017334 47098.000000
1656.517090 46269.000000
1658.015991 47733.000000
1659.514526 47296.000000
1661.011841 47501.000000
1662.508423 47873.000000
1664.003418 47350.000000
1665.498169 47410.000000
1666.992065 48563.000000
1668.484985 48210.000000
1669.976563 47757.000000
1671.467651 47304.000000
1672.958130 47712.000000
1674.447510 47818.000000
1675.935425 46823.000000
1677.423096 46941.000000
1678.909790 47804.000000
1680.395630 48304.000000
1681.880615 47708.000000
1683.364136 47550.000000
1684.847412 47647.000000
1686.329834 47968.000000
1687.811157 47565.000000
1689.291016 47581.000000
1690.770630 48296.000000
1692.249512 47271.000000
1693.727417 47844.000000
1695.204346 47647.000000
1696.680054 48099.000000
1698.155396 47725.000000
1699.629517 47466.000000
1701.103027 48325.000000
1702.575073 48179.000000
1704.046875 46845.000000
1705.517700 47505.000000
1706.987671 46723.000000
1708.456299 48657.000000
1709.924438 47961.000000
1711.391846 47469.000000
1712.858154 48302.000000
1714.323853 47946.000000
1715.787842 47609.000000
1717.251709 47758.000000
1718.714722 46794.000000
1720.176758 47373.000000
1721.637573 47197.000000
1723.097778 48282.000000
1724.557251 47412.000000
1726.015869 47688.000000
1727.473511 47834.000000
1728.929810 47515.000000
1730.385864 47736.000000
1731.840942 47325.000000
1733.295044 47784.000000
1734.747925 46965.000000
1736.200562 47835.000000
1737.652100 46961.000000
1739.102905 47778.000000
1740.552734 47244.000000
1742.001221 47846.000000
1743.449341 46197.000000
1744.896606 47191.000000
1746.343140 47093.000000
1747.788086 47072.000000
1749.232788 47629.000000
1750.676636 47965.000000
1752.119629 48285.000000
1753.561157 47283.000000
1755.002441 47475.000000
1756.442871 47506.500000
1757.882324 47538.000000
1759.320801 48587.000000
1760.758301 47730.000000
1762.195313 46274.000000
1763.631348 48009.000000
1765.066528 46619.000000
1766.500244 47646.000000
1767.933838 47304.000000
1769.366455 47215.000000
1770.798218 48043.000000
1772.229126 47915.000000
1773.658813 47392.000000
1775.087769 47657.000000
1776.516235 47485.000000
1777.943726 47074.000000
1779.369873 47614.000000
1780.795776 48224.000000
1782.220581 46895.000000
1783.644775 48226.000000
1785.067505 47127.000000
1786.489746 47192.000000
1787.911255 46853.000000
1789.332031 47766.000000
1790.751831 47845.000000
1792.170288 47661.000000
1793.588257 46836.000000
1795.005615 48238.000000
1796.422119 47773.000000
1797.837158 47258.000000
1799.251831 47911.000000
1800.665894 47196.000000
1802.078735 47844.000000
1803.490967 46775.000000
1804.901855 46665.000000
1806.312256 45997.000000
1807.721924 47332.000000
1809.130615 47835.000000
1810.538208 48398.000000
1811.945313 47365.000000
1813.351563 47465.000000
1814.756836 47072.000000
1816.161011 47851.000000
1817.564819 47852.000000
1818.967651 47622.000000
1820.369629 47694.000000
1821.770996 47940.000000
1823.170898 47397.000000
1824.570190 47300.000000
1825.968994 47205.000000
1827.366943 46316.000000
1828.763550 47960.000000
1830.159546 47043.000000
1831.554810 47905.000000
1832.949463 45714.000000
1834.343140 47780.000000
1835.735474 46895.000000
1837.127319 47442.000000
1838.518555 47911.000000
1839.908813 46720.000000
1841.297852 47781.000000
1842.686523 47647.000000
1844.074219 47773.000000
1845.461182 48013.000000
1846.846802 46928.000000
1848.232178 47986.000000
1849.616699 47421.000000
1851.000488 47477.000000
1852.383179 47422.000000
1853.764648 48361.000000
1855.145630 47221.000000
1856.526123 47422.000000
1857.905640 48078.000000
1859.283691 47785.000000
1860.661621 47511.000000
1862.038574 45994.000000
1863.414795 47723.000000
1864.790161 47716.000000
1866.164063 48165.000000
1867.537842 48105.000000
1868.910767 47600.000000
1870.282593 47866.000000
1871.653442 46973.000000
1873.023926 48399.000000
1874.393311 47806.000000
1875.762207 47748.000000
1877.129517 46648.000000
1878.496704 47785.000000
1879.862915 47809.000000
1881.228394 47032.000000
1882.593140 46277.000000
1883.956299 47032.000000
1885.319336 46911.000000
1886.681519 47459.000000
1888.042847 47341.000000
1889.402832 48174.000000
1890.762451 47989.000000
1892.121460 47649.000000
1893.479492 47131.000000
1894.836670 46482.000000
1896.192627 47893.000000
1897.548340 46226.000000
1898.903076 47994.000000
1900.256958 48282.000000
1901.609741 47909.000000
1902.962036 47914.000000
1904.313599 47888.000000
1905.664307 46884.000000
1907.013794 47241.000000
1908.362793 47178.000000
1909.710938 48000.000000
1911.058472 47593.000000
1912.405273 47531.000000
1913.750488 46989.000000
1915.095459 47783.000000
1916.439697 48308.000000
1917.783081 47337.000000
1919.125122 47814.000000
1920.466919 47069.000000
1921.807861 46786.000000
1923.148071 47660.000000
1924.487305 47450.000000
1925.825562 47413.000000
1927.163208 47345.000000
1928.500122 46760.000000
1929.836182 47012.000000
1931.171021 48221.000000
1932.505493 47058.000000
1933.839233 46450.000000
1935.172119 47596.000000
1936.503540 48020.000000
1937.835083 47426.000000
1939.165283 47108.000000
1940.494995 47987.000000
1941.823853 47756.000000
1943.151489 47932.000000
1944.478638 48764.000000
1945.805054 47931.000000
1947.130737 47293.000000
1948.455078 48013.000000
1949.779175 47153.000000
1951.102417 47436.000000
1952.424927 47369.000000
1953.746338 48058.000000
1955.066772 46326.000000
1956.386597 47795.000000
1957.706055 48180.000000
1959.024536 46953.000000
1960.341675 47912.000000
1961.658447 47936.000000
1962.974487 47145.000000
1964.289795 47203.000000
1965.603638 47538.000000
1966.917236 48157.000000
1968.230103 47611.000000
1969.542114 47754.000000
1970.853516 47747.000000
1972.163574 47487.000000
1973.473145 47971.000000
1974.781982 47675.000000
1976.090210 47195.000000
1977.397095 47669.000000
1978.703369 46514.000000
1980.009277 48266.000000
1981.313965 47394.000000
1982.618164 47921.000000
1983.921143 47986.000000
1985.223755 46265.000000
1986.525391 47721.000000
1987.826416 47008.000000
1989.125854 47850.000000
1990.425415 47169.000000
1991.723877 48535.000000
1993.021851 47730.000000
1994.318237 47683.000000
1995.614624 48048.000000
1996.910034 48247.000000
1998.204712 47241.000000
1999.498535 48115.000000
2000.791138 47254.000000
2002.083252 48109.000000
2003.374878 46734.000000
2004.665771 47355.000000
2005.955078 47470.000000
2007.244141 47055.000000
2008.532471 47818.000000
2009.820068 47799.000000
2011.106812 47263.000000
2012.392456 48180.000000
2013.677734 47435.000000
2014.962036 47812.000000
2016.245728 48258.000000
2017.528076 47762.000000
2018.810059 47367.000000
2020.091553 46990.000000
2021.372070 47956.000000
2022.651855 47732.000000
2023.930542 47049.000000
2025.208496 48026.000000
2026.485962 47901.000000
2027.762817 47459.000000
2029.037964 48103.000000
2030.313232 47246.000000
2031.587524 47808.000000
2032.860840 47879.000000
2034.133301 47781.000000
2035.405396 47646.000000
2036.676392 46848.000000
2037.947144 47287.000000
2039.216553 47807.000000
2040.484863 47042.000000
2041.753174 47200.000000
2043.020508 47876.000000
2044.287109 47850.000000
2045.552490 48215.000000
2046.817261 47984.000000
2048.081787 48348.000000
2049.345215 47961.000000
2050.608154 47345.000000
2051.869141 47570.000000
2053.130615 47689.000000
2054.390869 47915.000000
2055.650391 47217.000000
2056.909180 47489.000000
2058.166992 46920.000000
2059.424316 47626.000000
2060.680908 47774.000000
2061.936035 47278.000000
2063.191162 48046.000000
2064.445313 48213.000000
2065.698730 48127.000000
2066.951416 46896.000000
2068.202881 47529.000000
2069.454102 47444.000000
2070.704590 48153.000000
2071.954346 48377.000000
2073.202637 47312.000000
2074.450928 47341.000000
2075.698242 46275.000000
2076.944824 48287.000000
2078.190674 47811.000000
2079.435303 46777.000000
2080.679443 46270.000000
2081.923096 48282.000000
2083.165771 47781.000000
2084.407227 46807.000000
2085.648438 47873.000000
2086.889160 47504.000000
2088.128906 47008.000000
2089.367432 46707.000000
2090.605469 47694.000000
2091.842773 47994.000000
2093.079834 47201.000000
2094.315430 47712.000000
2095.550293 47565.000000
2096.784912 47688.000000
2098.018555 48176.000000
2099.251221 47638.000000
2100.483154 46972.000000
2101.714600 47403.000000
2102.945068 47009.000000
2104.174805 47732.000000
2105.404297 47808.000000
2106.631836 47784.000000
2107.859619 47781.000000
2109.086670 47309.000000
2110.312744 48283.000000
2111.537354 47359.000000
2112.762207 46835.000000
2113.985840 46718.000000
2115.208984 47574.000000
2116.430908 46254.000000
2117.652588 47766.000000
2118.873291 46962.000000
2120.093262 47757.000000
2121.312744 47644.000000
2122.530762 47172.000000
2123.748779 46700.000000
2124.965820 48020.000000
2126.182373 47947.000000
2127.397217 47228.000000
2128.612305 47380.000000
2129.826416 46811.000000
2131.039795 48120.000000
2132.252441 47709.000000
2133.463623 47940.000000
2134.675049 47376.000000
2135.885254 46979.000000
2137.094971 47808.000000
2138.303223 47695.000000
2139.511475 48116.000000
2140.718994 47935.000000
2141.925293 46114.000000
2143.130859 47877.000000
2144.336182 48053.000000
2145.540527 48224.000000
2146.744141 47459.000000
2147.947266 47523.000000
2149.148926 47354.000000
2150.350342 48374.000000
2151.551025 47503.000000
2152.750977 47706.000000
2153.949707 47674.000000
2155.148193 46771.000000
2156.346191 47583.000000
2157.543213 47730.000000
2158.739502 48597.000000
2159.934570 48396.000000
2161.129395 47594.000000
2162.323486 48122.000000
2163.516602 47660.000000
2164.708740 46854.000000
2165.900635 47751.000000
2167.091797 47396.000000
2168.281982 47473.000000
2169.471436 47165.000000
2170.660400 46877.000000
2171.848389 47641.000000
2173.036133 47936.000000
2174.222412 47698.000000
2175.407959 47065.000000
2176.593262 47643.000000
2177.778076 47875.000000
2178.961670 47267.000000
2180.144531 46209.000000
2181.326416 47290.000000
2182.508057 47655.000000
2183.689209 47075.000000
2184.869141 47971.000000
2186.048096 48170.000000
2187.226563 47271.000000
2188.404785 46706.000000
2189.581787 46414.000000
2190.757813 46835.000000
2191.933594 47480.000000
2193.108887 48034.000000
2194.282715 47017.000000
2195.456055 47429.000000
2196.629150 47450.000000
2197.801025 47060.000000
2198.972412 46456.000000
2200.143311 47269.000000
2201.312500 46657.000000
2202.481689 46056.000000
2203.650391 47321.000000
2204.818115 47764.000000
2205.984863 47915.000000
2207.150879 46426.000000
2208.316406 46971.000000
2209.481689 47650.000000
2210.645508 46876.000000
2211.808838 48202.000000
2212.970947 47485.000000
2214.133301 47417.000000
2215.294434 46964.000000
2216.454590 47048.000000
2217.614258 47287.000000
2218.773682 46994.000000
2219.931885 47177.000000
2221.089111 47277.000000
2222.246094 46792.000000
2223.402344 46978.000000
2224.557861 46844.000000
2225.712646 47246.000000
2226.866455 47150.000000
2228.019287 47472.000000
2229.172607 46539.000000
2230.323975 47257.000000
2231.475098 47308.000000
2232.625488 46988.000000
2233.775391 45789.000000
2234.924316 47079.000000
2236.072754 48258.000000
2237.219727 46796.000000
2238.366943 46361.000000
2239.512939 47414.000000
2240.658691 46270.000000
2241.802734 46068.000000
2242.947021 46671.000000
2244.090332 47250.000000
2245.232910 47412.000000
2246.374512 47616.000000
2247.515869 47536.000000
2248.656250 47007.000000
2249.795898 46937.000000
2250.935059 47544.000000
2252.072998 47495.000000
2253.210938 47193.000000
2254.347900 48058.000000
2255.484131 46975.000000
2256.619385 47221.000000
2257.753906 46089.000000
2258.888184 46982.000000
2260.021973 47929.000000
2261.154297 47191.000000
2262.286133 46499.000000
2263.417480 47018.000000
2264.547852 46859.000000
2265.677979 45149.000000
2266.806885 46587.000000
2267.935303 47137.000000
2269.063232 47691.000000
2270.190186 47143.000000
2271.316406 47294.000000
2272.441650 46549.000000
2273.566895 46761.000000
2274.691406 46862.000000
2275.814697 47395.000000
2276.937256 46892.000000
2278.059326 47279.000000
2279.180908 45795.000000
2280.301758 46769.000000
2281.421387 46786.000000
2282.540527 46069.000000
2283.659424 45566.000000
2284.777588 45931.000000
2285.894775 47342.000000
2287.010986 46784.000000
2288.126953 46210.000000
2289.242188 46335.000000
2290.356689 45779.000000
2291.469971 47368.000000
2292.583252 46852.000000
2293.695801 47164.000000
2294.807617 47783.000000
2295.918701 46385.000000
2297.028564 46721.000000
2298.137939 46980.000000
2299.247070 46575.000000
2300.355225 46830.000000
2301.462402 46409.000000
2302.569336 47285.000000
2303.675537 46915.000000
2304.781250 46555.000000
2305.885498 46488.000000
2306.989502 47646.000000
2308.093018 47326.000000
2309.196045 46518.000000
2310.297852 45661.000000
2311.398926 45676.000000
2312.499512 46503.000000
2313.599609 47549.000000
2314.698975 46640.000000
2315.796875 46417.000000
2316.895264 46004.000000
2317.992188 44775.000000
2319.088867 46045.000000
2320.185059 47100.000000
2321.279541 46101.000000
2322.374023 45468.000000
2323.467773 47019.000000
2324.561279 46766.000000
2325.653076 46356.000000
2326.744873 45754.000000
2327.835938 46704.000000
2328.926270 46559.000000
2330.015625 45897.000000
2331.104980 46763.000000
2332.193115 46400.000000
2333.280762 45859.000000
2334.368164 46119.000000
2335.453857 45870.000000
2336.539307 44931.000000
2337.624512 46420.000000
2338.708740 45942.000000
2339.791992 46686.000000
2340.875000 46183.000000
2341.957031 44714.000000
2343.038818 46581.000000
2344.119873 45069.000000
2345.199707 45801.000000
2346.279053 46766.000000
2347.357910 45679.000000
2348.436279 45874.000000
2349.513184 46146.000000
2350.589844 45390.000000
2351.666260 46276.000000
2352.741699 45930.000000
2353.816162 46376.000000
2354.890381 46044.000000
2355.963867 45535.000000
2357.036865 46029.000000
2358.108643 45219.000000
2359.180176 45939.000000
2360.250732 45332.000000
2361.321045 44586.000000
2362.390381 44645.000000
2363.458740 45309.000000
2364.526855 45350.000000
2365.594238 45011.000000
2366.661133 44921.000000
2367.727295 45937.000000
2368.792236 45073.000000
2369.857178 45008.000000
2370.921387 45578.000000
2371.984863 45018.000000
2373.047119 46102.000000
2374.109375 45599.000000
2375.170654 45544.000000
2376.231689 46008.000000
2377.291504 45619.000000
2378.350586 43988.000000
2379.409668 45530.000000
2380.467773 44451.000000
2381.525146 45028.000000
2382.581543 43769.000000
2383.637695 44096.000000
2384.693359 45583.000000
2385.748291 44686.000000
2386.801758 45008.000000
2387.855469 45103.000000
2388.908203 45451.000000
2389.960449 44925.000000
2391.011963 45585.000000
2392.062500 45080.000000
2393.112793 45230.000000
2394.162109 45418.000000
2395.211426 45577.000000
2396.259277 44806.000000
2397.306641 44648.000000
2398.353760 45357.000000
2399.399902 44948.000000
2400.445313 45479.000000
2401.489990 44897.000000
2402.534668 43828.000000
2403.577881 44030.000000
2404.621094 44973.000000
2405.662842 45734.000000
2406.704834 44775.000000
2407.746094 44297.000000
2408.786377 45317.000000
2409.825928 45025.000000
2410.864502 45072.000000
2411.903320 45403.000000
2412.940918 44729.000000
2413.978271 44437.000000
2415.014404 43938.000000
2416.050293 44952.000000
2417.085449 44954.000000
2418.120117 44474.000000
2419.153320 43838.000000
2420.186768 44572.000000
2421.219238 44337.000000
2422.251465 44012.000000
2423.282227 43768.000000
2424.312988 44320.000000
2425.343262 43824.000000
2426.372314 43623.000000
2427.401367 43677.000000
2428.428711 42852.000000
2429.456543 43499.000000
2430.483154 42840.000000
2431.509521 43002.000000
2432.534424 42166.000000
2433.559570 43185.000000
2434.583740 42603.000000
2435.607666 42889.000000
2436.630371 43691.000000
2437.652344 43148.000000
2438.674072 42754.000000
2439.695068 42622.000000
2440.715576 43194.000000
2441.734863 42578.000000
2442.754150 42420.000000
2443.772461 40408.000000
2444.790527 42588.000000
2445.807129 42160.000000
2446.823730 42009.000000
2447.839600 42552.000000
2448.855469 41384.000000
2449.869873 41549.000000
2450.883545 42692.000000
2451.896729 40917.000000
2452.909668 42156.000000
2453.921875 40764.000000
2454.933105 41266.000000
2455.944092 40104.000000
2456.954346 41306.000000
2457.964111 39816.000000
2458.972900 41333.000000
2459.980957 41231.000000
2460.989014 40771.000000
2461.995850 39588.000000
2463.002441 41467.000000
2464.007813 39375.000000
2465.012939 39806.000000
2466.017822 40903.000000
2467.021484 40191.000000
2468.024902 40302.000000
2469.027344 39051.000000
2470.029541 39251.000000
2471.031250 39538.000000
2472.031982 39674.000000
2473.031738 39211.000000
2474.031494 39430.000000
2475.030273 40387.000000
2476.028564 39451.000000
2477.025879 39039.000000
2478.022949 39927.000000
2479.020020 39041.000000
2480.015625 40145.000000
2481.011230 38843.000000
2482.005127 39305.000000
2482.999023 37855.000000
2483.992432 39038.000000
2484.985352 39162.000000
2485.977295 38286.000000
2486.968506 38570.000000
2487.959473 39009.000000
2488.949951 39807.000000
2489.939453 39052.000000
2490.928223 39112.000000
2491.916992 39932.000000
2492.904785 38678.000000
2493.891357 38925.000000
2494.877930 37427.000000
2495.864014 38656.000000
2496.849365 38187.000000
2497.833740 37124.000000
2498.817871 39102.000000
2499.802002 38118.000000
2500.784668 39191.000000
2501.766846 37787.000000
2502.748535 37875.000000
2503.729492 37444.000000
2504.709961 38120.000000
2505.690186 38742.000000
2506.668945 38011.000000
2507.647461 36829.000000
2508.625488 37628.000000
2509.603027 37105.000000
2510.579590 38013.000000
2511.555908 38054.000000
2512.531494 37502.000000
2513.506592 37724.000000
2514.481201 37330.000000
2515.454590 36162.000000
2516.427734 36776.000000
2517.400635 36600.000000
2518.372559 37339.000000
2519.343750 36485.000000
2520.314453 36292.000000
2521.284912 35296.000000
2522.254639 34873.000000
2523.223389 36630.000000
2524.191406 36374.000000
2525.159424 34880.000000
2526.126465 36173.000000
2527.093262 36695.000000
2528.058838 35132.000000
2529.024414 35351.000000
2529.989258 34519.000000
2530.953613 35527.000000
2531.916748 35242.000000
2532.880127 35713.000000
2533.842529 35698.000000
2534.804688 34975.000000
2535.765625 35303.000000
2536.725830 35428.000000
2537.686279 35297.000000
2538.645752 34749.000000
2539.604492 34498.000000
2540.562256 34331.000000
2541.520264 34417.000000
2542.477539 33711.000000
2543.433838 34274.000000
2544.389893 33235.000000
2545.344727 34007.000000
2546.299805 32487.000000
2547.254150 33081.000000
2548.207764 33719.000000
2549.160400 32789.000000
2550.112793 33246.000000
2551.064697 32918.000000
2552.015869 33505.000000
2552.966309 32199.000000
2553.916260 32495.000000
2554.865967 32204.000000
2555.814941 32661.000000
2556.763428 32922.000000
2557.710693 32082.000000
2558.657959 32794.000000
2559.604492 32285.000000
2560.550537 32234.000000
2561.495605 31355.000000
2562.440430 31924.000000
2563.384766 31360.000000
2564.328613 31618.000000
2565.271973 31625.000000
2566.213867 31669.000000
2567.156006 31616.000000
2568.097412 32024.000000
2569.038086 31100.000000
2569.978027 31001.000000
2570.917969 32395.000000
2571.856934 31941.000000
2572.795654 30684.000000
2573.733398 30979.000000
2574.670898 32589.000000
2575.607666 31189.000000
2576.543701 31390.000000
2577.479248 30660.000000
2578.414063 31567.000000
2579.348877 31781.000000
2580.282715 30810.000000
2581.216064 30631.000000
2582.148682 31763.000000
2583.081055 30657.000000
2584.012695 32117.000000
2584.943848 30636.000000
2585.874512 30793.000000
2586.803955 30823.000000
2587.733398 30482.000000
2588.662354 31022.000000
2589.591064 29960.000000
2590.518066 30046.000000
2591.445313 31290.000000
2592.372070 30276.000000
2593.298096 30759.000000
2594.223877 31481.000000
2595.148438 29529.000000
2596.072754 29539.000000
2596.996582 31584.000000
2597.919922 29526.000000
2598.842285 30654.000000
2599.764404 29966.000000
2600.686035 28494.000000
2601.606934 30033.000000
2602.527100 30419.000000
2603.447021 29656.000000
2604.366455 29676.000000
2605.285645 29544.000000
2606.203857 30027.000000
2607.120850 29823.000000
2608.038086 28600.000000
2608.955078 29948.000000
2609.871094 28200.000000
2610.785889 29098.000000
2611.701172 28978.000000
2612.615723 28900.000000
2613.529297 28872.000000
2614.442871 29312.000000
2615.355225 27796.000000
2616.267578 28329.000000
2617.178955 28257.000000
2618.090088 29159.000000
2619.000488 27608.000000
2619.910645 28115.000000
2620.820068 28323.000000
2621.729004 27974.000000
2622.636963 28293.000000
2623.545166 27673.000000
2624.452393 27941.000000
2625.359131 27338.000000
2626.265137 28191.000000
2627.170898 27555.000000
2628.075928 27710.000000
2628.980713 26290.000000
2629.884766 27352.000000
2630.787842 27194.000000
2631.690918 27086.000000
2632.593018 27688.000000
2633.495117 26824.000000
2634.396973 26696.000000
2635.297119 26756.000000
2636.197510 26892.000000
2637.097168 26736.000000
2637.996582 27016.000000
2638.894531 26197.000000
2639.792969 26185.000000
2640.690918 26211.000000
2641.588135 26315.000000
2642.484131 26292.000000
2643.380127 25782.000000
2644.275879 26239.000000
2645.170898 26019.000000
2646.065674 25813.000000
2646.958984 25288.000000
2647.852295 25757.000000
2648.745361 25382.000000
2649.638184 25717.000000
2650.529297 25047.000000
2651.420654 25928.000000
2652.311523 24741.000000
2653.201660 24693.000000
2654.091553 25126.000000
2654.980225 24565.000000
2655.869141 24943.000000
2656.757568 24966.000000
2657.645020 24355.000000
2658.531494 24715.000000
2659.418457 24366.000000
2660.304688 24431.000000
2661.190430 24404.000000
2662.074951 24561.000000
2662.959473 24686.000000
2663.843750 24985.000000
2664.727295 24691.000000
2665.610352 24228.000000
2666.492676 24230.000000
2667.374512 24744.000000
2668.255615 24545.000000
2669.136963 24986.000000
2670.016846 24881.000000
2670.896973 24315.000000
2671.776367 24249.000000
2672.655762 24602.000000
2673.534424 24573.000000
2674.411377 24406.000000
2675.289063 24315.000000
2676.166016 24553.000000
2677.042236 23413.000000
2677.917969 23854.000000
2678.792969 24377.000000
2679.668213 23646.000000
2680.542480 23911.000000
2681.416260 23453.000000
2682.289307 23417.000000
2683.162109 23601.000000
2684.034668 23872.000000
2684.906494 23381.000000
2685.777588 23330.000000
2686.648438 23107.000000
2687.518799 23037.000000
2688.388916 23100.000000
2689.257324 23259.000000
2690.126465 22960.000000
2690.994873 22710.000000
2691.863037 22858.000000
2692.730469 22511.000000
2693.596680 22823.000000
2694.463379 22520.000000
2695.329102 22564.000000
2696.194824 22599.000000
2697.059082 22167.000000
2697.924072 22427.000000
2698.787598 22184.000000
2699.651367 22507.000000
2700.513672 22078.000000
2701.376465 22202.000000
2702.238281 22302.000000
2703.099609 22055.000000
2703.960938 22077.000000
2704.821045 21789.000000
2705.681152 21859.000000
2706.540771 21712.000000
2707.400146 21629.000000
2708.257813 21334.000000
2709.115723 21537.000000
2709.974121 21163.000000
2710.831299 21219.000000
2711.687744 21337.000000
2712.543701 21177.000000
2713.399658 21137.000000
2714.254883 20890.000000
2715.109375 21042.000000
2715.963379 20689.000000
2716.817383 20418.000000
2717.670410 20529.000000
2718.523682 20556.000000
2719.375244 20419.000000
2720.227295 20275.000000
2721.079102 20449.000000
2721.929688 20449.000000
2722.780273 20559.000000
2723.630371 20245.000000
2724.479736 20066.000000
2725.329102 20210.000000
2726.177246 20230.000000
2727.024902 20217.000000
2727.873047 19978.000000
2728.719971 19905.000000
2729.567383 20105.000000
2730.413330 19843.000000
2731.258545 19602.000000
2732.104248 19796.000000
2732.948975 19638.000000
2733.793701 19475.000000
2734.637207 19711.000000
2735.480957 19468.000000
2736.323975 19525.000000
2737.166504 19784.000000
2738.008057 19602.000000
2738.850098 19390.000000
2739.691162 19380.000000
2740.531982 19511.000000
2741.372559 19431.000000
2742.211914 19221.000000
2743.051270 19472.000000
2743.890625 19448.000000
2744.728760 19350.000000
2745.566406 19422.000000
2746.404053 19546.000000
2747.241211 19328.000000
2748.078125 19293.000000
2748.914551 19276.000000
2749.749756 19169.000000
2750.585205 19232.000000
2751.420166 19171.000000
2752.254395 19151.000000
2753.088379 18992.000000
2753.921875 18873.000000
2754.755371 18712.000000
2755.587891 18805.000000
2756.419922 18661.000000
2757.251465 18697.000000
2758.083008 18715.000000
2758.913574 18705.000000
2759.744385 18637.000000
2760.573975 18659.000000
2761.403564 18714.000000
2762.232910 18370.000000
2763.061523 18386.000000
2763.889648 18166.000000
2764.717285 18334.000000
2765.544922 18068.000000
2766.372070 18268.000000
2767.198486 17996.000000
2768.024414 17988.000000
2768.849854 17997.000000
2769.675049 17712.000000
2770.500244 17627.000000
2771.324219 17737.000000
2772.148193 17783.000000
2772.972168 17498.000000
2773.794922 17683.000000
2774.617920 17478.000000
2775.439697 17394.000000
2776.261475 17298.000000
2777.083252 17287.000000
2777.904053 17033.000000
2778.724121 17133.000000
2779.544434 17056.000000
2780.364258 16836.000000
2781.184082 16970.000000
2782.001953 17022.000000
2782.821045 16666.000000
2783.638916 17156.000000
2784.456543 17276.000000
2785.273682 17144.000000
2786.090332 16648.000000
2786.906738 16356.000000
2787.722656 16408.000000
2788.538330 16492.000000
2789.353027 16669.000000
2790.168213 16400.000000
2790.982666 16227.000000
2791.796631 16208.000000
2792.610352 16015.000000
2793.422852 16107.000000
2794.235596 16095.000000
2795.047852 15937.000000
2795.859619 16019.000000
2796.670654 16069.000000
2797.482422 16090.000000
2798.292969 16054.000000
2799.103516 15794.000000
2799.912598 15762.000000
2800.722412 15662.000000
2801.531494 15720.000000
2802.340332 15836.000000
2803.148682 15688.000000
2803.956055 15636.000000
2804.763916 15628.000000
2805.571045 15580.000000
2806.377930 15532.000000
2807.183594 15560.000000
2807.989746 15472.000000
2808.795166 15376.000000
2809.600586 15413.000000
2810.405273 15400.000000
2811.208984 15279.000000
2812.013184 15437.000000
2812.816895 15427.000000
2813.620361 15214.000000
2814.422363 15192.000000
2815.225098 15138.000000
2816.027100 15071.000000
2816.828857 15271.000000
2817.630127 15200.000000
2818.430908 15281.000000
2819.231201 15195.000000
2820.031738 15038.000000
2820.831299 14995.000000
2821.630371 15029.000000
2822.429443 14898.000000
2823.228271 14763.000000
2824.026611 14811.000000
2824.823975 14954.000000
2825.621582 14895.000000
2826.418457 14915.000000
2827.215576 14834.000000
2828.011963 14623.000000
2828.807617 14643.000000
2829.603271 14525.000000
2830.398682 14471.000000
2831.193604 14452.000000
2831.987793 14510.000000
2832.781982 14406.000000
2833.575928 14462.000000
2834.369385 14454.000000
2835.162109 14424.000000
2835.954590 14159.000000
2836.747070 14253.000000
2837.539307 14192.000000
2838.331055 14100.000000
2839.121826 14092.000000
2839.912598 13890.000000
2840.703613 13981.000000
2841.493652 13967.000000
2842.283203 13884.000000
2843.072998 13784.000000
2843.861816 13612.000000
2844.650635 13558.000000
2845.439453 13677.000000
2846.227295 13407.000000
2847.014648 13412.000000
2847.802246 13452.000000
2848.589355 13352.000000
2849.375732 13419.000000
2850.162109 13389.000000
2850.948242 13292.000000
2851.733887 13291.000000
2852.518555 13337.000000
2853.303711 13090.000000
2854.088623 13109.000000
2854.872803 13155.000000
2855.656982 13219.000000
2856.439941 13046.000000
2857.223145 13113.000000
2858.006104 12909.000000
2858.788574 12766.000000
2859.570801 12795.000000
2860.352539 12816.000000
2861.134033 12581.000000
2861.915771 12793.000000
2862.696777 12664.000000
2863.477051 12733.000000
2864.257080 12771.000000
2865.037109 12787.000000
2865.816895 12766.000000
2866.595703 12753.000000
2867.374756 12637.000000
2868.153320 12794.000000
2868.931641 12774.000000
2869.709473 12808.000000
2870.487061 12882.000000
2871.264404 12909.000000
2872.041504 12873.000000
2872.818115 13040.000000
2873.594238 12992.000000
2874.370361 12880.000000
2875.145996 12885.000000
2875.921387 12710.000000
2876.696289 13027.000000
2877.470947 12720.000000
2878.245605 12676.000000
2879.020020 12462.000000
2879.793701 12432.000000
2880.566650 12635.000000
2881.340332 12317.000000
2882.113037 12256.000000
2882.885742 12144.000000
2883.657715 12028.000000
2884.429443 12145.000000
2885.201660 11926.000000
2885.972656 11835.000000
2886.743164 11932.000000
2887.514160 11728.000000
2888.285156 11705.000000
2889.055420 11648.000000
2889.824707 11658.000000
2890.594238 11652.000000
2891.363770 11693.000000
2892.132813 11754.000000
2892.901367 11704.000000
2893.669922 11747.000000
2894.437500 11815.000000
2895.205566 11694.000000
2895.973145 11536.000000
2896.740723 11491.000000
2897.507080 11286.000000
2898.274414 11286.000000
2899.040527 11171.000000
2899.806885 10993.000000
2900.571777 10981.000000
2901.337158 10965.000000
2902.103027 10951.000000
2902.867432 10963.000000
2903.631836 10974.000000
2904.396484 10871.000000
2905.160156 11074.000000
2905.924561 10898.000000
2906.688232 10873.000000
2907.451172 10821.000000
2908.213867 10754.000000
2908.977051 10449.000000
2909.739746 10717.000000
2910.501221 10685.000000
2911.263184 10685.000000
spectrumdark 2048
-96.967720 6235.000000
-94.340851 6235.000000
-91.715858 6023.000000
-89.092758 6394.000000
-86.471527 5810.000000
-83.852196 6267.000000
-81.234726 6070.000000
-78.619133 6407.000000
-76.005417 6261.000000
-73.393578 5833.000000
-70.783600 6027.000000
-68.175507 5953.000000
-65.569260 5954.000000
-62.964886 5990.000000
-60.362377 6147.000000
-57.761723 5643.000000
-55.162930 6182.000000
-52.565994 6868.000000
-49.970913 6389.000000
-47.377686 6319.000000
-44.786308 6242.000000
-42.196777 6705.000000
-39.609089 5905.000000
-37.023251 6058.000000
-34.439255 6451.000000
-31.857098 5673.000000
-29.276785 6346.000000
-26.698299 5755.000000
-24.121656 6144.000000
-21.546839 6243.000000
-18.973862 6467.000000
-16.402704 6477.000000
-13.833381 6743.000000
-11.265882 7717.000000
-8.700203 6307.000000
-6.136349 6415.000000
-3.574308 6043.000000
-1.014092 5834.000000
1.544316 6286.000000
4.100903 6851.000000
6.655684 6634.000000
9.208650 5987.000000
11.759814 6716.000000
14.309166 6524.000000
16.856722 6699.000000
19.402466 6045.000000
21.946417 5706.000000
24.488564 6613.000000
27.028913 6788.000000
29.567478 6806.000000
32.104248 6211.000000
34.639214 5717.000000
37.172401 7262.000000
39.703808 6300.000000
42.233421 7057.000000
44.761238 6462.000000
47.287296 7842.000000
49.811565 5653.000000
52.334064 6256.000000
54.854767 6782.000000
57.373714 6309.000000
59.890888 6444.000000
62.406284 6631.000000
64.919899 5588.000000
67.431763 5740.000000
69.941879 6566.000000
72.450203 6532.000000
74.956772 5967.000000
77.461594 6361.000000
79.964661 6348.000000
82.465950 6249.000000
84.965500 6128.000000
87.463295 6398.000000
89.959358 5734.000000
92.453644 7225.000000
94.946190 5730.000000
97.437019 6924.000000
99.926079 7124.000000
102.413391 6373.000000
104.898979 6226.000000
107.382828 6353.000000
109.864929 5748.000000
112.345306 6720.000000
114.823959 6138.000000
117.300888 6477.000000
119.776062 7166.000000
122.249527 6813.000000
124.721260 5885.000000
127.191284 6781.000000
129.659561 6234.000000
132.126160 6280.000000
134.591003 5686.000000
137.054153 6214.000000
139.515564 7278.000000
141.975281 6897.000000
144.433273 6356.000000
146.889572 5965.000000
149.344162 5792.000000
151.797028 6829.000000
154.248215 6427.000000
156.697708 6565.000000
159.145477 6078.000000
161.591537 6680.000000
164.035919 8723.000000
166.478622 6495.000000
168.919632 6782.000000
171.358932 6224.000000
173.796524 7248.000000
176.232483 6631.000000
178.666702 7030.000000
181.099243 7221.000000
183.530136 6737.000000
185.959305 7140.000000
188.386826 6711.000000
190.812668 6288.000000
193.236832 6635.000000
195.659332 7162.000000
198.080139 7385.000000
200.499283 6462.000000
202.916763 6056.000000
205.332550 7606.000000
207.746689 7192.000000
210.159195 6379.000000
212.570023 6092.000000
214.979172 6224.000000
217.386688 7389.000000
219.792496 6173.000000
222.196716 6635.000000
224.599228 6697.000000
227.000122 6969.000000
229.399368 6438.000000
231.796951 6846.000000
234.192871 7234.000000
236.587173 6566.000000
238.979813 6099.000000
241.370834 6860.000000
243.760193 6648.000000
246.147934 6340.000000
248.534027 6908.000000
250.918488 6083.000000
253.301300 7920.000000
255.682541 6633.000000
258.062073 6677.000000
260.440033 6477.000000
262.816315 7550.000000
265.191040 7568.000000
267.564117 7818.000000
269.935547 6150.000000
272.305328 6475.000000
274.673553 5881.000000
277.040131 6344.000000
279.405121 6741.000000
281.768494 6041.000000
284.130219 6246.000000
286.490356 7067.000000
288.848877 6064.000000
291.205811 6547.000000
293.561127 6450.000000
295.914856 5937.000000
298.266937 5995.000000
300.617462 6325.000000
302.966400 6394.000000
305.313690 6808.000000
307.659454 6322.000000
310.003540 6602.000000
312.346100 7355.000000
314.687042 7588.000000
317.026367 7224.000000
319.364136 6949.000000
321.700348 8069.000000
324.034912 6283.000000
326.367920 6528.000000
328.699371 6024.000000
331.029236 6583.000000
333.357513 6354.000000
335.684174 7287.000000
338.009338 6341.000000
340.332886 6232.000000
342.654877 5982.000000
344.975311 7509.000000
347.294128 7683.000000
349.611389 5950.000000
351.927124 5852.000000
354.241272 6989.000000
356.553833 6358.000000
358.864838 6450.000000
361.174316 6956.000000
363.482269 6381.000000
365.788605 5639.000000
368.093353 6445.000000
370.396637 6493.000000
372.698303 6260.000000
374.998474 6382.000000
377.297089 6287.000000
379.594147 5710.000000
381.889648 6162.000000
384.183624 5932.000000
386.476013 5213.000000
388.766907 5594.000000
391.056274 6193.000000
393.344055 6285.000000
395.630310 6572.000000
397.915070 6970.000000
400.198212 5988.000000
402.479919 6406.000000
404.760101 6170.000000
407.038696 7241.000000
409.315765 6441.000000
411.591309 6712.000000
413.865326 6428.000000
416.137909 6296.000000
418.408875 6279.000000
420.678345 6374.000000
422.946320 7032.000000
425.212738 7237.000000
427.477661 6236.000000
429.741119 6303.000000
432.002991 6464.000000
434.263397 6028.000000
436.522247 6618.000000
438.779633 6133.000000
441.035522 5647.000000
443.289917 5724.000000
445.542786 5428.000000
447.794098 6925.000000
450.044006 6098.000000
452.292328 6291.000000
454.539215 5660.000000
456.784637 6517.000000
459.028503 6494.000000
461.270874 6849.000000
463.511749 5703.000000
465.751221 6768.000000
467.989105 5538.000000
470.225555 5900.000000
472.460480 6131.000000
474.693939 7334.000000
476.925964 6689.000000
479.156464 5684.000000
481.385468 6428.000000
483.613007 6274.000000
485.839050 5980.000000
488.063660 6567.000000
490.286804 5845.000000
492.508484 6477.000000
494.728607 6697.000000
496.947327 5625.000000
499.164551 6278.000000
501.380402 5522.000000
503.594635 6155.000000
505.807556 6435.000000
508.018890 6510.000000
510.228790 6916.000000
512.437256 6537.000000
514.644348 6623.000000
516.849854 6482.000000
519.053955 6493.000000
521.256531 6216.000000
523.457703 6535.000000
525.657532 6702.000000
527.855835 6900.000000
530.052612 5282.000000
532.248047 5812.000000
534.441956 5523.000000
536.634521 7533.000000
538.825562 6705.000000
541.015198 6040.000000
543.203430 6933.000000
545.390137 7147.000000
547.575378 6810.000000
549.759338 6259.000000
551.941711 6421.000000
554.122742 6211.000000
556.302246 5978.000000
558.480469 5953.000000
560.657166 6027.000000
562.832458 6403.000000
565.006348 6474.000000
567.178772 5897.000000
569.349792 6075.000000
571.519348 6343.000000
573.687622 5227.000000
575.854370 6404.000000
578.019653 6307.000000
580.183533 6170.000000
582.346130 5715.000000
584.507202 6046.000000
586.666870 5581.000000
588.825195 5783.000000
590.981995 6216.000000
593.137451 6559.000000
595.291504 5780.000000
597.444214 6110.000000
599.595398 7235.000000
601.745239 6745.000000
603.893738 6634.000000
606.040649 5993.000000
608.186340 6565.000000
610.330627 6451.000000
612.473450 7019.000000
614.614807 6161.000000
616.754944 6451.000000
618.893555 7706.000000
621.030884 5707.000000
623.166748 6611.000000
625.301208 6866.000000
627.434204 7243.000000
629.566040 6648.000000
631.696411 6602.000000
633.825378 6730.000000
635.952881 6452.000000
638.079102 6231.000000
640.203796 7368.000000
642.327271 6452.000000
644.449402 6800.000000
646.570068 6804.000000
648.689392 6579.000000
650.807312 5629.000000
652.923889 5724.000000
655.039063 6397.000000
657.152893 6448.000000
659.265259 5842.000000
661.376404 6131.000000
663.486145 5416.000000
665.594421 6042.000000
667.701538 6301.000000
669.807190 6820.000000
671.911377 5779.000000
674.014343 5749.000000
676.115906 6968.000000
678.216125 5290.000000
680.314941 6697.000000
682.412415 6239.000000
684.508606 7019.000000
686.603333 6244.000000
688.696838 6980.000000
690.789001 6603.000000
692.879639 7943.000000
694.969055 6627.000000
697.057190 6484.000000
699.143860 6024.000000
701.229309 6751.000000
703.313232 5158.000000
705.395935 5931.000000
707.477356 5909.000000
709.557312 7617.000000
711.636047 6222.000000
713.713318 5553.000000
715.789307 6534.000000
717.864014 6123.000000
719.937439 7099.000000
722.009338 6269.000000
724.080078 7395.000000
726.149475 5805.000000
728.217468 6482.000000
730.284119 6418.000000
732.349548 7135.000000
734.413635 5758.000000
736.476379 6142.000000
738.537781 6504.000000
740.597900 6601.000000
742.656616 6018.000000
744.714111 6664.000000
746.770325 6457.000000
748.825134 6705.000000
750.878662 6359.000000
752.930786 7485.000000
754.981689 5780.000000
757.031372 6699.000000
759.079590 6403.000000
761.126587 6158.000000
763.172302 7006.000000
765.216614 5345.000000
767.259644 5795.000000
769.301453 14994.000000
771.341919 7145.000000
773.380981 6357.000000
775.418884 6078.000000
777.455444 5955.000000
779.490784 5392.000000
781.524780 5767.000000
783.557373 6883.000000
785.588806 5521.000000
787.618835 11650.000000
789.647583 6028.000000
791.675171 6331.000000
793.701416 6311.000000
795.726257 5823.000000
797.750000 5525.000000
799.772339 6397.000000
801.793457 5875.000000
803.813232 6723.000000
805.831726 4926.000000
807.848999 6627.000000
809.864868 6731.000000
811.879578 5711.000000
813.892944 6402.000000
815.905090 6281.000000
817.916016 6035.000000
819.925598 6583.000000
821.933960 5303.000000
823.940918 5729.000000
825.946655 6058.000000
827.951172 5731.000000
829.954407 5690.000000
831.956360 6466.000000
833.957031 6111.000000
835.956482 5980.000000
837.954590 6359.000000
839.951599 6984.000000
841.947205 6220.000000
843.941650 6011.000000
845.934753 6196.000000
847.926636 6786.000000
849.917175 5645.000000
851.906433 6828.000000
853.894653 6010.000000
855.881470 5756.000000
857.867065 6424.000000
859.851379 7226.000000
861.834595 6320.000000
863.816406 6409.000000
865.796997 5828.000000
867.776306 7776.000000
869.754456 7073.000000
871.731262 6188.000000
873.706787 5994.000000
875.681274 6216.000000
877.654297 6108.000000
879.626282 5423.000000
881.596924 6437.000000
883.566406 6104.000000
885.534546 5616.000000
887.501526 5241.000000
889.467163 6091.000000
891.431641 5807.000000
893.394897 5985.000000
895.356934 6556.000000
897.317688 5818.000000
899.277222 6407.000000
901.235474 6723.000000
903.192627 6315.000000
905.148621 6016.000000
907.103210 6860.000000
909.056580 6506.000000
911.008789 6443.000000
912.959778 6438.000000
914.909485 7121.000000
916.858032 6356.000000
918.805359 6120.000000
920.751404 6070.000000
922.696167 6073.000000
924.639893 6283.000000
926.582458 6001.000000
928.523743 5689.000000
930.463684 6505.000000
932.402527 5746.000000
934.340088 5538.000000
936.276428 5903.000000
938.211609 5810.000000
940.145508 6090.000000
942.078308 5901.000000
944.009888 6813.000000
945.940308 5247.000000
947.869507 6497.000000
949.797363 6977.000000
951.724182 6683.000000
953.649719 6014.000000
955.573975 5386.000000
957.497131 6034.000000
959.419128 6746.000000
961.339844 7311.000000
963.259399 6496.000000
965.177795 5337.000000
967.095154 6456.000000
969.011047 6417.000000
970.925842 6119.000000
972.839417 5956.000000
974.751831 6399.000000
976.663025 6485.000000
978.573059 5546.000000
980.481812 6210.000000
982.389526 6064.000000
984.296021 6350.000000
986.201294 5699.000000
988.105469 6821.000000
990.008423 6160.000000
991.910156 6809.000000
993.810730 6577.000000
995.710144 6610.000000
997.608337 5287.000000
999.505371 6525.000000
1001.401184 6531.000000
1003.295837 7694.000000
1005.189392 5636.000000
1007.081665 7230.000000
1008.973022 6078.000000
1010.863037 5323.000000
1012.751831 6640.000000
1014.639465 6437.000000
1016.525940 6885.000000
1018.411255 6792.000000
1020.295410 5958.000000
1022.178345 5853.000000
1024.060181 6230.000000
1025.940796 5219.000000
1027.820313 5844.000000
1029.698853 6137.000000
1031.576050 5450.000000
1033.451904 6216.000000
1035.326782 5899.000000
1037.200684 6685.000000
1039.073120 7014.000000
1040.944580 6753.000000
1042.814697 5512.000000
1044.683838 5498.000000
1046.551758 5803.000000
1048.418579 6988.000000
1050.284302 6707.000000
1052.148804 6448.000000
1054.012207 6469.000000
1055.874268 6450.000000
1057.735352 5864.000000
1059.595337 6446.000000
1061.453979 6676.000000
1063.311523 5794.000000
1065.167969 6701.000000
1067.023315 5933.000000
1068.877441 5844.000000
1070.730713 6280.000000
1072.582520 6329.000000
1074.433350 6143.000000
1076.282959 6102.000000
1078.131348 5768.000000
1079.978882 8060.000000
1081.825073 5666.000000
1083.670044 6178.000000
1085.514160 5417.000000
1087.356934 5428.000000
1089.198486 6533.000000
1091.039307 5524.000000
1092.878540 5772.000000
1094.717041 6006.000000
1096.554199 6032.000000
1098.390137 6851.000000
1100.225098 6568.000000
1102.058838 5417.000000
1103.891602 5624.000000
1105.723022 6161.000000
1107.553589 7266.000000
1109.382813 6553.000000
1111.211060 6459.000000
1113.038086 7108.000000
1114.864136 5434.000000
1116.688965 6348.000000
1118.512695 7130.000000
1120.335205 6102.000000
1122.156616 5881.000000
1123.977173 5917.000000
1125.796265 6549.000000
1127.614502 7092.000000
1129.431396 6880.000000
1131.247437 6699.000000
1133.062256 6451.000000
1134.875977 5642.000000
1136.688599 5776.000000
1138.500000 5696.000000
1140.310425 6135.000000
1142.119751 6743.000000
1143.927734 6920.000000
1145.734985 5920.000000
1147.540771 5941.000000
1149.345703 5387.000000
1151.149536 5406.000000
1152.952148 6088.000000
1154.753906 6137.000000
1156.554199 6090.000000
1158.353516 6067.000000
1160.151855 5880.000000
1161.948853 5461.000000
1163.745117 5922.000000
1165.540039 6081.000000
1167.333862 6363.000000
1169.126831 7744.000000
1170.918457 5747.000000
1172.709106 6500.000000
1174.498779 6027.000000
1176.286987 5867.000000
1178.074341 7472.000000
1179.860596 6890.000000
1181.645752 5732.000000
1183.429810 5943.000000
1185.212769 7706.000000
1186.994751 5832.000000
1188.775513 5948.000000
1190.555298 6301.000000
1192.333984 6942.000000
1194.111694 6656.000000
1195.888184 7232.000000
1197.663574 6593.000000
1199.437866 6614.000000
1201.211060 6705.000000
1202.983398 6469.000000
1204.754395 6673.000000
1206.524536 5691.000000
1208.293457 6188.000000
1210.061279 6347.000000
1211.828247 5835.000000
1213.593872 5987.000000
1215.358521 6939.000000
1217.122070 6480.000000
1218.884521 6035.000000
1220.646118 6695.000000
1222.406494 5903.000000
1224.165771 6254.000000
1225.924194 6020.000000
1227.681396 7083.000000
1229.437500 6483.000000
1231.192505 5519.000000
1232.946655 5960.000000
1234.699463 5861.000000
1236.451294 6030.000000
1238.202271 5971.000000
1239.951904 4990.000000
1241.700684 7016.000000
1243.448120 6414.000000
1245.194824 6576.000000
1246.940308 6494.000000
1248.684937 6404.000000
1250.428223 6776.000000
1252.170532 6697.000000
1253.911743 5368.000000
1255.652100 5152.000000
1257.391357 5801.000000
1259.129395 6632.000000
1260.866577 7123.000000
1262.602539 6129.000000
1264.337524 6472.000000
1266.071533 7267.000000
1267.804565 5952.000000
1269.536377 6171.000000
1271.267212 6483.000000
1272.996826 7260.000000
1274.725586 5947.000000
1276.453247 5688.000000
1278.179810 5526.000000
1279.905518 5530.000000
1281.629883 6476.000000
1283.353394 5191.000000
1285.075928 6929.000000
1286.797485 6637.000000
1288.517822 6368.000000
1290.237183 6588.000000
1291.955444 7238.000000
1293.672729 6423.000000
1295.389038 5710.000000
1297.104126 6369.000000
1298.818237 6196.000000
1300.531372 5780.000000
1302.243652 6494.000000
1303.954712 8272.000000
1305.664795 5366.000000
1307.373779 6329.000000
1309.081543 6720.000000
1310.788696 7025.000000
1312.494385 5765.000000
1314.199341 6900.000000
1315.903320 6174.000000
1317.606079 6045.000000
1319.307861 6579.000000
1321.008789 6059.000000
1322.708374 9128.000000
1324.407104 7359.500000
1326.105103 5591.000000
1327.801758 6466.000000
1329.497314 7230.000000
1331.192017 6884.000000
1332.885498 5785.000000
1334.578125 5347.000000
1336.269897 7228.000000
1337.960327 6224.000000
1339.650024 6613.000000
1341.338623 6107.000000
1343.026123 7631.000000
1344.712646 5668.000000
1346.398071 6704.000000
1348.082520 5978.000000
1349.766113 7250.000000
1351.448486 6327.000000
1353.129883 5960.000000
1354.810425 6560.000000
1356.489746 6724.000000
1358.168457 5961.000000
1359.845825 6530.000000
1361.522095 5744.000000
1363.197388 5545.000000
1364.871948 6585.000000
1366.545288 6539.000000
1368.217651 6733.000000
1369.889038 5212.000000
1371.559448 6794.000000
1373.228760 6246.000000
1374.897095 5670.000000
1376.564575 6034.000000
1378.230957 6501.000000
1379.896362 6161.000000
1381.560791 5928.000000
1383.223999 5965.000000
1384.886597 5757.000000
1386.547852 6415.000000
1388.208252 6538.000000
1389.867554 6432.000000
1391.525879 6442.000000
1393.183472 6898.000000
1394.839844 6475.000000
1396.495361 7021.000000
1398.149658 6337.000000
1399.803101 5873.000000
1401.455444 6108.000000
1403.107056 6446.000000
1404.757446 7139.000000
1406.406738 6290.000000
1408.055298 7522.000000
1409.702759 7877.000000
1411.349243 6213.000000
1412.994873 6267.000000
1414.639526 5956.000000
1416.282959 7016.000000
1417.925537 7194.000000
1419.567017 6894.000000
1421.207642 6486.000000
1422.847290 6457.000000
1424.485840 6036.000000
1426.123535 6580.000000
1427.760132 6309.000000
1429.395752 6009.000000
1431.030640 6387.000000
1432.664429 5868.000000
1434.297119 6156.000000
1435.928833 5687.000000
1437.559692 6154.000000
1439.189453 6074.000000
1440.818115 7805.000000
1442.446167 5985.000000
1444.073120 6195.000000
1445.698853 6209.000000
1447.323975 6172.000000
1448.947998 6570.000000
1450.571045 6083.000000
1452.193115 6078.000000
1453.814087 7474.000000
1455.434082 6328.000000
1457.053345 6921.000000
1458.671265 5635.000000
1460.288574 5565.500000
1461.904907 5496.000000
1463.520020 7229.000000
1465.134277 6358.000000
1466.747681 5203.000000
1468.359985 5623.000000
1469.971436 6216.000000
1471.582031 6363.000000
1473.191406 6052.000000
1474.799805 6091.000000
1476.407349 6243.000000
1478.013916 6645.000000
1479.619751 5322.000000
1481.224365 6353.000000
1482.828125 5499.000000
1484.430664 6822.000000
1486.032593 5579.000000
1487.633301 5476.000000
1489.233276 5611.000000
1490.832153 6291.000000
1492.430176 6589.000000
1494.027100 6670.000000
1495.623169 6308.000000
1497.218262 5999.000000
1498.812378 5498.000000
1500.405762 6586.000000
1501.998047 5512.000000
1503.589111 6196.000000
1505.179688 6783.000000
1506.768921 6576.000000
1508.357544 6156.000000
1509.945068 6540.000000
1511.531494 6908.000000
1513.117188 6151.000000
1514.701782 6644.000000
1516.285522 6444.000000
1517.868164 6293.000000
1519.450073 6641.000000
1521.030884 6730.000000
1522.610962 6061.000000
1524.189819 6204.000000
1525.767822 6350.000000
1527.345093 6302.000000
1528.921143 5720.000000
1530.496460 5894.000000
1532.070679 6316.000000
1533.644165 5441.000000
1535.216431 6005.000000
1536.787964 6368.000000
1538.358521 6396.000000
1539.928223 6352.000000
1541.496704 5403.000000
1543.064453 6535.000000
1544.631348 5580.000000
1546.197021 6876.000000
1547.761963 5940.000000
1549.325806 5051.000000
1550.889038 7471.000000
1552.450928 6360.000000
1554.012207 5980.000000
1555.572388 5696.000000
1557.131836 5734.000000
1558.690186 5870.000000
1560.247803 6321.000000
1561.804321 7016.000000
1563.359619 5889.000000
1564.914307 6368.000000
1566.468262 5621.000000
1568.021240 6310.000000
1569.572876 5681.000000
1571.123779 5930.000000
1572.673950 6236.000000
1574.223145 6379.000000
1575.770996 5801.000000
1577.318359 5491.000000
1578.864746 5752.000000
1580.410278 5105.000000
1581.954834 6667.000000
1583.498169 6383.000000
1585.040894 6634.000000
1586.582764 6484.000000
1588.123535 6719.000000
1589.663330 5806.000000
1591.202393 6695.000000
1592.740356 5896.000000
1594.277832 6165.000000
1595.813965 5926.000000
1597.348999 6685.000000
1598.883545 6279.000000
1600.417114 5989.000000
1601.949829 6147.000000
1603.480957 6300.000000
1605.011841 6303.000000
1606.541870 5838.000000
1608.070679 6138.000000
1609.598389 6226.000000
1611.125488 6013.000000
1612.651855 5838.000000
1614.177246 6264.000000
1615.701782 5837.000000
1617.224976 5797.000000
1618.747437 5682.000000
1620.269165 6581.000000
1621.790039 6913.000000
1623.309448 15191.000000
1624.828369 6286.000000
1626.346558 6061.000000
1627.863892 5926.000000
1629.380127 6374.000000
1630.895020 7022.000000
1632.409424 6800.000000
1633.923096 5791.000000
1635.435669 6892.000000
1636.947021 5944.000000
1638.458008 6429.000000
1639.967896 6320.000000
1641.476929 6243.000000
1642.984619 5653.000000
1644.491943 6141.000000
1645.998413 7094.000000
1647.503906 6232.000000
1649.008545 6899.000000
1650.511719 6203.000000
1652.014282 6607.000000
1653.516479 6369.000000
1655.017334 6661.000000
1656.517090 7510.000000
1658.015991 6027.000000
1659.514526 6463.000000
1661.011841 6270.000000
1662.508423 5930.000000
1664.003418 6457.000000
1665.498169 6411.000000
1666.992065 5255.000000
1668.484985 5600.000000
1669.976563 6051.500000
1671.467651 6503.000000
1672.958130 6075.000000
1674.447510 5987.000000
1675.935425 7005.000000
1677.423096 6868.000000
1678.909790 5991.000000
1680.395630 5475.000000
1681.880615 6066.000000
1683.364136 6246.000000
1684.847412 6152.000000
1686.329834 5862.000000
1687.811157 6278.000000
1689.291016 6220.000000
1690.770630 5504.000000
1692.249512 6504.000000
1693.727417 6017.000000
1695.204346 6144.000000
1696.680054 5712.000000
1698.155396 6060.000000
1699.629517 6317.000000
1701.103027 5490.000000
1702.575073 5600.000000
1704.046875 6953.000000
1705.517700 6333.000000
1706.987671 7127.000000
1708.456299 5181.000000
1709.924438 5853.000000
1711.391846 6355.000000
1712.858154 5515.000000
1714.323853 5850.000000
1715.787842 6191.000000
1717.251709 6031.000000
1718.714722 7015.000000
1720.176758 6398.000000
1721.637573 6600.000000
1723.097778 5518.000000
1724.557251 6395.000000
1726.015869 6163.000000
1727.473511 5977.000000
1728.929810 6292.000000
1730.385864 6081.000000
1731.840942 6434.000000
1733.295044 6023.000000
1734.747925 6846.000000
1736.200562 5952.000000
1737.652100 6870.000000
1739.102905 6033.000000
1740.552734 6554.000000
1742.001221 5968.000000
1743.449341 7605.000000
1744.896606 6608.000000
1746.343140 6682.000000
1747.788086 6725.000000
1749.232788 6176.000000
1750.676636 5847.000000
1752.119629 5525.000000
1753.561157 6576.000000
1755.002441 6343.000000
1756.442871 6321.000000
1757.882324 6299.000000
1759.320801 5242.000000
1760.758301 6088.000000
1762.195313 7571.000000
1763.631348 5836.000000
1765.066528 7207.000000
1766.500244 6173.000000
1767.933838 6505.000000
1769.366455 6607.000000
1770.798218 5784.000000
1772.229126 5890.000000
1773.658813 6398.000000
1775.087769 6158.000000
1776.516235 6291.000000
1777.943726 6757.000000
1779.369873 6196.000000
1780.795776 5568.000000
1782.220581 6908.000000
1783.644775 5570.000000
1785.067505 6651.000000
1786.489746 6556.000000
1787.911255 6932.000000
1789.332031 5996.000000
1790.751831 5964.000000
1792.170288 6151.000000
1793.588257 6932.000000
1795.005615 5573.000000
1796.422119 6028.000000
1797.837158 6548.000000
1799.251831 5886.000000
1800.665894 6608.000000
1802.078735 5954.000000
1803.490967 7028.000000
1804.901855 7116.000000
1806.312256 7781.000000
1807.721924 6485.000000
1809.130615 5961.000000
1810.538208 5396.000000
1811.945313 6413.000000
1813.351563 6343.000000
1814.756836 6723.000000
1816.161011 5946.000000
1817.564819 5980.000000
1818.967651 6222.000000
1820.369629 6102.000000
1821.770996 5875.000000
1823.170898 6405.000000
1824.570190 6521.000000
1825.968994 6592.000000
1827.366943 7509.000000
1828.763550 5838.000000
1830.159546 6770.000000
1831.554810 5930.000000
1832.949463 8093.000000
1834.343140 6035.000000
1835.735474 6877.000000
1837.127319 6356.000000
1838.518555 5932.000000
1839.908813 7122.000000
1841.297852 6034.000000
1842.686523 6138.000000
1844.074219 6020.000000
1845.461182 5825.000000
1846.846802 6868.000000
1848.232178 5856.000000
1849.616699 6381.000000
1851.000488 6333.000000
1852.383179 6395.000000
1853.764648 5448.000000
1855.145630 6608.000000
1856.526123 6351.000000
1857.905640 5750.000000
1859.283691 6034.000000
1860.661621 6320.000000
1862.038574 7844.000000
1863.414795 6095.000000
1864.790161 6089.000000
1866.164063 5689.000000
1867.537842 5705.000000
1868.910767 6249.000000
1870.282593 5975.000000
1871.653442 6838.000000
1873.023926 5418.000000
1874.393311 5998.000000
1875.762207 6055.000000
1877.129517 7183.000000
1878.496704 6049.000000
1879.862915 6005.000000
1881.228394 6780.000000
1882.593140 7534.000000
1883.956299 6787.000000
1885.319336 6922.000000
1886.681519 6362.000000
1888.042847 6496.000000
1889.402832 5641.000000
1890.762451 5830.000000
1892.121460 6177.000000
1893.479492 6684.000000
1894.836670 7301.000000
1896.192627 5938.000000
1897.548340 7584.000000
1898.903076 5851.000000
1900.256958 5532.000000
1901.609741 5918.000000
1902.962036 5917.000000
1904.313599 5956.000000
1905.664307 6935.000000
1907.013794 6576.000000
1908.362793 6649.000000
1909.710938 5843.000000
1911.058472 6232.000000
1912.405273 6315.000000
1913.750488 6865.000000
1915.095459 6063.000000
1916.439697 5506.000000
1917.783081 6509.000000
1919.125122 5994.000000
1920.466919 6723.000000
1921.807861 7018.000000
1923.148071 6148.000000
1924.487305 6366.000000
1925.825562 6408.000000
1927.163208 6471.000000
1928.500122 7016.000000
1929.836182 6761.000000
1931.171021 5560.000000
1932.505493 6760.000000
1933.839233 7358.000000
1935.172119 6213.000000
1936.503540 5794.000000
1937.835083 6393.000000
1939.165283 6689.000000
1940.494995 5801.000000
1941.823853 6043.000000
1943.151489 5845.000000
1944.478638 5054.000000
1945.805054 5859.000000
1947.130737 6531.000000
1948.455078 5758.000000
1949.779175 6650.000000
1951.102417 6389.000000
1952.424927 6451.000000
1953.746338 5762.000000
1955.066772 7504.000000
1956.386597 6012.000000
1957.706055 5607.000000
1959.024536 6867.000000
1960.341675 5924.000000
1961.658447 5852.000000
1962.974487 6621.000000
1964.289795 6611.000000
1965.603638 6279.000000
1966.917236 5656.000000
1968.230103 6209.000000
1969.542114 6058.000000
1970.853516 6046.000000
1972.163574 6347.000000
1973.473145 5848.000000
1974.781982 6162.000000
1976.090210 6637.000000
1977.397095 6129.000000
1978.703369 7286.000000
1980.009277 5525.000000
1981.313965 6432.000000
1982.618164 5915.000000
1983.921143 5791.000000
1985.223755 7560.000000
1986.525391 6118.000000
1987.826416 6796.000000
1989.125854 6007.000000
1990.425415 6682.000000
1991.723877 5284.000000
1993.021851 6072.000000
1994.318237 6157.000000
1995.614624 5790.000000
1996.910034 5584.000000
1998.204712 6573.000000
1999.498535 5749.000000
2000.791138 6578.000000
2002.083252 5760.000000
2003.374878 7112.000000
2004.665771 6482.000000
2005.955078 6359.000000
2007.244141 6781.000000
2008.532471 5996.000000
2009.820068 6033.000000
2011.106812 6600.000000
2012.392456 5634.000000
2013.677734 6410.000000
2014.962036 6012.000000
2016.245728 5582.000000
2017.528076 6089.000000
2018.810059 6485.000000
2020.091553 6817.000000
2021.372070 5897.000000
2022.651855 6100.000000
2023.930542 6770.000000
2025.208496 5842.000000
2026.485962 5938.000000
2027.762817 6355.000000
2029.037964 5729.000000
2030.313232 6584.000000
2031.587524 6061.000000
2032.860840 5988.000000
2034.133301 6027.000000
2035.405396 6170.000000
2036.676392 7005.000000
2037.947144 6539.000000
2039.216553 5984.000000
2040.484863 6762.000000
2041.753174 6637.000000
2043.020508 5983.000000
2044.287109 5995.000000
2045.552490 5608.000000
2046.817261 5852.000000
2048.081787 5438.000000
2049.345215 5866.000000
2050.608154 6442.000000
2051.869141 6192.000000
2053.130615 6104.000000
2054.390869 5889.000000
2055.650391 6605.000000
2056.909180 6305.000000
2058.166992 6872.000000
2059.424316 6177.000000
2060.680908 6055.000000
2061.936035 6503.000000
2063.191162 5747.000000
2064.445313 5608.000000
2065.698730 5671.000000
2066.951416 6910.000000
2068.202881 6270.000000
2069.454102 6387.000000
2070.704590 5669.000000
2071.954346 5431.000000
2073.202637 6489.000000
2074.450928 6445.000000
2075.698242 7519.000000
2076.944824 5554.000000
2078.190674 6034.000000
2079.435303 7026.000000
2080.679443 7599.000000
2081.923096 5487.000000
2083.165771 6025.000000
2084.407227 7016.000000
2085.648438 5941.000000
2086.889160 6343.000000
2088.128906 6794.000000
2089.367432 7122.000000
2090.605469 6141.000000
2091.842773 5798.000000
2093.079834 6638.000000
2094.315430 6105.000000
2095.550293 6209.000000
2096.784912 6066.000000
2098.018555 5604.000000
2099.251221 6136.000000
2100.483154 6838.000000
2101.714600 6406.000000
2102.945068 6776.000000
2104.174805 6060.000000
2105.404297 6004.000000
2106.631836 6008.000000
2107.859619 6013.000000
2109.086670 6457.000000
2110.312744 5493.000000
2111.537354 6441.000000
2112.762207 6981.000000
2113.985840 7087.000000
2115.208984 6198.000000
2116.430908 7539.000000
2117.652588 6003.000000
2118.873291 6803.000000
2120.093262 6018.000000
2121.312744 6149.000000
2122.530762 6582.000000
2123.748779 7083.000000
2124.965820 5735.000000
2126.182373 5800.000000
2127.397217 6578.000000
2128.612305 6364.000000
2129.826416 6979.000000
2131.039795 5679.000000
2132.252441 6077.000000
2133.463623 5816.000000
2134.675049 6444.000000
2135.885254 6834.000000
2137.094971 5943.000000
2138.303223 6090.000000
2139.511475 5664.000000
2140.718994 5869.000000
2141.925293 7672.000000
2143.130859 5906.000000
2144.336182 5737.000000
2145.540527 5553.000000
2146.744141 6334.000000
2147.947266 6205.000000
2149.148926 6421.000000
2150.350342 5367.000000
2151.551025 6283.000000
2152.750977 6088.000000
2153.949707 6059.000000
2155.148193 6975.000000
2156.346191 6183.000000
2157.543213 6026.000000
2158.739502 5128.000000
2159.934570 5323.000000
2161.129395 6130.000000
2162.323486 5562.000000
2163.516602 6056.000000
2164.708740 6865.000000
2165.900635 5911.000000
2167.091797 6328.000000
2168.281982 6272.000000
2169.471436 6516.000000
2170.660400 6786.000000
2171.848389 6015.000000
2173.036133 5757.000000
2174.222412 5968.000000
2175.407959 6601.000000
2176.593262 6000.000000
2177.778076 5810.000000
2178.961670 6375.000000
2180.144531 7468.000000
2181.326416 6346.000000
2182.508057 5984.000000
2183.689209 6548.000000
2184.869141 5678.000000
2186.048096 5524.000000
2187.226563 6393.000000
2188.404785 6945.000000
2189.581787 7264.000000
2190.757813 6784.000000
2191.933594 6164.000000
2193.108887 5595.000000
2194.282715 6634.000000
2195.456055 6188.000000
2196.629150 6200.000000
2197.801025 6573.000000
2198.972412 7147.000000
2200.143311 6369.000000
2201.312500 6961.000000
2202.481689 7549.000000
2203.650391 6310.000000
2204.818115 5915.000000
2205.984863 5702.000000
2207.150879 7179.000000
2208.316406 6663.000000
2209.481689 5981.000000
2210.645508 6758.000000
2211.808838 5420.000000
2212.970947 6130.000000
2214.133301 6195.000000
2215.294434 6643.000000
2216.454590 6616.000000
2217.614258 6341.000000
2218.773682 6620.000000
2219.931885 6423.000000
2221.089111 6290.000000
2222.246094 6792.000000
2223.402344 6586.000000
2224.557861 6749.000000
2225.712646 6347.000000
2226.866455 6416.000000
2228.019287 6045.000000
2229.172607 6981.000000
2230.323975 6254.000000
2231.475098 6179.000000
2232.625488 6540.000000
2233.775391 7706.000000
2234.924316 6410.000000
2236.072754 5260.000000
2237.219727 6710.000000
2238.366943 7096.000000
2239.512939 6065.000000
2240.658691 7225.000000
2241.802734 7341.000000
2242.947021 6765.000000
2244.090332 6153.000000
2245.232910 6010.000000
2246.374512 5795.000000
2247.515869 5906.000000
2248.656250 6402.000000
2249.795898 6450.000000
2250.935059 5849.000000
2252.072998 5863.000000
2253.210938 6204.000000
2254.347900 5325.000000
2255.484131 6388.000000
2256.619385 6166.000000
2257.753906 7279.000000
2258.888184 6385.000000
2260.021973 5434.000000
2261.154297 6156.000000
2262.286133 6796.000000
2263.417480 6343.000000
2264.547852 6455.000000
2265.677979 8137.000000
2266.806885 6728.000000
2267.935303 6109.000000
2269.063232 5587.000000
2270.190186 6110.000000
2271.316406 5991.000000
2272.441650 6729.000000
2273.566895 6495.000000
2274.691406 6419.000000
2275.814697 5872.000000
2276.937256 6362.000000
2278.059326 6002.000000
2279.180908 7446.000000
2280.301758 6450.000000
2281.421387 6437.000000
2282.540527 7160.000000
2283.659424 7629.000000
2284.777588 7268.000000
2285.894775 5868.000000
2287.010986 6399.000000
2288.126953 7033.000000
2289.242188 6923.000000
2290.356689 7408.000000
2291.469971 5821.000000
2292.583252 6367.000000
2293.695801 6026.000000
2294.807617 5374.000000
2295.918701 6753.000000
2297.028564 6466.000000
2298.137939 6175.000000
2299.247070 6585.000000
2300.355225 6348.000000
2301.462402 6779.000000
2302.569336 5869.000000
2303.675537 6243.000000
2304.781250 6582.000000
2305.885498 6612.000000
2306.989502 5474.000000
2308.093018 5779.000000
2309.196045 6578.000000
2310.297852 7445.000000
2311.398926 7381.000000
2312.499512 6545.000000
2313.599609 5482.000000
2314.698975 6389.000000
2315.796875 6587.000000
2316.895264 6998.000000
2317.992188 8218.000000
2319.088867 6921.000000
2320.185059 5814.000000
2321.279541 6823.000000
2322.374023 7400.000000
2323.467773 5856.000000
2324.561279 6118.000000
2325.653076 6500.000000
2326.744873 7034.000000
2327.835938 6129.000000
2328.926270 6272.000000
2330.015625 6916.000000
2331.104980 6041.000000
2332.193115 6357.000000
2333.280762 6839.000000
2334.368164 6588.000000
2335.453857 6809.000000
2336.539307 7774.000000
2337.624512 6242.000000
2338.708740 6743.000000
2339.791992 5964.000000
2340.875000 6431.000000
2341.957031 7861.000000
2343.038818 5988.000000
2344.119873 7446.000000
2345.199707 6644.000000
2346.279053 5710.000000
2347.357910 6799.000000
2348.436279 6552.000000
2349.513184 6281.000000
2350.589844 7016.000000
2351.666260 6105.000000
2352.741699 6426.000000
2353.816162 5921.000000
2354.890381 6259.000000
2355.963867 6741.000000
2357.036865 6210.000000
2358.108643 7005.000000
2359.180176 6271.000000
2360.250732 6850.000000
2361.321045 7578.000000
2362.390381 7521.000000
2363.458740 6799.000000
2364.526855 6771.000000
2365.594238 7073.000000
2366.661133 7124.000000
2367.727295 6031.000000
2368.792236 6927.000000
2369.857178 6975.000000
2370.921387 6394.000000
2371.984863 6944.000000
2373.047119 5834.000000
2374.109375 6362.000000
2375.170654 6371.000000
2376.231689 5892.000000
2377.291504 6301.000000
2378.350586 7917.000000
2379.409668 6397.000000
2380.467773 7431.000000
2381.525146 6869.000000
2382.581543 8079.000000
2383.637695 7802.000000
2384.693359 6251.000000
2385.748291 7083.000000
2386.801758 6739.000000
2387.855469 6638.000000
2388.908203 6285.000000
2389.960449 6807.000000
2391.011963 6162.000000
2392.062500 6659.000000
2393.112793 6496.000000
2394.162109 6310.000000
2395.211426 6155.000000
2396.259277 6896.000000
2397.306641 7007.000000
2398.353760 6296.000000
2399.399902 6677.000000
2400.445313 6146.000000
2401.489990 6696.000000
2402.534668 7774.000000
2403.577881 7504.000000
2404.621094 6546.000000
2405.662842 5760.000000
2406.704834 6704.000000
2407.746094 7144.000000
2408.786377 6100.000000
2409.825928 6397.000000
2410.864502 6344.000000
2411.903320 5976.000000
2412.940918 6589.000000
2413.978271 6889.000000
2415.014404 7362.000000
2416.050293 6281.000000
2417.085449 6268.000000
2418.120117 6678.000000
2419.153320 7290.000000
2420.186768 6461.000000
2421.219238 6638.000000
2422.251465 6853.000000
2423.282227 7041.000000
2424.312988 6369.000000
2425.343262 6795.000000
2426.372314 6900.000000
2427.401367 6726.000000
2428.428711 7446.000000
2429.456543 6723.000000
2430.483154 7267.000000
2431.509521 7037.000000
2432.534424 7752.000000
2433.559570 6604.000000
2434.583740 7118.000000
2435.607666 6738.000000
2436.630371 5839.000000
2437.652344 6305.000000
2438.674072 6620.000000
2439.695068 6657.000000
2440.715576 5996.000000
2441.734863 6510.000000
2442.754150 6606.000000
2443.772461 8505.000000
2444.790527 6219.000000
2445.807129 6488.000000
2446.823730 6552.000000
2447.839600 5965.000000
2448.855469 7034.000000
2449.869873 6802.000000
2450.883545 5573.000000
2451.896729 7205.000000
2452.909668 5951.000000
2453.921875 7216.000000
2454.933105 6637.000000
2455.944092 7691.000000
2456.954346 6294.000000
2457.964111 7626.000000
2458.972900 5916.000000
2459.980957 5899.000000
2460.989014 6331.000000
2461.995850 7408.000000
2463.002441 5425.000000
2464.007813 7436.000000
2465.012939 6954.000000
2466.017822 5822.000000
2467.021484 6481.000000
2468.024902 6383.000000
2469.027344 7592.000000
2470.029541 7365.000000
2471.031250 6916.000000
2472.031982 6615.000000
2473.031738 7039.000000
2474.031494 6725.000000
2475.030273 5714.000000
2476.028564 6593.000000
2477.025879 7047.000000
2478.022949 6146.000000
2479.020020 6974.000000
2480.015625 5857.000000
2481.011230 7158.000000
2482.005127 6695.000000
2482.999023 8108.000000
2483.992432 6893.000000
2484.985352 6683.000000
2485.977295 7536.000000
2486.968506 7206.000000
2487.959473 6717.000000
2488.949951 5851.000000
2489.939453 6607.000000
2490.928223 6536.000000
2491.916992 5669.000000
2492.904785 6835.000000
2493.891357 6603.000000
2494.877930 8063.000000
2495.864014 6764.000000
2496.849365 7067.000000
2497.833740 8079.000000
2498.817871 6042.000000
2499.802002 6870.000000
2500.784668 5749.000000
2501.766846 7042.000000
2502.748535 6903.000000
2503.729492 7272.000000
2504.709961 6472.000000
2505.690186 5762.000000
2506.668945 6392.000000
2507.647461 7611.000000
2508.625488 6736.000000
2509.603027 7140.000000
2510.579590 6096.000000
2511.555908 5929.000000
2512.531494 6474.000000
2513.506592 6216.000000
2514.481201 6537.000000
2515.454590 7621.000000
2516.427734 6914.000000
2517.400635 6913.000000
2518.372559 6069.000000
2519.343750 6814.000000
2520.314453 6934.000000
2521.284912 7861.000000
2522.254639 8082.000000
2523.223389 6067.000000
2524.191406 6144.000000
2525.159424 7676.000000
2526.126465 6298.000000
2527.093262 5532.000000
2528.058838 7235.000000
2529.024414 7001.000000
2529.989258 7673.000000
2530.953613 6380.000000
2531.916748 6473.000000
2532.880127 5906.000000
2533.842529 5963.000000
2534.804688 6762.000000
2535.765625 6380.000000
2536.725830 6170.000000
2537.686279 6185.000000
2538.645752 6742.000000
2539.604492 6860.000000
2540.562256 6648.000000
2541.520264 6224.000000
2542.477539 6766.000000
2543.433838 6105.000000
2544.389893 7073.000000
2545.344727 6196.000000
2546.299805 7752.000000
2547.254150 7057.000000
2548.207764 6279.000000
2549.160400 7211.000000
2550.112793 6708.000000
2551.064697 6988.000000
2552.015869 6379.000000
2552.966309 7714.000000
2553.916260 7278.000000
2554.865967 7388.000000
2555.814941 6676.000000
2556.763428 6235.000000
2557.710693 7068.000000
2558.657959 6209.000000
2559.604492 6640.000000
2560.550537 6717.000000
2561.495605 7539.000000
2562.440430 6793.000000
2563.384766 7202.000000
2564.328613 6816.000000
2565.271973 6674.000000
2566.213867 6603.000000
2567.156006 6574.000000
2568.097412 6148.000000
2569.038086 7128.000000
2569.978027 7257.000000
2570.917969 5694.000000
2571.856934 6124.000000
2572.795654 7537.000000
2573.733398 7185.000000
2574.670898 5447.000000
2575.607666 6985.000000
2576.543701 6820.000000
2577.479248 7494.000000
2578.414063 6394.000000
2579.348877 6019.000000
2580.282715 7058.000000
2581.216064 7149.000000
2582.148682 5825.000000
2583.081055 6925.000000
2584.012695 5495.000000
2584.943848 7057.000000
2585.874512 6987.000000
2586.803955 6882.000000
2587.733398 7170.000000
2588.662354 6478.000000
2589.591064 7546.000000
2590.518066 7359.000000
2591.445313 5889.000000
2592.372070 6769.000000
2593.298096 6289.000000
2594.223877 5560.000000
2595.148438 7686.000000
2596.072754 7639.000000
2596.996582 5302.000000
2597.919922 7378.000000
2598.842285 6281.000000
2599.764404 6845.000000
2600.686035 8283.000000
2601.606934 6428.000000
2602.527100 5709.000000
2603.447021 6398.000000
2604.366455 6386.000000
2605.285645 6439.000000
2606.203857 5852.000000
2607.120850 6026.000000
2608.038086 7313.000000
2608.955078 5908.000000
2609.871094 7567.000000
2610.785889 6644.000000
2611.701172 6609.000000
2612.615723 6582.000000
2613.529297 6592.000000
2614.442871 6151.000000
2615.355225 7660.000000
2616.267578 7018.000000
2617.178955 6808.000000
2618.090088 5717.000000
2619.000488 7198.000000
2619.910645 6677.000000
2620.820068 6272.000000
2621.729004 6600.000000
2622.636963 6319.000000
2623.545166 6932.000000
2624.452393 6595.000000
2625.359131 7085.000000
2626.265137 6029.000000
2627.170898 6626.000000
2628.075928 6537.000000
2628.980713 7902.000000
2629.884766 6435.000000
2630.787842 6391.000000
2631.690918 6417.000000
2632.593018 5683.000000
2633.495117 6740.000000
2634.396973 6979.000000
2635.297119 6726.000000
2636.197510 6443.000000
2637.097168 6435.000000
2637.996582 5985.000000
2638.894531 6898.000000
2639.792969 6744.000000
2640.690918 6395.000000
2641.588135 6131.000000
2642.484131 6134.000000
2643.380127 6724.000000
2644.275879 6060.000000
2645.170898 6438.000000
2646.065674 6643.000000
2646.958984 7236.000000
2647.852295 6300.000000
2648.745361 6729.000000
2649.638184 6441.000000
2650.529297 7422.000000
2651.420654 6400.000000
2652.311523 7621.000000
2653.201660 7334.000000
2654.091553 6606.000000
2654.980225 7317.000000
2655.869141 6637.000000
2656.757568 6622.000000
2657.645020 7428.000000
2658.531494 6541.000000
2659.418457 7110.000000
2660.304688 6850.000000
2661.190430 6832.000000
2662.074951 6481.000000
2662.959473 6442.000000
2663.843750 6212.000000
2664.727295 7100.000000
2665.610352 7725.000000
2666.492676 7319.000000
2667.374512 6157.000000
2668.255615 6565.000000
2669.136963 6108.000000
2670.016846 6514.000000
2670.896973 7423.000000
2671.776367 7214.000000
2672.655762 6355.000000
2673.534424 6172.000000
2674.411377 6468.000000
2675.289063 6730.000000
2676.166016 6357.000000
2677.042236 8174.000000
2677.917969 7204.000000
2678.792969 6288.000000
2679.668213 7725.000000
2680.542480 6966.000000
2681.416260 7373.000000
2682.289307 7040.000000
2683.162109 6149.000000
2684.034668 6131.000000
2684.906494 6957.000000
2685.777588 6550.000000
2686.648438 6944.000000
2687.518799 7123.000000
2688.388916 6750.000000
2689.257324 6334.000000
2690.126465 7349.000000
2690.994873 7125.000000
2691.863037 6663.000000
2692.730469 6905.000000
2693.596680 5988.000000
2694.463379 7139.000000
2695.329102 7366.000000
2696.194824 7175.000000
2697.059082 7998.000000
2697.924072 6588.000000
2698.787598 7262.000000
2699.651367 5817.000000
2700.513672 7375.000000
2701.376465 6764.000000
2702.238281 5828.000000
2703.099609 6825.000000
2703.960938 6763.000000
2704.821045 7458.000000
2705.681152 7301.000000
2706.540771 6609.000000
2707.400146 6787.000000
2708.257813 7178.000000
2709.115723 6861.000000
2709.974121 7366.000000
2710.831299 6783.000000
2711.687744 6019.000000
2712.543701 6844.000000
2713.399658 6107.000000
2714.254883 6977.000000
2715.109375 6123.000000
2715.963379 6919.000000
2716.817383 7364.000000
2717.670410 6307.000000
2718.523682 6650.000000
2719.375244 7699.000000
2720.227295 6810.000000
2721.079102 6312.000000
2721.929688 6471.000000
2722.780273 6429.000000
2723.630371 7151.000000
2724.479736 7077.000000
2725.329102 6981.000000
2726.177246 6662.000000
2727.024902 6511.000000
2727.873047 6967.000000
2728.719971 6886.000000
2729.567383 5562.000000
2730.413330 7513.000000
2731.258545 7103.000000
2732.104248 6446.000000
2732.948975 6985.000000
2733.793701 7360.000000
2734.637207 6886.000000
2735.480957 7795.000000
2736.323975 7180.000000
2737.166504 6082.000000
2738.008057 6256.000000
2738.850098 6804.000000
2739.691162 6915.000000
2740.531982 5796.000000
2741.372559 5925.000000
2742.211914 7780.000000
2743.051270 6796.000000
2743.890625 6879.000000
2744.728760 6840.000000
2745.566406 7862.000000
2746.404053 6349.000000
2747.241211 7085.000000
2748.078125 6190.000000
2748.914551 6041.000000
2749.749756 6660.000000
2750.585205 6291.000000
2751.420166 6359.000000
2752.254395 6240.000000
2753.088379 6866.000000
2753.921875 6805.000000
2754.755371 7955.000000
2755.587891 6791.000000
2756.419922 7317.000000
2757.251465 6852.000000
2758.083008 7166.000000
2758.913574 7130.000000
2759.744385 7231.000000
2760.573975 7314.000000
2761.403564 6669.000000
2762.232910 7265.000000
2763.061523 6833.000000
2763.889648 6770.000000
2764.717285 6877.000000
2765.544922 6666.000000
2766.372070 7871.000000
2767.198486 5831.000000
2768.024414 7464.000000
2768.849854 6870.000000
2769.675049 7777.000000
2770.500244 7119.000000
2771.324219 6746.000000
2772.148193 6505.000000
2772.972168 7640.000000
2773.794922 6579.000000
2774.617920 7011.000000
2775.439697 6900.000000
2776.261475 6971.000000
2777.083252 6465.000000
2777.904053 7983.000000
2778.724121 6594.000000
2779.544434 6956.000000
2780.364258 7347.000000
2781.184082 6407.000000
2782.001953 5926.000000
2782.821045 8061.000000
2783.638916 6465.000000
2784.456543 6739.000000
2785.273682 7127.000000
2786.090332 7292.000000
2786.906738 7227.000000
2787.722656 6327.000000
2788.538330 5943.000000
2789.353027 6362.000000
2790.168213 6977.000000
2790.982666 7131.000000
2791.796631 6579.000000
2792.610352 7491.000000
2793.422852 8848.000000
2794.235596 6979.000000
2795.047852 7455.000000
2795.859619 7263.000000
2796.670654 7411.000000
2797.482422 6457.000000
2798.292969 7215.000000
2799.103516 7018.000000
2799.912598 7434.000000
2800.722412 8203.000000
2801.531494 7818.000000
2802.340332 6615.000000
2803.148682 7161.000000
2803.956055 6156.000000
2804.763916 6463.000000
2805.571045 6749.000000
2806.377930 7007.000000
2807.183594 7139.000000
2807.989746 6661.000000
2808.795166 6459.000000
2809.600586 7382.000000
2810.405273 6191.000000
2811.208984 7647.000000
2812.013184 7450.000000
2812.816895 6363.000000
2813.620361 6124.000000
2814.422363 6594.000000
2815.225098 7375.000000
2816.027100 7904.000000
2816.828857 6138.000000
2817.630127 6573.000000
2818.430908 7228.000000
2819.231201 6559.000000
2820.031738 6708.000000
2820.831299 8128.000000
2821.630371 7170.000000
2822.429443 6492.000000
2823.228271 6878.000000
2824.026611 6377.000000
2824.823975 7020.000000
2825.621582 7072.000000
2826.418457 6685.000000
2827.215576 7376.000000
2828.011963 8046.000000
2828.807617 6965.000000
2829.603271 7309.000000
2830.398682 7594.000000
2831.193604 7505.000000
2831.987793 6704.000000
2832.781982 6790.000000
2833.575928 5686.000000
2834.369385 6893.000000
2835.162109 7094.000000
2835.954590 8221.000000
2836.747070 7648.000000
2837.539307 7752.000000
2838.331055 6466.000000
2839.121826 6796.000000
2839.912598 8887.000000
2840.703613 7421.000000
2841.493652 6277.000000
2842.283203 7668.000000
2843.072998 7184.000000
2843.861816 7315.000000
2844.650635 7779.000000
2845.439453 7687.000000
2846.227295 7549.000000
2847.014648 7272.000000
2847.802246 7542.000000
2848.589355 7323.000000
2849.375732 6678.000000
2850.162109 7455.000000
2850.948242 7225.000000
2851.733887 7533.000000
2852.518555 7134.000000
2853.303711 6952.000000
2854.088623 7479.000000
2854.872803 7119.000000
2855.656982 6890.000000
2856.439941 8296.000000
2857.223145 6780.000000
2858.006104 6803.000000
2858.788574 7815.000000
2859.570801 6284.000000
2860.352539 6637.000000
2861.134033 7633.000000
2861.915771 7447.000000
2862.696777 7618.000000
2863.477051 6549.000000
2864.257080 6687.000000
2865.037109 8178.000000
2865.816895 7423.000000
2866.595703 8128.000000
2867.374756 7683.000000
2868.153320 6811.000000
2868.931641 7005.000000
2869.709473 7227.000000
2870.487061 6905.000000
2871.264404 7483.000000
2872.041504 6910.000000
2872.818115 6366.000000
2873.594238 7503.000000
2874.370361 7162.000000
2875.145996 8255.000000
2875.921387 7268.000000
2876.696289 6629.000000
2877.470947 8027.000000
2878.245605 6620.000000
2879.020020 7854.000000
2879.793701 6805.000000
2880.566650 7142.000000
2881.340332 6738.000000
2882.113037 7492.000000
2882.885742 7836.000000
2883.657715 8234.000000
2884.429443 6241.000000
2885.201660 6824.000000
2885.972656 6869.000000
2886.743164 6153.000000
2887.514160 8324.000000
2888.285156 7435.000000
2889.055420 7989.000000
2889.824707 7682.000000
2890.594238 6947.000000
2891.363770 7252.000000
2892.132813 7355.000000
2892.901367 7859.000000
2893.669922 7685.000000
2894.437500 6887.000000
2895.205566 6540.000000
2895.973145 7427.000000
2896.740723 8379.000000
2897.507080 7371.000000
2898.274414 6490.000000
2899.040527 7209.000000
2899.806885 7022.000000
2900.571777 8299.000000
2901.337158 7078.000000
2902.103027 6537.000000
2902.867432 7798.000000
2903.631836 7764.000000
2904.396484 8550.000000
2905.160156 6644.000000
2905.924561 8450.000000
2906.688232 6689.000000
2907.451172 8360.000000
2908.213867 6512.000000
2908.977051 9212.000000
2909.739746 6948.000000
2910.501221 6827.000000
2911.263184 6827.000000
