scanname Analyse045
timestamp 2017-02-10 20:59:01
ccdbias 899.406738
ccdgain 3.473401
sigmaread 8.960639
laserwavenum -0.564503
wavenumcorrection -0.041539
scancount 1
totalexposurems 10000
singleexposurems 10000
measurementstate Unknown
scanmode Manual
snr 240.186981 6.679746 5.699175
replacelist 3
374 45658.000000 15031.000000
672 37418.000000 30797.000000
753 31771.000000 5620.000000
peaks 51
278.054779 0.689888 0.000000 1.376878 0.000177
291.792267 0.689972 0.000000 0.583592 0.000027
329.803528 0.704262 0.000000 0.986104 0.000152
342.638611 0.706915 0.000000 0.671609 0.000031
350.089417 0.710105 0.000000 0.564239 0.000022
361.366180 0.714057 0.000000 0.678421 0.000059
386.519348 0.716066 0.000000 1.544258 0.000316
448.126984 0.714775 0.000000 0.491417 0.000052
455.384338 0.720583 0.000000 0.258279 0.000040
462.576416 0.723939 0.000000 0.414505 0.000026
487.593323 0.733354 0.000000 0.750420 0.000099
533.537415 0.725350 0.000000 0.656729 0.000144
559.283508 0.752383 0.000000 1.083400 0.000197
573.098633 0.757980 0.000000 0.249678 0.000068
583.633423 0.753520 0.000000 0.784782 0.000113
660.339783 0.750681 0.000000 0.970114 0.000070
667.352112 0.753738 0.000000 0.821446 0.000087
673.848450 0.751397 0.000000 1.336120 0.000250
715.547607 0.741599 0.000000 4.874145 0.000984
740.992859 0.732097 0.000000 1.191465 0.000086
752.332214 0.733267 0.000000 0.432457 0.000027
766.515930 0.749808 0.000000 1.543023 0.000455
773.176331 0.749018 0.000000 3.363162 0.000382
802.319275 0.710089 0.000000 2.268547 0.000146
825.877441 0.726296 0.000000 0.417323 0.000028
832.492920 0.722806 0.000000 0.860735 0.000101
853.962463 0.749295 0.000000 0.954686 0.000240
874.409363 0.762703 0.000000 2.025581 0.000593
935.335693 0.705974 0.000000 1.182186 0.000196
955.117554 0.700570 0.000000 2.823786 0.000794
976.118103 0.683802 0.000000 0.159000 0.000056
1010.588745 0.679836 0.000000 0.680315 0.000150
1030.455811 0.696751 0.000000 0.667593 0.000152
1044.795166 0.714369 0.000000 3.808303 0.001096
1087.437012 0.689963 0.000000 1.925434 0.000315
1101.127808 0.673348 0.000000 1.004160 0.000303
1113.989868 0.671792 0.000000 0.465121 0.000039
1119.739502 0.677413 0.000000 0.988288 0.000209
1135.868652 0.673396 0.000000 2.135305 0.000764
1149.992310 0.662099 0.000000 1.876397 0.000691
1173.663330 0.642355 0.000000 0.227444 0.000030
1209.775269 0.638935 0.000000 0.252841 0.000043
1237.690918 0.638842 0.000000 0.617216 0.000123
1260.719604 0.637576 0.000000 0.178855 0.000114
1281.304321 0.638518 0.000000 0.880553 0.000221
1320.730469 0.711524 0.000000 6.036582 0.002185
1452.277344 0.675391 0.000000 10.801109 0.003200
1472.050049 0.621697 0.000000 4.154138 0.000504
1614.341309 0.575638 0.000000 0.953805 0.000357
1662.788818 0.576858 0.000000 4.717349 0.001948
1747.949829 0.513333 0.000000 1.363518 0.000549
finalresult GLS_NoMatch 0
spectrum 2048
-97.036949 46307.000000
-94.410080 46307.000000
-91.785088 46637.000000
-89.161987 46526.000000
-86.540756 47117.000000
-83.921425 46882.000000
-81.303955 47134.000000
-78.688362 46855.000000
-76.074646 47083.000000
-73.462807 47417.000000
-70.852829 47272.000000
-68.244736 47404.000000
-65.638489 47478.000000
-63.034122 47377.000000
-60.431614 47302.000000
-57.830959 47819.000000
-55.232166 47179.000000
-52.635231 46627.000000
-50.040150 46865.000000
-47.446922 47060.000000
-44.855545 47129.000000
-42.266014 46621.000000
-39.678326 47463.000000
-37.092487 47278.000000
-34.508492 46881.000000
-31.926331 47706.000000
-29.346018 47029.000000
-26.767532 47678.000000
-24.190889 47224.000000
-21.616072 46970.000000
-19.043095 46808.000000
-16.471937 46742.000000
-13.902615 46455.000000
-11.335116 45369.000000
-8.769437 46869.000000
-6.205583 46627.000000
-3.643542 47131.000000
-1.083326 47207.000000
1.475082 46818.000000
4.031669 45905.000000
6.586451 46066.000000
9.139416 46577.000000
11.690580 45694.000000
14.239932 45705.000000
16.787489 45157.000000
19.333233 45447.000000
21.877184 44958.000000
24.419331 42844.000000
26.959681 41029.000000
29.498245 38005.000000
32.035011 33858.000000
34.569977 27368.000000
37.103165 15493.000000
39.634571 9934.000000
42.164185 9278.000000
44.692001 8827.000000
47.218060 7992.000000
49.742329 7043.000000
52.264828 6132.000000
54.785530 5821.000000
57.304478 5902.000000
59.821651 6817.000000
62.337048 8486.000000
64.850670 10324.000000
67.362534 10802.000000
69.872650 8020.000000
72.380974 5243.000000
74.887543 4132.000000
77.392365 3399.000000
79.895432 2776.000000
82.396721 2557.000000
84.896271 2407.000000
87.394066 2340.000000
89.890129 2678.000000
92.384415 3280.000000
94.876961 3726.000000
97.367790 3458.000000
99.856850 3067.000000
102.344162 2428.000000
104.829750 1972.000000
107.313599 1896.000000
109.795700 1756.000000
112.276077 1635.000000
114.754730 1576.000000
117.231659 1495.000000
119.706833 1579.000000
122.180298 1487.000000
124.652031 1485.000000
127.122055 1753.000000
129.590317 1851.000000
132.056915 2119.000000
134.521759 2386.000000
136.984909 2785.000000
139.446320 3202.000000
141.906036 3982.000000
144.364029 4874.000000
146.820328 6087.000000
149.274918 7670.000000
151.727783 9404.000000
154.178970 11437.000000
156.628464 15704.000000
159.076233 24166.000000
161.522293 27288.000000
163.966675 28064.000000
166.409378 32742.000000
168.850388 34448.000000
171.289688 36000.000000
173.727280 35963.000000
176.163239 37244.000000
178.597458 37445.000000
181.029999 37660.000000
183.460892 38715.000000
185.890060 38786.000000
188.317581 39825.000000
190.743423 40966.000000
193.167587 41439.000000
195.590088 41623.000000
198.010895 41761.000000
200.430038 42935.000000
202.847519 43827.000000
205.263306 42589.000000
207.677444 43434.000000
210.089951 44415.000000
212.500778 44841.000000
214.909927 44881.000000
217.317444 43881.000000
219.723251 45257.000000
222.127472 45055.000000
224.529984 44953.000000
226.930878 44853.000000
229.330124 45389.000000
231.727707 44991.000000
234.123627 44566.000000
236.517929 45313.000000
238.910568 46010.000000
241.301590 45078.000000
243.690948 45226.000000
246.078690 45372.000000
248.464783 44791.000000
250.849243 45668.000000
253.232056 43825.000000
255.613297 45088.000000
257.992828 45127.000000
260.370789 45178.000000
262.747070 44087.000000
265.121796 44046.000000
267.494873 43744.000000
269.866302 45338.000000
272.236084 45099.000000
274.604309 45591.000000
276.970886 45101.000000
279.335876 44704.000000
281.699249 45440.000000
284.060974 45178.000000
286.421112 44291.000000
288.779633 45313.000000
291.136566 44843.000000
293.491882 44933.000000
295.845612 45324.000000
298.197693 45325.000000
300.548218 45003.000000
302.897156 44938.000000
305.244446 44483.000000
307.590210 44788.000000
309.934296 44710.000000
312.276855 43854.000000
314.617798 43700.000000
316.957123 43855.000000
319.294891 44232.000000
321.631104 43079.000000
323.965668 44849.000000
326.298676 44644.000000
328.630127 45095.000000
330.959991 44552.000000
333.288269 44689.000000
335.614929 43858.000000
337.940094 44768.000000
340.263641 44909.000000
342.585632 45140.000000
344.906067 43495.000000
347.224884 43436.000000
349.542145 45129.000000
351.857880 45286.000000
354.172028 44096.000000
356.484589 44798.000000
358.795593 44721.000000
361.105072 44102.000000
363.413025 44807.000000
365.719360 45481.000000
368.024109 44704.000000
370.327393 44673.000000
372.629059 44973.000000
374.929230 44729.000000
377.227844 44969.000000
379.524902 45460.000000
381.820404 45074.000000
384.114380 45271.000000
386.406769 46013.000000
388.697662 45706.000000
390.987030 45044.000000
393.274811 44967.000000
395.561066 44766.000000
397.845825 44247.000000
400.128967 45189.000000
402.410675 44825.000000
404.690857 45019.000000
406.969452 43964.000000
409.246521 44771.000000
411.522064 44403.000000
413.796082 44634.000000
416.068665 44682.000000
418.339630 44669.000000
420.609100 44683.000000
422.877075 43911.000000
425.143494 43799.000000
427.408417 44816.000000
429.671875 44662.000000
431.933746 44566.000000
434.194153 45031.000000
436.453003 44270.000000
438.710388 44832.000000
440.966278 45252.000000
443.220673 45125.000000
445.473541 45354.000000
447.724854 43868.000000
449.974762 44652.000000
452.223083 44528.000000
454.469971 45161.000000
456.715393 44251.000000
458.959259 44199.000000
461.201630 43792.000000
463.442505 45071.000000
465.681976 43962.000000
467.919861 45237.000000
470.156311 44811.000000
472.391235 44536.000000
474.624695 43334.000000
476.856720 43876.000000
479.087219 44925.000000
481.316223 44139.000000
483.543762 44220.000000
485.769806 44655.000000
487.994415 44065.000000
490.217560 44737.000000
492.439240 44143.000000
494.659363 43975.000000
496.878082 44925.000000
499.095306 44294.000000
501.311157 45015.000000
503.525391 44327.000000
505.738312 44022.000000
507.949646 44033.000000
510.159546 43572.000000
512.368042 43935.000000
514.575134 43810.000000
516.780640 43904.000000
518.984741 43758.000000
521.187317 44116.000000
523.388489 43741.000000
525.588318 43455.000000
527.786621 43168.000000
529.983398 44733.000000
532.178833 44143.000000
534.372742 44397.000000
536.565308 42290.000000
538.756348 43213.000000
540.945984 43806.000000
543.134216 42811.000000
545.320923 42606.000000
547.506165 42837.000000
549.690125 43314.000000
551.872498 43005.000000
554.053528 43295.000000
556.233032 43431.000000
558.411255 43446.000000
560.587952 43311.000000
562.763245 42994.000000
564.937134 42990.000000
567.109558 43454.000000
569.280579 43308.000000
571.450134 43054.000000
573.618408 44124.000000
575.785156 42924.000000
577.950439 43037.000000
580.114319 43219.000000
582.276917 43660.000000
584.437988 43300.000000
586.597656 43824.000000
588.755981 43599.000000
590.912781 43242.000000
593.068237 42837.000000
595.222290 43649.000000
597.375000 43201.000000
599.526184 42113.000000
601.676025 42524.000000
603.824524 42553.000000
605.971436 43166.000000
608.117126 42731.000000
610.261414 42630.000000
612.404236 42096.000000
614.545593 42890.000000
616.685730 42540.000000
618.824341 41278.000000
620.961670 43168.000000
623.097534 42204.000000
625.231995 41868.000000
627.364990 41528.000000
629.496826 41968.000000
631.627197 41979.000000
633.756165 41651.000000
635.883667 41896.000000
638.009888 42055.000000
640.134583 40783.000000
642.258057 41759.000000
644.380188 41197.000000
646.500854 41028.000000
648.620178 41270.000000
650.738098 42174.000000
652.854675 42047.000000
654.969849 41202.000000
657.083679 41221.000000
659.196045 41787.000000
661.307190 41533.000000
663.416931 42239.000000
665.525208 41625.000000
667.632324 41401.000000
669.737976 40899.000000
671.842163 41859.000000
673.945129 42049.000000
676.046692 40787.000000
678.146912 42533.000000
680.245728 41057.000000
682.343201 41637.000000
684.439392 40930.000000
686.534119 41630.000000
688.627625 40737.000000
690.719788 41041.000000
692.810425 39713.000000
694.899841 40952.000000
696.987976 40928.000000
699.074646 41179.000000
701.160095 40338.000000
703.244019 41754.000000
705.326721 40880.000000
707.408142 40704.000000
709.488098 38981.000000
711.566833 40227.000000
713.644104 40643.000000
715.720093 39636.000000
717.794800 40196.000000
719.868225 39170.000000
721.940125 39897.000000
724.010864 38769.000000
726.080261 40199.000000
728.148254 39264.000000
730.214905 39380.000000
732.280334 38578.000000
734.344421 39839.000000
736.407166 39382.000000
738.468567 39008.000000
740.528687 38912.000000
742.587402 39435.000000
744.644897 38781.000000
746.701111 38840.000000
748.755920 38739.000000
750.809448 39004.000000
752.861572 37834.000000
754.912476 39611.000000
756.962158 38660.000000
759.010376 39018.000000
761.057373 39228.000000
763.103088 38337.000000
765.147400 40133.000000
767.190430 39812.000000
769.232239 39271.500000
771.272705 38731.000000
773.311768 38833.000000
775.349670 39050.000000
777.386230 39228.000000
779.421570 39871.000000
781.455566 39554.000000
783.488159 38462.000000
785.519592 39884.000000
787.549622 33880.000000
789.578369 39326.000000
791.605957 38776.000000
793.632202 38659.000000
795.657043 39239.000000
797.680786 39428.000000
799.703125 38552.000000
801.724243 39025.000000
803.744019 38114.000000
805.762512 39803.000000
807.779785 37935.000000
809.795654 37764.000000
811.810364 38685.000000
813.823730 37860.000000
815.835876 37925.000000
817.846802 38001.000000
819.856384 37429.000000
821.864746 38538.000000
823.871704 38016.000000
825.877441 37755.000000
827.881958 38018.000000
829.885193 38071.000000
831.887146 37161.000000
833.887817 37624.000000
835.887268 37827.000000
837.885376 37373.000000
839.882385 36794.000000
841.877991 37501.000000
843.872437 37680.000000
845.865540 37469.000000
847.857422 36935.000000
849.847961 38216.000000
851.837219 37026.000000
853.825439 37845.000000
855.812256 38133.000000
857.797852 37607.000000
859.782166 36821.000000
861.765381 37912.000000
863.747192 37877.000000
865.727783 38554.000000
867.707092 36625.000000
869.685242 37462.000000
871.662048 38416.000000
873.637573 38661.000000
875.612061 38467.000000
877.585083 38634.000000
879.557068 39040.000000
881.527710 37864.000000
883.497192 37998.000000
885.465332 38209.000000
887.432312 38323.000000
889.397949 37208.000000
891.362427 37300.000000
893.325684 36965.000000
895.287720 36427.000000
897.248474 36903.000000
899.208008 36195.000000
901.166260 35903.000000
903.123413 36070.000000
905.079407 36362.000000
907.033997 35370.000000
908.987366 35563.000000
910.939575 35418.000000
912.890564 35353.000000
914.840271 34375.000000
916.788818 34771.000000
918.736145 34681.000000
920.682190 34469.000000
922.626953 34210.000000
924.570679 33606.000000
926.513245 33633.000000
928.454529 33862.000000
930.394470 32802.000000
932.333313 33417.000000
934.270874 33533.000000
936.207214 33159.000000
938.142395 33247.000000
940.076294 32977.000000
942.009094 33262.000000
943.940674 32478.000000
945.871094 34026.000000
947.800293 33001.000000
949.728149 32503.000000
951.654968 32824.000000
953.580505 33379.000000
955.504761 34055.000000
957.427917 33731.000000
959.349915 33345.000000
961.270630 32888.000000
963.190186 33626.000000
965.108582 34638.000000
967.025940 33675.000000
968.941833 33773.000000
970.856628 33936.000000
972.770203 34061.000000
974.682617 33728.000000
976.593811 33554.000000
978.503845 34397.000000
980.412598 33665.000000
982.320313 33901.000000
984.226807 33500.000000
986.132080 34008.000000
988.036255 32934.000000
989.939209 33438.000000
991.840942 32786.000000
993.741516 32856.000000
995.640930 32589.000000
997.539124 33569.000000
999.436157 32148.000000
1001.331970 32064.000000
1003.226624 30592.000000
1005.120178 32365.000000
1007.012451 30591.000000
1008.903809 31560.000000
1010.793823 31981.000000
1012.682617 30821.000000
1014.570251 31123.000000
1016.456726 30454.000000
1018.342041 30501.000000
1020.226196 31174.000000
1022.109131 31238.000000
1023.991028 30961.000000
1025.871582 31927.000000
1027.751099 31413.000000
1029.629639 31452.000000
1031.506836 32117.000000
1033.382690 31523.000000
1035.257568 32066.000000
1037.131470 31517.000000
1039.003906 31225.000000
1040.875366 31518.000000
1042.745483 32630.000000
1044.614624 32672.000000
1046.482544 32778.000000
1048.349365 31678.000000
1050.215088 31972.000000
1052.079590 32265.000000
1053.942993 32117.000000
1055.805054 32180.000000
1057.666138 32580.000000
1059.526123 31988.000000
1061.384766 31877.000000
1063.242310 32722.000000
1065.098755 31801.000000
1066.954102 32623.000000
1068.808228 32732.000000
1070.661499 32322.000000
1072.513306 32356.000000
1074.364136 32601.000000
1076.213745 32562.000000
1078.062134 32929.000000
1079.909668 30784.000000
1081.755859 32920.000000
1083.600830 31982.000000
1085.444946 32747.000000
1087.287720 32398.000000
1089.129272 31256.000000
1090.970093 32031.000000
1092.809326 31452.000000
1094.647827 31006.000000
1096.484985 30889.000000
1098.320923 29887.000000
1100.155884 29643.000000
1101.989624 30447.000000
1103.822388 30075.000000
1105.653809 29651.000000
1107.484375 28558.000000
1109.313599 29107.000000
1111.141846 28802.000000
1112.968872 28005.000000
1114.794922 29667.000000
1116.619751 28720.000000
1118.443481 27965.000000
1120.265991 29104.000000
1122.087402 29134.000000
1123.907959 29158.000000
1125.727051 28628.000000
1127.545288 28354.000000
1129.362183 28528.000000
1131.178223 28607.000000
1132.993042 28768.000000
1134.806763 29676.000000
1136.619385 29488.000000
1138.430786 29868.000000
1140.241211 29502.000000
1142.050537 28961.000000
1143.858521 28721.000000
1145.665771 29469.000000
1147.471558 29360.000000
1149.276489 29740.000000
1151.080322 29794.000000
1152.882935 29166.000000
1154.684692 29165.000000
1156.484985 29048.000000
1158.284302 28913.000000
1160.082642 28880.000000
1161.879639 29148.000000
1163.675903 28678.000000
1165.470825 28420.000000
1167.264648 28066.000000
1169.057617 26632.000000
1170.849243 28252.000000
1172.639893 27356.000000
1174.429565 27780.000000
1176.217773 27939.000000
1178.005127 26456.000000
1179.791382 26900.000000
1181.576538 27931.000000
1183.360596 27616.000000
1185.143555 25954.000000
1186.925537 27684.000000
1188.706299 27509.000000
1190.486084 27143.000000
1192.264771 26552.000000
1194.042480 26663.000000
1195.818970 25977.000000
1197.594360 26222.000000
1199.368652 25978.000000
1201.141846 25657.000000
1202.914185 25625.000000
1204.685181 25290.000000
1206.455322 26027.000000
1208.224243 25589.000000
1209.992065 25398.000000
1211.759033 25643.000000
1213.524658 25837.000000
1215.289307 25050.000000
1217.052856 25265.000000
1218.815308 25593.000000
1220.576904 24875.000000
1222.337280 25483.000000
1224.096558 25173.000000
1225.854980 25510.000000
1227.612183 24755.000000
1229.368286 25191.000000
1231.123291 25758.000000
1232.877441 25602.000000
1234.630249 25824.000000
1236.382080 25814.000000
1238.133057 25933.000000
1239.882690 27097.000000
1241.631470 25644.000000
1243.378906 26139.000000
1245.125610 25944.000000
1246.871094 26035.000000
1248.615723 26079.000000
1250.359009 25603.000000
1252.101318 25390.000000
1253.842529 25895.000000
1255.582886 25894.000000
1257.322144 25279.000000
1259.060181 24595.000000
1260.797363 24161.000000
1262.533325 25014.000000
1264.268311 25296.000000
1266.002319 24914.000000
1267.735352 26223.000000
1269.467163 26030.000000
1271.197998 26041.000000
1272.927612 25340.000000
1274.656372 26308.000000
1276.384033 26263.000000
1278.110596 26492.000000
1279.836304 26566.000000
1281.560669 25736.000000
1283.284180 26897.000000
1285.006714 25374.000000
1286.728271 25677.000000
1288.448608 25921.000000
1290.167969 25405.000000
1291.886230 24818.000000
1293.603516 25184.000000
1295.319824 25655.000000
1297.034912 25229.000000
1298.749023 25414.000000
1300.462158 25448.000000
1302.174438 25072.000000
1303.885498 23419.000000
1305.595581 25110.000000
1307.304565 24500.000000
1309.012329 24329.000000
1310.719482 23861.000000
1312.425171 24854.000000
1314.130127 24468.000000
1315.834106 25761.000000
1317.536865 26794.000000
1319.238647 27147.000000
1320.939575 28461.000000
1322.639160 26664.000000
1324.337891 25288.000000
1326.035889 23912.000000
1327.732544 23322.000000
1329.428101 23082.000000
1331.122803 22977.000000
1332.816284 23155.000000
1334.508911 23352.000000
1336.200684 22491.000000
1337.891113 22948.000000
1339.580811 22715.000000
1341.269409 23137.000000
1342.956909 22260.000000
1344.643433 22913.000000
1346.328857 22512.000000
1348.013306 22862.000000
1349.696899 22315.000000
1351.379272 22699.000000
1353.060669 23239.000000
1354.741211 23213.000000
1356.420532 23223.000000
1358.099243 23794.000000
1359.776611 23525.000000
1361.452881 23926.000000
1363.128174 24023.000000
1364.802734 23593.000000
1366.476074 23629.000000
1368.148438 23479.000000
1369.819824 24303.000000
1371.490234 23293.000000
1373.159546 23550.000000
1374.827881 23742.000000
1376.495361 23699.000000
1378.161743 23397.000000
1379.827148 23342.000000
1381.491577 23524.000000
1383.154785 23196.000000
1384.817383 23214.000000
1386.478638 22865.000000
1388.139038 22700.000000
1389.798340 22580.000000
1391.456665 22596.000000
1393.114258 22373.000000
1394.770630 22653.000000
1396.426147 22283.000000
1398.080444 22472.000000
1399.733887 22707.000000
1401.386230 22834.000000
1403.037842 22814.000000
1404.688232 22334.000000
1406.337524 22323.000000
1407.986084 21499.000000
1409.633545 21111.000000
1411.280029 21200.000000
1412.925659 21088.000000
1414.570313 21125.000000
1416.213745 20966.000000
1417.856323 20805.000000
1419.497803 20980.000000
1421.138428 20828.000000
1422.778076 20953.000000
1424.416626 20796.000000
1426.054321 20662.000000
1427.690918 20624.000000
1429.326538 20512.000000
1430.961426 20446.000000
1432.595215 20440.000000
1434.227905 20463.000000
1435.859619 20495.000000
1437.490479 20405.000000
1439.120239 20513.000000
1440.748901 20268.000000
1442.376953 20587.000000
1444.003906 20567.000000
1445.629639 20762.000000
1447.254761 20910.000000
1448.878784 21112.000000
1450.501831 21427.000000
1452.123901 21814.000000
1453.744873 21680.000000
1455.364868 22500.000000
1456.984131 23284.000000
1458.602051 18830.000000
1460.219360 14376.000000
1461.835693 21460.000000
1463.450806 20784.000000
1465.065063 20744.000000
1466.678467 21162.000000
1468.290771 21200.000000
1469.902222 21012.000000
1471.512817 20956.000000
1473.122192 20940.000000
1474.730591 20903.000000
1476.338135 20893.000000
1477.944702 20749.000000
1479.550537 20984.000000
1481.155151 20621.000000
1482.758911 20578.000000
1484.361450 19881.000000
1485.963379 19337.000000
1487.564087 19440.000000
1489.164063 19169.000000
1490.762939 18732.000000
1492.360962 18978.000000
1493.957886 18903.000000
1495.553955 19712.000000
1497.149048 20146.000000
1498.743164 20028.000000
1500.336548 19928.000000
1501.928833 19854.000000
1503.519897 19548.000000
1505.110474 19576.000000
1506.699707 19440.000000
1508.288330 19340.000000
1509.875854 19048.000000
1511.462280 19012.000000
1513.047974 19036.000000
1514.632568 18891.000000
1516.216309 19033.000000
1517.798950 18829.000000
1519.380859 18881.000000
1520.961670 19132.000000
1522.541748 18851.000000
1524.120605 18466.000000
1525.698608 18357.000000
1527.275879 18105.000000
1528.851929 18141.000000
1530.427246 18095.000000
1532.001465 17811.000000
1533.574951 17910.000000
1535.147217 18103.000000
1536.718750 17945.000000
1538.289307 17874.000000
1539.859009 17749.000000
1541.427490 17767.000000
1542.995239 17742.000000
1544.562134 17565.000000
1546.127808 17573.000000
1547.692749 17514.000000
1549.256592 17537.000000
1550.819824 17341.000000
1552.381714 17310.000000
1553.942993 17330.000000
1555.503174 17320.000000
1557.062622 17237.000000
1558.620972 17379.000000
1560.178589 17192.000000
1561.735107 17192.000000
1563.290405 17331.000000
1564.845093 17081.000000
1566.399048 17403.000000
1567.952026 17296.000000
1569.503662 17300.000000
1571.054565 17430.000000
1572.604736 17322.000000
1574.153931 17457.000000
1575.701782 17421.000000
1577.249146 17284.000000
1578.795532 17376.000000
1580.341064 17548.000000
1581.885620 17454.000000
1583.428955 17421.000000
1584.971680 17439.000000
1586.513550 17376.000000
1588.054321 17464.000000
1589.594116 17620.000000
1591.133179 17382.000000
1592.671143 17334.000000
1594.208618 17132.000000
1595.744751 17271.000000
1597.279785 17333.000000
1598.814331 17028.000000
1600.347900 17009.000000
1601.880615 17168.000000
1603.411743 17267.000000
1604.942627 17314.000000
1606.472656 17356.000000
1608.001465 17045.000000
1609.529175 17164.000000
1611.056274 17242.000000
1612.582642 17364.000000
1614.108032 17275.000000
1615.632568 17222.000000
1617.155762 17044.000000
1618.678223 17221.000000
1620.199951 17288.000000
1621.720825 18585.000000
1623.240234 15180.000000
1624.759155 17064.000000
1626.277344 16837.000000
1627.794678 16972.000000
1629.310913 16846.000000
1630.825806 16783.000000
1632.340210 16696.000000
1633.853882 16683.000000
1635.366455 16696.000000
1636.877808 16712.000000
1638.388794 16334.000000
1639.898682 16452.000000
1641.407715 16547.000000
1642.915405 16472.000000
1644.422729 16260.000000
1645.929199 16240.000000
1647.434692 16308.000000
1648.939331 16150.000000
1650.442505 16120.000000
1651.945068 16033.000000
1653.447266 15920.000000
1654.948120 15832.000000
1656.447876 15500.000000
1657.946777 15568.000000
1659.445313 15587.000000
1660.942627 15468.000000
1662.439209 15488.000000
1663.934204 15372.000000
1665.428955 15308.000000
1666.922852 15038.000000
1668.415771 18009.000000
1669.907349 10268.000000
1671.398438 14827.000000
1672.888916 14719.000000
1674.378296 14816.000000
1675.866211 14493.000000
1677.353882 14707.000000
1678.840576 14915.000000
1680.326416 14773.000000
1681.811401 14619.000000
1683.294922 14457.000000
1684.778198 14343.000000
1686.260620 14391.000000
1687.741943 14355.000000
1689.221802 14358.000000
1690.701416 14245.000000
1692.180298 14241.000000
1693.658203 14266.000000
1695.135132 14111.000000
1696.610840 14088.000000
1698.086182 14070.000000
1699.560303 14063.000000
1701.033813 14056.000000
1702.505859 14050.000000
1703.977661 13987.000000
1705.448486 13993.000000
1706.918457 13966.000000
1708.387085 14056.000000
1709.855225 14056.000000
1711.322632 14002.000000
1712.788940 13985.000000
1714.254639 13889.000000
1715.718628 14025.000000
1717.182495 13992.000000
1718.645508 13988.000000
1720.107544 13942.000000
1721.568359 13939.000000
1723.028564 14033.000000
1724.488037 13923.000000
1725.946655 13897.000000
1727.404297 13956.000000
1728.860596 13890.000000
1730.316650 13847.000000
1731.771729 13751.000000
1733.225830 13854.000000
1734.678711 13671.000000
1736.131348 13680.000000
1737.582886 13562.000000
1739.033691 13593.000000
1740.483521 13435.000000
1741.932007 13341.000000
1743.380127 13307.000000
1744.827393 13267.000000
1746.273926 13259.000000
1747.718872 13137.000000
1749.163574 13178.000000
1750.607422 13306.000000
1752.050415 13306.000000
1753.491943 13082.000000
1754.933228 14526.000000
1756.373657 10884.000000
1757.813110 12973.000000
1759.251587 12877.000000
1760.689087 12871.000000
1762.126099 12556.000000
1763.562134 12597.000000
1764.997314 12757.000000
1766.431030 12787.000000
1767.864624 12910.000000
1769.297241 12637.000000
1770.729004 12838.000000
1772.159912 12726.000000
1773.589600 12773.000000
1775.018555 12373.000000
1776.447021 12233.000000
1777.874512 11716.000000
1779.300659 11204.000000
1780.726563 12146.000000
1782.151367 11839.000000
1783.575562 11999.000000
1784.998291 11956.000000
1786.420532 11741.000000
1787.842041 11811.000000
1789.262817 11814.000000
1790.682617 11925.000000
1792.101074 11703.000000
1793.519043 11767.000000
1794.936401 11670.000000
1796.352905 11732.000000
1797.767944 11663.000000
1799.182617 11461.000000
1800.596680 11593.000000
1802.009521 11548.000000
1803.421753 11499.000000
1804.832642 11354.000000
1806.243042 11406.000000
1807.652710 11461.000000
1809.061401 11213.000000
1810.468994 11313.000000
1811.876099 11352.000000
1813.282349 11437.000000
1814.687622 11351.000000
1816.091797 11490.000000
1817.495605 11350.000000
1818.898438 11516.000000
1820.300415 11530.000000
1821.701782 11311.000000
1823.101685 11319.000000
1824.500977 11392.000000
1825.899780 11396.000000
1827.297729 11176.000000
1828.694336 11391.000000
1830.090332 11246.000000
1831.485596 11356.000000
1832.880249 11116.000000
1834.273926 11339.000000
1835.666260 11225.000000
1837.058105 11164.000000
1838.449341 11276.000000
1839.839600 11105.000000
1841.228638 11074.000000
1842.617310 11137.000000
1844.005005 11080.000000
1845.391968 11045.000000
1846.777588 10961.000000
1848.162964 10897.000000
1849.547485 10974.000000
1850.931274 10987.000000
1852.313965 10879.000000
1853.695435 10746.000000
1855.076416 10705.000000
1856.456909 10716.000000
1857.836426 10633.000000
1859.214478 10633.000000
1860.592407 10628.000000
1861.969360 10457.000000
1863.345581 10452.000000
1864.720947 10350.000000
1866.094849 10453.000000
1867.468628 10344.000000
1868.841553 10199.000000
1870.213379 10124.000000
1871.584229 10140.000000
1872.954712 10059.000000
1874.324097 10269.000000
1875.692993 10094.000000
1877.060303 10048.000000
1878.427490 9953.000000
1879.793701 9915.000000
1881.159180 9891.000000
1882.523926 9704.000000
1883.887085 9969.000000
1885.250122 9734.000000
1886.612305 9747.000000
1887.973633 9791.000000
1889.333618 9801.000000
1890.693237 9659.000000
1892.052246 9780.000000
1893.410278 9522.000000
1894.767456 9501.000000
1896.123413 9491.000000
1897.479126 9518.000000
1898.833862 9645.000000
1900.187744 9684.000000
1901.540527 9634.000000
1902.892822 9674.000000
1904.244385 9568.000000
1905.595093 9606.000000
1906.944580 9653.000000
1908.293579 9619.000000
1909.641724 9720.000000
1910.989258 9599.000000
1912.336060 9520.000000
1913.681274 9527.000000
1915.026245 9618.000000
1916.370483 9648.000000
1917.713867 9626.000000
1919.055908 9664.000000
1920.397705 9557.000000
1921.738647 9525.000000
1923.078857 9689.000000
1924.418091 9384.000000
1925.756348 9463.000000
1927.093994 9457.000000
1928.430908 9563.000000
1929.766968 9430.000000
1931.101807 9587.000000
1932.436279 9414.000000
1933.770020 9302.000000
1935.102905 9423.000000
1936.434326 9212.000000
1937.765869 9254.000000
1939.096069 9233.000000
1940.425781 9229.000000
1941.754639 9195.000000
1943.082275 9361.000000
1944.409424 9212.000000
1945.735840 9237.000000
1947.061523 9238.000000
1948.385864 9078.000000
1949.709961 9095.000000
1951.033203 9132.000000
1952.355713 9038.000000
1953.677124 8996.000000
1954.997559 8989.000000
1956.317383 9011.000000
1957.636841 8936.000000
1958.955322 8844.000000
1960.272461 8920.000000
1961.589233 8803.000000
1962.905273 8642.000000
1964.220581 8825.000000
1965.534424 8749.000000
1966.848022 8736.000000
1968.160889 8578.000000
1969.472900 8681.000000
1970.784302 8718.000000
1972.094360 8567.000000
1973.403931 8436.000000
1974.712769 8543.000000
1976.020996 8362.000000
1977.327881 8308.000000
1978.634155 8282.000000
1979.940063 8384.000000
1981.244751 8458.000000
1982.548950 8425.000000
1983.851929 8292.000000
1985.154541 8456.000000
1986.456177 8455.000000
1987.757202 8241.000000
1989.056641 7989.000000
1990.356201 8071.000000
1991.654663 8059.000000
1992.952637 7915.000000
1994.249023 8062.000000
1995.545410 7957.000000
1996.840820 8078.000000
1998.135498 7965.000000
1999.429321 7957.000000
2000.721924 7788.000000
2002.014038 7882.000000
2003.305664 7785.000000
2004.596558 7679.000000
2005.885864 7698.000000
2007.174927 7716.000000
2008.463257 7709.000000
2009.750854 7790.000000
2011.037598 7706.000000
2012.323242 7593.000000
2013.608521 7628.000000
2014.892822 7601.000000
2016.176514 7649.000000
2017.458862 7472.000000
2018.740845 7634.000000
2020.022339 7632.000000
2021.302856 7593.000000
2022.582642 7565.000000
2023.861328 7511.000000
2025.139282 7572.000000
2026.416748 7605.000000
2027.693604 7526.000000
2028.968750 7642.000000
2030.244019 7782.000000
2031.518311 7719.000000
2032.791626 7646.000000
2034.064087 7652.000000
2035.336182 7684.000000
2036.607178 7631.000000
2037.877930 7482.000000
2039.147339 7592.000000
2040.415649 7568.000000
2041.683960 7700.000000
2042.951294 7642.000000
2044.217896 7487.000000
2045.483276 7448.000000
2046.748047 7653.000000
2048.012695 7472.000000
2049.275879 7512.000000
2050.538818 7491.000000
2051.799805 7328.000000
2053.061279 7301.000000
2054.321533 7272.000000
2055.581055 7317.000000
2056.839844 7219.000000
2058.097656 7299.000000
2059.354980 7319.000000
2060.611572 7235.000000
2061.866699 7147.000000
2063.121826 7194.000000
2064.375977 7275.000000
2065.629395 7087.000000
2066.882080 7102.000000
2068.133545 7138.000000
2069.384766 7163.000000
2070.635254 7254.000000
2071.885010 7198.000000
2073.133301 6953.000000
2074.381592 6808.000000
2075.628906 7057.000000
2076.875488 7077.000000
2078.121338 6839.000000
2079.365967 6927.000000
2080.610107 6945.000000
2081.853760 6898.000000
2083.096436 6737.000000
2084.337891 6662.000000
2085.579102 6702.000000
2086.819824 6794.000000
2088.059570 6827.000000
2089.298096 6805.000000
2090.536133 6611.000000
2091.773438 6652.000000
2093.010498 6644.000000
2094.246094 6603.000000
2095.480957 6631.000000
2096.715576 6581.000000
2097.949219 6609.000000
2099.181885 6591.000000
2100.413818 6534.000000
2101.645264 6551.000000
2102.875732 6581.000000
2104.105469 6379.000000
2105.334961 6425.000000
2106.562500 6416.000000
2107.790283 6346.000000
2109.017334 6346.000000
2110.243408 6391.000000
2111.468018 6327.000000
2112.692871 6296.000000
2113.916504 6248.000000
2115.139648 6455.000000
2116.361572 6158.000000
2117.583252 6302.000000
2118.803955 6356.000000
2120.023926 6441.000000
2121.243408 6345.000000
2122.461426 6416.000000
2123.679443 6247.000000
2124.896484 6228.000000
2126.113037 6299.000000
2127.327881 6390.000000
2128.542969 6395.000000
2129.757080 6274.000000
2130.970459 6192.000000
2132.183105 6122.000000
2133.394287 6293.000000
2134.605713 6379.000000
2135.815918 6381.000000
2137.025635 6173.000000
2138.233887 6213.000000
2139.442139 6195.000000
2140.649658 6194.000000
2141.855957 6290.000000
2143.061523 6237.000000
2144.266846 6106.000000
2145.471191 6173.000000
2146.674805 6169.000000
2147.877930 6156.000000
2149.079590 6229.000000
2150.281006 6084.000000
2151.481689 6031.000000
2152.681641 5969.000000
2153.880371 5947.000000
2155.078857 6077.000000
2156.276855 5976.000000
2157.473877 5929.000000
2158.670166 5914.000000
2159.865234 5742.000000
2161.060059 5909.000000
2162.254150 5856.000000
2163.447266 5655.000000
2164.639404 5700.000000
2165.831299 5615.000000
2167.022461 5526.000000
2168.212646 5603.000000
2169.402100 5642.000000
2170.591064 5424.000000
2171.779053 5461.000000
2172.966797 5457.000000
2174.153076 5462.000000
2175.338623 5416.000000
2176.523926 5372.000000
2177.708740 5346.000000
2178.892334 5345.000000
2180.075195 5332.000000
2181.257080 5397.000000
2182.438721 5384.000000
2183.619873 5339.000000
2184.799805 5346.000000
2185.978760 5276.000000
2187.157227 5270.000000
2188.335449 5188.000000
2189.512451 5246.000000
2190.688477 5171.000000
2191.864258 5272.000000
2193.039551 5371.000000
2194.213379 5229.000000
2195.386719 5231.000000
2196.559814 5153.000000
2197.731689 5320.000000
2198.903076 5267.000000
2200.073975 5257.000000
2201.243164 5275.000000
2202.412354 5294.000000
2203.581055 5281.000000
2204.748779 5391.000000
2205.915527 5270.000000
2207.081543 5199.000000
2208.247070 5180.000000
2209.412354 5146.000000
2210.576172 5130.000000
2211.739502 5208.000000
2212.901611 5297.000000
2214.063965 5108.000000
2215.225098 5192.000000
2216.385254 5099.000000
2217.544922 5032.000000
2218.704346 5126.000000
2219.862549 5016.000000
2221.019775 4980.000000
2222.176758 5135.000000
2223.333008 4905.000000
2224.488525 4963.000000
2225.643311 4932.000000
2226.797119 5031.000000
2227.949951 4954.000000
2229.103271 4919.000000
2230.254639 4858.000000
2231.405762 4960.000000
2232.556152 4850.000000
2233.706055 4787.000000
2234.854980 4806.000000
2236.003418 4889.000000
2237.150391 4733.000000
2238.297607 4820.000000
2239.443604 4707.000000
2240.589355 4711.000000
2241.733398 4547.000000
2242.877686 4645.000000
2244.020996 4631.000000
2245.163574 4646.000000
2246.305176 4617.000000
2247.446533 4495.000000
2248.586914 4462.000000
2249.726563 4433.000000
2250.865723 4436.000000
2252.003662 4461.000000
2253.141602 4314.000000
2254.278564 4472.000000
2255.414795 4518.000000
2256.550049 4384.000000
2257.684570 4249.000000
2258.818848 4456.000000
2259.952637 4512.000000
2261.084961 4499.000000
2262.216797 4417.000000
2263.348145 4230.000000
2264.478516 4392.000000
2265.608643 4284.000000
2266.737549 4150.000000
2267.865967 4165.000000
2268.993896 4183.000000
2270.120850 4177.000000
2271.247070 4160.000000
2272.372314 4132.000000
2273.497559 4213.000000
2274.622070 4245.000000
2275.745361 4251.000000
2276.867920 4141.000000
2277.989990 4220.000000
2279.111572 4139.000000
2280.232422 4154.000000
2281.352051 4142.000000
2282.471191 4201.000000
2283.590088 4064.000000
2284.708252 4006.000000
2285.825439 4048.000000
2286.941650 4076.000000
2288.057617 3922.000000
2289.172852 3995.000000
2290.287354 4113.000000
2291.400635 4128.000000
2292.513916 4085.000000
2293.626465 4089.000000
2294.738281 4102.000000
2295.849365 4058.000000
2296.959229 4124.000000
2298.068604 4087.000000
2299.177734 4030.000000
2300.285889 4096.000000
2301.393066 4012.000000
2302.500000 4053.000000
2303.606201 4001.000000
2304.711914 4103.000000
2305.816162 4053.000000
2306.920166 3944.000000
2308.023682 3943.000000
2309.126709 4007.000000
2310.228516 4035.000000
2311.329590 3921.000000
2312.430176 3983.000000
2313.530273 3903.000000
2314.629639 3869.000000
2315.727539 3935.000000
2316.825928 3970.000000
2317.922852 3870.000000
2319.019531 3979.000000
2320.115723 3857.000000
2321.210205 3885.000000
2322.304688 3817.000000
2323.398438 3765.000000
2324.491943 3711.000000
2325.583740 3778.000000
2326.675537 3897.000000
2327.766602 3909.000000
2328.856934 3726.000000
2329.946289 3830.000000
2331.035645 3728.000000
2332.123779 3851.000000
2333.211426 3789.000000
2334.298828 3636.000000
2335.384521 3724.000000
2336.469971 3636.000000
2337.555176 3601.000000
2338.639404 3525.000000
2339.722656 3641.000000
2340.805664 3624.000000
2341.887695 3600.000000
2342.969482 3526.000000
2344.050537 3402.000000
2345.130371 3430.000000
2346.209717 3433.000000
2347.288574 3367.000000
2348.366943 3573.000000
2349.443848 3516.000000
2350.520508 3376.000000
2351.596924 3390.000000
2352.672363 3322.000000
2353.746826 3459.000000
2354.821045 3415.000000
2355.894531 3292.000000
2356.967529 3359.000000
2358.039307 3239.000000
2359.110840 3233.000000
2360.181396 3270.000000
2361.251709 3281.000000
2362.321045 3277.000000
2363.389404 3242.000000
2364.457520 3210.000000
2365.524902 3176.000000
2366.591797 3161.000000
2367.657959 3258.000000
2368.722900 3220.000000
2369.787842 3223.000000
2370.852051 3184.000000
2371.915527 3218.000000
2372.977783 3164.000000
2374.040039 3083.000000
2375.101318 3141.000000
2376.162354 3004.000000
2377.222168 3065.000000
2378.281250 3091.000000
2379.340332 3102.000000
2380.398438 3174.000000
2381.455811 3140.000000
2382.512207 3062.000000
2383.568359 3133.000000
2384.624023 3047.000000
2385.678955 2975.000000
2386.732422 2947.000000
2387.786133 3052.000000
2388.838867 2990.000000
2389.891113 3039.000000
2390.942627 3066.000000
2391.993164 2934.000000
2393.043457 3052.000000
2394.092773 3048.000000
2395.142090 3130.000000
2396.189941 3041.000000
2397.237305 2984.000000
2398.284424 3024.000000
2399.330566 2879.000000
2400.375977 2995.000000
2401.420654 3015.000000
2402.465332 2977.000000
2403.508545 2976.000000
2404.551758 2966.000000
2405.593506 2937.000000
2406.635498 2962.000000
2407.676758 3046.000000
2408.717041 2823.000000
2409.756592 2985.000000
2410.795166 2947.000000
2411.833984 2928.000000
2412.871582 2992.000000
2413.908936 2929.000000
2414.945068 2962.000000
2415.980957 2953.000000
2417.016113 2911.000000
2418.050781 2916.000000
2419.083984 2827.000000
2420.117432 2919.000000
2421.149902 2798.000000
2422.182129 2918.000000
2423.212891 2903.000000
2424.243652 2830.000000
2425.273926 2821.000000
2426.302979 2924.000000
2427.332031 2815.000000
2428.359375 2826.000000
2429.387207 2876.000000
2430.413818 2719.000000
2431.440186 2701.000000
2432.465088 2762.000000
2433.490234 2731.000000
2434.514404 2716.000000
2435.538330 2595.000000
2436.561035 2618.000000
2437.583008 2732.000000
2438.604736 2669.000000
2439.625732 2661.000000
2440.646240 2706.000000
2441.665527 2648.000000
2442.684814 2668.000000
2443.703125 2602.000000
2444.721191 2603.000000
2445.737793 2757.000000
2446.754395 2504.000000
2447.770264 2637.000000
2448.786133 2560.000000
2449.800537 2538.000000
2450.814209 2570.000000
2451.827393 2528.000000
2452.840332 2593.000000
2453.852539 2460.000000
2454.863770 2512.000000
2455.874756 2480.000000
2456.885010 2441.000000
2457.894775 2450.000000
2458.903564 2489.000000
2459.911621 2543.000000
2460.919678 2481.000000
2461.926514 2417.000000
2462.933105 2313.000000
2463.938477 2438.000000
2464.943604 2282.000000
2465.948486 2433.000000
2466.952148 2430.000000
2467.955566 2398.000000
2468.958008 2401.000000
2469.960205 2459.000000
2470.961914 2379.000000
2471.962646 2383.000000
2472.962402 2316.000000
2473.962158 2353.000000
2474.960938 2305.000000
2475.959229 2302.000000
2476.956543 2291.000000
2477.953613 2440.000000
2478.950684 2274.000000
2479.946289 2251.000000
2480.941895 2364.000000
2481.935791 2355.000000
2482.929688 2353.000000
2483.923096 2355.000000
2484.916016 2282.000000
2485.907959 2452.000000
2486.899170 2318.000000
2487.890137 2397.000000
2488.880615 2338.000000
2489.870117 2308.000000
2490.858887 2208.000000
2491.847656 2276.000000
2492.835449 2406.000000
2493.822021 2389.000000
2494.808594 2379.000000
2495.794678 2215.000000
2496.780029 2248.000000
2497.764404 2369.000000
2498.748535 2282.000000
2499.732666 2375.000000
2500.715332 2247.000000
2501.697510 2229.000000
2502.679199 2271.000000
2503.660156 2285.000000
2504.640625 2202.000000
2505.620850 2157.000000
2506.599609 2218.000000
2507.578125 2135.000000
2508.556152 2206.000000
2509.533691 2200.000000
2510.510254 2271.000000
2511.486572 2224.000000
2512.462158 2175.000000
2513.437256 2215.000000
2514.411865 2168.000000
2515.385254 2143.000000
2516.358398 2187.000000
2517.331299 2158.000000
2518.303223 2146.000000
2519.274414 2084.000000
2520.245117 2065.000000
2521.215576 2030.000000
2522.185303 2081.000000
2523.154053 2003.000000
2524.122070 2067.000000
2525.090088 2082.000000
2526.057129 2056.000000
2527.023926 2034.000000
2527.989502 2003.000000
2528.955078 2026.000000
2529.919922 2037.000000
2530.884277 2045.000000
2531.847412 1963.000000
2532.810791 2043.000000
2533.773193 2047.000000
2534.735352 2010.000000
2535.696289 2071.000000
2536.656494 2062.000000
2537.616943 1939.000000
2538.576416 1993.000000
2539.535156 2031.000000
2540.492920 1938.000000
2541.450928 2051.000000
2542.408203 2053.000000
2543.364502 1954.000000
2544.320557 1970.000000
2545.275391 1969.000000
2546.230469 1921.000000
2547.184814 1857.000000
2548.138428 1756.000000
2549.091064 1851.000000
2550.043457 1819.000000
2550.995361 1854.000000
2551.946533 1918.000000
2552.896973 1971.000000
2553.846924 1911.000000
2554.796631 1873.000000
2555.745605 1860.000000
2556.694092 1800.000000
2557.641357 1778.000000
2558.588623 1850.000000
2559.535156 1791.000000
2560.481201 1712.000000
2561.426270 1767.000000
2562.371094 1848.000000
2563.315430 1773.000000
2564.259277 1823.000000
2565.202637 1733.000000
2566.144531 1782.000000
2567.086670 1735.000000
2568.028076 1791.000000
2568.968750 1733.000000
2569.908691 1738.000000
2570.848633 1672.000000
2571.787598 1811.000000
2572.726318 1749.000000
2573.664063 1765.000000
2574.601563 1741.000000
2575.538330 1737.000000
2576.474365 1846.000000
2577.409912 1738.000000
2578.344727 1718.000000
2579.279541 1830.000000
2580.213379 1662.000000
2581.146729 1992.000000
2582.079346 1708.000000
2583.011719 1665.000000
2583.943359 1772.000000
2584.874512 1713.000000
2585.805176 1691.000000
2586.734619 1749.000000
2587.664063 1678.000000
2588.593018 1640.000000
2589.521729 1781.000000
2590.448730 1789.000000
2591.375977 1701.000000
2592.302734 1684.000000
2593.228760 1623.000000
2594.154541 1691.000000
2595.079102 1675.000000
2596.003418 1614.000000
2596.927246 1736.000000
2597.850586 1666.000000
2598.772949 1691.000000
2599.695068 1730.000000
2600.616699 1632.000000
2601.537598 1595.000000
2602.457764 1588.000000
2603.377686 1726.000000
2604.297119 1721.000000
2605.216309 1612.000000
2606.134521 1639.000000
2607.051514 1661.000000
2607.968750 1657.000000
2608.885742 1550.000000
2609.801758 1556.000000
2610.716553 1555.000000
2611.631836 1674.000000
2612.546387 1585.000000
2613.459961 1572.000000
2614.373535 1615.000000
2615.285889 1577.000000
2616.198242 1537.000000
2617.109619 1490.000000
2618.020752 1588.000000
2618.931152 1543.000000
2619.841309 1542.000000
2620.750732 1438.000000
2621.659668 1588.000000
2622.567627 1592.000000
2623.475830 1566.000000
2624.383057 1511.000000
2625.289795 1456.000000
2626.195801 1524.000000
2627.101563 1400.000000
2628.006592 1468.000000
2628.911377 1433.000000
2629.815430 1531.000000
2630.718506 1485.000000
2631.621582 1381.000000
2632.523682 1515.000000
2633.425781 1518.000000
2634.327637 1459.000000
2635.227783 1494.000000
2636.128174 1406.000000
2637.027832 1418.000000
2637.927246 1367.000000
2638.825195 1493.000000
2639.723633 1372.000000
2640.621582 1393.000000
2641.518799 1348.000000
2642.414795 1342.000000
2643.310791 1309.000000
2644.206543 1420.000000
2645.101563 1358.000000
2645.996338 1369.000000
2646.889648 1317.000000
2647.782959 1410.000000
2648.676025 1383.000000
2649.568848 1279.000000
2650.459961 1270.000000
2651.351318 1418.000000
2652.242188 1320.000000
2653.132324 1253.000000
2654.022217 1299.000000
2654.910889 1291.000000
2655.799805 1383.000000
2656.688232 1304.000000
2657.575684 1349.000000
2658.462158 1395.000000
2659.349121 1238.000000
2660.235352 1410.000000
2661.121094 1308.000000
2662.005615 1414.000000
2662.890137 1303.000000
2663.774414 1308.000000
2664.657959 1360.000000
2665.541016 1300.000000
2666.423340 1256.000000
2667.305176 1306.000000
2668.186279 1287.000000
2669.067627 1379.000000
2669.947510 1308.000000
2670.827637 1348.000000
2671.707031 1360.000000
2672.586426 1202.000000
2673.465088 1338.000000
2674.342041 1300.000000
2675.219727 1275.000000
2676.096680 1213.000000
2676.972900 1315.000000
2677.848633 1264.000000
2678.723633 1269.000000
2679.598877 1214.000000
2680.473145 1247.000000
2681.346924 1313.000000
2682.219971 1308.000000
2683.092773 1217.000000
2683.965332 1317.000000
2684.837158 1323.000000
2685.708252 1301.000000
2686.579102 1283.000000
2687.449463 1233.000000
2688.319580 1195.000000
2689.187988 1233.000000
2690.057129 1250.000000
2690.925537 1250.000000
2691.793701 1219.000000
2692.661133 1154.000000
2693.527344 1166.000000
2694.394043 1201.000000
2695.259766 1248.000000
2696.125488 1094.000000
2696.989746 1272.000000
2697.854736 1177.000000
2698.718262 1163.000000
2699.582031 1204.000000
2700.444336 1092.000000
2701.307129 1261.000000
2702.168945 1161.000000
2703.030273 1153.000000
2703.891602 1265.000000
2704.751709 1148.000000
2705.611816 1126.000000
2706.471436 1162.000000
2707.330811 1113.000000
2708.188477 1115.000000
2709.046387 1171.000000
2709.904785 1112.000000
2710.761963 1124.000000
2711.618408 1121.000000
2712.474365 1170.000000
2713.330322 1189.000000
2714.185547 1099.000000
2715.040039 1100.000000
2715.894043 1210.000000
2716.748047 1023.000000
2717.601074 1158.000000
2718.454346 1074.000000
2719.305908 1136.000000
2720.157959 1105.000000
2721.009766 1094.000000
2721.860352 1152.000000
2722.710938 1064.000000
2723.561035 997.000000
2724.410400 1051.000000
2725.259766 1109.000000
2726.107910 1049.000000
2726.955566 1043.000000
2727.803711 1131.000000
2728.650635 1046.000000
2729.498047 1082.000000
2730.343994 1134.000000
2731.189209 1118.000000
2732.034912 978.000000
2732.879639 1045.000000
2733.724365 988.000000
2734.567871 1035.000000
2735.411621 1056.000000
2736.254639 880.000000
2737.097168 1087.000000
2737.938721 1037.000000
2738.780762 1070.000000
2739.621826 1061.000000
2740.462646 1031.000000
2741.303223 1069.000000
2742.142578 1013.000000
2742.981934 1085.000000
2743.821289 1005.000000
2744.659424 1058.000000
2745.497070 1034.000000
2746.334717 1158.000000
2747.171875 1057.000000
2748.008789 1033.000000
2748.845215 1063.000000
2749.680420 1033.000000
2750.515869 1077.000000
2751.350830 1139.000000
2752.185059 991.000000
2753.019043 1011.000000
2753.852539 994.000000
2754.686035 983.000000
2755.518555 1086.000000
2756.350586 1006.000000
2757.182129 929.000000
2758.013672 995.000000
2758.844238 1053.000000
2759.675049 1001.000000
2760.504639 1072.000000
2761.334229 1018.000000
2762.163574 986.000000
2762.992188 1131.000000
2763.820313 959.000000
2764.647949 1037.000000
2765.475586 1003.000000
2766.302734 1013.000000
2767.129150 889.000000
2767.955078 834.000000
2768.780518 962.000000
2769.605713 966.000000
2770.430908 959.000000
2771.254883 917.000000
2772.078857 933.000000
2772.902832 876.000000
2773.725586 1012.000000
2774.548584 875.000000
2775.370361 919.000000
2776.192139 882.000000
2777.013916 887.000000
2777.834717 804.000000
2778.654785 909.000000
2779.475098 894.000000
2780.294922 919.000000
2781.114746 847.000000
2781.932617 940.000000
2782.751709 867.000000
2783.569580 916.000000
2784.387207 839.000000
2785.204346 910.000000
2786.020996 891.000000
2786.837402 778.000000
2787.653320 815.000000
2788.468994 849.000000
2789.283691 804.000000
2790.098877 809.000000
2790.913330 812.000000
2791.727295 867.000000
2792.541016 810.000000
2793.353516 964.000000
2794.166260 889.000000
2794.978516 819.000000
2795.790283 789.000000
2796.601318 791.000000
2797.413086 856.000000
2798.223633 935.000000
2799.034180 798.000000
2799.843262 838.000000
2800.653076 778.000000
2801.462158 785.000000
2802.270996 834.000000
2803.079346 883.000000
2803.886719 933.000000
2804.694580 801.000000
2805.501709 805.000000
2806.308594 704.000000
2807.114258 903.000000
2807.920410 826.000000
2808.725830 767.000000
2809.531250 877.000000
2810.335938 799.000000
2811.139648 769.000000
2811.943848 824.000000
2812.747559 807.000000
2813.551025 803.000000
2814.353027 831.000000
2815.155762 886.000000
2815.957764 720.000000
2816.759521 750.000000
2817.560791 802.000000
2818.361572 861.000000
2819.161865 832.000000
2819.962402 768.000000
2820.761963 821.000000
2821.561035 771.000000
2822.360107 762.000000
2823.158936 764.000000
2823.957275 772.000000
2824.754639 749.000000
2825.552246 767.000000
2826.349121 880.000000
2827.146240 880.000000
2827.942627 909.000000
2828.738281 807.000000
2829.533936 775.000000
2830.329346 784.000000
2831.124268 808.000000
2831.918457 829.000000
2832.712646 777.000000
2833.506592 833.000000
2834.300049 892.000000
2835.092773 865.000000
2835.885254 947.000000
2836.677734 858.000000
2837.469971 797.000000
2838.261719 904.000000
2839.052490 762.000000
2839.843262 815.000000
2840.634277 823.000000
2841.424316 771.000000
2842.213867 759.000000
2843.003662 837.000000
2843.792480 677.000000
2844.581299 794.000000
2845.370117 842.000000
2846.157959 865.000000
2846.945313 746.000000
2847.732910 763.000000
2848.520020 780.000000
2849.306396 759.000000
2850.092773 753.000000
2850.878906 732.000000
2851.664551 730.000000
2852.449219 724.000000
2853.234375 821.000000
2854.019287 766.000000
2854.803467 757.000000
2855.587646 836.000000
2856.370605 756.000000
2857.153809 690.000000
2857.936768 804.000000
2858.719238 818.000000
2859.501465 863.000000
2860.283203 795.000000
2861.064697 713.000000
2861.846436 760.000000
2862.627441 688.000000
2863.407715 806.000000
2864.187744 822.000000
2864.967773 742.000000
2865.747559 849.000000
2866.526367 748.000000
2867.305420 795.000000
2868.083984 935.000000
2868.862305 881.000000
2869.640137 858.000000
2870.417725 839.000000
2871.195068 831.000000
2871.972168 886.000000
2872.748779 946.000000
2873.524902 847.000000
2874.301025 903.000000
2875.076660 786.000000
2875.852051 881.000000
2876.626953 927.000000
2877.401611 874.000000
2878.176270 955.000000
2878.950684 1024.000000
2879.724365 959.000000
2880.497314 1018.000000
2881.270996 1072.000000
2882.043701 1033.000000
2882.816406 916.000000
2883.588379 1082.000000
2884.360107 1021.000000
2885.132324 999.000000
2885.903320 862.000000
2886.673828 1008.000000
2887.444824 984.000000
2888.215820 965.000000
2888.986084 1006.000000
2889.755371 1111.000000
2890.524902 1020.000000
2891.294434 996.000000
2892.063477 989.000000
2892.832031 905.000000
2893.600586 993.000000
2894.368164 1053.000000
2895.136230 1028.000000
2895.903809 954.000000
2896.671387 997.000000
2897.437744 919.000000
2898.205078 994.000000
2898.971191 976.000000
2899.737549 1049.000000
2900.502441 950.000000
2901.267822 947.000000
2902.033691 947.000000
2902.798096 896.000000
2903.562500 974.000000
2904.327148 880.000000
2905.090820 982.000000
2905.855225 918.000000
2906.618896 944.000000
2907.381836 865.000000
2908.144531 880.000000
2908.907715 815.000000
2909.670410 839.000000
2910.431885 892.000000
2911.193848 892.000000
spectrumdark 2048
-97.036949 6107.000000
-94.410080 6107.000000
-91.785088 6025.000000
-89.161987 6355.000000
-86.540756 5852.000000
-83.921425 6195.000000
-81.303955 6051.000000
-78.688362 6394.000000
-76.074646 6203.000000
-73.462807 5917.000000
-70.852829 6103.000000
-68.244736 5966.000000
-65.638489 5933.000000
-63.034122 6027.000000
-60.431614 6095.000000
-57.830959 5631.000000
-55.232166 6233.000000
-52.635231 6799.000000
-50.040150 6503.000000
-47.446922 6323.000000
-44.855545 6235.000000
-42.266014 6735.000000
-39.678326 5890.000000
-37.092487 6075.000000
-34.508492 6498.000000
-31.926331 5662.000000
-29.346018 6299.000000
-26.767532 5620.000000
-24.190889 6078.000000
-21.616072 6272.000000
-19.043095 6460.000000
-16.471937 6450.000000
-13.902615 6745.000000
-11.335116 7808.000000
-8.769437 6260.000000
-6.205583 6485.000000
-3.643542 5945.000000
-1.083326 5834.000000
1.475082 6129.000000
4.031669 6897.000000
6.586451 6626.000000
9.139416 6027.000000
11.690580 6745.000000
14.239932 6478.000000
16.787489 6719.000000
19.333233 6025.000000
21.877184 5770.000000
24.419331 6714.000000
26.959681 6761.000000
29.498245 6771.000000
32.035011 6191.000000
34.569977 5713.000000
37.103165 7236.000000
39.634571 6310.000000
42.164185 7106.000000
44.692001 6475.000000
47.218060 7819.000000
49.742329 5640.000000
52.264828 6240.000000
54.785530 6700.000000
57.304478 6254.000000
59.821651 6422.000000
62.337048 6581.000000
64.850670 5592.000000
67.362534 5704.000000
69.872650 6528.000000
72.380974 6532.000000
74.887543 5918.000000
77.392365 6369.000000
79.895432 6440.000000
82.396721 6264.000000
84.896271 6096.000000
87.394066 6309.000000
89.890129 5726.000000
92.384415 7192.000000
94.876961 5805.000000
97.367790 6880.000000
99.856850 7107.000000
102.344162 6388.000000
104.829750 6205.000000
107.313599 6347.000000
109.795700 5720.000000
112.276077 6562.000000
114.754730 6128.000000
117.231659 6427.000000
119.706833 7171.000000
122.180298 6793.000000
124.652031 5909.000000
127.122055 6692.000000
129.590317 6318.000000
132.056915 6238.000000
134.521759 5703.000000
136.984909 6183.000000
139.446320 7316.000000
141.906036 6976.000000
144.364029 6388.000000
146.820328 6007.000000
149.274918 5814.000000
151.727783 6857.000000
154.178970 6400.000000
156.628464 6616.000000
159.076233 6046.000000
161.522293 6560.000000
163.966675 8707.000000
166.409378 6456.000000
168.850388 6784.000000
171.289688 6232.000000
173.727280 7205.000000
176.163239 6543.000000
178.597458 6856.000000
181.029999 7185.000000
183.460892 6625.000000
185.890060 7138.000000
188.317581 6738.000000
190.743423 6312.000000
193.167587 6635.000000
195.590088 7082.000000
198.010895 7376.000000
200.430038 6536.000000
202.847519 5997.000000
205.263306 7583.000000
207.677444 6988.000000
210.089951 6280.000000
212.500778 6069.000000
214.909927 6235.000000
217.317444 7379.000000
219.723251 6164.000000
222.127472 6512.000000
224.529984 6691.000000
226.930878 6919.000000
229.330124 6419.000000
231.727707 6852.000000
234.123627 7273.000000
236.517929 6523.000000
238.910568 5843.000000
241.301590 6739.000000
243.690948 6577.000000
246.078690 6402.000000
248.464783 6962.000000
250.849243 6062.000000
253.232056 7878.000000
255.613297 6627.000000
257.992828 6565.000000
260.370789 6441.000000
262.747070 7521.000000
265.121796 7577.000000
267.494873 7814.000000
269.866302 6222.000000
272.236084 6423.000000
274.604309 5862.000000
276.970886 6330.000000
279.335876 6736.000000
281.699249 5997.000000
284.060974 6258.000000
286.421112 7104.000000
288.779633 6057.000000
291.136566 6497.000000
293.491882 6402.000000
295.845612 5989.000000
298.197693 5937.000000
300.548218 6274.000000
302.897156 6387.000000
305.244446 6804.000000
307.590210 6439.000000
309.934296 6490.000000
312.276855 7365.000000
314.617798 7547.000000
316.957123 7312.000000
319.294891 6923.000000
321.631104 8073.000000
323.965668 6270.000000
326.298676 6474.000000
328.630127 6016.000000
330.959991 6566.000000
333.288269 6403.000000
335.614929 7217.000000
337.940094 6333.000000
340.263641 6185.000000
342.585632 5944.000000
344.906067 7570.000000
347.224884 7659.000000
349.542145 5966.000000
351.857880 5791.000000
354.172028 6973.000000
356.484589 6308.000000
358.795593 6362.000000
361.105072 6989.000000
363.413025 6319.000000
365.719360 5630.000000
368.024109 6412.000000
370.327393 6445.000000
372.629059 6182.000000
374.929230 6367.000000
377.227844 6161.000000
379.524902 5700.000000
381.820404 6094.000000
384.114380 5888.000000
386.406769 5199.000000
388.697662 5507.000000
390.987030 6160.000000
393.274811 6253.000000
395.561066 6509.000000
397.845825 7002.000000
400.128967 6038.000000
402.410675 6404.000000
404.690857 6186.000000
406.969452 7219.000000
409.246521 6420.000000
411.522064 6772.000000
413.796082 6516.000000
416.068665 6449.000000
418.339630 6478.000000
420.609100 6428.000000
422.877075 7184.000000
425.143494 7273.000000
427.408417 6246.000000
429.671875 6321.000000
431.933746 6445.000000
434.194153 5964.000000
436.453003 6670.000000
438.710388 6100.000000
440.966278 5607.000000
443.220673 5762.000000
445.473541 5476.000000
447.724854 6916.000000
449.974762 6084.000000
452.223083 6214.000000
454.469971 5609.000000
456.715393 6497.000000
458.959259 6513.000000
461.201630 6880.000000
463.442505 5609.000000
465.681976 6722.000000
467.919861 5415.000000
470.156311 5818.000000
472.391235 6080.000000
474.624695 7306.000000
476.856720 6745.000000
479.087219 5695.000000
481.316223 6460.000000
483.543762 6340.000000
485.769806 5949.000000
487.994415 6522.000000
490.217560 5863.000000
492.439240 6412.000000
494.659363 6609.000000
496.878082 5647.000000
499.095306 6261.000000
501.311157 5526.000000
503.525391 6156.000000
505.738312 6478.000000
507.949646 6459.000000
510.159546 6882.000000
512.368042 6500.000000
514.575134 6569.000000
516.780640 6457.000000
518.984741 6538.000000
521.187317 6148.000000
523.388489 6469.000000
525.588318 6703.000000
527.786621 6967.000000
529.983398 5316.000000
532.178833 5845.000000
534.372742 5567.000000
536.565308 7599.000000
538.756348 6702.000000
540.945984 5985.000000
543.134216 6942.000000
545.320923 7082.000000
547.506165 6762.000000
549.690125 6196.000000
551.872498 6402.000000
554.053528 6124.000000
556.233032 5961.000000
558.411255 5885.000000
560.587952 6029.000000
562.763245 6349.000000
564.937134 6388.000000
567.109558 5906.000000
569.280579 6035.000000
571.450134 6274.000000
573.618408 5271.000000
575.785156 6460.000000
577.950439 6364.000000
580.114319 6175.000000
582.276917 5716.000000
584.437988 6055.000000
586.597656 5581.000000
588.755981 5792.000000
590.912781 6127.000000
593.068237 6524.000000
595.222290 5726.000000
597.375000 6154.000000
599.526184 7229.000000
601.676025 6779.000000
603.824524 6697.000000
605.971436 6088.000000
608.117126 6456.000000
610.261414 6495.000000
612.404236 7066.000000
614.545593 6206.000000
616.685730 6449.000000
618.824341 7677.000000
620.961670 5731.000000
623.097534 6589.000000
625.231995 6872.000000
627.364990 7151.000000
629.496826 6622.000000
631.627197 6519.000000
633.756165 6759.000000
635.883667 6477.000000
638.009888 6159.000000
640.134583 7385.000000
642.258057 6334.000000
644.380188 6787.000000
646.500854 6902.000000
648.620178 6567.000000
650.738098 5578.000000
652.854675 5628.000000
654.969849 6447.000000
657.083679 6456.000000
659.196045 5803.000000
661.307190 6092.000000
663.416931 5400.000000
665.525208 6014.000000
667.632324 6277.000000
669.737976 6858.000000
671.842163 5852.000000
673.945129 5701.000000
676.046692 7040.000000
678.146912 5327.000000
680.245728 6777.000000
682.343201 6241.000000
684.439392 6923.000000
686.534119 6197.000000
688.627625 7011.000000
690.719788 6655.000000
692.810425 7903.000000
694.899841 6606.000000
696.987976 6399.000000
699.074646 6034.000000
701.160095 6682.000000
703.244019 5134.000000
705.326721 5913.000000
707.408142 5918.000000
709.488098 7525.000000
711.566833 6137.000000
713.644104 5557.000000
715.720093 6594.000000
717.794800 6052.000000
719.868225 6995.000000
721.940125 6287.000000
724.010864 7359.000000
726.080261 5789.000000
728.148254 6520.000000
730.214905 6343.000000
732.280334 7063.000000
734.344421 5726.000000
736.407166 6179.000000
738.468567 6497.000000
740.528687 6562.000000
742.587402 6007.000000
744.644897 6645.000000
746.701111 6587.000000
748.755920 6679.000000
750.809448 6364.000000
752.861572 7522.000000
754.912476 5758.000000
756.962158 6702.000000
759.010376 6387.000000
761.057373 6156.000000
763.103088 7072.000000
765.147400 5361.000000
767.190430 5745.000000
769.232239 6327.000000
771.272705 6909.000000
773.311768 6345.000000
775.349670 6107.000000
777.386230 5991.000000
779.421570 5394.000000
781.455566 5767.000000
783.488159 6935.000000
785.519592 5523.000000
787.549622 11507.000000
789.578369 6049.000000
791.605957 6326.000000
793.632202 6335.000000
795.657043 5759.000000
797.680786 5522.000000
799.703125 6375.000000
801.724243 5868.000000
803.744019 6667.000000
805.762512 4918.000000
807.779785 6689.000000
809.795654 6787.000000
811.810364 5733.000000
813.823730 6438.000000
815.835876 6289.000000
817.846802 6079.000000
819.856384 6590.000000
821.864746 5343.000000
823.871704 5753.000000
825.877441 6026.000000
827.881958 5755.000000
829.885193 5624.000000
831.887146 6518.000000
833.887817 6079.000000
835.887268 5876.000000
837.885376 6318.000000
839.882385 6945.000000
841.877991 6237.000000
843.872437 5990.000000
845.865540 6225.000000
847.857422 6776.000000
849.847961 5570.000000
851.837219 6738.000000
853.825439 5992.000000
855.812256 5779.000000
857.797852 6392.000000
859.782166 7276.000000
861.765381 6293.000000
863.747192 6357.000000
865.727783 5794.000000
867.707092 7817.000000
869.685242 7112.000000
871.662048 6170.000000
873.637573 5975.000000
875.612061 6169.000000
877.585083 6002.000000
879.557068 5428.000000
881.527710 6388.000000
883.497192 6066.000000
885.465332 5575.000000
887.432312 5181.000000
889.397949 6080.000000
891.362427 5825.000000
893.325684 6012.000000
895.287720 6450.000000
897.248474 5806.000000
899.208008 6417.000000
901.166260 6683.000000
903.123413 6365.000000
905.079407 5993.000000
907.033997 6832.000000
908.987366 6498.000000
910.939575 6447.000000
912.890564 6330.000000
914.840271 7071.000000
916.788818 6373.000000
918.736145 6173.000000
920.682190 6074.000000
922.626953 6005.000000
924.570679 6307.000000
926.513245 5943.000000
928.454529 5502.000000
930.394470 6456.000000
932.333313 5682.000000
934.270874 5494.000000
936.207214 5938.000000
938.142395 5837.000000
940.076294 6096.000000
942.009094 5889.000000
943.940674 6788.000000
945.871094 5193.000000
947.800293 6379.000000
949.728149 6996.000000
951.654968 6615.000000
953.580505 6005.000000
955.504761 5387.000000
957.427917 5986.000000
959.349915 6701.000000
961.270630 7250.000000
963.190186 6394.000000
965.108582 5323.000000
967.025940 6408.000000
968.941833 6363.000000
970.856628 6077.000000
972.770203 5936.000000
974.682617 6311.000000
976.593811 6428.000000
978.503845 5475.000000
980.412598 6230.000000
982.320313 6049.000000
984.226807 6362.000000
986.132080 5740.000000
988.036255 6798.000000
989.939209 6164.000000
991.840942 6783.000000
993.741516 6560.000000
995.640930 6516.000000
997.539124 5252.000000
999.436157 6556.000000
1001.331970 6466.000000
1003.226624 7712.000000
1005.120178 5573.000000
1007.012451 7152.000000
1008.903809 6025.000000
1010.793823 5360.000000
1012.682617 6612.000000
1014.570251 6278.000000
1016.456726 6896.000000
1018.342041 6778.000000
1020.226196 5937.000000
1022.109131 5852.000000
1023.991028 6177.000000
1025.871582 5189.000000
1027.751099 5813.000000
1029.629639 6023.000000
1031.506836 5416.000000
1033.382690 6178.000000
1035.257568 5862.000000
1037.131470 6583.000000
1039.003906 7046.000000
1040.875366 6681.000000
1042.745483 5484.000000
1044.614624 5541.000000
1046.482544 5726.000000
1048.349365 7017.000000
1050.215088 6790.000000
1052.079590 6384.000000
1053.942993 6482.000000
1055.805054 6364.000000
1057.666138 5871.000000
1059.526123 6505.000000
1061.384766 6593.000000
1063.242310 5736.000000
1065.098755 6760.000000
1066.954102 5907.000000
1068.808228 5775.000000
1070.661499 6330.000000
1072.513306 6325.000000
1074.364136 6105.000000
1076.213745 6118.000000
1078.062134 5782.000000
1079.909668 7956.000000
1081.755859 5555.000000
1083.600830 6246.000000
1085.444946 5345.000000
1087.287720 5537.000000
1089.129272 6533.000000
1090.970093 5431.000000
1092.809326 5700.000000
1094.647827 6023.000000
1096.484985 5978.000000
1098.320923 6719.000000
1100.155884 6590.000000
1101.989624 5381.000000
1103.822388 5663.000000
1105.653809 6176.000000
1107.484375 7283.000000
1109.313599 6500.000000
1111.141846 6467.000000
1112.968872 7139.000000
1114.794922 5392.000000
1116.619751 6370.000000
1118.443481 7181.000000
1120.265991 6006.000000
1122.087402 5875.000000
1123.907959 5928.000000
1125.727051 6629.000000
1127.545288 7051.000000
1129.362183 6813.000000
1131.178223 6679.000000
1132.993042 6469.000000
1134.806763 5551.000000
1136.619385 5783.000000
1138.430786 5602.000000
1140.241211 6087.000000
1142.050537 6726.000000
1143.858521 6938.000000
1145.665771 5974.000000
1147.471558 5912.000000
1149.276489 5402.000000
1151.080322 5385.000000
1152.882935 6104.000000
1154.684692 6081.000000
1156.484985 6041.000000
1158.284302 6028.000000
1160.082642 5890.000000
1161.879639 5480.000000
1163.675903 5890.000000
1165.470825 6083.000000
1167.264648 6328.000000
1169.057617 7705.000000
1170.849243 5773.000000
1172.639893 6440.000000
1174.429565 6003.000000
1176.217773 5849.000000
1178.005127 7470.000000
1179.791382 6903.000000
1181.576538 5697.000000
1183.360596 5959.000000
1185.143555 7727.000000
1186.925537 5836.000000
1188.706299 5902.000000
1190.486084 6306.000000
1192.264771 6907.000000
1194.042480 6655.000000
1195.818970 7160.000000
1197.594360 6548.000000
1199.368652 6517.000000
1201.141846 6666.000000
1202.914185 6519.000000
1204.685181 6668.000000
1206.455322 5625.000000
1208.224243 6102.000000
1209.992065 6284.000000
1211.759033 5874.000000
1213.524658 5856.000000
1215.289307 6954.000000
1217.052856 6549.000000
1218.815308 5948.000000
1220.576904 6720.000000
1222.337280 5872.000000
1224.096558 6236.000000
1225.854980 6038.000000
1227.612183 7112.000000
1229.368286 6432.000000
1231.123291 5589.000000
1232.877441 5945.000000
1234.630249 5789.000000
1236.382080 5945.000000
1238.133057 5941.000000
1239.882690 4886.000000
1241.631470 6874.000000
1243.378906 6459.000000
1245.125610 6599.000000
1246.871094 6454.000000
1248.615723 6392.000000
1250.359009 6785.000000
1252.101318 6711.000000
1253.842529 5355.000000
1255.582886 5032.000000
1257.322144 5816.000000
1259.060181 6598.000000
1260.797363 7110.000000
1262.533325 6107.000000
1264.268311 6405.000000
1266.002319 7245.000000
1267.735352 5900.000000
1269.467163 6236.000000
1271.197998 6406.000000
1272.927612 7207.000000
1274.656372 5910.000000
1276.384033 5720.000000
1278.110596 5509.000000
1279.836304 5552.000000
1281.560669 6450.000000
1283.284180 5232.000000
1285.006714 6957.000000
1286.728271 6578.000000
1288.448608 6088.000000
1290.167969 6624.000000
1291.886230 7201.000000
1293.603516 6454.000000
1295.319824 5740.000000
1297.034912 6361.000000
1298.749023 6117.000000
1300.462158 5819.000000
1302.174438 6436.000000
1303.885498 8284.000000
1305.595581 5175.000000
1307.304565 6254.000000
1309.012329 6638.000000
1310.719482 7060.000000
1312.425171 5785.000000
1314.130127 6887.000000
1315.834106 6192.000000
1317.536865 5968.000000
1319.238647 6532.000000
1320.939575 6082.000000
1322.639160 9127.000000
1324.337891 7346.000000
1326.035889 5565.000000
1327.732544 6505.000000
1329.428101 7036.000000
1331.122803 6810.000000
1332.816284 5706.000000
1334.508911 5422.000000
1336.200684 7403.000000
1337.891113 6241.000000
1339.580811 6568.000000
1341.269409 6085.000000
1342.956909 7661.000000
1344.643433 5635.000000
1346.328857 6750.000000
1348.013306 5945.000000
1349.696899 7230.000000
1351.379272 6391.000000
1353.060669 5914.000000
1354.741211 6572.000000
1356.420532 6671.000000
1358.099243 5921.000000
1359.776611 6631.000000
1361.452881 5736.000000
1363.128174 5588.000000
1364.802734 6591.000000
1366.476074 6458.000000
1368.148438 6786.000000
1369.819824 5133.000000
1371.490234 6833.000000
1373.159546 6127.000000
1374.827881 5744.000000
1376.495361 5964.000000
1378.161743 6427.000000
1379.827148 6174.000000
1381.491577 5783.000000
1383.154785 5941.000000
1384.817383 5668.000000
1386.478638 6375.000000
1388.139038 6572.000000
1389.798340 6438.000000
1391.456665 6514.000000
1393.114258 6900.000000
1394.770630 6475.000000
1396.426147 7009.000000
1398.080444 6340.000000
1399.733887 5837.000000
1401.386230 6093.000000
1403.037842 6479.000000
1404.688232 7170.000000
1406.337524 6217.000000
1407.986084 7522.000000
1409.633545 7847.000000
1411.280029 6195.000000
1412.925659 6236.000000
1414.570313 5931.000000
1416.213745 6988.000000
1417.856323 7167.000000
1419.497803 6803.000000
1421.138428 6501.000000
1422.778076 6439.000000
1424.416626 5993.000000
1426.054321 6582.000000
1427.690918 6339.000000
1429.326538 6038.000000
1430.961426 6367.000000
1432.595215 5838.000000
1434.227905 6113.000000
1435.859619 5607.000000
1437.490479 6144.000000
1439.120239 6018.000000
1440.748901 7701.000000
1442.376953 5930.000000
1444.003906 6206.000000
1445.629639 6104.000000
1447.254761 6140.000000
1448.878784 6539.000000
1450.501831 6040.000000
1452.123901 6036.000000
1453.744873 7376.000000
1455.364868 6252.000000
1456.984131 6871.000000
1458.602051 13025.500000
1460.219360 19180.000000
1461.835693 5569.000000
1463.450806 7264.000000
1465.065063 6306.000000
1466.678467 5184.000000
1468.290771 5548.000000
1469.902222 6207.000000
1471.512817 6292.000000
1473.122192 5981.000000
1474.730591 5985.000000
1476.338135 6212.000000
1477.944702 6658.000000
1479.550537 5312.000000
1481.155151 6242.000000
1482.758911 5471.000000
1484.361450 6653.000000
1485.963379 5561.000000
1487.564087 5536.000000
1489.164063 5633.000000
1490.762939 6270.000000
1492.360962 6531.000000
1493.957886 6650.000000
1495.553955 6309.000000
1497.149048 5983.000000
1498.743164 5517.000000
1500.336548 6522.000000
1501.928833 5553.000000
1503.519897 6206.000000
1505.110474 6791.000000
1506.699707 6434.000000
1508.288330 6109.000000
1509.875854 6559.000000
1511.462280 6857.000000
1513.047974 6107.000000
1514.632568 6609.000000
1516.216309 6238.000000
1517.798950 6174.000000
1519.380859 6594.000000
1520.961670 6587.000000
1522.541748 6006.000000
1524.120605 6284.000000
1525.698608 6413.000000
1527.275879 6285.000000
1528.851929 5710.000000
1530.427246 5872.000000
1532.001465 6353.000000
1533.574951 5463.000000
1535.147217 5898.000000
1536.718750 6329.000000
1538.289307 6457.000000
1539.859009 6311.000000
1541.427490 5427.000000
1542.995239 6532.000000
1544.562134 5655.000000
1546.127808 6770.000000
1547.692749 5946.000000
1549.256592 5051.000000
1550.819824 7380.000000
1552.381714 6250.000000
1553.942993 5973.000000
1555.503174 5685.000000
1557.062622 5827.000000
1558.620972 5792.000000
1560.178589 6281.000000
1561.735107 7018.000000
1563.290405 5839.000000
1564.845093 6383.000000
1566.399048 5568.000000
1567.952026 6270.000000
1569.503662 5672.000000
1571.054565 5870.000000
1572.604736 6182.000000
1574.153931 6309.000000
1575.701782 5756.000000
1577.249146 5496.000000
1578.795532 5717.000000
1580.341064 5060.000000
1581.885620 6623.000000
1583.428955 6317.000000
1584.971680 6629.000000
1586.513550 6454.000000
1588.054321 6605.000000
1589.594116 5746.000000
1591.133179 6619.000000
1592.671143 5963.000000
1594.208618 6132.000000
1595.744751 5907.000000
1597.279785 6660.000000
1598.814331 6258.000000
1600.347900 5890.000000
1601.880615 5988.000000
1603.411743 6278.000000
1604.942627 6285.000000
1606.472656 5749.000000
1608.001465 6101.000000
1609.529175 6148.000000
1611.056274 5964.000000
1612.582642 5855.000000
1614.108032 6247.000000
1615.632568 5819.000000
1617.155762 5833.000000
1618.678223 5612.000000
1620.199951 6543.000000
1621.720825 6975.000000
1623.240234 15494.000000
1624.759155 6198.000000
1626.277344 6085.000000
1627.794678 5911.000000
1629.310913 6362.000000
1630.825806 7045.000000
1632.340210 6760.000000
1633.853882 5774.000000
1635.366455 6894.000000
1636.877808 5865.000000
1638.388794 6427.000000
1639.898682 6241.000000
1641.407715 6172.000000
1642.915405 5593.000000
1644.422729 6163.000000
1645.929199 7058.000000
1647.434692 6274.000000
1648.939331 6808.000000
1650.442505 6150.000000
1651.945068 6566.000000
1653.447266 6304.000000
1654.948120 6592.000000
1656.447876 7565.000000
1657.946777 5924.000000
1659.445313 6500.000000
1660.942627 6244.000000
1662.439209 5881.000000
1663.934204 6458.000000
1665.428955 6328.000000
1666.922852 5236.000000
1668.415771 5608.000000
1669.907349 21391.000000
1671.398438 6509.000000
1672.888916 6069.000000
1674.378296 5937.000000
1675.866211 6993.000000
1677.353882 6751.000000
1678.840576 5974.000000
1680.326416 5335.000000
1681.811401 6047.000000
1683.294922 6211.000000
1684.778198 6138.000000
1686.260620 5820.000000
1687.741943 6246.000000
1689.221802 6147.000000
1690.701416 5511.000000
1692.180298 6513.000000
1693.658203 5993.000000
1695.135132 6132.000000
1696.610840 5818.000000
1698.086182 5994.000000
1699.560303 6294.000000
1701.033813 5395.000000
1702.505859 5581.000000
1703.977661 6877.000000
1705.448486 6468.000000
1706.918457 7057.000000
1708.387085 5163.000000
1709.855225 5814.000000
1711.322632 6347.000000
1712.788940 5473.000000
1714.254639 5738.000000
1715.718628 6138.000000
1717.182495 5949.000000
1718.645508 6930.000000
1720.107544 6330.000000
1721.568359 6604.000000
1723.028564 5421.000000
1724.488037 6387.000000
1725.946655 6152.000000
1727.404297 5973.000000
1728.860596 6277.000000
1730.316650 6046.000000
1731.771729 6470.000000
1733.225830 5920.000000
1734.678711 6855.000000
1736.131348 5883.000000
1737.582886 6904.000000
1739.033691 5933.000000
1740.483521 6501.000000
1741.932007 5979.000000
1743.380127 7367.000000
1744.827393 6581.000000
1746.273926 6686.000000
1747.718872 6683.000000
1749.163574 6175.000000
1750.607422 5787.000000
1752.050415 5498.000000
1753.491943 6565.000000
1754.933228 6298.000000
1756.373657 19407.000000
1757.813110 6238.000000
1759.251587 5220.000000
1760.689087 6039.000000
1762.126099 7549.000000
1763.562134 5794.000000
1764.997314 7073.000000
1766.431030 6120.000000
1767.864624 6415.000000
1769.297241 6694.000000
1770.729004 5784.000000
1772.159912 5731.000000
1773.589600 6377.000000
1775.018555 6158.000000
1776.447021 6273.000000
1777.874512 6701.000000
1779.300659 6214.000000
1780.726563 5535.000000
1782.151367 6892.000000
1783.575562 5542.000000
1784.998291 6659.000000
1786.420532 6508.000000
1787.842041 6903.000000
1789.262817 5753.000000
1790.682617 5905.000000
1792.101074 6139.000000
1793.519043 6780.000000
1794.936401 5502.000000
1796.352905 5987.000000
1797.767944 6482.000000
1799.182617 5827.000000
1800.596680 6549.000000
1802.009521 5961.000000
1803.421753 6975.000000
1804.832642 7136.000000
1806.243042 7746.000000
1807.652710 6423.000000
1809.061401 5978.000000
1810.468994 5399.000000
1811.876099 6473.000000
1813.282349 6360.000000
1814.687622 6746.000000
1816.091797 5925.000000
1817.495605 5983.000000
1818.898438 6195.000000
1820.300415 6005.000000
1821.701782 5804.000000
1823.101685 6383.000000
1824.500977 6563.000000
1825.899780 6578.000000
1827.297729 7507.000000
1828.694336 5724.000000
1830.090332 6771.000000
1831.485596 5891.000000
1832.880249 8149.000000
1834.273926 5991.000000
1835.666260 6865.000000
1837.058105 6419.000000
1838.449341 5843.000000
1839.839600 7102.000000
1841.228638 6074.000000
1842.617310 6071.000000
1844.005005 5999.000000
1845.391968 5758.000000
1846.777588 6913.000000
1848.162964 5888.000000
1849.547485 6383.000000
1850.931274 6295.000000
1852.313965 6320.000000
1853.695435 5391.000000
1855.076416 6497.000000
1856.456909 6291.000000
1857.836426 5735.000000
1859.214478 5981.000000
1860.592407 6198.000000
1861.969360 7855.000000
1863.345581 6130.000000
1864.720947 6074.000000
1866.094849 5631.000000
1867.468628 5708.000000
1868.841553 6198.000000
1870.213379 5961.000000
1871.584229 6896.000000
1872.954712 5438.000000
1874.324097 5904.000000
1875.692993 6049.000000
1877.060303 7194.000000
1878.427490 6064.000000
1879.793701 6008.000000
1881.159180 6768.000000
1882.523926 7463.000000
1883.887085 6740.000000
1885.250122 6980.000000
1886.612305 6356.000000
1887.973633 6408.000000
1889.333618 5606.000000
1890.693237 5796.000000
1892.052246 6112.000000
1893.410278 6612.000000
1894.767456 7289.000000
1896.123413 5948.000000
1897.479126 7637.000000
1898.833862 5824.000000
1900.187744 5504.000000
1901.540527 5890.000000
1902.892822 5897.000000
1904.244385 5950.000000
1905.595093 6873.000000
1906.944580 6572.000000
1908.293579 6645.000000
1909.641724 5755.000000
1910.989258 6093.000000
1912.336060 6302.000000
1913.681274 6788.000000
1915.026245 6026.000000
1916.370483 5434.000000
1917.713867 6511.000000
1919.055908 5985.000000
1920.397705 6717.000000
1921.738647 7000.000000
1923.078857 6136.000000
1924.418091 6322.000000
1925.756348 6307.000000
1927.093994 6515.000000
1928.430908 6960.000000
1929.766968 6724.000000
1931.101807 5529.000000
1932.436279 6631.000000
1933.770020 7227.000000
1935.102905 6220.000000
1936.434326 5801.000000
1937.765869 6290.000000
1939.096069 6638.000000
1940.425781 5754.000000
1941.754639 6076.000000
1943.082275 5814.000000
1944.409424 4968.000000
1945.735840 5805.000000
1947.061523 6473.000000
1948.385864 5761.000000
1949.709961 6688.000000
1951.033203 6317.000000
1952.355713 6443.000000
1953.677124 5830.000000
1954.997559 7422.000000
1956.317383 5964.000000
1957.636841 5543.000000
1958.955322 6902.000000
1960.272461 5824.000000
1961.589233 5828.000000
1962.905273 6589.000000
1964.220581 6510.000000
1965.534424 6284.000000
1966.848022 5641.000000
1968.160889 6245.000000
1969.472900 6014.000000
1970.784302 5988.000000
1972.094360 6280.000000
1973.403931 5871.000000
1974.712769 6111.000000
1976.020996 6565.000000
1977.327881 6092.000000
1978.634155 7293.000000
1979.940063 5527.000000
1981.244751 6370.000000
1982.548950 5902.000000
1983.851929 5757.000000
1985.154541 7498.000000
1986.456177 6103.000000
1987.757202 6760.000000
1989.056641 6125.000000
1990.356201 6583.000000
1991.654663 5297.000000
1992.952637 6062.000000
1994.249023 6108.000000
1995.545410 5783.000000
1996.840820 5559.000000
1998.135498 6415.000000
1999.429321 5685.000000
2000.721924 6533.000000
2002.014038 5754.000000
2003.305664 7126.000000
2004.596558 6510.000000
2005.885864 6262.000000
2007.174927 6826.000000
2008.463257 5956.000000
2009.750854 5961.000000
2011.037598 6796.000000
2012.323242 5680.000000
2013.608521 6344.000000
2014.892822 6033.000000
2016.176514 5578.000000
2017.458862 6101.000000
2018.740845 6469.000000
2020.022339 6777.000000
2021.302856 5871.000000
2022.582642 6065.000000
2023.861328 6759.000000
2025.139282 5838.000000
2026.416748 5862.000000
2027.693604 6335.000000
2028.968750 5706.000000
2030.244019 6510.000000
2031.518311 6017.000000
2032.791626 5936.000000
2034.064087 5931.000000
2035.336182 6132.000000
2036.607178 6929.000000
2037.877930 6598.000000
2039.147339 6053.000000
2040.415649 6754.000000
2041.683960 6552.000000
2042.951294 5878.000000
2044.217896 6013.000000
2045.483276 5739.000000
2046.748047 5456.000000
2048.012695 5408.000000
2049.275879 5873.000000
2050.538818 6406.000000
2051.799805 6194.000000
2053.061279 6081.000000
2054.321533 5904.000000
2055.581055 6442.000000
2056.839844 6236.000000
2058.097656 6949.000000
2059.354980 6174.000000
2060.611572 6005.000000
2061.866699 6516.000000
2063.121826 5620.000000
2064.375977 5562.000000
2065.629395 5640.000000
2066.882080 6827.000000
2068.133545 6244.000000
2069.384766 6361.000000
2070.635254 5557.000000
2071.885010 5413.000000
2073.133301 6482.000000
2074.381592 6560.000000
2075.628906 7399.000000
2076.875488 5578.000000
2078.121338 6067.000000
2079.365967 6912.000000
2080.610107 7584.000000
2081.853760 5494.000000
2083.096436 6049.000000
2084.337891 6990.000000
2085.579102 6041.000000
2086.819824 6348.000000
2088.059570 6705.000000
2089.298096 7043.000000
2090.536133 6205.000000
2091.773438 5719.000000
2093.010498 6600.000000
2094.246094 6054.000000
2095.480957 6222.000000
2096.715576 6059.000000
2097.949219 5646.000000
2099.181885 6069.000000
2100.413818 6829.000000
2101.645264 6444.000000
2102.875732 6763.000000
2104.105469 6056.000000
2105.334961 6043.000000
2106.562500 6007.000000
2107.790283 6001.000000
2109.017334 6247.000000
2110.243408 5452.000000
2111.468018 6370.000000
2112.692871 6950.000000
2113.916504 7054.000000
2115.139648 6139.000000
2116.361572 7564.000000
2117.583252 5985.000000
2118.803955 6817.000000
2120.023926 5992.000000
2121.243408 6155.000000
2122.461426 6577.000000
2123.679443 7051.000000
2124.896484 5802.000000
2126.113037 5804.000000
2127.327881 6543.000000
2128.542969 6331.000000
2129.757080 6950.000000
2130.970459 5693.000000
2132.183105 6124.000000
2133.394287 5786.000000
2134.605713 6550.000000
2135.815918 6672.000000
2137.025635 5986.000000
2138.233887 6128.000000
2139.442139 5680.000000
2140.649658 5841.000000
2141.855957 7457.000000
2143.061523 5821.000000
2144.266846 5708.000000
2145.471191 5525.000000
2146.674805 6306.000000
2147.877930 6154.000000
2149.079590 6351.000000
2150.281006 5353.000000
2151.481689 6310.000000
2152.681641 6057.000000
2153.880371 5953.000000
2155.078857 6919.000000
2156.276855 6182.000000
2157.473877 6009.000000
2158.670166 5163.000000
2159.865234 5275.000000
2161.060059 6147.000000
2162.254150 5540.000000
2163.447266 6090.000000
2164.639404 6898.000000
2165.831299 5919.000000
2167.022461 6371.000000
2168.212646 6277.000000
2169.402100 6424.000000
2170.591064 6845.000000
2171.779053 6251.000000
2172.966797 5690.000000
2174.153076 5926.000000
2175.338623 6517.000000
2176.523926 5995.000000
2177.708740 5867.000000
2178.892334 6345.000000
2180.075195 7481.000000
2181.257080 6274.000000
2182.438721 5887.000000
2183.619873 6559.000000
2184.799805 5650.000000
2185.978760 5602.000000
2187.157227 6369.000000
2188.335449 6898.000000
2189.512451 7198.000000
2190.688477 6761.000000
2191.864258 6093.000000
2193.039551 5551.000000
2194.213379 6664.000000
2195.386719 6193.000000
2196.559814 6243.000000
2197.731689 6358.000000
2198.903076 7086.000000
2200.073975 6341.000000
2201.243164 6946.000000
2202.412354 7583.000000
2203.581055 6248.000000
2204.748779 5912.000000
2205.915527 5595.000000
2207.081543 7148.000000
2208.247070 6670.000000
2209.412354 6025.000000
2210.576172 6685.000000
2211.739502 5430.000000
2212.901611 6117.000000
2214.063965 6172.000000
2215.225098 6619.000000
2216.385254 6639.000000
2217.544922 6353.000000
2218.704346 6550.000000
2219.862549 6373.000000
2221.019775 6291.000000
2222.176758 6722.000000
2223.333008 6670.000000
2224.488525 6805.000000
2225.643311 6250.000000
2226.797119 6451.000000
2227.949951 6156.000000
2229.103271 6912.000000
2230.254639 6206.000000
2231.405762 6140.000000
2232.556152 6543.000000
2233.706055 7749.000000
2234.854980 6308.000000
2236.003418 5188.000000
2237.150391 6820.000000
2238.297607 7026.000000
2239.443604 6042.000000
2240.589355 7269.000000
2241.733398 7344.000000
2242.877686 6733.000000
2244.020996 6193.000000
2245.163574 5980.000000
2246.305176 5743.000000
2247.446533 5832.000000
2248.586914 6426.000000
2249.726563 6423.000000
2250.865723 5841.000000
2252.003662 5839.000000
2253.141602 6213.000000
2254.278564 5312.000000
2255.414795 6299.000000
2256.550049 6142.000000
2257.684570 7295.000000
2258.818848 6394.000000
2259.952637 5369.000000
2261.084961 6127.000000
2262.216797 6752.000000
2263.348145 6270.000000
2264.478516 6412.000000
2265.608643 8055.000000
2266.737549 6703.000000
2267.865967 6105.000000
2268.993896 5581.000000
2270.120850 6140.000000
2271.247070 5951.000000
2272.372314 6735.000000
2273.497559 6515.000000
2274.622070 6423.000000
2275.745361 5928.000000
2276.867920 6338.000000
2277.989990 5947.000000
2279.111572 7414.000000
2280.232422 6386.000000
2281.352051 6433.000000
2282.471191 7061.000000
2283.590088 7586.000000
2284.708252 7232.000000
2285.825439 5881.000000
2286.941650 6387.000000
2288.057617 7038.000000
2289.172852 6841.000000
2290.287354 7360.000000
2291.400635 5759.000000
2292.513916 6346.000000
2293.626465 6024.000000
2294.738281 5323.000000
2295.849365 6772.000000
2296.959229 6370.000000
2298.068604 6188.000000
2299.177734 6652.000000
2300.285889 6350.000000
2301.393066 6768.000000
2302.500000 5872.000000
2303.606201 6277.000000
2304.711914 6569.000000
2305.816162 6680.000000
2306.920166 5472.000000
2308.023682 5772.000000
2309.126709 6522.000000
2310.228516 7394.000000
2311.329590 7325.000000
2312.430176 6581.000000
2313.530273 5516.000000
2314.629639 6385.000000
2315.727539 6460.000000
2316.825928 6974.000000
2317.922852 8190.000000
2319.019531 6796.000000
2320.115723 5771.000000
2321.210205 6873.000000
2322.304688 7592.000000
2323.398438 5856.000000
2324.491943 6072.000000
2325.583740 6439.000000
2326.675537 7011.000000
2327.766602 6049.000000
2328.856934 6316.000000
2329.946289 6904.000000
2331.035645 6075.000000
2332.123779 6270.000000
2333.211426 6835.000000
2334.298828 6516.000000
2335.384521 6625.000000
2336.469971 7702.000000
2337.555176 6345.000000
2338.639404 6759.000000
2339.722656 5876.000000
2340.805664 6426.000000
2341.887695 7105.000000
2342.969482 6039.000000
2344.050537 7511.000000
2345.130371 6632.000000
2346.209717 5680.000000
2347.288574 6843.000000
2348.366943 6490.000000
2349.443848 6231.000000
2350.520508 6960.000000
2351.596924 6093.000000
2352.672363 6467.000000
2353.746826 5892.000000
2354.821045 6259.000000
2355.894531 6740.000000
2356.967529 6263.000000
2358.039307 7051.000000
2359.110840 6325.000000
2360.181396 6783.000000
2361.251709 7528.000000
2362.321045 7563.000000
2363.389404 6834.000000
2364.457520 6730.000000
2365.524902 7107.000000
2366.591797 7165.000000
2367.657959 6015.000000
2368.722900 6833.000000
2369.787842 6965.000000
2370.852051 6343.000000
2371.915527 6898.000000
2372.977783 5786.000000
2374.040039 6323.000000
2375.101318 6347.000000
2376.162354 5902.000000
2377.222168 6304.000000
2378.281250 7901.000000
2379.340332 6510.000000
2380.398438 7519.000000
2381.455811 6897.000000
2382.512207 8025.000000
2383.568359 7783.000000
2384.624023 6261.000000
2385.678955 7071.000000
2386.732422 6807.000000
2387.786133 6522.000000
2388.838867 6271.000000
2389.891113 6710.000000
2390.942627 6107.000000
2391.993164 6735.000000
2393.043457 6468.000000
2394.092773 6195.000000
2395.142090 6185.000000
2396.189941 6850.000000
2397.237305 6951.000000
2398.284424 6272.000000
2399.330566 6675.000000
2400.375977 6219.000000
2401.420654 6720.000000
2402.465332 7718.000000
2403.508545 7440.000000
2404.551758 6558.000000
2405.593506 5743.000000
2406.635498 6696.000000
2407.676758 7088.000000
2408.717041 6185.000000
2409.756592 6388.000000
2410.795166 6346.000000
2411.833984 6113.000000
2412.871582 6512.000000
2413.908936 6963.000000
2414.945068 7341.000000
2415.980957 6209.000000
2417.016113 6259.000000
2418.050781 6805.000000
2419.083984 7258.000000
2420.117432 6419.000000
2421.149902 6719.000000
2422.182129 6779.000000
2423.212891 6991.000000
2424.243652 6360.000000
2425.273926 6919.000000
2426.302979 6827.000000
2427.332031 6639.000000
2428.359375 7414.000000
2429.387207 6648.000000
2430.413818 7266.000000
2431.440186 6978.000000
2432.465088 7683.000000
2433.490234 6569.000000
2434.514404 7088.000000
2435.538330 6740.000000
2436.561035 5836.000000
2437.583008 6342.000000
2438.604736 6635.000000
2439.625732 6652.000000
2440.646240 5984.000000
2441.665527 6481.000000
2442.684814 6556.000000
2443.703125 8422.000000
2444.721191 6260.000000
2445.737793 6352.000000
2446.754395 6630.000000
2447.770264 5972.000000
2448.786133 6968.000000
2449.800537 6853.000000
2450.814209 5552.000000
2451.827393 7236.000000
2452.840332 5925.000000
2453.852539 7185.000000
2454.863770 6651.000000
2455.874756 7696.000000
2456.885010 6352.000000
2457.894775 7611.000000
2458.903564 5854.000000
2459.911621 5951.000000
2460.919678 6268.000000
2461.926514 7405.000000
2462.933105 5450.000000
2463.938477 7420.000000
2464.943604 6914.000000
2465.948486 5797.000000
2466.952148 6454.000000
2467.955566 6345.000000
2468.958008 7600.000000
2469.960205 7325.000000
2470.961914 6870.000000
2471.962646 6593.000000
2472.962402 7014.000000
2473.962158 6729.000000
2474.960938 5651.000000
2475.959229 6561.000000
2476.956543 7062.000000
2477.953613 6069.000000
2478.950684 6919.000000
2479.946289 5826.000000
2480.941895 7102.000000
2481.935791 6684.000000
2482.929688 8070.000000
2483.923096 6871.000000
2484.916016 6908.000000
2485.907959 7421.000000
2486.899170 7185.000000
2487.890137 6709.000000
2488.880615 5794.000000
2489.870117 6548.000000
2490.858887 6551.000000
2491.847656 5675.000000
2492.835449 6738.000000
2493.822021 6528.000000
2494.808594 8025.000000
2495.794678 6819.000000
2496.780029 7106.000000
2497.764404 7984.000000
2498.748535 6041.000000
2499.732666 6822.000000
2500.715332 5770.000000
2501.697510 6980.000000
2502.679199 6828.000000
2503.660156 7226.000000
2504.640625 6525.000000
2505.620850 5757.000000
2506.599609 6293.000000
2507.578125 7632.000000
2508.556152 6753.000000
2509.533691 7086.000000
2510.510254 6058.000000
2511.486572 5903.000000
2512.462158 6428.000000
2513.437256 6219.000000
2514.411865 6480.000000
2515.385254 7620.000000
2516.358398 6771.000000
2517.331299 6865.000000
2518.303223 6147.000000
2519.274414 6865.000000
2520.245117 6881.000000
2521.215576 7858.000000
2522.185303 8062.000000
2523.154053 6059.000000
2524.122070 6179.000000
2525.090088 7667.000000
2526.057129 6280.000000
2527.023926 5536.000000
2527.989502 7322.000000
2528.955078 6958.000000
2529.919922 7698.000000
2530.884277 6272.000000
2531.847412 6377.000000
2532.810791 5876.000000
2533.773193 5953.000000
2534.735352 6700.000000
2535.696289 6340.000000
2536.656494 6134.000000
2537.616943 6148.000000
2538.576416 6751.000000
2539.535156 6781.000000
2540.492920 6696.000000
2541.450928 6165.000000
2542.408203 6697.000000
2543.364502 6106.000000
2544.320557 7075.000000
2545.275391 6124.000000
2546.230469 7715.000000
2547.184814 7019.000000
2548.138428 6840.000000
2549.091064 7203.000000
2550.043457 6792.000000
2550.995361 6927.000000
2551.946533 6378.000000
2552.896973 7637.000000
2553.846924 7254.000000
2554.796631 7305.000000
2555.745605 6571.000000
2556.694092 6241.000000
2557.641357 7119.000000
2558.588623 6260.000000
2559.535156 6514.000000
2560.481201 6766.000000
2561.426270 7359.000000
2562.371094 6710.000000
2563.315430 7192.000000
2564.259277 6848.000000
2565.202637 6620.000000
2566.144531 6602.000000
2567.086670 6573.000000
2568.028076 6120.000000
2568.968750 7117.000000
2569.908691 7285.000000
2570.848633 5720.000000
2571.787598 6126.000000
2572.726318 7517.000000
2573.664063 7199.000000
2574.601563 5486.000000
2575.538330 6948.000000
2576.474365 6761.000000
2577.409912 7571.000000
2578.344727 6398.000000
2579.279541 5929.000000
2580.213379 7037.000000
2581.146729 7038.000000
2582.079346 5842.000000
2583.011719 6908.000000
2583.943359 5399.000000
2584.874512 7034.000000
2585.805176 6969.000000
2586.734619 6860.000000
2587.664063 7253.000000
2588.593018 6502.000000
2589.521729 7469.000000
2590.448730 7175.000000
2591.375977 5877.000000
2592.302734 6779.000000
2593.228760 6321.000000
2594.154541 5614.000000
2595.079102 7582.000000
2596.003418 7643.000000
2596.927246 5342.000000
2597.850586 7275.000000
2598.772949 6272.000000
2599.695068 6844.000000
2600.616699 8339.000000
2601.537598 6349.000000
2602.457764 5814.000000
2603.377686 6265.000000
2604.297119 6352.000000
2605.216309 6419.000000
2606.134521 5794.000000
2607.051514 5964.000000
2607.968750 7250.000000
2608.885742 5920.000000
2609.801758 7555.000000
2610.716553 6656.000000
2611.631836 6577.000000
2612.546387 6541.000000
2613.459961 6504.000000
2614.373535 6035.000000
2615.285889 7601.000000
2616.198242 7042.000000
2617.109619 6778.000000
2618.020752 5712.000000
2618.931152 7150.000000
2619.841309 6671.000000
2620.750732 6168.000000
2621.659668 6577.000000
2622.567627 6216.000000
2623.475830 6748.000000
2624.383057 6583.000000
2625.289795 7017.000000
2626.195801 5978.000000
2627.101563 6656.000000
2628.006592 6473.000000
2628.911377 7823.000000
2629.815430 6463.000000
2630.718506 6400.000000
2631.621582 6396.000000
2632.523682 5635.000000
2633.425781 6695.000000
2634.327637 6986.000000
2635.227783 6645.000000
2636.128174 6408.000000
2637.027832 6446.000000
2637.927246 6043.000000
2638.825195 6849.000000
2639.723633 6783.000000
2640.621582 6408.000000
2641.518799 6124.000000
2642.414795 6167.000000
2643.310791 6879.000000
2644.206543 6042.000000
2645.101563 6456.000000
2645.996338 6632.000000
2646.889648 7110.000000
2647.782959 6258.000000
2648.676025 6709.000000
2649.568848 6493.000000
2650.459961 7436.000000
2651.351318 6397.000000
2652.242188 7593.000000
2653.132324 7327.000000
2654.022217 6582.000000
2654.910889 7253.000000
2655.799805 6619.000000
2656.688232 6599.000000
2657.575684 7279.000000
2658.462158 6400.000000
2659.349121 7150.000000
2660.235352 6823.000000
2661.121094 6786.000000
2662.005615 6414.000000
2662.890137 6360.000000
2663.774414 6193.000000
2664.657959 7082.000000
2665.541016 7800.000000
2666.423340 7220.000000
2667.305176 6201.000000
2668.186279 6611.000000
2669.067627 6037.000000
2669.947510 6532.000000
2670.827637 7373.000000
2671.707031 7179.000000
2672.586426 6391.000000
2673.465088 6123.000000
2674.342041 6381.000000
2675.219727 6827.000000
2676.096680 6378.000000
2676.972900 8071.000000
2677.848633 7187.000000
2678.723633 6254.000000
2679.598877 7783.000000
2680.473145 6916.000000
2681.346924 7275.000000
2682.219971 6923.000000
2683.092773 6213.000000
2683.965332 6066.000000
2684.837158 6908.000000
2685.708252 6515.000000
2686.579102 6875.000000
2687.449463 7091.000000
2688.319580 6664.000000
2689.187988 6301.000000
2690.057129 7331.000000
2690.925537 7102.000000
2691.793701 6682.000000
2692.661133 6901.000000
2693.527344 5894.000000
2694.394043 7106.000000
2695.259766 7373.000000
2696.125488 7200.000000
2696.989746 7862.000000
2697.854736 6600.000000
2698.718262 7248.000000
2699.582031 5794.000000
2700.444336 7497.000000
2701.307129 6740.000000
2702.168945 5909.000000
2703.030273 6881.000000
2703.891602 6648.000000
2704.751709 7419.000000
2705.611816 7316.000000
2706.471436 6579.000000
2707.330811 6795.000000
2708.188477 7192.000000
2709.046387 6895.000000
2709.904785 7300.000000
2710.761963 6674.000000
2711.618408 5931.000000
2712.474365 6845.000000
2713.330322 6063.000000
2714.185547 6961.000000
2715.040039 6152.000000
2715.894043 6810.000000
2716.748047 7371.000000
2717.601074 6167.000000
2718.454346 6639.000000
2719.305908 7716.000000
2720.157959 6740.000000
2721.009766 6278.000000
2721.860352 6478.000000
2722.710938 6447.000000
2723.561035 7164.000000
2724.410400 7036.000000
2725.259766 7044.000000
2726.107910 6644.000000
2726.955566 6551.000000
2727.803711 6972.000000
2728.650635 6836.000000
2729.498047 5580.000000
2730.343994 7460.000000
2731.189209 6947.000000
2732.034912 6445.000000
2732.879639 6956.000000
2733.724365 7425.000000
2734.567871 6893.000000
2735.411621 7822.000000
2736.254639 7102.000000
2737.097168 6036.000000
2737.938721 6250.000000
2738.780762 6734.000000
2739.621826 6872.000000
2740.462646 5793.000000
2741.303223 5905.000000
2742.142578 7777.000000
2742.981934 6828.000000
2743.821289 6877.000000
2744.659424 6810.000000
2745.497070 7855.000000
2746.334717 6290.000000
2747.171875 7129.000000
2748.008789 6179.000000
2748.845215 5969.000000
2749.680420 6610.000000
2750.515869 6284.000000
2751.350830 6266.000000
2752.185059 6246.000000
2753.019043 6842.000000
2753.852539 6841.000000
2754.686035 8020.000000
2755.518555 6752.000000
2756.350586 7276.000000
2757.182129 6845.000000
2758.013672 7099.000000
2758.844238 7225.000000
2759.675049 7208.000000
2760.504639 7196.000000
2761.334229 6627.000000
2762.163574 7238.000000
2762.992188 6698.000000
2763.820313 6784.000000
2764.647949 6808.000000
2765.475586 6575.000000
2766.302734 7868.000000
2767.129150 5849.000000
2767.955078 7549.000000
2768.780518 6840.000000
2769.605713 7771.000000
2770.430908 7076.000000
2771.254883 6771.000000
2772.078857 6526.000000
2772.902832 7693.000000
2773.725586 6566.000000
2774.548584 6976.000000
2775.370361 6898.000000
2776.192139 6985.000000
2777.013916 6495.000000
2777.834717 8032.000000
2778.654785 6497.000000
2779.475098 6925.000000
2780.294922 7283.000000
2781.114746 6442.000000
2781.932617 5921.000000
2782.751709 8034.000000
2783.569580 6511.000000
2784.387207 6794.000000
2785.204346 7145.000000
2786.020996 7231.000000
2786.837402 7213.000000
2787.653320 6315.000000
2788.468994 5925.000000
2789.283691 6430.000000
2790.098877 6999.000000
2790.913330 7138.000000
2791.727295 6610.000000
2792.541016 7398.000000
2793.353516 8704.000000
2794.166260 6951.000000
2794.978516 7457.000000
2795.790283 7233.000000
2796.601318 7325.000000
2797.413086 6517.000000
2798.223633 7254.000000
2799.034180 7083.000000
2799.843262 7371.000000
2800.653076 8190.000000
2801.462158 7838.000000
2802.270996 6681.000000
2803.079346 7151.000000
2803.886719 6126.000000
2804.694580 6496.000000
2805.501709 6949.000000
2806.308594 7018.000000
2807.114258 7090.000000
2807.920410 6657.000000
2808.725830 6492.000000
2809.531250 7219.000000
2810.335938 6177.000000
2811.139648 7661.000000
2811.943848 7462.000000
2812.747559 6316.000000
2813.551025 6154.000000
2814.353027 6322.000000
2815.155762 7270.000000
2815.957764 7828.000000
2816.759521 6188.000000
2817.560791 6520.000000
2818.361572 7213.000000
2819.161865 6524.000000
2819.962402 6760.000000
2820.761963 8088.000000
2821.561035 7205.000000
2822.360107 6434.000000
2823.158936 6880.000000
2823.957275 6348.000000
2824.754639 7069.000000
2825.552246 7370.000000
2826.349121 6665.000000
2827.146240 7336.000000
2827.942627 7960.000000
2828.738281 6998.000000
2829.533936 7344.000000
2830.329346 7586.000000
2831.124268 7408.000000
2831.918457 6569.000000
2832.712646 6857.000000
2833.506592 5685.000000
2834.300049 6796.000000
2835.092773 7112.000000
2835.885254 8022.000000
2836.677734 7607.000000
2837.469971 7531.000000
2838.261719 6364.000000
2839.052490 6836.000000
2839.843262 8844.000000
2840.634277 7391.000000
2841.424316 6246.000000
2842.213867 7653.000000
2843.003662 7096.000000
2843.792480 7393.000000
2844.581299 7791.000000
2845.370117 7717.000000
2846.157959 7463.000000
2846.945313 7184.000000
2847.732910 7482.000000
2848.520020 7290.000000
2849.306396 6635.000000
2850.092773 7451.000000
2850.878906 7237.000000
2851.664551 7529.000000
2852.449219 7193.000000
2853.234375 6883.000000
2854.019287 7486.000000
2854.803467 7146.000000
2855.587646 6894.000000
2856.370605 8318.000000
2857.153809 6830.000000
2857.936768 6757.000000
2858.719238 7797.000000
2859.501465 6225.000000
2860.283203 6601.000000
2861.064697 7648.000000
2861.846436 7475.000000
2862.627441 7662.000000
2863.407715 6618.000000
2864.187744 6759.000000
2864.967773 8204.000000
2865.747559 7502.000000
2866.526367 8152.000000
2867.305420 7681.000000
2868.083984 6767.000000
2868.862305 7028.000000
2869.640137 7221.000000
2870.417725 6929.000000
2871.195068 7462.000000
2871.972168 6947.000000
2872.748779 6433.000000
2873.524902 7495.000000
2874.301025 7146.000000
2875.076660 8380.000000
2875.852051 7258.000000
2876.626953 6651.000000
2877.401611 8046.000000
2878.176270 6676.000000
2878.950684 7821.000000
2879.724365 6828.000000
2880.497314 7151.000000
2881.270996 6757.000000
2882.043701 7633.000000
2882.816406 7926.000000
2883.588379 8161.000000
2884.360107 6202.000000
2885.132324 6787.000000
2885.903320 6890.000000
2886.673828 6180.000000
2887.444824 8303.000000
2888.215820 7345.000000
2888.986084 7986.000000
2889.755371 7601.000000
2890.524902 6900.000000
2891.294434 7226.000000
2892.063477 7327.000000
2892.832031 7916.000000
2893.600586 7655.000000
2894.368164 6936.000000
2895.136230 6553.000000
2895.903809 7427.000000
2896.671387 8373.000000
2897.437744 7454.000000
2898.205078 6501.000000
2898.971191 7194.000000
2899.737549 6918.000000
2900.502441 8211.000000
2901.267822 6972.000000
2902.033691 6467.000000
2902.798096 7761.000000
2903.562500 7665.000000
2904.327148 8451.000000
2905.090820 6640.000000
2905.855225 8454.000000
2906.618896 6703.000000
2907.381836 8330.000000
2908.144531 6531.000000
2908.907715 9141.000000
2909.670410 7001.000000
2910.431885 6834.000000
2911.193848 6834.000000
